Data from MSPlasma+Separation6_Subt14_10-14-23-753.txt Node
Date: Fri Jul 21 10:14:23 EDT 2017
User: Ender
Spectrometer: HR+D1039
Trigger mode: 0
Integration Time (sec): 6.430000E-3
Scans to average: 20
Electric dark correction enabled: true
Nonlinearity correction enabled: false
Boxcar width: 0
XAxis mode: Wavelengths
Number of Pixels in Spectrum: 2048
>>>>>Begin Spectral Data<<<<<
187.836	-1.67
188.309	-1.67
188.782	-1.67
189.255	2.53
189.728	0.73
190.201	-2.37
190.674	2.83
191.147	-1.77
191.619	1.63
192.092	0.38
192.565	2.93
193.038	-0.27
193.511	1.33
193.984	-0.42
194.456	0.93
194.929	-3.77
195.402	-2.62
195.874	-0.32
196.347	4.08
196.82	0.93
197.292	-1.02
197.765	0.43
198.237	-0.82
198.71	-5.32
199.182	1.38
199.655	5.28
200.127	1.93
200.6	-3.37
201.072	1.13
201.544	0.28
202.017	1.73
202.489	0.18
202.961	0.33
203.433	-4.77
203.906	-2.92
204.378	2.13
204.85	1.08
205.322	1.88
205.794	3.68
206.266	1.78
206.739	3.83
207.211	0.93
207.683	3.78
208.155	3.58
208.627	2.73
209.099	4.53
209.57	4.93
210.042	3.63
210.514	-2.07
210.986	2.33
211.458	-0.92
211.93	3.88
212.402	2.73
212.873	-1.32
213.345	-0.97
213.817	2.88
214.288	-0.02
214.76	2.38
215.232	-0.82
215.703	1.58
216.175	2.38
216.646	1.93
217.118	6.88
217.589	3.63
218.061	5.63
218.532	1.48
219.004	4.88
219.475	5.73
219.946	-0.92
220.418	6.53
220.889	6.18
221.36	8.03
221.832	5.83
222.303	4.28
222.774	4.28
223.245	-0.32
223.717	0.48
224.188	3.68
224.659	0.18
225.13	1.33
225.601	5.83
226.072	6.58
226.543	6.03
227.014	5.23
227.485	7.73
227.956	10.58
228.427	10.28
228.898	9.08
229.369	10.03
229.839	7.43
230.31	10.03
230.781	12.78
231.252	10.73
231.722	11.13
232.193	10.13
232.664	9.58
233.135	10.68
233.605	13.98
234.076	15.98
234.546	12.13
235.017	14.13
235.487	12.03
235.958	13.43
236.428	15.88
236.899	12.38
237.369	21.33
237.84	16.53
238.31	16.28
238.78	12.38
239.251	14.63
239.721	14.63
240.191	14.58
240.662	18.13
241.132	14.28
241.602	23.13
242.072	20.78
242.542	16.83
243.013	17.98
243.483	22.68
243.953	16.58
244.423	23.23
244.893	19.63
245.363	24.98
245.833	19.58
246.303	21.68
246.773	26.23
247.243	20.68
247.712	26.03
248.182	29.18
248.652	30.03
249.122	26.53
249.592	30.18
250.061	25.48
250.531	25.38
251.001	29.18
251.471	33.58
251.94	34.13
252.41	31.03
252.879	29.38
253.349	38.08
253.818	30.43
254.288	35.63
254.757	31.93
255.227	34.58
255.696	31.78
256.166	36.88
256.635	35.38
257.105	33.88
257.574	34.58
258.043	38.38
258.513	40.58
258.982	37.23
259.451	40.73
259.92	39.73
260.389	35.73
260.859	39.18
261.328	41.43
261.797	36.18
262.266	44.43
262.735	42.78
263.204	41.93
263.673	45.38
264.142	41.18
264.611	45.53
265.08	44.33
265.549	43.23
266.018	47.68
266.487	48.03
266.955	48.13
267.424	49.58
267.893	50.63
268.362	49.28
268.83	49.63
269.299	50.78
269.768	51.58
270.236	53.43
270.705	55.63
271.174	52.58
271.642	53.68
272.111	56.93
272.579	55.08
273.048	58.68
273.516	58.28
273.985	56.83
274.453	58.88
274.922	56.63
275.39	56.88
275.858	59.63
276.327	58.53
276.795	60.73
277.263	67.53
277.731	63.28
278.2	67.13
278.668	65.78
279.136	68.13
279.604	67.33
280.072	70.78
280.54	66.23
281.008	73.53
281.477	70.98
281.945	71.68
282.413	69.18
282.881	72.08
283.348	69.98
283.816	74.18
284.284	77.58
284.752	72.93
285.22	77.68
285.688	75.58
286.156	78.13
286.623	77.33
287.091	77.93
287.559	84.03
288.026	80.58
288.494	81.63
288.962	82.13
289.429	83.58
289.897	82.48
290.364	85.18
290.832	82.73
291.3	83.13
291.767	88.68
292.234	88.18
292.702	89.83
293.169	90.53
293.637	89.28
294.104	94.93
294.571	97.33
295.039	94.03
295.506	90.48
295.973	96.53
296.44	89.78
296.908	99.03
297.375	96.23
297.842	100.83
298.309	98.48
298.776	100.23
299.243	105.28
299.71	103.03
300.177	100.08
300.644	103.43
301.111	105.28
301.578	107.43
302.045	107.13
302.512	105.28
302.979	114.63
303.446	116.13
303.913	112.23
304.379	119.98
304.846	122.58
305.313	119.63
305.78	124.18
306.246	123.83
306.713	126.83
307.18	127.58
307.646	128.28
308.113	124.78
308.579	135.43
309.046	137.13
309.512	136.63
309.979	131.93
310.445	137.68
310.912	138.98
311.378	141.13
311.845	141.28
312.311	140.08
312.777	141.63
313.244	148.03
313.71	148.58
314.176	152.33
314.642	152.93
315.109	147.23
315.575	148.23
316.041	154.03
316.507	153.63
316.973	164.68
317.439	158.38
317.905	163.93
318.371	162.83
318.837	159.23
319.303	161.38
319.769	157.38
320.235	165.43
320.701	169.53
321.167	165.93
321.633	172.28
322.099	164.23
322.564	168.03
323.03	169.93
323.496	170.68
323.962	174.13
324.427	178.78
324.893	177.33
325.359	176.63
325.824	179.73
326.29	189.63
326.755	181.13
327.221	186.13
327.686	193.03
328.152	194.13
328.617	195.68
329.083	202.03
329.548	205.48
330.014	203.33
330.479	202.43
330.944	207.18
331.41	213.33
331.875	201.13
332.34	200.18
332.805	209.58
333.271	205.93
333.736	212.13
334.201	212.68
334.666	231.28
335.131	227.53
335.596	225.73
336.061	224.03
336.526	221.23
336.991	217.78
337.456	217.58
337.921	216.33
338.386	216.33
338.851	209.93
339.316	215.98
339.781	214.68
340.246	224.38
340.711	220.43
341.175	230.78
341.64	236.68
342.105	237.63
342.569	242.33
343.034	239.73
343.499	244.93
343.963	250.78
344.428	254.13
344.893	253.03
345.357	263.03
345.822	258.13
346.286	260.33
346.751	271.28
347.215	271.63
347.679	280.53
348.144	296.43
348.608	295.53
349.073	297.18
349.537	299.93
350.001	303.43
350.465	302.48
350.93	304.93
351.394	312.68
351.858	309.88
352.322	314.48
352.786	313.73
353.25	314.08
353.715	322.98
354.179	337.58
354.643	340.33
355.107	351.78
355.571	339.88
356.035	338.63
356.498	334.73
356.962	334.93
357.426	337.03
357.89	334.93
358.354	330.23
358.818	330.03
359.281	332.78
359.745	333.18
360.209	332.73
360.673	332.48
361.136	337.83
361.6	335.88
362.064	344.68
362.527	348.48
362.991	351.53
363.454	344.53
363.918	360.88
364.381	356.83
364.845	358.33
365.308	358.93
365.772	359.73
366.235	361.33
366.698	365.03
367.162	359.08
367.625	368.43
368.088	375.33
368.552	371.13
369.015	375.58
369.478	374.48
369.941	369.63
370.404	382.48
370.867	374.68
371.331	387.38
371.794	394.23
372.257	393.23
372.72	392.78
373.183	399.88
373.646	397.33
374.109	396.63
374.572	399.63
375.035	401.88
375.497	408.93
375.96	412.33
376.423	421.53
376.886	423.33
377.349	434.93
377.811	434.83
378.274	436.28
378.737	431.98
379.199	434.43
379.662	437.83
380.125	444.13
380.587	447.33
381.05	455.23
381.512	464.78
381.975	471.13
382.437	477.78
382.9	482.43
383.362	478.98
383.825	488.78
384.287	488.38
384.75	483.68
385.212	490.18
385.674	493.78
386.136	500.73
386.599	487.98
387.061	489.53
387.523	494.63
387.985	494.78
388.447	510.98
388.91	503.88
389.372	508.88
389.834	507.43
390.296	502.28
390.758	503.68
391.22	504.68
391.682	512.13
392.144	511.43
392.606	509.98
393.068	526.18
393.529	553.88
393.991	561.13
394.453	534.38
394.915	522.73
395.377	506.08
395.838	523.78
396.3	520.53
396.762	530.43
397.224	529.48
397.685	525.58
398.147	528.48
398.608	540.98
399.07	537.73
399.531	541.88
399.993	559.53
400.454	567.78
400.916	567.53
401.377	575.03
401.839	581.73
402.3	576.98
402.762	606.38
403.223	650.03
403.684	646.48
404.145	619.98
404.607	611.23
405.068	599.13
405.529	611.98
405.99	623.83
406.451	632.48
406.913	619.08
407.374	625.93
407.835	625.28
408.296	638.93
408.757	639.33
409.218	652.53
409.679	662.83
410.14	664.08
410.601	683.58
411.062	683.18
411.522	686.63
411.983	688.38
412.444	695.98
412.905	703.78
413.366	729.33
413.826	756.23
414.287	851.23
414.748	1014.83
415.208	1039.93
415.669	863.23
416.13	788.63
416.59	780.08
417.051	803.98
417.511	834.68
417.972	897.88
418.432	968.02
418.893	1067.83
419.353	1018.78
419.814	799.13
420.274	712.98
420.734	706.63
421.195	723.93
421.655	714.78
422.115	735.38
422.576	728.48
423.036	735.73
423.496	763.58
423.956	791.43
424.416	842.33
424.876	939.88
425.336	933.33
425.797	921.08
426.257	910.88
426.717	873.03
427.177	812.08
427.637	817.68
428.097	852.38
428.556	879.08
429.016	935.67
429.476	948.93
429.936	930.73
430.396	931.48
430.856	950.38
431.315	974.88
431.775	1038.13
432.235	1116.73
432.694	1131.58
433.154	1071.33
433.614	1043.08
434.073	1011.73
434.533	914.23
434.993	875.68
435.452	887.88
435.912	861.73
436.371	863.43
436.83	845.53
437.29	834.13
437.749	804.88
438.209	806.28
438.668	813.63
439.127	835.08
439.587	808.18
440.046	787.03
440.505	807.18
440.964	813.58
441.424	847.43
441.883	858.08
442.342	813.28
442.801	778.58
443.26	785.63
443.719	779.78
444.178	775.48
444.637	788.93
445.096	797.93
445.555	795.33
446.014	798.33
446.473	787.03
446.932	787.03
447.391	801.28
447.849	812.98
448.308	810.88
448.767	813.73
449.226	822.73
449.685	828.23
450.143	869.88
450.602	873.78
451.061	820.23
451.519	826.73
451.978	813.43
452.436	810.83
452.895	820.58
453.353	818.53
453.812	805.48
454.27	801.38
454.729	811.38
455.187	818.88
455.646	819.53
456.104	823.38
456.562	832.43
457.021	841.33
457.479	817.68
457.937	838.33
458.395	866.18
458.854	848.08
459.312	839.33
459.77	849.78
460.228	859.83
460.686	873.03
461.144	872.48
461.602	864.93
462.06	866.48
462.518	882.98
462.976	879.18
463.434	894.08
463.892	900.78
464.35	913.63
464.808	934.08
465.266	947.03
465.724	947.03
466.181	959.48
466.639	957.43
467.097	988.78
467.555	1023.33
468.012	1020.13
468.47	1028.08
468.928	1069.18
469.385	1083.43
469.843	1107.58
470.3	1097.48
470.758	1132.18
471.215	1141.18
471.673	1162.42
472.13	1200.23
472.588	1230.53
473.045	1214.77
473.503	1243.58
473.96	1299.68
474.417	1308.53
474.875	1361.03
475.332	1410.98
475.789	1433.17
476.246	1479.03
476.704	1537.72
477.161	1583.28
477.618	1632.38
478.075	1709.33
478.532	1841.53
478.989	1986.23
479.446	2186.68
479.903	2290.62
480.36	2496.97
480.817	2627.93
481.274	2789.93
481.731	3049.18
482.188	3271.07
482.645	3495.18
483.102	3704.57
483.558	3970.18
484.015	4129.93
484.472	4100.38
484.929	3986.88
485.385	3827.63
485.842	3738.17
486.299	3604.52
486.755	3316.43
487.212	3000.32
487.668	2702.88
488.125	2514.32
488.582	2332.82
489.038	2254.18
489.494	2177.78
489.951	2117.28
490.407	2051.38
490.864	2023.13
491.32	1975.68
491.776	1958.53
492.233	1962.73
492.689	1931.03
493.145	1893.92
493.602	1879.97
494.058	1889.28
494.514	1894.02
494.97	1894.13
495.426	1923.23
495.882	1924.23
496.338	1909.67
496.794	1934.92
497.251	1932.47
497.707	1952.17
498.163	1949.17
498.618	1956.47
499.074	1950.03
499.53	1958.68
499.986	1964.22
500.442	1956.38
500.898	1934.68
501.354	1962.23
501.809	1957.08
502.265	1952.78
502.721	1964.43
503.177	1960.18
503.632	1976.07
504.088	1993.67
504.543	2005.88
504.999	2034.23
505.455	2014.78
505.91	2008.12
506.366	1998.73
506.821	2019.68
507.277	2007.03
507.732	2011.18
508.187	2004.88
508.643	2024.88
509.098	2025.08
509.553	2055.07
510.009	2075.57
510.464	2109.22
510.919	2129.27
511.375	2149.68
511.83	2160.93
512.285	2193.73
512.74	2248.03
513.195	2284.58
513.65	2312.78
514.105	2341.73
514.56	2348.28
515.015	2385.72
515.47	2387.53
515.925	2355.28
516.38	2369.93
516.835	2377.12
517.29	2357.98
517.745	2364.93
518.2	2330.32
518.655	2288.23
519.109	2264.12
519.564	2228.93
520.019	2213.78
520.474	2182.62
520.928	2173.03
521.383	2160.62
521.838	2149.72
522.292	2144.38
522.747	2122.68
523.201	2126.08
523.656	2091.32
524.11	2092.73
524.565	2073.53
525.019	2085.77
525.474	2081.82
525.928	2078.12
526.382	2058.78
526.837	2068.18
527.291	2088.02
527.745	2068.68
528.2	2072.52
528.654	2055.88
529.108	2050.08
529.562	2054.57
530.016	2063.28
530.47	2059.78
530.925	2045.07
531.379	2050.28
531.833	2080.57
532.287	2071.48
532.741	2050.88
533.195	2052.68
533.649	2058.72
534.103	2070.32
534.556	2051.57
535.01	2063.53
535.464	2041.18
535.918	2050.28
536.372	2074.12
536.826	2070.32
537.279	2039.32
537.733	2050.57
538.187	2060.12
538.64	2046.38
539.094	2070.08
539.548	2088.08
540.001	2089.98
540.455	2095.88
540.908	2109.07
541.362	2135.82
541.815	2152.47
542.269	2195.68
542.722	2177.48
543.175	2213.48
543.629	2218.97
544.082	2229.73
544.536	2253.53
544.989	2257.32
545.442	2274.93
545.895	2270.38
546.349	2264.18
546.802	2275.32
547.255	2266.23
547.708	2288.57
548.161	2314.38
548.614	2298.68
549.067	2324.03
549.52	2301.68
549.973	2277.47
550.426	2276.68
550.879	2277.88
551.332	2273.38
551.785	2290.07
552.238	2319.47
552.691	2298.57
553.144	2346.73
553.596	2381.57
554.049	2407.22
554.502	2440.62
554.955	2485.78
555.407	2528.68
555.86	2495.88
556.313	2473.98
556.765	2450.38
557.218	2425.47
557.67	2425.03
558.123	2381.43
558.576	2379.33
559.028	2371.43
559.48	2380.28
559.933	2379.62
560.385	2306.02
560.838	2239.58
561.29	2179.73
561.742	2179.12
562.195	2112.08
562.647	2100.43
563.099	2091.28
563.551	2076.53
564.004	2098.73
564.456	2079.03
564.908	2036.13
565.36	1980.93
565.812	1949.18
566.264	1926.12
566.716	1908.43
567.168	1881.62
567.62	1877.12
568.072	1868.62
568.524	1852.67
568.976	1852.88
569.428	1834.22
569.88	1834.83
570.332	1837.93
570.784	1836.62
571.235	1838.18
571.687	1856.33
572.139	1854.33
572.59	1867.58
573.042	1874.48
573.494	1874.03
573.945	1848.33
574.397	1821.28
574.849	1813.17
575.3	1812.67
575.752	1783.22
576.203	1771.97
576.655	1771.08
577.106	1753.22
577.557	1738.58
578.009	1731.97
578.46	1745.23
578.912	1724.62
579.363	1736.83
579.814	1727.88
580.265	1736.88
580.717	1727.98
581.168	1726.72
581.619	1734.72
582.07	1754.32
582.521	1750.48
582.972	1738.22
583.423	1752.38
583.875	1748.38
584.326	1765.03
584.777	1796.23
585.227	1819.43
585.678	1838.18
586.129	1850.03
586.58	1872.68
587.031	1896.48
587.482	1951.73
587.933	1966.33
588.384	1972.47
588.834	1940.97
589.285	1955.12
589.736	1942.33
590.186	1956.43
590.637	1933.12
591.088	1901.17
591.538	1855.13
591.989	1826.62
592.439	1813.68
592.89	1781.97
593.34	1773.97
593.791	1776.67
594.241	1755.48
594.692	1753.68
595.142	1756.03
595.593	1744.52
596.043	1760.52
596.493	1777.38
596.943	1770.97
597.394	1813.63
597.844	1843.68
598.294	1893.13
598.744	1951.67
599.195	2045.83
599.645	2155.03
600.095	2257.43
600.545	2345.62
600.995	2448.68
601.445	2531.32
601.895	2654.82
602.345	2739.33
602.795	2696.48
603.245	2596.33
603.695	2468.08
604.145	2335.68
604.594	2231.38
605.044	2103.18
605.494	1982.68
605.944	1873.43
606.393	1830.22
606.843	1799.53
607.293	1793.88
607.743	1791.58
608.192	1784.28
608.642	1786.28
609.091	1784.32
609.541	1784.58
609.99	1799.07
610.44	1746.03
610.889	1736.33
611.339	1713.42
611.788	1689.03
612.238	1698.27
612.687	1710.98
613.136	1706.43
613.586	1731.13
614.035	1728.18
614.484	1740.17
614.933	1734.63
615.383	1712.72
615.832	1669.78
616.281	1650.08
616.73	1599.28
617.179	1566.93
617.628	1536.58
618.077	1521.93
618.526	1492.52
618.975	1494.17
619.424	1460.07
619.873	1459.43
620.322	1452.13
620.771	1444.88
621.22	1422.92
621.669	1398.88
622.118	1394.72
622.567	1369.97
623.015	1350.62
623.464	1347.92
623.913	1322.38
624.361	1332.03
624.81	1324.38
625.259	1333.48
625.707	1317.18
626.156	1323.48
626.604	1343.38
627.053	1349.93
627.501	1345.32
627.95	1352.23
628.398	1370.67
628.847	1347.22
629.295	1344.53
629.744	1340.03
630.192	1313.57
630.64	1289.33
631.089	1283.13
631.537	1251.28
631.985	1236.63
632.433	1244.33
632.881	1226.38
633.33	1228.97
633.778	1227.47
634.226	1235.97
634.674	1251.17
635.122	1259.83
635.57	1272.92
636.018	1290.12
636.466	1298.68
636.914	1289.42
637.362	1318.83
637.81	1344.48
638.258	1383.62
638.705	1396.97
639.153	1429.88
639.601	1448.72
640.049	1479.08
640.497	1513.78
640.944	1551.13
641.392	1497.82
641.84	1425.88
642.287	1359.53
642.735	1326.93
643.182	1318.88
643.63	1316.58
644.078	1315.78
644.525	1343.13
644.973	1386.62
645.42	1415.67
645.867	1442.17
646.315	1470.92
646.762	1534.12
647.21	1582.93
647.657	1654.83
648.104	1708.78
648.551	1764.62
648.999	1896.23
649.446	2069.93
649.893	2320.03
650.34	2703.27
650.787	3334.03
651.234	4273.68
651.682	5870.18
652.129	8274.83
652.576	11671.98
653.023	15233.27
653.47	15537.33
653.917	15537.38
654.363	15537.28
654.81	15534.28
655.257	15534.93
655.704	15103.58
656.151	9225.23
656.598	6079.43
657.044	4336.23
657.491	3404.82
657.938	2763.62
658.385	2340.82
658.831	2063.62
659.278	1857.72
659.724	1701.92
660.171	1589.42
660.618	1469.17
661.064	1394.82
661.511	1351.38
661.957	1304.68
662.404	1281.12
662.85	1265.18
663.296	1252.18
663.743	1223.17
664.189	1213.97
664.635	1194.68
665.082	1165.43
665.528	1147.08
665.974	1114.88
666.42	1098.68
666.867	1087.98
667.313	1035.88
667.759	1027.93
668.205	1016.48
668.651	1016.33
669.097	1020.13
669.543	1028.88
669.989	1042.28
670.435	1035.42
670.881	1046.83
671.327	1091.33
671.773	1160.18
672.219	1238.88
672.665	1313.72
673.11	1362.13
673.556	1380.98
674.002	1406.98
674.448	1427.93
674.893	1237.58
675.339	1077.68
675.785	982.88
676.23	939.18
676.676	898.08
677.122	874.13
677.567	857.78
678.013	823.88
678.458	823.78
678.904	814.78
679.349	798.33
679.794	810.88
680.24	807.18
680.685	793.53
681.131	787.83
681.576	799.38
682.021	807.18
682.466	809.23
682.912	812.73
683.357	855.98
683.802	926.38
684.247	1006.67
684.692	1070.62
685.137	1125.28
685.583	1140.58
686.028	1192.97
686.473	1138.38
686.918	989.78
687.363	916.53
687.807	866.23
688.252	822.93
688.697	793.53
689.142	775.63
689.587	776.13
690.032	788.63
690.477	815.73
690.921	854.28
691.366	903.13
691.811	945.88
692.255	1017.18
692.7	1220.83
693.145	1762.62
693.589	2678.62
694.034	3184.27
694.478	3404.72
694.923	3113.32
695.367	4415.08
695.812	2727.43
696.256	1162.33
696.701	851.73
697.145	782.73
697.59	753.08
698.034	745.38
698.478	735.53
698.922	751.18
699.367	764.58
699.811	795.13
700.255	856.98
700.699	935.78
701.143	1010.38
701.588	1069.08
702.032	1124.33
702.476	1161.78
702.92	1245.28
703.364	1614.27
703.808	2451.82
704.252	3055.68
704.696	3229.93
705.14	3056.68
705.584	4205.68
706.027	2351.03
706.471	1185.18
706.915	888.03
707.359	787.43
707.803	737.23
708.246	708.68
708.69	707.13
709.134	695.93
709.577	689.43
710.021	702.93
710.465	699.53
710.908	691.03
711.352	723.28
711.795	794.08
712.239	850.63
712.682	875.53
713.126	864.03
713.569	951.18
714.012	793.48
714.456	693.08
714.899	648.03
715.342	622.68
715.786	594.33
716.229	582.73
716.672	568.13
717.115	572.68
717.558	574.13
718.002	592.93
718.445	617.73
718.888	646.38
719.331	656.83
719.774	674.98
720.217	661.53
720.66	627.28
721.103	597.68
721.546	565.48
721.989	553.48
722.432	547.73
722.874	535.23
723.317	547.08
723.76	594.88
724.203	723.68
724.645	963.83
725.088	1132.67
725.531	1106.08
725.974	1224.53
726.416	1095.33
726.859	681.03
727.301	557.93
727.744	537.13
728.187	534.23
728.629	546.58
729.071	576.63
729.514	601.73
729.956	619.53
730.399	638.63
730.841	635.23
731.283	626.73
731.726	612.73
732.168	618.68
732.61	650.43
733.053	700.28
733.495	763.38
733.937	850.53
734.379	994.93
734.821	1278.53
735.263	2023.88
735.705	3626.72
736.148	5310.73
736.59	5333.08
737.032	5801.53
737.474	4811.08
737.916	1859.08
738.357	978.08
738.799	753.18
739.241	697.43
739.683	710.38
740.125	731.03
740.567	735.73
741.008	779.33
741.45	823.83
741.892	869.53
742.334	875.43
742.775	865.48
743.217	838.28
743.658	700.73
744.1	727.43
744.542	851.18
744.983	875.88
745.425	922.18
