Data from MSPlasma+Separation6_Subt14_10-13-16-702.txt Node
Date: Fri Jul 21 10:13:16 EDT 2017
User: Ender
Spectrometer: HR+D1039
Trigger mode: 0
Integration Time (sec): 6.430000E-3
Scans to average: 20
Electric dark correction enabled: true
Nonlinearity correction enabled: false
Boxcar width: 0
XAxis mode: Wavelengths
Number of Pixels in Spectrum: 2048
>>>>>Begin Spectral Data<<<<<
187.836	0.78
188.309	0.78
188.782	0.78
189.255	3.83
189.728	-0.62
190.201	2.78
190.674	-0.92
191.147	1.58
191.619	-4.47
192.092	-0.87
192.565	-0.12
193.038	2.43
193.511	-1.12
193.984	1.43
194.456	1.13
194.929	-0.27
195.402	-3.17
195.874	-2.47
196.347	4.58
196.82	-0.47
197.292	-3.47
197.765	-1.87
198.237	-3.67
198.71	-3.52
199.182	2.68
199.655	1.93
200.127	3.93
200.6	-1.07
201.072	2.58
201.544	0.58
202.017	0.28
202.489	2.08
202.961	2.93
203.433	-2.77
203.906	-2.07
204.378	2.93
204.85	2.33
205.322	1.83
205.794	9.63
206.266	1.98
206.739	2.03
207.211	1.58
207.683	3.28
208.155	7.58
208.627	-0.42
209.099	10.23
209.57	6.08
210.042	4.03
210.514	7.18
210.986	0.98
211.458	1.53
211.93	3.18
212.402	2.23
212.873	2.13
213.345	2.88
213.817	6.38
214.288	-0.82
214.76	5.18
215.232	2.43
215.703	4.98
216.175	5.88
216.646	7.78
217.118	5.93
217.589	3.28
218.061	5.88
218.532	2.13
219.004	7.58
219.475	7.73
219.946	8.58
220.418	9.68
220.889	5.43
221.36	8.38
221.832	6.13
222.303	6.18
222.774	10.53
223.245	8.23
223.717	7.08
224.188	6.93
224.659	6.98
225.13	6.68
225.601	6.73
226.072	11.03
226.543	10.08
227.014	11.08
227.485	14.53
227.956	15.03
228.427	18.38
228.898	15.43
229.369	12.03
229.839	13.38
230.31	16.13
230.781	14.73
231.252	20.53
231.722	14.73
232.193	14.78
232.664	19.23
233.135	16.68
233.605	23.58
234.076	21.88
234.546	18.68
235.017	20.58
235.487	22.48
235.958	19.98
236.428	27.18
236.899	18.33
237.369	23.43
237.84	22.38
238.31	25.28
238.78	20.13
239.251	24.18
239.721	20.78
240.191	22.93
240.662	23.33
241.132	25.18
241.602	25.58
242.072	28.78
242.542	26.08
243.013	27.98
243.483	34.68
243.953	30.23
244.423	34.18
244.893	26.93
245.363	34.98
245.833	33.08
246.303	27.48
246.773	38.08
247.243	35.78
247.712	38.78
248.182	35.98
248.652	40.73
249.122	39.48
249.592	44.58
250.061	38.48
250.531	41.48
251.001	42.63
251.471	38.53
251.94	43.78
252.41	40.68
252.879	44.68
253.349	49.98
253.818	44.08
254.288	50.43
254.757	47.28
255.227	47.73
255.696	49.48
256.166	53.08
256.635	55.33
257.105	49.68
257.574	52.53
258.043	55.73
258.513	59.63
258.982	56.68
259.451	57.58
259.92	55.08
260.389	58.43
260.859	54.98
261.328	60.28
261.797	62.88
262.266	68.83
262.735	69.88
263.204	61.43
263.673	71.88
264.142	60.13
264.611	67.98
265.08	66.58
265.549	67.08
266.018	66.48
266.487	73.53
266.955	69.08
267.424	79.48
267.893	76.23
268.362	75.38
268.83	75.18
269.299	75.83
269.768	78.03
270.236	76.18
270.705	83.33
271.174	82.98
271.642	79.83
272.111	85.53
272.579	84.53
273.048	81.93
273.516	88.03
273.985	85.78
274.453	82.88
274.922	89.68
275.39	81.73
275.858	92.43
276.327	88.78
276.795	90.53
277.263	92.48
277.731	95.18
278.2	97.13
278.668	99.08
279.136	104.03
279.604	98.98
280.072	98.08
280.54	94.63
281.008	106.68
281.477	106.88
281.945	101.58
282.413	102.73
282.881	110.93
283.348	106.43
283.816	107.53
284.284	111.88
284.752	112.53
285.22	117.53
285.688	109.73
286.156	119.93
286.623	120.58
287.091	119.88
287.559	123.28
288.026	119.13
288.494	124.18
288.962	123.68
289.429	125.68
289.897	121.08
290.364	118.28
290.832	126.43
291.3	127.58
291.767	126.93
292.234	134.93
292.702	128.43
293.169	133.03
293.637	133.78
294.104	136.28
294.571	140.13
295.039	141.73
295.506	134.03
295.973	133.78
296.44	137.38
296.908	146.43
297.375	145.48
297.842	146.28
298.309	145.03
298.776	147.68
299.243	155.48
299.71	153.68
300.177	147.98
300.644	153.58
301.111	159.28
301.578	159.33
302.045	153.93
302.512	161.98
302.979	167.03
303.446	169.18
303.913	173.08
304.379	175.23
304.846	173.48
305.313	184.43
305.78	186.48
306.246	181.23
306.713	184.68
307.18	181.83
307.646	190.08
308.113	193.53
308.579	194.28
309.046	199.13
309.512	192.28
309.979	197.38
310.445	200.03
310.912	205.28
311.378	210.03
311.845	211.93
312.311	209.38
312.777	213.13
313.244	217.03
313.71	218.63
314.176	226.93
314.642	226.83
315.109	228.03
315.575	218.93
316.041	222.68
316.507	229.63
316.973	237.13
317.439	230.78
317.905	240.83
318.371	231.88
318.837	239.08
319.303	242.48
319.769	240.53
320.235	253.23
320.701	247.63
321.167	245.08
321.633	253.68
322.099	252.23
322.564	259.23
323.03	254.93
323.496	254.98
323.962	266.43
324.427	268.08
324.893	265.73
325.359	269.63
325.824	268.18
326.29	279.18
326.755	271.53
327.221	278.78
327.686	288.03
328.152	286.03
328.617	291.13
329.083	295.58
329.548	293.33
330.014	305.53
330.479	307.93
330.944	305.68
331.41	314.08
331.875	304.48
332.34	304.78
332.805	309.73
333.271	313.58
333.736	311.38
334.201	313.83
334.666	343.48
335.131	347.73
335.596	338.13
336.061	331.88
336.526	328.43
336.991	319.88
337.456	311.93
337.921	319.13
338.386	322.68
338.851	326.28
339.316	323.83
339.781	319.43
340.246	327.18
340.711	334.28
341.175	341.38
341.64	349.13
342.105	355.58
342.569	368.78
343.034	365.03
343.499	370.78
343.963	372.28
344.428	374.83
344.893	377.53
345.357	383.53
345.822	385.33
346.286	394.08
346.751	402.88
347.215	402.78
347.679	415.53
348.144	436.83
348.608	441.13
349.073	440.63
349.537	449.33
350.001	454.18
350.465	455.48
350.93	453.03
351.394	454.78
351.858	461.83
352.322	464.33
352.786	467.08
353.25	466.88
353.715	474.68
354.179	490.83
354.643	508.13
355.107	516.43
355.571	505.73
356.035	502.08
356.498	500.83
356.962	498.18
357.426	500.13
357.89	506.23
358.354	494.93
358.818	490.03
359.281	496.03
359.745	498.28
360.209	495.13
360.673	494.98
361.136	496.18
361.6	505.88
362.064	519.08
362.527	523.93
362.991	526.13
363.454	516.08
363.918	530.08
364.381	528.73
364.845	538.83
365.308	539.58
365.772	546.68
366.235	542.18
366.698	536.28
367.162	542.38
367.625	546.33
368.088	563.23
368.552	554.48
369.015	564.38
369.478	560.73
369.941	567.63
370.404	567.08
370.867	561.78
371.331	580.88
371.794	594.33
372.257	594.18
372.72	591.33
373.183	598.48
373.646	597.63
374.109	596.03
374.572	599.58
375.035	608.58
375.497	610.98
375.96	610.98
376.423	629.78
376.886	640.33
377.349	641.93
377.811	644.03
378.274	649.88
378.737	645.33
379.199	657.73
379.662	657.88
380.125	660.23
380.587	672.68
381.05	680.23
381.512	683.08
381.975	702.58
382.437	717.93
382.9	710.03
383.362	714.38
383.825	719.98
384.287	727.08
384.75	722.98
385.212	729.58
385.674	729.58
386.136	742.58
386.599	736.93
387.061	734.63
387.523	743.73
387.985	747.93
388.447	755.08
388.91	751.33
389.372	760.88
389.834	758.93
390.296	748.08
390.758	766.38
391.22	757.93
391.682	763.08
392.144	771.28
392.606	775.18
393.068	790.93
393.529	832.98
393.991	841.78
394.453	804.53
394.915	781.33
395.377	769.28
395.838	778.93
396.3	782.43
396.762	794.28
397.224	786.03
397.685	787.88
398.147	794.93
398.608	805.08
399.07	816.63
399.531	815.08
399.993	837.93
400.454	853.33
400.916	836.98
401.377	857.23
401.839	865.13
402.3	864.78
402.762	904.63
403.223	965.93
403.684	968.03
404.145	940.38
404.607	921.43
405.068	913.53
405.529	925.78
405.99	943.88
406.451	945.98
406.913	945.08
407.374	942.48
407.835	940.03
408.296	964.58
408.757	966.18
409.218	993.63
409.679	1004.98
410.14	1002.73
410.601	1017.33
411.062	1021.03
411.522	1017.28
411.983	1014.53
412.444	1026.78
412.905	1033.53
413.366	1068.68
413.826	1108.53
414.287	1244.33
414.748	1476.78
415.208	1500.38
415.669	1262.68
416.13	1149.13
416.59	1125.68
417.051	1149.98
417.511	1208.33
417.972	1306.83
418.432	1390.38
418.893	1540.38
419.353	1485.58
419.814	1152.73
420.274	1030.08
420.734	1009.88
421.195	1055.53
421.655	1042.43
422.115	1064.58
422.576	1051.53
423.036	1072.98
423.496	1112.38
423.956	1155.18
424.416	1235.43
424.876	1381.03
425.336	1385.53
425.797	1372.58
426.257	1369.18
426.717	1304.63
427.177	1230.93
427.637	1254.63
428.097	1299.83
428.556	1355.58
429.016	1439.23
429.476	1476.73
429.936	1451.08
430.396	1468.23
430.856	1514.83
431.315	1542.03
431.775	1655.68
432.235	1761.08
432.694	1786.58
433.154	1695.68
433.614	1659.08
434.073	1601.03
434.533	1441.03
434.993	1380.63
435.452	1368.43
435.912	1333.83
436.371	1320.43
436.83	1280.93
437.29	1259.78
437.749	1209.28
438.209	1197.03
438.668	1216.13
439.127	1222.33
439.587	1188.78
440.046	1155.48
440.505	1186.73
440.964	1186.98
441.424	1230.68
441.883	1252.48
442.342	1175.28
442.801	1131.78
443.26	1128.83
443.719	1125.88
444.178	1114.68
444.637	1137.43
445.096	1139.53
445.555	1148.73
446.014	1145.03
446.473	1125.48
446.932	1139.58
447.391	1148.03
447.849	1165.18
448.308	1150.28
448.767	1157.83
449.226	1165.78
449.685	1192.18
450.143	1237.53
450.602	1231.93
451.061	1171.88
451.519	1178.08
451.978	1153.23
452.436	1146.28
452.895	1158.03
453.353	1160.88
453.812	1153.23
454.27	1148.28
454.729	1154.43
455.187	1163.48
455.646	1173.38
456.104	1168.58
456.562	1185.18
457.021	1201.83
457.479	1158.28
457.937	1192.18
458.395	1215.68
458.854	1210.63
459.312	1189.18
459.77	1208.63
460.228	1219.43
460.686	1232.28
461.144	1239.13
461.602	1218.08
462.06	1229.68
462.518	1266.48
462.976	1260.23
463.434	1268.18
463.892	1280.03
464.35	1295.23
464.808	1322.58
465.266	1337.53
465.724	1353.68
466.181	1361.43
466.639	1354.03
467.097	1406.83
467.555	1458.93
468.012	1451.83
468.47	1470.93
468.928	1518.53
469.385	1553.58
469.843	1576.23
470.3	1562.18
470.758	1612.78
471.215	1641.23
471.673	1677.73
472.13	1731.88
472.588	1775.43
473.045	1765.88
473.503	1809.83
473.96	1886.43
474.417	1920.48
474.875	1995.73
475.332	2093.38
475.789	2136.23
476.246	2204.98
476.704	2307.78
477.161	2409.33
477.618	2506.98
478.075	2684.03
478.532	2919.68
478.989	3172.53
479.446	3553.28
479.903	3805.43
480.36	4220.13
480.817	4544.68
481.274	4904.68
481.731	5435.28
482.188	5883.78
482.645	6383.38
483.102	6790.33
483.558	7292.08
484.015	7637.53
484.472	7600.38
484.929	7321.08
485.385	6964.63
485.842	6829.53
486.299	6508.93
486.755	5918.88
487.212	5240.88
487.668	4630.28
488.125	4212.68
488.582	3839.28
489.038	3611.88
489.494	3449.18
489.951	3296.68
490.407	3164.98
490.864	3066.53
491.32	2978.68
491.776	2931.28
492.233	2929.28
492.689	2862.83
493.145	2791.23
493.602	2742.78
494.058	2774.03
494.514	2762.08
494.97	2767.48
495.426	2782.83
495.882	2764.83
496.338	2760.08
496.794	2782.98
497.251	2754.68
497.707	2787.13
498.163	2785.68
498.618	2792.28
499.074	2784.08
499.53	2819.08
499.986	2816.23
500.442	2784.43
500.898	2747.03
501.354	2790.08
501.809	2776.08
502.265	2785.58
502.721	2798.83
503.177	2805.63
503.632	2804.23
504.088	2827.23
504.543	2840.93
504.999	2880.13
505.455	2861.58
505.91	2838.48
506.366	2845.98
506.821	2853.73
507.277	2828.98
507.732	2836.63
508.187	2839.33
508.643	2870.23
509.098	2858.73
509.553	2905.93
510.009	2934.63
510.464	2979.18
510.919	3010.63
511.375	3046.48
511.83	3060.98
512.285	3117.63
512.74	3175.78
513.195	3213.68
513.65	3254.63
514.105	3293.98
514.56	3304.28
515.015	3351.58
515.47	3370.78
515.925	3342.63
516.38	3346.28
516.835	3349.03
517.29	3332.63
517.745	3329.98
518.2	3287.38
518.655	3231.63
519.109	3190.63
519.564	3143.38
520.019	3122.38
520.474	3096.93
520.928	3064.53
521.383	3047.28
521.838	3042.48
522.292	3020.03
522.747	2991.18
523.201	2996.38
523.656	2956.48
524.11	2944.43
524.565	2932.88
525.019	2946.48
525.474	2932.78
525.928	2924.48
526.382	2920.28
526.837	2932.53
527.291	2941.88
527.745	2918.93
528.2	2912.18
528.654	2867.08
529.108	2883.73
529.562	2897.18
530.016	2879.33
530.47	2885.53
530.925	2897.83
531.379	2880.88
531.833	2911.73
532.287	2904.88
532.741	2892.38
533.195	2884.93
533.649	2895.33
534.103	2903.08
534.556	2889.63
535.01	2899.48
535.464	2882.68
535.918	2885.08
536.372	2911.93
536.826	2900.13
537.279	2871.48
537.733	2881.73
538.187	2894.08
538.64	2886.58
539.094	2905.48
539.548	2947.73
540.001	2931.08
540.455	2964.98
540.908	2969.73
541.362	2994.43
541.815	3009.23
542.269	3071.93
542.722	3071.58
543.175	3102.33
543.629	3115.88
544.082	3132.38
544.536	3153.28
544.989	3170.58
545.442	3187.93
545.895	3184.98
546.349	3173.63
546.802	3184.98
547.255	3198.68
547.708	3216.18
548.161	3241.88
548.614	3229.63
549.067	3258.63
549.52	3249.28
549.973	3199.03
550.426	3196.53
550.879	3174.73
551.332	3188.58
551.785	3201.53
552.238	3230.48
552.691	3228.13
553.144	3279.33
553.596	3338.43
554.049	3380.33
554.502	3433.58
554.955	3487.73
555.407	3530.78
555.86	3505.38
556.313	3452.93
556.765	3424.73
557.218	3399.23
557.67	3373.53
558.123	3340.13
558.576	3316.18
559.028	3296.93
559.48	3336.03
559.933	3329.43
560.385	3231.23
560.838	3129.33
561.29	3041.63
561.742	3043.23
562.195	2955.83
562.647	2931.53
563.099	2937.18
563.551	2910.28
564.004	2923.93
564.456	2892.03
564.908	2827.48
565.36	2770.28
565.812	2729.13
566.264	2714.88
566.716	2679.58
567.168	2627.48
567.62	2633.33
568.072	2603.58
568.524	2592.48
568.976	2568.63
569.428	2560.43
569.88	2559.53
570.332	2555.73
570.784	2579.58
571.235	2565.63
571.687	2596.98
572.139	2582.13
572.59	2615.78
573.042	2615.78
573.494	2618.78
573.945	2582.18
574.397	2537.33
574.849	2533.18
575.3	2538.38
575.752	2503.08
576.203	2469.78
576.655	2483.88
577.106	2442.83
577.557	2431.68
578.009	2423.78
578.46	2441.33
578.912	2410.53
579.363	2428.93
579.814	2411.13
580.265	2423.38
580.717	2428.73
581.168	2407.73
581.619	2426.88
582.07	2450.23
582.521	2431.08
582.972	2420.68
583.423	2444.08
583.875	2452.43
584.326	2466.28
584.777	2507.58
585.227	2544.23
585.678	2592.53
586.129	2609.03
586.58	2640.18
587.031	2669.13
587.482	2749.68
587.933	2797.53
588.384	2775.08
588.834	2739.48
589.285	2721.78
589.736	2709.48
590.186	2714.38
590.637	2697.63
591.088	2626.78
591.538	2583.83
591.989	2549.53
592.439	2519.93
592.89	2485.48
593.34	2477.93
593.791	2462.43
594.241	2444.88
594.692	2443.23
595.142	2447.68
595.593	2445.33
596.043	2461.53
596.493	2477.98
596.943	2473.83
597.394	2521.83
597.844	2560.98
598.294	2619.43
598.744	2698.88
599.195	2825.13
599.645	2957.13
600.095	3122.53
600.545	3257.38
600.995	3405.03
601.445	3519.03
601.895	3692.13
602.345	3795.93
602.795	3741.08
603.245	3610.03
603.695	3424.88
604.145	3243.68
604.594	3086.93
605.044	2925.78
605.494	2761.03
605.944	2612.28
606.393	2543.08
606.843	2499.43
607.293	2496.28
607.743	2473.38
608.192	2493.83
608.642	2492.78
609.091	2482.78
609.541	2477.23
609.99	2469.63
610.44	2441.33
610.889	2420.98
611.339	2369.18
611.788	2351.08
612.238	2364.18
612.687	2365.18
613.136	2388.93
613.586	2408.38
614.035	2394.03
614.484	2416.08
614.933	2405.43
615.383	2363.08
615.832	2309.03
616.281	2275.43
616.73	2232.28
617.179	2187.98
617.628	2144.58
618.077	2118.73
618.526	2078.53
618.975	2073.53
619.424	2030.98
619.873	2033.93
620.322	2011.98
620.771	2009.83
621.22	1991.38
621.669	1938.73
622.118	1930.63
622.567	1909.13
623.015	1876.58
623.464	1882.28
623.913	1860.68
624.361	1862.63
624.81	1836.93
625.259	1851.33
625.707	1832.88
626.156	1856.23
626.604	1876.93
627.053	1875.18
627.501	1874.73
627.95	1886.68
628.398	1916.18
628.847	1887.23
629.295	1885.93
629.744	1861.43
630.192	1828.88
630.64	1808.78
631.089	1798.73
631.537	1751.13
631.985	1733.93
632.433	1735.58
632.881	1721.68
633.33	1733.03
633.778	1726.78
634.226	1726.23
634.674	1760.43
635.122	1768.63
635.57	1800.08
636.018	1826.23
636.466	1811.98
636.914	1822.88
637.362	1862.28
637.81	1890.83
638.258	1949.58
638.705	1975.78
639.153	2022.38
639.601	2051.98
640.049	2097.48
640.497	2150.38
640.944	2211.08
641.392	2139.43
641.84	2035.68
642.287	1966.58
642.735	1931.43
643.182	1915.18
643.63	1928.88
644.078	1935.23
644.525	1968.38
644.973	2043.98
645.42	2089.43
645.867	2162.08
646.315	2214.13
646.762	2342.43
647.21	2437.78
647.657	2607.78
648.104	2742.83
648.551	2873.73
648.999	3181.43
649.446	3582.28
649.893	4104.33
650.34	4944.93
650.787	6250.23
651.234	8154.68
651.682	11352.68
652.129	15278.63
652.576	15528.88
653.023	15528.23
653.47	15531.43
653.917	15531.48
654.363	15531.38
654.81	15528.38
655.257	15529.03
655.704	15532.83
656.151	15526.83
656.598	11987.38
657.044	8470.83
657.491	6502.38
657.938	5151.93
658.385	4231.98
658.831	3644.73
659.278	3181.43
659.724	2846.53
660.171	2595.58
660.618	2375.83
661.064	2214.83
661.511	2106.98
661.957	2008.23
662.404	1950.28
662.85	1907.48
663.296	1861.33
663.743	1801.33
664.189	1768.68
664.635	1740.23
665.082	1704.23
665.528	1673.73
665.974	1620.38
666.42	1590.63
666.867	1570.73
667.313	1501.33
667.759	1476.78
668.205	1465.73
668.651	1461.58
669.097	1457.28
669.543	1457.88
669.989	1467.33
670.435	1466.93
670.881	1484.83
671.327	1540.03
671.773	1624.98
672.219	1741.23
672.665	1850.38
673.11	1900.53
673.556	1931.98
674.002	1966.13
674.448	1998.38
674.893	1718.13
675.339	1504.03
675.785	1386.73
676.23	1305.58
676.676	1258.13
677.122	1226.18
677.567	1192.73
678.013	1154.63
678.458	1149.58
678.904	1136.53
679.349	1121.28
679.794	1119.98
680.24	1114.28
680.685	1109.78
681.131	1111.03
681.576	1112.33
682.021	1111.43
682.466	1120.68
682.912	1137.08
683.357	1184.08
683.802	1285.13
684.247	1392.53
684.692	1477.28
685.137	1547.18
685.583	1580.58
686.028	1663.63
686.473	1588.03
686.918	1377.38
687.363	1259.53
687.807	1200.13
688.252	1144.93
688.697	1104.88
689.142	1069.03
689.587	1076.73
690.032	1080.13
690.477	1127.03
690.921	1176.78
691.366	1235.98
691.811	1291.08
692.255	1399.28
692.7	1677.13
693.145	2385.23
693.589	3622.78
694.034	4359.18
694.478	4691.78
694.923	4325.98
695.367	6154.13
695.812	3743.78
696.256	1577.88
696.701	1157.38
697.145	1076.33
697.59	1041.23
698.034	1017.38
698.478	1014.63
698.922	1022.98
699.367	1045.68
699.811	1093.58
700.255	1172.88
700.699	1279.48
701.143	1387.33
701.588	1465.13
702.032	1535.23
702.476	1586.33
702.92	1693.93
703.364	2180.28
703.808	3333.28
704.252	4180.88
704.696	4432.08
705.14	4217.48
705.584	5833.63
706.027	3209.88
706.471	1621.78
706.915	1222.83
707.359	1085.88
707.803	1025.68
708.246	981.88
708.69	971.38
709.134	962.78
709.577	960.78
710.021	960.58
710.465	948.78
710.908	945.38
711.352	985.43
711.795	1085.78
712.239	1163.93
712.682	1196.13
713.126	1191.88
713.569	1321.73
714.012	1082.08
714.456	947.93
714.899	893.68
715.342	858.03
715.786	827.93
716.229	805.83
716.672	783.68
717.115	782.78
717.558	797.23
718.002	814.58
718.445	849.83
718.888	883.13
719.331	908.43
719.774	924.68
720.217	915.73
720.66	871.23
721.103	823.23
721.546	779.43
721.989	758.08
722.432	746.43
722.874	743.78
723.317	751.88
723.76	810.53
724.203	983.63
724.645	1317.18
725.088	1551.08
725.531	1528.68
725.974	1671.98
726.416	1503.38
726.859	937.73
727.301	768.48
727.744	735.53
728.187	740.73
728.629	754.78
729.071	787.98
729.514	819.53
729.956	857.33
730.399	865.63
730.841	870.68
731.283	857.98
731.726	841.83
732.168	840.73
732.61	886.63
733.053	954.18
733.495	1048.63
733.937	1165.48
734.379	1367.88
734.821	1726.23
735.263	2718.28
735.705	4900.83
736.148	7208.68
736.59	7313.73
737.032	7981.38
737.474	6629.23
737.916	2490.93
738.357	1332.83
738.799	1030.03
739.241	952.33
739.683	953.98
