Data from MSPlasma+Separation6_Subt14_10-14-14-495.txt Node
Date: Fri Jul 21 10:14:14 EDT 2017
User: Ender
Spectrometer: HR+D1039
Trigger mode: 0
Integration Time (sec): 6.430000E-3
Scans to average: 20
Electric dark correction enabled: true
Nonlinearity correction enabled: false
Boxcar width: 0
XAxis mode: Wavelengths
Number of Pixels in Spectrum: 2048
>>>>>Begin Spectral Data<<<<<
187.836	0.07
188.309	0.07
188.782	0.07
189.255	-2.13
189.728	-2.43
190.201	0.22
190.674	2.52
191.147	2.22
191.619	1.47
192.092	-1.28
192.565	-3.18
193.038	2.82
193.511	2.42
193.984	2.57
194.456	2.67
194.929	-0.73
195.402	-6.03
195.874	-1.23
196.347	2.02
196.82	1.37
197.292	-2.13
197.765	-0.33
198.237	-0.38
198.71	-3.93
199.182	-0.63
199.655	4.47
200.127	-0.08
200.6	1.92
201.072	6.37
201.544	2.57
202.017	5.62
202.489	2.32
202.961	-0.83
203.433	-5.53
203.906	-1.93
204.378	0.72
204.85	0.37
205.322	2.22
205.794	4.72
206.266	-3.13
206.739	3.92
207.211	-0.58
207.683	2.27
208.155	3.37
208.627	1.57
209.099	3.27
209.57	6.77
210.042	2.17
210.514	5.22
210.986	-0.88
211.458	1.37
211.93	2.97
212.402	1.92
212.873	2.97
213.345	-4.18
213.817	6.17
214.288	-0.33
214.76	0.32
215.232	-0.28
215.703	2.12
216.175	4.47
216.646	1.37
217.118	3.22
217.589	-1.18
218.061	2.17
218.532	3.37
219.004	7.42
219.475	2.22
219.946	2.17
220.418	8.42
220.889	6.77
221.36	4.47
221.832	3.07
222.303	3.77
222.774	6.17
223.245	3.87
223.717	0.57
224.188	4.22
224.659	1.97
225.13	2.12
225.601	4.57
226.072	4.27
226.543	8.92
227.014	0.02
227.485	9.52
227.956	7.67
228.427	10.72
228.898	7.32
229.369	8.12
229.839	10.37
230.31	9.17
230.781	7.87
231.252	9.12
231.722	9.72
232.193	12.97
232.664	14.17
233.135	9.42
233.605	5.82
234.076	11.42
234.546	13.27
235.017	13.17
235.487	13.87
235.958	14.92
236.428	17.92
236.899	10.17
237.369	18.37
237.84	18.02
238.31	15.77
238.78	10.32
239.251	15.12
239.721	12.72
240.191	14.52
240.662	15.52
241.132	10.22
241.602	16.87
242.072	15.02
242.542	16.02
243.013	13.77
243.483	17.87
243.953	17.02
244.423	22.42
244.893	18.22
245.363	23.32
245.833	21.07
246.303	17.62
246.773	25.52
247.243	18.02
247.712	23.42
248.182	22.37
248.652	30.17
249.122	27.12
249.592	27.72
250.061	22.67
250.531	25.92
251.001	26.97
251.471	26.67
251.94	28.32
252.41	22.27
252.879	30.37
253.349	34.07
253.818	28.57
254.288	32.67
254.757	30.07
255.227	30.32
255.696	33.27
256.166	36.52
256.635	36.77
257.105	37.77
257.574	38.02
258.043	33.47
258.513	33.47
258.982	35.52
259.451	38.52
259.92	32.32
260.389	39.27
260.859	37.62
261.328	42.22
261.797	37.22
262.266	42.42
262.735	43.27
263.204	36.12
263.673	44.17
264.142	40.87
264.611	45.52
265.08	44.82
265.549	38.07
266.018	48.27
266.487	47.57
266.955	41.82
267.424	54.57
267.893	52.17
268.362	44.42
268.83	49.52
269.299	49.47
269.768	52.07
270.236	49.72
270.705	54.47
271.174	48.22
271.642	51.02
272.111	53.92
272.579	52.57
273.048	59.67
273.516	57.12
273.985	57.52
274.453	57.97
274.922	56.12
275.39	53.87
275.858	59.02
276.327	61.42
276.795	57.57
277.263	60.12
277.731	61.37
278.2	62.77
278.668	65.62
279.136	65.27
279.604	61.67
280.072	61.42
280.54	66.22
281.008	67.42
281.477	70.32
281.945	66.97
282.413	69.52
282.881	74.87
283.348	71.02
283.816	73.02
284.284	70.87
284.752	79.22
285.22	73.67
285.688	74.62
286.156	77.17
286.623	80.67
287.091	79.37
287.559	80.77
288.026	84.77
288.494	76.37
288.962	84.17
289.429	82.52
289.897	77.37
290.364	81.97
290.832	90.47
291.3	84.37
291.767	84.62
292.234	84.27
292.702	80.07
293.169	86.62
293.637	86.27
294.104	94.07
294.571	89.62
295.039	92.97
295.506	88.67
295.973	90.52
296.44	89.82
296.908	96.12
297.375	92.67
297.842	99.37
298.309	93.92
298.776	94.47
299.243	104.07
299.71	100.87
300.177	100.52
300.644	101.32
301.111	98.32
301.578	102.12
302.045	105.52
302.512	103.92
302.979	112.12
303.446	113.02
303.913	111.57
304.379	116.77
304.846	115.77
305.313	119.07
305.78	128.17
306.246	126.12
306.713	123.32
307.18	125.12
307.646	126.52
308.113	128.52
308.579	131.07
309.046	132.62
309.512	130.12
309.979	131.97
310.445	132.62
310.912	131.77
311.378	143.12
311.845	139.97
312.311	137.92
312.777	141.77
313.244	141.22
313.71	141.42
314.176	152.57
314.642	148.57
315.109	143.72
315.575	149.72
316.041	148.97
316.507	149.02
316.973	149.82
317.439	154.82
317.905	154.77
318.371	155.52
318.837	153.12
319.303	155.17
319.769	155.87
320.235	161.32
320.701	168.67
321.167	163.92
321.633	167.17
322.099	160.67
322.564	170.42
323.03	169.07
323.496	166.27
323.962	171.52
324.427	178.17
324.893	173.12
325.359	177.22
325.824	174.62
326.29	178.52
326.755	174.92
327.221	178.22
327.686	187.02
328.152	189.72
328.617	191.67
329.083	192.17
329.548	197.22
330.014	199.67
330.479	197.22
330.944	198.62
331.41	209.37
331.875	199.02
332.34	199.72
332.805	205.67
333.271	201.72
333.736	203.07
334.201	208.62
334.666	225.82
335.131	218.22
335.596	219.52
336.061	214.52
336.526	220.17
336.991	206.97
337.456	211.97
337.921	209.67
338.386	205.27
338.851	207.12
339.316	208.22
339.781	205.97
340.246	214.17
340.711	215.22
341.175	218.87
341.64	231.02
342.105	229.12
342.569	243.17
343.034	231.22
343.499	236.62
343.963	243.52
344.428	242.32
344.893	244.27
345.357	252.02
345.822	251.27
346.286	257.62
346.751	259.47
347.215	262.42
347.679	271.17
348.144	289.47
348.608	284.57
349.073	283.32
349.537	294.62
350.001	295.12
350.465	299.37
350.93	294.47
351.394	296.77
351.858	299.27
352.322	311.22
352.786	303.52
353.25	307.37
353.715	316.97
354.179	325.72
354.643	334.02
355.107	338.17
355.571	327.77
356.035	330.97
356.498	331.22
356.962	323.27
357.426	327.97
357.89	325.42
358.354	323.62
358.818	315.17
359.281	324.67
359.745	325.47
360.209	322.17
360.673	325.17
361.136	321.67
361.6	330.02
362.064	340.92
362.527	342.52
362.991	341.37
363.454	333.97
363.918	349.07
364.381	346.92
364.845	346.87
365.308	345.27
365.772	348.92
366.235	358.02
366.698	351.72
367.162	354.42
367.625	359.12
368.088	361.82
368.552	362.67
369.015	355.42
369.478	359.87
369.941	361.82
370.404	368.82
370.867	362.37
371.331	367.72
371.794	383.42
372.257	380.77
372.72	382.42
373.183	384.12
373.646	383.57
374.109	385.32
374.572	387.62
375.035	391.47
375.497	396.02
375.96	402.52
376.423	411.82
376.886	418.12
377.349	416.72
377.811	420.17
378.274	424.02
378.737	419.92
379.199	423.37
379.662	422.37
380.125	431.52
380.587	438.97
381.05	443.82
381.512	449.27
381.975	458.57
382.437	462.37
382.9	461.37
383.362	465.37
383.825	470.22
384.287	472.12
384.75	472.77
385.212	471.02
385.674	476.57
386.136	478.77
386.599	476.07
387.061	477.42
387.523	481.67
387.985	486.72
388.447	492.12
388.91	484.42
389.372	496.32
389.834	492.02
390.296	489.17
390.758	491.77
391.22	491.57
391.682	488.37
392.144	494.72
392.606	500.42
393.068	512.42
393.529	538.77
393.991	550.27
394.453	517.82
394.915	511.02
395.377	496.57
395.838	503.42
396.3	504.57
396.762	511.92
397.224	502.67
397.685	506.62
398.147	510.87
398.608	527.67
399.07	532.07
399.531	527.02
399.993	538.67
400.454	547.32
400.916	542.92
401.377	560.92
401.839	557.92
402.3	564.37
402.762	581.32
403.223	629.12
403.684	628.62
404.145	599.17
404.607	591.37
405.068	582.92
405.529	591.62
405.99	605.62
406.451	618.47
406.913	600.62
407.374	609.62
407.835	605.47
408.296	624.87
408.757	618.17
409.218	642.22
409.679	646.47
410.14	643.47
410.601	666.97
411.062	658.57
411.522	669.42
411.983	665.87
412.444	670.57
412.905	684.82
413.366	713.17
413.826	742.22
414.287	828.37
414.748	986.22
415.208	1011.02
415.669	845.62
416.13	769.32
416.59	751.57
417.051	781.97
417.511	811.57
417.972	870.07
418.432	938.97
418.893	1028.62
419.353	993.87
419.814	768.57
420.274	688.97
420.734	673.77
421.195	695.97
421.655	698.32
422.115	709.42
422.576	706.02
423.036	714.47
423.496	733.57
423.956	765.87
424.416	818.42
424.876	930.47
425.336	916.77
425.797	901.92
426.257	891.32
426.717	841.22
427.177	789.17
427.637	796.72
428.097	832.12
428.556	863.37
429.016	926.92
429.476	930.27
429.936	905.17
430.396	912.87
430.856	941.32
431.315	953.22
431.775	1015.77
432.235	1088.12
432.694	1117.42
433.154	1044.87
433.614	1025.62
434.073	989.92
434.533	891.77
434.993	856.57
435.452	859.67
435.912	842.32
436.371	840.07
436.83	835.97
437.29	811.67
437.749	785.27
438.209	780.47
438.668	798.92
439.127	806.82
439.587	793.97
440.046	777.67
440.505	790.02
440.964	799.32
441.424	824.12
441.883	843.12
442.342	792.52
442.801	755.47
443.26	763.82
443.719	751.92
444.178	750.52
444.637	765.42
445.096	778.17
445.555	781.27
446.014	778.52
446.473	769.32
446.932	770.57
447.391	782.82
447.849	796.32
448.308	775.82
448.767	790.37
449.226	806.02
449.685	814.02
450.143	849.77
450.602	841.17
451.061	802.52
451.519	799.32
451.978	797.97
452.436	788.82
452.895	797.12
453.353	791.52
453.812	774.82
454.27	786.07
454.729	791.77
455.187	797.07
455.646	796.32
456.104	799.72
456.562	810.67
457.021	826.72
457.479	793.97
457.937	814.07
458.395	834.57
458.854	831.52
459.312	815.42
459.77	817.37
460.228	836.47
460.686	844.42
461.144	853.47
461.602	839.77
462.06	839.77
462.518	861.02
462.976	856.22
463.434	868.82
463.892	884.22
464.35	900.42
464.808	917.12
465.266	924.37
465.724	935.22
466.181	933.57
466.639	933.67
467.097	962.32
467.555	1002.42
468.012	998.07
468.47	1006.07
468.928	1043.37
469.385	1065.02
469.843	1079.77
470.3	1070.12
470.758	1102.27
471.215	1115.67
471.673	1136.82
472.13	1173.92
472.588	1194.42
473.045	1187.37
473.503	1215.42
473.96	1272.12
474.417	1285.92
474.875	1340.02
475.332	1389.37
475.789	1419.52
476.246	1457.62
476.704	1514.42
477.161	1569.02
477.618	1605.77
478.075	1701.47
478.532	1827.77
478.989	1971.72
479.446	2165.37
479.903	2290.12
480.36	2492.42
480.817	2641.92
481.274	2819.22
481.731	3086.17
482.188	3302.47
482.645	3552.12
483.102	3755.22
483.558	4028.92
484.015	4180.17
484.472	4164.32
484.929	4043.82
485.385	3870.47
485.842	3789.77
486.299	3627.52
486.755	3321.62
487.212	2985.67
487.668	2689.67
488.125	2492.12
488.582	2317.77
489.038	2237.12
489.494	2157.92
489.951	2095.52
490.407	2031.17
490.864	1991.72
491.32	1965.07
491.776	1937.07
492.233	1942.77
492.689	1895.17
493.145	1865.37
493.602	1842.62
494.058	1861.32
494.514	1862.62
494.97	1863.47
495.426	1900.87
495.882	1900.12
496.338	1898.72
496.794	1906.82
497.251	1893.57
497.707	1915.82
498.163	1918.52
498.618	1919.72
499.074	1918.42
499.53	1938.47
499.986	1948.72
500.442	1937.37
500.898	1916.97
501.354	1926.87
501.809	1920.97
502.265	1922.72
502.721	1941.22
503.177	1939.22
503.632	1940.47
504.088	1958.32
504.543	1987.02
504.999	2001.17
505.455	1983.42
505.91	1971.02
506.366	1976.37
506.821	1978.12
507.277	1975.67
507.732	1979.17
508.187	1975.42
508.643	1993.32
509.098	1990.82
509.553	2022.67
510.009	2043.97
510.464	2077.47
510.919	2097.72
511.375	2123.07
511.83	2138.97
512.285	2177.07
512.74	2225.37
513.195	2253.87
513.65	2278.32
514.105	2309.87
514.56	2326.62
515.015	2348.02
515.47	2354.17
515.925	2324.97
516.38	2337.47
516.835	2343.57
517.29	2331.72
517.745	2343.22
518.2	2297.32
518.655	2257.62
519.109	2230.47
519.564	2194.57
520.019	2191.62
520.474	2167.47
520.928	2154.87
521.383	2140.82
521.838	2130.42
522.292	2110.67
522.747	2097.62
523.201	2091.57
523.656	2068.02
524.11	2070.52
524.565	2052.97
525.019	2058.67
525.474	2050.27
525.928	2047.32
526.382	2048.52
526.837	2055.17
527.291	2063.17
527.745	2053.47
528.2	2037.27
528.654	2019.67
529.108	2028.67
529.562	2037.62
530.016	2032.62
530.47	2018.42
530.925	2023.07
531.379	2021.77
531.833	2055.67
532.287	2042.32
532.741	2029.67
533.195	2043.42
533.649	2051.37
534.103	2046.17
534.556	2028.47
535.01	2048.42
535.464	2032.92
535.918	2033.82
536.372	2046.62
536.826	2042.82
537.279	2028.17
537.733	2032.82
538.187	2043.37
538.64	2041.97
539.094	2049.52
539.548	2071.67
540.001	2055.82
540.455	2082.97
540.908	2093.87
541.362	2100.92
541.815	2132.97
542.269	2164.72
542.722	2154.27
543.175	2180.57
543.629	2191.87
544.082	2214.57
544.536	2241.22
544.989	2238.77
545.442	2241.72
545.895	2253.72
546.349	2250.97
546.802	2256.02
547.255	2256.57
547.708	2265.52
548.161	2290.52
548.614	2292.22
549.067	2301.92
549.52	2283.87
549.973	2262.97
550.426	2260.72
550.879	2244.52
551.332	2260.57
551.785	2266.77
552.238	2284.87
552.691	2302.82
553.144	2326.62
553.596	2359.52
554.049	2382.92
554.502	2435.62
554.955	2469.22
555.407	2489.67
555.86	2467.97
556.313	2446.62
556.765	2427.62
557.218	2416.42
557.67	2398.72
558.123	2370.22
558.576	2355.02
559.028	2342.22
559.48	2378.22
559.933	2361.87
560.385	2278.42
560.838	2218.27
561.29	2152.87
561.742	2144.62
562.195	2096.42
562.647	2083.37
563.099	2074.22
563.551	2049.82
564.004	2073.82
564.456	2060.82
564.908	2017.42
565.36	1968.62
565.812	1937.17
566.264	1913.27
566.716	1892.82
567.168	1853.82
567.62	1865.82
568.072	1845.37
568.524	1840.82
568.976	1819.52
569.428	1804.02
569.88	1808.37
570.332	1826.12
570.784	1829.17
571.235	1824.27
571.687	1839.32
572.139	1847.47
572.59	1861.32
573.042	1860.77
573.494	1871.97
573.945	1846.87
574.397	1803.92
574.849	1794.47
575.3	1801.97
575.752	1781.62
576.203	1761.77
576.655	1767.17
577.106	1742.47
577.557	1740.72
578.009	1717.82
578.46	1732.72
578.912	1705.97
579.363	1732.12
579.814	1720.22
580.265	1724.32
580.717	1725.17
581.168	1720.22
581.619	1729.32
582.07	1742.92
582.521	1736.37
582.972	1731.47
583.423	1736.17
583.875	1747.77
584.326	1753.42
584.777	1779.87
585.227	1810.22
585.678	1832.92
586.129	1851.82
586.58	1868.17
587.031	1888.07
587.482	1936.97
587.933	1964.52
588.384	1958.07
588.834	1946.82
589.285	1934.02
589.736	1931.37
590.186	1932.47
590.637	1915.67
591.088	1858.77
591.538	1835.22
591.989	1816.62
592.439	1794.42
592.89	1774.72
593.34	1766.92
593.791	1759.82
594.241	1746.82
594.692	1750.37
595.142	1739.37
595.593	1750.17
596.043	1751.17
596.493	1766.57
596.943	1761.87
597.394	1812.17
597.844	1831.87
598.294	1874.07
598.744	1944.42
599.195	2031.17
599.645	2126.77
600.095	2239.47
600.545	2350.42
600.995	2454.67
601.445	2524.77
601.895	2649.52
602.345	2719.47
602.795	2694.32
603.245	2593.47
603.695	2446.12
604.145	2321.32
604.594	2206.37
605.044	2090.87
605.494	1960.17
605.944	1855.62
606.393	1821.32
606.843	1792.22
607.293	1783.12
607.743	1771.32
608.192	1791.37
608.642	1787.17
609.091	1776.07
609.541	1777.62
609.99	1771.62
610.44	1742.42
610.889	1717.32
611.339	1692.87
611.788	1685.67
612.238	1684.97
612.687	1690.82
613.136	1705.32
613.586	1718.87
614.035	1719.42
614.484	1737.32
614.933	1728.87
615.383	1688.72
615.832	1656.87
616.281	1640.42
616.73	1597.32
617.179	1560.92
617.628	1530.42
618.077	1509.42
618.526	1488.57
618.975	1483.72
619.424	1442.17
619.873	1451.52
620.322	1439.77
620.771	1438.92
621.22	1421.22
621.669	1386.32
622.118	1378.67
622.567	1357.97
623.015	1349.07
623.464	1337.62
623.913	1323.82
624.361	1319.42
624.81	1319.22
625.259	1316.87
625.707	1306.32
626.156	1325.07
626.604	1344.37
627.053	1339.07
627.501	1333.67
627.95	1338.82
628.398	1372.62
628.847	1342.37
629.295	1338.22
629.744	1337.47
630.192	1308.32
630.64	1301.62
631.089	1270.92
631.537	1234.72
631.985	1228.42
632.433	1223.62
632.881	1224.42
633.33	1231.27
633.778	1227.72
634.226	1227.57
634.674	1235.52
635.122	1261.17
635.57	1268.67
636.018	1296.87
636.466	1283.32
636.914	1281.82
637.362	1307.47
637.81	1338.52
638.258	1382.32
638.705	1389.02
639.153	1435.67
639.601	1453.72
640.049	1474.22
640.497	1512.17
640.944	1548.97
641.392	1489.02
641.84	1418.77
642.287	1350.27
642.735	1323.52
643.182	1320.42
643.63	1308.62
644.078	1319.77
644.525	1349.02
644.973	1373.07
645.42	1415.17
645.867	1439.87
646.315	1473.67
646.762	1535.02
647.21	1571.92
647.657	1659.27
648.104	1723.57
648.551	1780.12
648.999	1926.87
649.446	2111.22
649.893	2371.77
650.34	2775.57
650.787	3423.77
651.234	4409.57
651.682	6090.47
652.129	8612.47
652.576	12227.92
653.023	15520.87
653.47	15536.67
653.917	15536.72
654.363	15536.62
654.81	15533.62
655.257	15534.27
655.704	15490.77
656.151	9550.77
656.598	6271.12
657.044	4477.67
657.491	3493.32
657.938	2828.32
658.385	2388.97
658.831	2104.52
659.278	1886.37
659.724	1718.02
660.171	1601.17
660.618	1482.77
661.064	1401.17
661.511	1348.42
661.957	1307.77
662.404	1282.82
662.85	1261.77
663.296	1254.72
663.743	1205.57
664.189	1198.07
664.635	1190.97
665.082	1167.42
665.528	1143.42
665.974	1110.02
666.42	1103.67
666.867	1080.57
667.313	1029.77
667.759	1025.62
668.205	1015.07
668.651	1023.87
669.097	1009.02
669.543	1015.27
669.989	1031.67
670.435	1035.82
670.881	1046.97
671.327	1090.32
671.773	1161.97
672.219	1236.07
672.665	1314.42
673.11	1360.27
673.556	1370.97
674.002	1404.72
674.448	1413.97
674.893	1219.32
675.339	1067.37
675.785	979.42
676.23	927.22
676.676	902.92
677.122	869.12
677.567	847.12
678.013	822.87
678.458	829.57
678.904	813.47
679.349	800.22
679.794	799.27
680.24	793.02
680.685	785.27
681.131	796.77
681.576	798.07
682.021	798.77
682.466	801.67
682.912	814.07
683.357	856.52
683.802	918.27
684.247	1008.17
684.692	1065.62
685.137	1117.32
685.583	1141.22
686.028	1193.47
686.473	1141.57
686.918	988.97
687.363	906.22
687.807	852.22
688.252	822.57
688.697	786.67
689.142	771.17
689.587	773.77
690.032	785.97
690.477	814.17
690.921	844.62
691.366	898.97
691.811	936.42
692.255	1015.32
692.7	1222.47
693.145	1763.77
693.589	2673.17
694.034	3192.02
694.478	3399.37
694.923	3111.22
695.367	4393.47
695.812	2701.57
696.256	1150.37
696.701	839.17
697.145	778.82
697.59	751.57
698.034	737.47
698.478	737.52
698.922	742.57
699.367	754.67
699.811	786.47
700.255	861.17
700.699	931.37
701.143	1007.97
701.588	1073.02
702.032	1118.57
702.476	1159.12
702.92	1240.17
703.364	1613.92
703.808	2449.77
704.252	3046.67
704.696	3217.67
705.14	3039.42
705.584	4162.32
706.027	2330.37
706.471	1177.42
706.915	884.92
707.359	782.22
707.803	735.87
708.246	705.22
708.69	701.77
709.134	698.22
709.577	687.67
710.021	704.72
710.465	695.87
710.908	686.97
711.352	716.32
711.795	793.72
712.239	843.37
712.682	874.07
713.126	855.77
713.569	946.37
714.012	790.77
714.456	685.72
714.899	653.22
715.342	612.77
715.786	594.72
716.229	583.42
716.672	564.22
717.115	563.72
717.558	573.47
718.002	589.77
718.445	614.87
718.888	646.52
719.331	655.87
719.774	674.67
720.217	655.32
720.66	626.82
721.103	595.27
721.546	565.32
721.989	544.67
722.432	537.92
722.874	535.87
723.317	546.92
723.76	587.97
724.203	721.82
724.645	968.97
725.088	1136.12
725.531	1114.12
725.974	1219.22
726.416	1089.07
726.859	676.17
727.301	561.47
727.744	535.27
728.187	534.32
728.629	544.32
729.071	578.27
729.514	594.67
729.956	627.02
730.399	635.32
730.841	632.22
731.283	627.82
731.726	607.17
732.168	614.72
732.61	643.52
733.053	689.82
733.495	765.02
733.937	842.62
734.379	1000.27
734.821	1277.52
735.263	2010.42
735.705	3611.77
736.148	5306.47
736.59	5327.87
737.032	5764.07
737.474	4768.77
737.916	1847.97
738.357	974.17
738.799	745.67
739.241	690.92
739.683	695.62
740.125	720.92
740.567	722.47
741.008	772.62
741.45	814.92
741.892	855.77
742.334	869.37
742.775	860.62
743.217	827.52
743.658	687.27
744.1	715.67
744.542	833.12
744.983	867.92
745.425	906.27
745.866	878.57
