Data from MSPlasma+Separation6_Subt14_10-14-09-230.txt Node
Date: Fri Jul 21 10:14:09 EDT 2017
User: Ender
Spectrometer: HR+D1039
Trigger mode: 0
Integration Time (sec): 6.430000E-3
Scans to average: 20
Electric dark correction enabled: true
Nonlinearity correction enabled: false
Boxcar width: 0
XAxis mode: Wavelengths
Number of Pixels in Spectrum: 2048
>>>>>Begin Spectral Data<<<<<
187.836	-1.03
188.309	-1.03
188.782	-1.03
189.255	-4.68
189.728	2.62
190.201	0.07
190.674	1.17
191.147	0.77
191.619	0.17
192.092	-0.23
192.565	-0.78
193.038	2.22
193.511	5.17
193.984	1.37
194.456	-3.23
194.929	-2.73
195.402	-2.88
195.874	2.07
196.347	2.27
196.82	3.12
197.292	-1.78
197.765	0.22
198.237	-0.93
198.71	-3.83
199.182	-0.18
199.655	2.97
200.127	2.62
200.6	0.27
201.072	1.27
201.544	1.52
202.017	0.87
202.489	4.92
202.961	-4.23
203.433	-5.88
203.906	-4.08
204.378	-3.73
204.85	2.77
205.322	0.12
205.794	8.27
206.266	0.42
206.739	4.27
207.211	-3.13
207.683	1.57
208.155	2.57
208.627	1.82
209.099	8.52
209.57	4.87
210.042	4.32
210.514	0.32
210.986	0.62
211.458	-1.03
211.93	1.57
212.402	3.27
212.873	-3.38
213.345	-4.83
213.817	4.72
214.288	-2.18
214.76	3.27
215.232	-2.83
215.703	5.97
216.175	3.12
216.646	6.17
217.118	1.97
217.589	0.37
218.061	1.57
218.532	1.57
219.004	5.17
219.475	0.42
219.946	0.62
220.418	9.52
220.889	3.92
221.36	6.27
221.832	7.37
222.303	4.07
222.774	3.32
223.245	0.52
223.717	0.97
224.188	6.52
224.659	2.62
225.13	0.92
225.601	4.72
226.072	8.07
226.543	7.17
227.014	3.22
227.485	7.57
227.956	6.97
228.427	15.32
228.898	4.22
229.369	6.62
229.839	7.97
230.31	7.82
230.781	7.77
231.252	11.22
231.722	9.42
232.193	8.02
232.664	11.42
233.135	7.52
233.605	9.82
234.076	11.82
234.546	11.92
235.017	11.07
235.487	11.37
235.958	7.22
236.428	17.37
236.899	11.97
237.369	18.82
237.84	16.42
238.31	15.17
238.78	8.72
239.251	14.42
239.721	13.47
240.191	14.67
240.662	17.22
241.132	18.22
241.602	17.72
242.072	15.92
242.542	15.82
243.013	17.22
243.483	22.77
243.953	16.92
244.423	20.57
244.893	16.42
245.363	26.57
245.833	23.57
246.303	23.57
246.773	25.92
247.243	23.32
247.712	24.02
248.182	22.72
248.652	24.02
249.122	24.12
249.592	26.27
250.061	23.67
250.531	24.17
251.001	24.82
251.471	25.47
251.94	29.67
252.41	29.02
252.879	24.82
253.349	30.92
253.818	28.37
254.288	37.47
254.757	32.77
255.227	33.17
255.696	34.82
256.166	34.17
256.635	29.92
257.105	31.07
257.574	35.37
258.043	37.22
258.513	36.57
258.982	35.82
259.451	38.37
259.92	29.37
260.389	36.57
260.859	32.72
261.328	40.87
261.797	30.72
262.266	40.52
262.735	42.02
263.204	39.77
263.673	43.27
264.142	38.22
264.611	43.92
265.08	41.62
265.549	40.47
266.018	44.27
266.487	49.22
266.955	44.17
267.424	48.92
267.893	51.52
268.362	47.72
268.83	46.62
269.299	47.47
269.768	50.77
270.236	51.27
270.705	56.62
271.174	55.02
271.642	49.12
272.111	53.77
272.579	56.57
273.048	56.62
273.516	59.27
273.985	59.82
274.453	54.07
274.922	53.67
275.39	59.62
275.858	59.87
276.327	57.37
276.795	62.32
277.263	61.02
277.731	60.82
278.2	67.67
278.668	60.97
279.136	69.52
279.604	66.57
280.072	63.52
280.54	64.52
281.008	68.27
281.477	65.77
281.945	68.07
282.413	64.77
282.881	70.27
283.348	74.12
283.816	69.97
284.284	76.32
284.752	76.82
285.22	76.47
285.688	78.82
286.156	81.37
286.623	77.57
287.091	79.37
287.559	80.22
288.026	79.87
288.494	83.42
288.962	82.62
289.429	79.57
289.897	85.72
290.364	76.62
290.832	87.22
291.3	82.27
291.767	78.92
292.234	86.02
292.702	83.42
293.169	91.67
293.637	93.32
294.104	89.77
294.571	88.92
295.039	92.02
295.506	81.72
295.973	92.22
296.44	90.92
296.908	97.47
297.375	94.77
297.842	99.92
298.309	96.87
298.776	100.57
299.243	98.32
299.71	97.62
300.177	100.82
300.644	99.92
301.111	103.17
301.578	106.77
302.045	100.52
302.512	103.47
302.979	110.47
303.446	113.27
303.913	111.52
304.379	120.77
304.846	118.92
305.313	121.67
305.78	124.52
306.246	116.32
306.713	121.22
307.18	122.07
307.646	124.37
308.113	125.87
308.579	126.92
309.046	134.12
309.512	133.07
309.979	135.42
310.445	130.57
310.912	142.07
311.378	137.92
311.845	140.97
312.311	135.42
312.777	136.77
313.244	142.92
313.71	146.97
314.176	151.67
314.642	145.87
315.109	147.17
315.575	147.92
316.041	150.67
316.507	144.37
316.973	154.92
317.439	153.42
317.905	154.77
318.371	148.12
318.837	153.32
319.303	160.62
319.769	153.12
320.235	162.17
320.701	165.17
321.167	162.27
321.633	161.87
322.099	160.47
322.564	171.27
323.03	173.62
323.496	165.57
323.962	173.97
324.427	177.72
324.893	170.37
325.359	181.87
325.824	176.17
326.29	184.12
326.755	178.07
327.221	179.52
327.686	191.62
328.152	189.52
328.617	196.87
329.083	193.12
329.548	197.32
330.014	197.32
330.479	198.07
330.944	197.67
331.41	207.92
331.875	200.47
332.34	195.07
332.805	203.77
333.271	205.37
333.736	200.72
334.201	213.17
334.666	220.52
335.131	220.67
335.596	221.42
336.061	218.92
336.526	211.37
336.991	210.77
337.456	208.72
337.921	206.67
338.386	209.27
338.851	210.92
339.316	204.42
339.781	207.12
340.246	216.82
340.711	213.12
341.175	221.07
341.64	227.32
342.105	230.32
342.569	243.22
343.034	237.22
343.499	239.22
343.963	248.82
344.428	242.32
344.893	249.17
345.357	253.87
345.822	254.17
346.286	259.12
346.751	261.47
347.215	263.27
347.679	272.17
348.144	286.57
348.608	286.52
349.073	289.37
349.537	298.77
350.001	296.67
350.465	293.32
350.93	292.62
351.394	299.62
351.858	302.37
352.322	308.57
352.786	311.32
353.25	308.17
353.715	314.67
354.179	331.82
354.643	336.77
355.107	333.42
355.571	333.67
356.035	322.72
356.498	331.02
356.962	325.72
357.426	328.27
357.89	324.27
358.354	316.57
358.818	319.42
359.281	327.02
359.745	321.47
360.209	321.82
360.673	316.62
361.136	327.02
361.6	325.82
362.064	332.67
362.527	348.82
362.991	342.87
363.454	340.62
363.918	348.47
364.381	356.77
364.845	346.22
365.308	350.12
365.772	352.42
366.235	352.12
366.698	353.22
367.162	343.32
367.625	353.77
368.088	364.17
368.552	359.77
369.015	364.27
369.478	364.72
369.941	365.22
370.404	369.32
370.867	366.27
371.331	377.57
371.794	384.82
372.257	382.42
372.72	381.87
373.183	386.52
373.646	386.22
374.109	383.87
374.572	391.57
375.035	395.92
375.497	393.07
375.96	405.62
376.423	416.22
376.886	419.62
377.349	421.42
377.811	416.32
378.274	421.77
378.737	417.12
379.199	422.82
379.662	432.42
380.125	432.67
380.587	436.22
381.05	444.17
381.512	450.02
381.975	457.72
382.437	469.82
382.9	458.42
383.362	461.57
383.825	470.57
384.287	469.72
384.75	471.57
385.212	472.37
385.674	474.72
386.136	482.67
386.599	480.47
387.061	482.82
387.523	489.37
387.985	485.27
388.447	499.22
388.91	490.02
389.372	495.72
389.834	493.57
390.296	489.17
390.758	499.12
391.22	491.07
391.682	503.42
392.144	494.72
392.606	501.27
393.068	510.32
393.529	543.32
393.991	547.77
394.453	530.62
394.915	511.57
395.377	496.52
395.838	504.07
396.3	508.22
396.762	513.62
397.224	513.87
397.685	513.77
398.147	525.67
398.608	527.82
399.07	530.82
399.531	534.97
399.993	543.97
400.454	552.42
400.916	554.92
401.377	560.97
401.839	567.12
402.3	566.42
402.762	595.87
403.223	637.27
403.684	632.27
404.145	609.87
404.607	593.87
405.068	582.07
405.529	590.17
405.99	602.42
406.451	613.22
406.913	603.92
407.374	607.57
407.835	603.07
408.296	620.22
408.757	616.12
409.218	642.32
409.679	643.52
410.14	652.67
410.601	669.87
411.062	668.12
411.522	662.82
411.983	669.97
412.444	681.42
412.905	691.72
413.366	720.67
413.826	742.97
414.287	835.92
414.748	990.42
415.208	1018.32
415.669	857.52
416.13	770.57
416.59	761.92
417.051	785.32
417.511	824.22
417.972	883.87
418.432	951.52
418.893	1043.52
419.353	1008.82
419.814	781.67
420.274	693.12
420.734	687.92
421.195	708.97
421.655	706.67
422.115	720.57
422.576	715.87
423.036	718.57
423.496	747.32
423.956	771.02
424.416	821.62
424.876	921.77
425.336	919.52
425.797	904.62
426.257	892.62
426.717	847.22
427.177	787.27
427.637	788.62
428.097	827.87
428.556	852.92
429.016	922.02
429.476	922.37
429.936	900.52
430.396	900.97
430.856	917.32
431.315	936.02
431.775	1004.27
432.235	1079.07
432.694	1085.32
433.154	1033.32
433.614	1014.02
434.073	976.82
434.533	883.42
434.993	850.27
435.452	857.72
435.912	840.57
436.371	842.22
436.83	824.02
437.29	804.22
437.749	789.57
438.209	791.27
438.668	795.37
439.127	812.57
439.587	792.12
440.046	779.22
440.505	800.17
440.964	797.32
441.424	826.62
441.883	838.92
442.342	795.87
442.801	764.67
443.26	766.92
443.719	767.07
444.178	765.27
444.637	774.32
445.096	785.87
445.555	786.97
446.014	785.82
446.473	783.47
446.932	782.87
447.391	784.27
447.849	806.42
448.308	788.42
448.767	801.77
449.226	806.07
449.685	819.27
450.143	855.47
450.602	860.37
451.061	805.82
451.519	816.72
451.978	797.37
452.436	798.77
452.895	810.27
453.353	805.72
453.812	796.07
454.27	788.12
454.729	798.97
455.187	808.52
455.646	815.12
456.104	805.22
456.562	824.67
457.021	832.07
457.479	806.17
457.937	830.52
458.395	844.32
458.854	843.47
459.312	830.07
459.77	836.77
460.228	848.07
460.686	857.87
461.144	864.27
461.602	842.57
462.06	851.02
462.518	874.02
462.976	868.12
463.434	889.77
463.892	888.67
464.35	912.17
464.808	922.42
465.266	934.67
465.724	942.17
466.181	949.82
466.639	942.22
467.097	981.37
467.555	1008.72
468.012	1010.92
468.47	1015.37
468.928	1045.02
469.385	1078.37
469.843	1089.02
470.3	1080.32
470.758	1108.57
471.215	1126.57
471.673	1151.67
472.13	1189.77
472.588	1211.02
473.045	1203.77
473.503	1217.67
473.96	1270.27
474.417	1294.27
474.875	1336.97
475.332	1392.77
475.789	1422.22
476.246	1458.52
476.704	1518.77
477.161	1559.27
477.618	1595.52
478.075	1680.87
478.532	1799.07
478.989	1945.82
479.446	2114.22
479.903	2226.12
480.36	2399.07
480.817	2536.27
481.274	2690.97
481.731	2928.17
482.188	3125.82
482.645	3349.92
483.102	3535.52
483.558	3767.77
484.015	3913.92
484.472	3902.52
484.929	3784.32
485.385	3637.22
485.842	3578.07
486.299	3441.77
486.755	3175.42
487.212	2876.82
487.668	2612.62
488.125	2440.27
488.582	2265.97
489.038	2190.77
489.494	2133.02
489.951	2077.02
490.407	2014.82
490.864	1982.02
491.32	1950.37
491.776	1925.82
492.233	1947.17
492.689	1905.02
493.145	1875.32
493.602	1847.37
494.058	1869.47
494.514	1880.57
494.97	1874.57
495.426	1895.57
495.882	1890.37
496.338	1897.12
496.794	1902.97
497.251	1898.52
497.707	1928.97
498.163	1938.97
498.618	1932.67
499.074	1922.32
499.53	1951.32
499.986	1959.07
500.442	1943.07
500.898	1920.12
501.354	1941.77
501.809	1941.02
502.265	1943.57
502.721	1951.62
503.177	1965.87
503.632	1967.72
504.088	1969.57
504.543	1990.27
504.999	2015.12
505.455	2007.22
505.91	1983.32
506.366	1994.82
506.821	2000.02
507.277	1982.17
507.732	2001.62
508.187	1993.32
508.643	2018.62
509.098	2017.57
509.553	2036.77
510.009	2068.47
510.464	2107.72
510.919	2121.22
511.375	2138.87
511.83	2155.92
512.285	2183.47
512.74	2243.87
513.195	2252.37
513.65	2289.62
514.105	2328.52
514.56	2330.07
515.015	2375.52
515.47	2376.07
515.925	2352.47
516.38	2365.62
516.835	2365.82
517.29	2356.62
517.745	2350.52
518.2	2308.57
518.655	2271.22
519.109	2256.97
519.564	2218.37
520.019	2210.82
520.474	2186.77
520.928	2175.67
521.383	2147.47
521.838	2150.02
522.292	2125.17
522.747	2107.22
523.201	2115.92
523.656	2085.07
524.11	2081.32
524.565	2069.02
525.019	2083.22
525.474	2072.52
525.928	2059.77
526.382	2071.02
526.837	2070.42
527.291	2075.97
527.745	2055.62
528.2	2052.07
528.654	2030.27
529.108	2034.47
529.562	2050.87
530.016	2050.67
530.47	2049.27
530.925	2039.32
531.379	2048.32
531.833	2063.77
532.287	2049.77
532.741	2041.47
533.195	2051.52
533.649	2053.82
534.103	2052.17
534.556	2044.42
535.01	2056.87
535.464	2040.37
535.918	2047.37
536.372	2064.67
536.826	2053.72
537.279	2042.27
537.733	2044.87
538.187	2048.92
538.64	2044.72
539.094	2068.62
539.548	2095.12
540.001	2089.62
540.455	2096.47
540.908	2111.17
541.362	2134.47
541.815	2146.22
542.269	2190.67
542.722	2176.37
543.175	2192.12
543.629	2217.32
544.082	2225.47
544.536	2244.07
544.989	2257.27
545.442	2266.57
545.895	2264.57
546.349	2262.52
546.802	2265.57
547.255	2271.37
547.708	2291.97
548.161	2308.47
548.614	2302.47
549.067	2313.52
549.52	2304.32
549.973	2270.37
550.426	2273.37
550.879	2257.42
551.332	2268.67
551.785	2280.47
552.238	2308.07
552.691	2313.97
553.144	2339.37
553.596	2374.82
554.049	2400.97
554.502	2446.47
554.955	2495.92
555.407	2520.12
555.86	2498.67
556.313	2466.27
556.765	2452.17
557.218	2419.92
557.67	2416.07
558.123	2390.02
558.576	2376.82
559.028	2364.57
559.48	2394.47
559.933	2378.77
560.385	2305.72
560.838	2232.22
561.29	2173.87
561.742	2171.72
562.195	2109.27
562.647	2109.37
563.099	2085.52
563.551	2088.92
564.004	2085.12
564.456	2073.07
564.908	2028.27
565.36	1990.22
565.812	1951.62
566.264	1937.92
566.716	1901.97
567.168	1873.12
567.62	1886.82
568.072	1860.02
568.524	1848.67
568.976	1847.97
569.428	1830.02
569.88	1828.22
570.332	1841.72
570.784	1841.07
571.235	1835.62
571.687	1848.72
572.139	1847.17
572.59	1868.27
573.042	1875.77
573.494	1880.07
573.945	1855.92
574.397	1823.52
574.849	1806.67
575.3	1809.57
575.752	1780.27
576.203	1771.92
576.655	1776.32
577.106	1754.52
577.557	1748.52
578.009	1738.32
578.46	1744.92
578.912	1726.82
579.363	1750.22
579.814	1732.77
580.265	1736.77
580.717	1741.82
581.168	1737.22
581.619	1733.52
582.07	1757.62
582.521	1756.17
582.972	1740.92
583.423	1743.17
583.875	1753.27
584.326	1770.72
584.777	1796.77
585.227	1829.57
585.678	1842.47
586.129	1860.97
586.58	1871.77
587.031	1898.87
587.482	1944.32
587.933	1968.97
588.384	1972.82
588.834	1960.07
589.285	1949.77
589.736	1952.62
590.186	1956.07
590.637	1931.12
591.088	1889.82
591.538	1852.47
591.989	1829.02
592.439	1807.92
592.89	1794.32
593.34	1781.22
593.791	1783.27
594.241	1757.72
594.692	1755.92
595.142	1756.67
595.593	1760.32
596.043	1765.52
596.493	1789.12
596.943	1778.32
597.394	1825.87
597.844	1852.42
598.294	1888.37
598.744	1950.52
599.195	2037.77
599.645	2151.22
600.095	2260.57
600.545	2353.27
600.995	2455.77
601.445	2547.17
601.895	2663.77
602.345	2742.77
602.795	2708.12
603.245	2605.47
603.695	2460.82
604.145	2341.67
604.594	2229.47
605.044	2114.12
605.494	1984.97
605.944	1877.32
606.393	1830.07
606.843	1803.82
607.293	1794.92
607.743	1789.07
608.192	1783.12
608.642	1793.62
609.091	1783.02
609.541	1796.62
609.99	1784.17
610.44	1755.67
610.889	1738.17
611.339	1719.87
611.788	1696.72
612.238	1710.22
612.687	1706.32
613.136	1710.17
613.586	1735.47
614.035	1722.62
614.484	1750.62
614.933	1747.02
615.383	1708.32
615.832	1668.82
616.281	1650.12
616.73	1611.52
617.179	1567.67
617.628	1542.62
618.077	1516.37
618.526	1499.22
618.975	1488.62
619.424	1458.42
619.873	1467.97
620.322	1454.32
620.771	1452.22
621.22	1436.72
621.669	1397.77
622.118	1386.62
622.567	1377.32
623.015	1351.47
623.464	1349.57
623.913	1330.27
624.361	1336.12
624.81	1325.12
625.259	1320.87
625.707	1321.72
626.156	1326.12
626.604	1351.37
627.053	1355.17
627.501	1348.37
627.95	1354.37
628.398	1377.37
628.847	1353.02
629.295	1351.97
629.744	1342.97
630.192	1317.27
630.64	1296.52
631.089	1282.22
631.537	1258.42
631.985	1237.27
632.433	1236.37
632.881	1222.82
633.33	1237.77
633.778	1225.57
634.226	1234.52
634.674	1244.82
635.122	1263.07
635.57	1278.62
636.018	1302.17
636.466	1293.67
636.914	1299.37
637.362	1326.87
637.81	1346.22
638.258	1379.87
638.705	1392.27
639.153	1438.27
639.601	1444.47
640.049	1484.77
640.497	1524.62
640.944	1557.37
641.392	1495.22
641.84	1418.12
642.287	1356.77
642.735	1326.17
643.182	1310.37
643.63	1313.32
644.078	1318.27
644.525	1333.07
644.973	1367.82
645.42	1403.27
645.867	1428.67
646.315	1460.42
646.762	1508.22
647.21	1550.72
647.657	1615.07
648.104	1685.17
648.551	1720.17
648.999	1847.97
649.446	2012.17
649.893	2238.12
650.34	2594.72
650.787	3181.12
651.234	4069.57
651.682	5587.92
652.129	7843.57
652.576	11077.02
653.023	14516.02
653.47	15535.92
653.917	15535.97
654.363	15535.87
654.81	15532.87
655.257	15533.52
655.704	14206.67
656.151	8657.47
656.598	5720.57
657.044	4133.67
657.491	3254.17
657.938	2666.97
658.385	2270.82
658.831	2000.42
659.278	1803.42
659.724	1663.17
660.171	1545.92
660.618	1440.27
661.064	1371.77
661.511	1325.32
661.957	1290.92
662.404	1261.72
662.85	1259.92
663.296	1239.47
663.743	1202.77
664.189	1191.07
664.635	1190.67
665.082	1156.97
665.528	1141.32
665.974	1108.62
666.42	1098.77
666.867	1083.87
667.313	1029.57
667.759	1020.42
668.205	1016.57
668.651	1017.42
669.097	1006.37
669.543	1021.52
669.989	1034.47
670.435	1026.57
670.881	1041.17
671.327	1089.22
671.773	1166.32
672.219	1245.17
672.665	1320.82
673.11	1366.82
673.556	1378.52
674.002	1407.92
674.448	1424.92
674.893	1224.62
675.339	1062.67
675.785	987.07
676.23	944.37
676.676	902.22
677.122	871.37
677.567	856.92
678.013	827.87
678.458	826.67
678.904	816.42
679.349	806.22
679.794	805.17
680.24	798.97
680.685	796.62
681.131	793.17
681.576	800.42
682.021	811.02
682.466	814.12
682.912	817.07
683.357	857.32
683.802	932.52
684.247	1008.92
684.692	1078.07
685.137	1122.17
685.583	1147.72
686.028	1202.57
686.473	1146.62
686.918	999.22
687.363	914.77
687.807	865.47
688.252	829.22
688.697	796.32
689.142	773.52
689.587	783.37
690.032	797.52
690.477	818.92
690.921	855.52
691.366	899.02
691.811	947.52
692.255	1017.57
692.7	1229.87
693.145	1781.27
693.589	2694.72
694.034	3237.22
694.478	3424.42
694.923	3144.97
695.367	4431.52
695.812	2735.12
696.256	1163.77
696.701	856.47
697.145	790.57
697.59	757.72
698.034	740.12
698.478	736.87
698.922	746.22
699.367	763.57
699.811	800.62
700.255	860.92
700.699	944.27
701.143	1018.67
701.588	1077.27
702.032	1127.02
702.476	1165.42
702.92	1249.42
703.364	1621.02
703.808	2480.27
704.252	3074.77
704.696	3256.02
705.14	3079.32
705.584	4203.47
706.027	2361.22
706.471	1191.52
706.915	894.82
707.359	788.37
707.803	745.87
708.246	713.87
708.69	714.72
709.134	705.87
709.577	695.27
710.021	702.42
710.465	700.97
710.908	690.77
711.352	723.17
711.795	797.62
712.239	853.52
712.682	871.87
713.126	856.52
713.569	963.57
714.012	790.37
714.456	688.72
714.899	657.72
715.342	624.27
715.786	602.82
716.229	584.27
716.672	573.67
717.115	569.87
717.558	576.12
718.002	589.77
718.445	617.52
718.888	652.42
719.331	660.77
719.774	675.67
720.217	666.07
720.66	625.82
721.103	602.77
721.546	573.17
721.989	550.07
722.432	544.17
722.874	539.97
723.317	535.92
723.76	591.52
724.203	727.07
724.645	968.42
725.088	1146.52
725.531	1121.02
725.974	1223.87
726.416	1108.87
726.859	691.67
727.301	564.47
727.744	541.12
728.187	542.87
728.629	552.77
729.071	579.87
729.514	602.42
729.956	630.72
730.399	637.67
730.841	638.57
731.283	627.92
731.726	609.42
732.168	617.92
732.61	656.67
733.053	699.47
733.495	772.37
733.937	858.12
734.379	998.42
734.821	1282.17
735.263	2035.92
735.705	3655.07
736.148	5367.67
736.59	5387.57
737.032	5817.27
737.474	4819.02
737.916	1875.42
738.357	985.77
738.799	758.07
739.241	698.97
739.683	712.12
740.125	730.17
740.567	731.77
741.008	780.52
741.45	819.87
741.892	868.87
742.334	877.57
742.775	862.52
743.217	835.67
743.658	701.62
744.1	722.27
744.542	839.22
744.983	876.07
745.425	909.42
745.866	885.02
