Data from MSPlasma+Separation6_Subt14_10-13-37-276.txt Node
Date: Fri Jul 21 10:13:37 EDT 2017
User: Ender
Spectrometer: HR+D1039
Trigger mode: 0
Integration Time (sec): 6.430000E-3
Scans to average: 20
Electric dark correction enabled: true
Nonlinearity correction enabled: false
Boxcar width: 0
XAxis mode: Wavelengths
Number of Pixels in Spectrum: 2048
>>>>>Begin Spectral Data<<<<<
187.836	2.93
188.309	2.93
188.782	2.93
189.255	3.93
189.728	3.93
190.201	-3.57
190.674	4.63
191.147	-1.82
191.619	0.13
192.092	-1.72
192.565	-5.92
193.038	1.83
193.511	2.53
193.984	2.18
194.456	-3.22
194.929	-2.32
195.402	-2.42
195.874	-1.17
196.347	0.08
196.82	2.93
197.292	-4.37
197.765	-0.72
198.237	-2.57
198.71	-4.42
199.182	-1.87
199.655	1.73
200.127	1.68
200.6	-2.62
201.072	3.83
201.544	-0.27
202.017	4.93
202.489	2.53
202.961	-0.12
203.433	-2.07
203.906	0.33
204.378	0.83
204.85	2.03
205.322	-0.77
205.794	5.33
206.266	2.03
206.739	5.38
207.211	-1.52
207.683	1.43
208.155	1.23
208.627	3.18
209.099	7.33
209.57	2.63
210.042	1.13
210.514	4.83
210.986	-0.07
211.458	-2.22
211.93	1.23
212.402	2.88
212.873	-2.42
213.345	-1.32
213.817	2.43
214.288	-0.17
214.76	1.18
215.232	1.43
215.703	2.48
216.175	3.83
216.646	3.18
217.118	2.63
217.589	-2.52
218.061	1.53
218.532	-5.07
219.004	3.98
219.475	1.88
219.946	5.58
220.418	8.33
220.889	5.78
221.36	5.28
221.832	5.83
222.303	8.33
222.774	4.53
223.245	2.68
223.717	2.18
224.188	4.53
224.659	2.43
225.13	0.88
225.601	6.48
226.072	7.53
226.543	10.63
227.014	4.48
227.485	5.38
227.956	9.68
228.427	10.48
228.898	12.38
229.369	8.73
229.839	13.28
230.31	11.08
230.781	9.83
231.252	15.43
231.722	12.63
232.193	10.23
232.664	11.33
233.135	9.78
233.605	9.03
234.076	18.48
234.546	13.68
235.017	11.18
235.487	10.58
235.958	12.23
236.428	18.48
236.899	12.58
237.369	21.98
237.84	18.73
238.31	21.33
238.78	14.68
239.251	16.08
239.721	13.18
240.191	13.33
240.662	18.38
241.132	19.63
241.602	21.13
242.072	18.73
242.542	15.43
243.013	14.48
243.483	22.23
243.953	17.93
244.423	23.13
244.893	19.28
245.363	29.28
245.833	23.18
246.303	21.83
246.773	28.98
247.243	23.13
247.712	26.03
248.182	26.58
248.652	27.23
249.122	26.08
249.592	28.58
250.061	25.83
250.531	27.13
251.001	29.43
251.471	32.28
251.94	35.43
252.41	29.48
252.879	32.43
253.349	35.73
253.818	26.83
254.288	38.38
254.757	35.33
255.227	36.28
255.696	34.68
256.166	37.93
256.635	36.93
257.105	32.58
257.574	41.53
258.043	35.23
258.513	40.83
258.982	38.13
259.451	41.83
259.92	35.28
260.389	41.48
260.859	39.78
261.328	41.13
261.797	38.18
262.266	48.98
262.735	50.43
263.204	40.08
263.673	49.63
264.142	42.33
264.611	46.08
265.08	48.28
265.549	40.38
266.018	52.08
266.487	48.83
266.955	47.03
267.424	55.48
267.893	58.83
268.362	54.48
268.83	47.23
269.299	50.93
269.768	52.03
270.236	57.88
270.705	61.08
271.174	53.58
271.642	56.78
272.111	54.88
272.579	57.83
273.048	58.68
273.516	57.03
273.985	61.33
274.453	54.13
274.922	63.88
275.39	59.03
275.858	61.83
276.327	64.28
276.795	61.33
277.263	61.83
277.731	65.78
278.2	69.03
278.668	67.13
279.136	69.38
279.604	70.93
280.072	67.93
280.54	69.18
281.008	77.68
281.477	70.83
281.945	70.98
282.413	70.43
282.881	78.63
283.348	76.08
283.816	80.13
284.284	79.53
284.752	74.63
285.22	80.53
285.688	79.58
286.156	77.38
286.623	84.78
287.091	78.88
287.559	88.13
288.026	86.73
288.494	85.53
288.962	87.18
289.429	86.98
289.897	86.93
290.364	84.93
290.832	85.13
291.3	86.13
291.767	88.73
292.234	94.38
292.702	88.83
293.169	95.78
293.637	95.63
294.104	94.93
294.571	96.18
295.039	97.83
295.506	90.33
295.973	94.38
296.44	96.53
296.908	106.33
297.375	96.88
297.842	102.43
298.309	100.23
298.776	105.33
299.243	104.78
299.71	102.73
300.177	105.33
300.644	107.38
301.111	109.73
301.578	110.53
302.045	109.38
302.512	109.68
302.979	115.13
303.446	121.88
303.913	115.63
304.379	121.13
304.846	123.88
305.313	129.48
305.78	132.98
306.246	130.33
306.713	132.08
307.18	134.78
307.646	133.18
308.113	134.98
308.579	138.88
309.046	139.88
309.512	136.23
309.979	142.68
310.445	139.88
310.912	140.78
311.378	146.18
311.845	145.18
312.311	145.58
312.777	148.23
313.244	156.03
313.71	154.68
314.176	156.33
314.642	158.63
315.109	155.48
315.575	157.08
316.041	159.68
316.507	155.68
316.973	160.23
317.439	164.48
317.905	167.18
318.371	162.78
318.837	159.53
319.303	172.33
319.769	167.18
320.235	174.08
320.701	172.48
321.167	168.13
321.633	176.13
322.099	172.18
322.564	176.28
323.03	174.33
323.496	178.43
323.962	180.28
324.427	187.68
324.893	177.78
325.359	190.78
325.824	190.93
326.29	189.18
326.755	190.88
327.221	193.98
327.686	202.43
328.152	203.43
328.617	205.63
329.083	204.63
329.548	208.58
330.014	207.98
330.479	212.38
330.944	215.93
331.41	223.83
331.875	211.73
332.34	213.08
332.805	214.13
333.271	218.43
333.736	216.33
334.201	217.58
334.666	235.13
335.131	239.78
335.596	234.78
336.061	228.33
336.526	234.23
336.991	223.08
337.456	221.23
337.921	225.73
338.386	222.98
338.851	222.98
339.316	227.68
339.781	223.38
340.246	229.83
340.711	231.83
341.175	234.38
341.64	246.98
342.105	249.83
342.569	257.58
343.034	251.73
343.499	253.38
343.963	261.38
344.428	261.03
344.893	263.13
345.357	272.18
345.822	271.18
346.286	279.23
346.751	279.83
347.215	280.38
347.679	291.13
348.144	308.08
348.608	309.23
349.073	305.88
349.537	316.38
350.001	319.63
350.465	318.73
350.93	317.33
351.394	322.28
351.858	324.43
352.322	327.23
352.786	332.93
353.25	332.43
353.715	339.63
354.179	346.98
354.643	358.98
355.107	357.48
355.571	355.48
356.035	356.13
356.498	354.63
356.962	349.33
357.426	352.83
357.89	351.08
358.354	346.38
358.818	346.58
359.281	349.83
359.745	357.23
360.209	346.38
360.673	346.08
361.136	349.33
361.6	352.03
362.064	365.38
362.527	371.08
362.991	370.08
363.454	364.18
363.918	375.43
364.381	379.03
364.845	377.43
365.308	371.98
365.772	378.88
366.235	378.83
366.698	374.58
367.162	374.58
367.625	386.33
368.088	395.78
368.552	385.48
369.015	387.28
369.478	397.43
369.941	391.78
370.404	405.93
370.867	393.48
371.331	402.48
371.794	412.03
372.257	413.83
372.72	407.38
373.183	410.48
373.646	419.68
374.109	417.88
374.572	421.88
375.035	421.03
375.497	425.63
375.96	431.08
376.423	444.03
376.886	445.53
377.349	455.78
377.811	453.08
378.274	452.78
378.737	445.53
379.199	456.58
379.662	455.88
380.125	465.08
380.587	474.13
381.05	472.18
381.512	477.73
381.975	493.53
382.437	499.33
382.9	491.98
383.362	500.73
383.825	506.03
384.287	510.23
384.75	503.98
385.212	507.83
385.674	511.83
386.136	521.38
386.599	512.13
387.061	512.33
387.523	517.03
387.985	522.88
388.447	529.28
388.91	522.73
389.372	533.08
389.834	536.08
390.296	527.08
390.758	535.98
391.22	527.63
391.682	530.73
392.144	530.88
392.606	538.28
393.068	552.48
393.529	576.28
393.991	588.63
394.453	561.98
394.915	543.58
395.377	537.08
395.838	547.28
396.3	544.93
396.762	558.43
397.224	552.28
397.685	545.33
398.147	560.58
398.608	563.63
399.07	567.68
399.531	565.18
399.993	583.08
400.454	591.88
400.916	584.03
401.377	606.43
401.839	607.03
402.3	606.63
402.762	635.93
403.223	679.18
403.684	673.68
404.145	654.78
404.607	638.63
405.068	628.03
405.529	641.63
405.99	650.58
406.451	659.58
406.913	649.73
407.374	651.63
407.835	653.38
408.296	667.23
408.757	669.58
409.218	688.28
409.679	695.53
410.14	692.33
410.601	713.38
411.062	717.38
411.522	717.23
411.983	721.88
412.444	730.38
412.905	736.93
413.366	767.78
413.826	808.38
414.287	893.43
414.748	1069.48
415.208	1088.48
415.669	912.08
416.13	835.68
416.59	815.63
417.051	843.13
417.511	886.83
417.972	947.53
418.432	1013.23
418.893	1128.78
419.353	1081.08
419.814	838.58
420.274	749.03
420.734	741.53
421.195	761.98
421.655	753.73
422.115	768.18
422.576	767.03
423.036	774.23
423.496	799.33
423.956	831.08
424.416	885.13
424.876	990.43
425.336	988.98
425.797	979.43
426.257	964.48
426.717	912.83
427.177	842.98
427.637	857.93
428.097	886.78
428.556	923.28
429.016	979.08
429.476	982.73
429.936	967.18
430.396	960.68
430.856	980.98
431.315	1013.73
431.775	1077.78
432.235	1156.33
432.694	1175.18
433.154	1114.68
433.614	1089.93
434.073	1052.48
434.533	950.03
434.993	917.78
435.452	917.98
435.912	902.93
436.371	905.53
436.83	888.48
437.29	873.48
437.749	849.53
438.209	838.33
438.668	859.33
439.127	871.63
439.587	856.28
440.046	836.88
440.505	846.18
440.964	859.03
441.424	887.38
441.883	903.58
442.342	849.68
442.801	817.38
443.26	823.68
443.719	820.83
444.178	815.63
444.637	833.63
445.096	826.78
445.555	848.48
446.014	844.33
446.473	830.88
446.932	833.43
447.391	847.68
447.849	859.68
448.308	847.78
448.767	847.08
449.226	872.93
449.685	880.08
450.143	917.73
450.602	917.63
451.061	866.08
451.519	870.18
451.978	859.18
452.436	846.43
452.895	865.93
453.353	859.18
453.812	844.48
454.27	853.28
454.729	855.48
455.187	868.28
455.646	871.13
456.104	867.73
456.562	874.28
457.021	889.78
457.479	852.08
457.937	879.68
458.395	908.08
458.854	899.88
459.312	883.13
459.77	893.28
460.228	903.78
460.686	913.58
461.144	914.58
461.602	910.08
462.06	912.73
462.518	925.03
462.976	927.83
463.434	934.88
463.892	953.78
464.35	965.63
464.808	973.48
465.266	992.58
465.724	1003.58
466.181	1015.08
466.639	998.23
467.097	1038.08
467.555	1079.08
468.012	1073.33
468.47	1080.23
468.928	1119.08
469.385	1146.58
469.843	1160.88
470.3	1152.03
470.758	1184.73
471.215	1200.08
471.673	1222.78
472.13	1267.08
472.588	1285.98
473.045	1273.23
473.503	1297.58
473.96	1367.63
474.417	1376.48
474.875	1434.83
475.332	1485.23
475.789	1509.83
476.246	1546.98
476.704	1607.48
477.161	1662.83
477.618	1698.68
478.075	1788.08
478.532	1910.23
478.989	2058.73
479.446	2251.48
479.903	2368.33
480.36	2574.23
480.817	2700.03
481.274	2866.08
481.731	3124.18
482.188	3350.38
482.645	3587.83
483.102	3795.18
483.558	4036.63
484.015	4220.08
484.472	4181.63
484.929	4051.13
485.385	3899.53
485.842	3823.88
486.299	3677.78
486.755	3398.68
487.212	3067.48
487.668	2789.08
488.125	2594.53
488.582	2428.13
489.038	2328.38
489.494	2275.88
489.951	2203.73
490.407	2158.28
490.864	2108.98
491.32	2077.78
491.776	2053.73
492.233	2062.43
492.689	2027.48
493.145	1987.58
493.602	1966.88
494.058	1992.83
494.514	1989.88
494.97	1990.03
495.426	2019.78
495.882	2014.13
496.338	2009.38
496.794	2023.58
497.251	2019.73
497.707	2047.98
498.163	2051.73
498.618	2046.78
499.074	2037.03
499.53	2068.28
499.986	2071.13
500.442	2048.78
500.898	2032.93
501.354	2055.13
501.809	2066.13
502.265	2058.63
502.721	2068.18
503.177	2070.93
503.632	2079.38
504.088	2081.53
504.543	2113.38
504.999	2150.13
505.455	2128.43
505.91	2108.43
506.366	2118.13
506.821	2117.98
507.277	2106.18
507.732	2114.73
508.187	2113.33
508.643	2124.98
509.098	2135.13
509.553	2159.43
510.009	2179.38
510.464	2212.43
510.919	2236.43
511.375	2251.13
511.83	2277.18
512.285	2320.98
512.74	2365.43
513.195	2397.13
513.65	2434.38
514.105	2463.28
514.56	2461.33
515.015	2510.13
515.47	2522.38
515.925	2479.08
516.38	2496.43
516.835	2505.63
517.29	2495.83
517.745	2489.98
518.2	2455.33
518.655	2392.08
519.109	2371.63
519.564	2343.08
520.019	2334.03
520.474	2317.88
520.928	2304.58
521.383	2283.63
521.838	2257.53
522.292	2256.73
522.747	2237.43
523.201	2227.73
523.656	2199.48
524.11	2189.18
524.565	2188.98
525.019	2186.33
525.474	2194.28
525.928	2182.03
526.382	2195.18
526.837	2183.68
527.291	2185.08
527.745	2167.83
528.2	2168.08
528.654	2146.63
529.108	2150.73
529.562	2166.28
530.016	2165.23
530.47	2154.83
530.925	2154.78
531.379	2157.58
531.833	2187.93
532.287	2166.83
532.741	2160.13
533.195	2168.08
533.649	2178.08
534.103	2181.58
534.556	2157.63
535.01	2176.33
535.464	2164.63
535.918	2168.88
536.372	2177.48
536.826	2162.83
537.279	2153.78
537.733	2155.63
538.187	2169.38
538.64	2169.33
539.094	2172.18
539.548	2197.43
540.001	2193.23
540.455	2206.58
540.908	2226.28
541.362	2240.38
541.815	2252.73
542.269	2283.73
542.722	2298.78
543.175	2321.38
543.629	2328.58
544.082	2339.98
544.536	2384.78
544.989	2376.28
545.442	2394.78
545.895	2379.48
546.349	2386.93
546.802	2385.48
547.255	2401.23
547.708	2401.68
548.161	2424.43
548.614	2422.68
549.067	2445.33
549.52	2423.13
549.973	2399.08
550.426	2388.83
550.879	2390.23
551.332	2396.58
551.785	2411.48
552.238	2429.23
552.691	2431.53
553.144	2456.83
553.596	2498.83
554.049	2531.23
554.502	2582.23
554.955	2616.08
555.407	2648.63
555.86	2625.68
556.313	2601.88
556.765	2573.13
557.218	2538.68
557.67	2524.33
558.123	2502.93
558.576	2493.13
559.028	2489.98
559.48	2514.33
559.933	2496.83
560.385	2420.78
560.838	2358.43
561.29	2286.83
561.742	2272.63
562.195	2212.43
562.647	2200.98
563.099	2196.58
563.551	2185.33
564.004	2201.33
564.456	2177.43
564.908	2139.88
565.36	2088.63
565.812	2058.78
566.264	2022.68
566.716	2006.08
567.168	1963.83
567.62	1981.58
568.072	1959.18
568.524	1946.88
568.976	1942.88
569.428	1926.38
569.88	1918.18
570.332	1936.28
570.784	1924.13
571.235	1921.28
571.687	1944.88
572.139	1948.18
572.59	1961.63
573.042	1980.13
573.494	1977.33
573.945	1946.13
574.397	1903.08
574.849	1910.03
575.3	1906.73
575.752	1869.58
576.203	1857.38
576.655	1869.93
577.106	1844.83
577.557	1827.18
578.009	1824.83
578.46	1838.83
578.912	1807.03
579.363	1814.78
579.814	1816.93
580.265	1820.48
580.717	1818.13
581.168	1815.63
581.619	1821.28
582.07	1840.08
582.521	1834.33
582.972	1817.43
583.423	1835.13
583.875	1851.63
584.326	1861.88
584.777	1887.38
585.227	1918.08
585.678	1930.68
586.129	1961.58
586.58	1974.83
587.031	2002.58
587.482	2054.43
587.933	2086.33
588.384	2071.28
588.834	2061.63
589.285	2042.53
589.736	2037.73
590.186	2056.83
590.637	2020.03
591.088	1986.48
591.538	1940.98
591.989	1924.08
592.439	1896.88
592.89	1875.98
593.34	1876.18
593.791	1861.53
594.241	1842.08
594.692	1850.03
595.142	1847.28
595.593	1837.18
596.043	1843.53
596.493	1870.03
596.943	1863.18
597.394	1907.03
597.844	1934.88
598.294	1974.18
598.744	2043.28
599.195	2139.48
599.645	2256.93
600.095	2365.83
600.545	2467.28
600.995	2565.63
601.445	2675.63
601.895	2794.98
602.345	2874.68
602.795	2836.73
603.245	2723.63
603.695	2572.63
604.145	2458.63
604.594	2330.23
605.044	2220.58
605.494	2077.53
605.944	1970.43
606.393	1926.98
606.843	1878.63
607.293	1880.43
607.743	1869.73
608.192	1873.03
608.642	1882.73
609.091	1870.73
609.541	1875.53
609.99	1871.53
610.44	1837.98
610.889	1816.98
611.339	1790.33
611.788	1767.48
612.238	1776.38
612.687	1786.58
613.136	1799.03
613.586	1822.08
614.035	1808.68
614.484	1829.83
614.933	1809.28
615.383	1780.28
615.832	1741.98
616.281	1722.98
616.73	1679.63
617.179	1657.73
617.628	1615.18
618.077	1591.63
618.526	1562.68
618.975	1550.48
619.424	1532.43
619.873	1530.88
620.322	1512.28
620.771	1512.58
621.22	1490.33
621.669	1460.13
622.118	1443.08
622.567	1435.73
623.015	1405.18
623.464	1401.58
623.913	1388.78
624.361	1390.98
624.81	1389.18
625.259	1390.08
625.707	1379.68
626.156	1392.73
626.604	1411.63
627.053	1415.88
627.501	1410.88
627.95	1421.43
628.398	1440.78
628.847	1418.78
629.295	1403.58
629.744	1404.73
630.192	1378.38
630.64	1360.33
631.089	1330.73
631.537	1298.08
631.985	1292.53
632.433	1287.43
632.881	1280.93
633.33	1288.43
633.778	1281.23
634.226	1287.23
634.674	1314.08
635.122	1317.83
635.57	1342.33
636.018	1356.53
636.466	1341.48
636.914	1355.53
637.362	1378.83
637.81	1395.18
638.258	1437.28
638.705	1455.58
639.153	1501.03
639.601	1519.48
640.049	1542.93
640.497	1587.48
640.944	1624.03
641.392	1572.03
641.84	1485.58
642.287	1412.18
642.735	1379.98
643.182	1374.98
643.63	1370.18
644.078	1374.28
644.525	1394.38
644.973	1425.88
645.42	1453.23
645.867	1492.23
646.315	1519.53
646.762	1585.63
647.21	1624.93
647.657	1704.13
648.104	1740.38
648.551	1801.83
648.999	1937.28
649.446	2101.68
649.893	2338.88
650.34	2726.83
650.787	3338.33
651.234	4251.73
651.682	5832.58
652.129	8170.58
652.576	11581.88
653.023	15106.68
653.47	15534.03
653.917	15534.08
654.363	15533.98
654.81	15530.98
655.257	15531.63
655.704	14928.53
656.151	9105.38
656.598	6021.68
657.044	4330.63
657.491	3418.78
657.938	2784.08
658.385	2360.18
658.831	2109.23
659.278	1898.18
659.724	1737.33
660.171	1620.28
660.618	1500.98
661.064	1434.63
661.511	1390.13
661.957	1347.68
662.404	1313.98
662.85	1307.23
663.296	1295.43
663.743	1254.58
664.189	1243.88
664.635	1238.63
665.082	1211.58
665.528	1194.08
665.974	1157.78
666.42	1144.78
666.867	1130.18
667.313	1078.78
667.759	1069.03
668.205	1059.98
668.651	1057.43
669.097	1059.93
669.543	1072.88
669.989	1074.03
670.435	1082.28
670.881	1086.13
671.327	1130.48
671.773	1210.48
672.219	1290.68
672.665	1377.43
673.11	1422.43
673.556	1427.28
674.002	1477.58
674.448	1491.98
674.893	1286.48
675.339	1113.73
675.785	1031.93
676.23	984.38
676.676	943.73
677.122	906.43
677.567	889.83
678.013	859.98
678.458	855.33
678.904	851.73
679.349	837.53
679.794	840.73
680.24	833.33
680.685	826.63
681.131	833.98
681.576	829.78
682.021	834.63
682.466	847.23
682.912	851.78
683.357	897.43
683.802	960.73
684.247	1067.23
684.692	1118.43
685.137	1176.93
685.583	1198.68
686.028	1257.58
686.473	1194.23
686.918	1036.98
687.363	950.53
687.807	910.83
688.252	859.38
688.697	829.78
689.142	804.83
689.587	808.33
690.032	828.63
690.477	861.28
690.921	894.93
691.366	945.78
691.811	979.23
692.255	1062.73
692.7	1284.08
693.145	1836.28
693.589	2803.53
694.034	3350.43
694.478	3578.08
694.923	3274.28
695.367	4657.58
695.812	2861.93
696.256	1206.73
696.701	881.38
697.145	812.43
697.59	794.18
698.034	774.78
698.478	770.63
698.922	778.93
699.367	792.13
699.811	823.73
700.255	896.78
700.699	970.38
701.143	1062.48
701.588	1121.53
702.032	1176.28
702.476	1212.13
702.92	1287.93
703.364	1675.68
703.808	2568.78
704.252	3203.63
704.696	3401.03
705.14	3213.73
705.584	4421.38
706.027	2461.88
706.471	1236.63
706.915	928.28
707.359	823.43
707.803	765.18
708.246	738.13
708.69	738.48
709.134	731.38
709.577	729.03
710.021	727.78
710.465	723.28
710.908	724.43
711.352	747.03
711.795	827.48
712.239	890.98
712.682	914.63
713.126	903.38
713.569	995.83
714.012	828.33
714.456	720.93
714.899	677.58
715.342	650.58
715.786	628.73
716.229	614.13
716.672	600.08
717.115	595.58
717.558	595.23
718.002	617.38
718.445	643.23
718.888	681.68
719.331	694.23
719.774	702.53
720.217	697.43
720.66	657.28
721.103	625.13
721.546	589.28
721.989	574.63
722.432	570.93
722.874	564.03
723.317	566.13
723.76	614.68
724.203	753.13
724.645	1001.78
725.088	1182.53
725.531	1166.83
725.974	1278.03
726.416	1145.48
726.859	711.83
727.301	590.73
727.744	558.18
728.187	556.98
728.629	569.08
729.071	603.33
729.514	626.03
729.956	652.08
730.399	665.88
730.841	666.13
731.283	650.28
731.726	634.43
732.168	645.18
732.61	681.88
733.053	727.03
733.495	798.38
733.937	893.93
734.379	1045.08
734.821	1332.08
735.263	2112.78
735.705	3797.93
736.148	5569.83
736.59	5633.98
737.032	6121.08
737.474	5054.28
737.916	1941.03
738.357	1021.13
738.799	784.53
739.241	725.13
739.683	735.73
740.125	751.73
740.567	765.08
741.008	817.53
741.45	855.63
741.892	904.88
742.334	908.43
742.775	900.48
743.217	869.13
743.658	723.38
744.1	746.68
744.542	873.18
744.983	906.28
745.425	953.03
