Data from MSPlasma+Separation6_Subt14_10-13-49-620.txt Node
Date: Fri Jul 21 10:13:49 EDT 2017
User: Ender
Spectrometer: HR+D1039
Trigger mode: 0
Integration Time (sec): 6.430000E-3
Scans to average: 20
Electric dark correction enabled: true
Nonlinearity correction enabled: false
Boxcar width: 0
XAxis mode: Wavelengths
Number of Pixels in Spectrum: 2048
>>>>>Begin Spectral Data<<<<<
187.836	1.74
188.309	1.74
188.782	1.74
189.255	-0.46
189.728	3.29
190.201	-0.91
190.674	1.69
191.147	-3.51
191.619	0.34
192.092	-0.51
192.565	-0.66
193.038	3.09
193.511	0.89
193.984	-0.91
194.456	-1.71
194.929	-0.96
195.402	-0.11
195.874	-1.36
196.347	4.14
196.82	3.19
197.292	-4.01
197.765	-3.11
198.237	-3.51
198.71	-1.56
199.182	1.64
199.655	4.54
200.127	0.54
200.6	0.99
201.072	4.74
201.544	-0.26
202.017	-1.56
202.489	1.89
202.961	-5.66
203.433	-3.31
203.906	2.24
204.378	3.94
204.85	-0.01
205.322	-1.06
205.794	0.34
206.266	-3.76
206.739	-0.81
207.211	0.64
207.683	0.94
208.155	2.89
208.627	-0.46
209.099	6.29
209.57	1.89
210.042	4.19
210.514	-0.26
210.986	0.04
211.458	-2.16
211.93	2.89
212.402	1.39
212.873	-0.16
213.345	1.54
213.817	1.59
214.288	1.34
214.76	1.09
215.232	3.49
215.703	0.59
216.175	2.79
216.646	4.19
217.118	3.44
217.589	-4.56
218.061	-1.51
218.532	0.94
219.004	6.19
219.475	8.99
219.946	2.99
220.418	3.84
220.889	6.94
221.36	4.69
221.832	6.09
222.303	3.44
222.774	7.64
223.245	3.29
223.717	4.64
224.188	3.79
224.659	2.79
225.13	2.04
225.601	4.34
226.072	6.99
226.543	6.04
227.014	7.04
227.485	9.19
227.956	12.94
228.427	8.99
228.898	9.19
229.369	4.34
229.839	9.24
230.31	10.84
230.781	6.74
231.252	13.49
231.722	7.79
232.193	10.89
232.664	7.84
233.135	8.64
233.605	12.79
234.076	10.99
234.546	10.89
235.017	7.94
235.487	8.79
235.958	9.74
236.428	13.99
236.899	13.64
237.369	18.29
237.84	16.09
238.31	17.59
238.78	9.84
239.251	14.44
239.721	9.69
240.191	15.89
240.662	15.84
241.132	17.94
241.602	17.09
242.072	20.94
242.542	13.19
243.013	21.09
243.483	17.49
243.953	18.99
244.423	20.99
244.893	19.99
245.363	26.39
245.833	22.09
246.303	21.44
246.773	22.09
247.243	23.04
247.712	25.29
248.182	25.64
248.652	30.59
249.122	25.04
249.592	29.74
250.061	22.79
250.531	27.24
251.001	29.99
251.471	29.49
251.94	25.34
252.41	25.99
252.879	28.04
253.349	33.64
253.818	29.64
254.288	31.34
254.757	33.54
255.227	33.94
255.696	31.99
256.166	36.54
256.635	37.09
257.105	34.24
257.574	37.54
258.043	37.14
258.513	37.39
258.982	36.89
259.451	40.79
259.92	36.89
260.389	42.09
260.859	40.04
261.328	41.34
261.797	38.19
262.266	43.69
262.735	44.19
263.204	42.79
263.673	39.54
264.142	40.29
264.611	45.94
265.08	40.99
265.549	42.24
266.018	46.89
266.487	46.59
266.955	44.74
267.424	51.14
267.893	51.54
268.362	50.19
268.83	46.69
269.299	47.39
269.768	51.44
270.236	48.24
270.705	56.59
271.174	50.49
271.642	50.74
272.111	53.44
272.579	55.84
273.048	54.19
273.516	57.04
273.985	56.94
274.453	56.09
274.922	59.99
275.39	58.09
275.858	59.69
276.327	63.04
276.795	57.39
277.263	58.64
277.731	56.49
278.2	65.69
278.668	58.79
279.136	69.14
279.604	65.04
280.072	65.14
280.54	63.39
281.008	70.19
281.477	73.04
281.945	64.89
282.413	68.24
282.881	71.49
283.348	78.79
283.816	72.49
284.284	77.14
284.752	74.64
285.22	79.29
285.688	80.64
286.156	77.39
286.623	78.79
287.091	74.39
287.559	81.54
288.026	79.89
288.494	83.44
288.962	83.19
289.429	84.54
289.897	80.54
290.364	79.54
290.832	88.54
291.3	88.39
291.767	85.39
292.234	86.84
292.702	86.79
293.169	91.34
293.637	95.94
294.104	93.24
294.571	90.14
295.039	94.84
295.506	90.64
295.973	93.84
296.44	93.59
296.908	98.59
297.375	96.09
297.842	97.39
298.309	97.19
298.776	95.49
299.243	104.04
299.71	100.54
300.177	102.79
300.644	99.99
301.111	103.04
301.578	101.29
302.045	106.54
302.512	106.79
302.979	108.74
303.446	112.79
303.913	114.04
304.379	117.19
304.846	115.19
305.313	121.99
305.78	125.64
306.246	120.84
306.713	126.74
307.18	126.04
307.646	134.14
308.113	125.69
308.579	135.44
309.046	137.04
309.512	136.74
309.979	133.89
310.445	133.39
310.912	138.29
311.378	144.19
311.845	145.44
312.311	142.39
312.777	142.69
313.244	149.29
313.71	147.59
314.176	150.64
314.642	151.94
315.109	153.84
315.575	151.34
316.041	152.39
316.507	147.89
316.973	159.94
317.439	158.89
317.905	160.29
318.371	158.29
318.837	158.34
319.303	163.59
319.769	160.29
320.235	162.94
320.701	171.29
321.167	167.34
321.633	165.54
322.099	167.79
322.564	174.19
323.03	167.29
323.496	172.69
323.962	177.49
324.427	179.14
324.893	174.84
325.359	185.29
325.824	181.19
326.29	181.84
326.755	180.39
327.221	186.89
327.686	201.34
328.152	194.34
328.617	197.64
329.083	199.94
329.548	203.04
330.014	201.09
330.479	205.89
330.944	207.29
331.41	209.19
331.875	202.09
332.34	205.69
332.805	212.54
333.271	205.59
333.736	210.09
334.201	210.39
334.666	229.49
335.131	229.19
335.596	229.49
336.061	220.69
336.526	224.49
336.991	214.94
337.456	216.29
337.921	209.09
338.386	214.79
338.851	215.84
339.316	220.99
339.781	214.84
340.246	224.19
340.711	226.59
341.175	231.89
341.64	238.94
342.105	238.54
342.569	248.39
343.034	241.84
343.499	243.54
343.963	253.99
344.428	249.84
344.893	249.39
345.357	259.54
345.822	258.74
346.286	261.49
346.751	267.29
347.215	267.84
347.679	279.79
348.144	294.64
348.608	296.74
349.073	293.44
349.537	305.94
350.001	302.19
350.465	305.09
350.93	307.24
351.394	304.84
351.858	308.14
352.322	314.24
352.786	322.39
353.25	319.39
353.715	323.89
354.179	334.84
354.643	344.34
355.107	351.44
355.571	344.29
356.035	342.84
356.498	340.24
356.962	335.54
357.426	335.49
357.89	340.64
358.354	322.94
358.818	332.69
359.281	334.94
359.745	337.79
360.209	337.64
360.673	341.04
361.136	336.44
361.6	344.29
362.064	349.09
362.527	353.29
362.991	349.74
363.454	350.64
363.918	361.94
364.381	356.34
364.845	363.14
365.308	366.39
365.772	365.29
366.235	366.24
366.698	365.09
367.162	363.74
367.625	373.99
368.088	381.59
368.552	374.74
369.015	373.59
369.478	382.59
369.941	387.84
370.404	387.74
370.867	383.69
371.331	392.69
371.794	401.29
372.257	400.79
372.72	397.74
373.183	400.04
373.646	398.34
374.109	403.69
374.572	408.24
375.035	410.49
375.497	416.94
375.96	418.34
376.423	422.74
376.886	427.29
377.349	434.94
377.811	435.54
378.274	437.74
378.737	428.89
379.199	441.94
379.662	440.84
380.125	453.84
380.587	453.14
381.05	459.44
381.512	471.64
381.975	477.24
382.437	485.04
382.9	478.09
383.362	478.99
383.825	486.14
384.287	496.84
384.75	486.94
385.212	491.39
385.674	495.74
386.136	495.14
386.599	501.24
387.061	495.64
387.523	502.89
387.985	499.64
388.447	506.64
388.91	513.84
389.372	510.39
389.834	509.24
390.296	506.34
390.758	513.69
391.22	511.44
391.682	517.29
392.144	514.74
392.606	515.44
393.068	531.44
393.529	556.99
393.991	563.89
394.453	546.44
394.915	529.79
395.377	518.09
395.838	524.69
396.3	525.09
396.762	542.24
397.224	532.89
397.685	537.29
398.147	538.34
398.608	550.14
399.07	555.04
399.531	552.34
399.993	563.24
400.454	578.79
400.916	572.64
401.377	583.04
401.839	592.89
402.3	587.64
402.762	613.94
403.223	654.19
403.684	650.84
404.145	633.09
404.607	619.04
405.068	606.89
405.529	622.49
405.99	624.09
406.451	639.69
406.913	627.64
407.374	628.24
407.835	627.14
408.296	643.49
408.757	649.54
409.218	668.99
409.679	668.69
410.14	672.89
410.601	692.14
411.062	696.94
411.522	691.89
411.983	694.34
412.444	704.59
412.905	713.19
413.366	735.44
413.826	771.74
414.287	871.69
414.748	1023.34
415.208	1055.84
415.669	889.04
416.13	804.84
416.59	789.44
417.051	819.44
417.511	852.79
417.972	908.49
418.432	979.19
418.893	1081.39
419.353	1046.14
419.814	815.19
420.274	721.44
420.734	714.04
421.195	735.09
421.655	733.69
422.115	749.14
422.576	746.04
423.036	760.74
423.496	778.54
423.956	800.59
424.416	857.44
424.876	966.89
425.336	954.49
425.797	940.24
426.257	928.69
426.717	877.34
427.177	822.14
427.637	828.59
428.097	859.99
428.556	887.99
429.016	948.34
429.476	954.84
429.936	935.34
430.396	938.44
430.856	956.24
431.315	972.14
431.775	1044.54
432.235	1117.59
432.694	1137.54
433.154	1069.54
433.614	1057.69
434.073	1021.09
434.533	923.24
434.993	885.99
435.452	895.29
435.912	871.24
436.371	875.44
436.83	865.39
437.29	842.14
437.749	816.84
438.209	818.49
438.668	833.14
439.127	845.64
439.587	827.79
440.046	805.69
440.505	824.94
440.964	831.04
441.424	861.19
441.883	876.29
442.342	818.84
442.801	787.09
443.26	810.49
443.719	789.49
444.178	788.34
444.637	799.84
445.096	810.09
445.555	820.54
446.014	816.49
446.473	806.94
446.932	805.14
447.391	825.34
447.849	833.99
448.308	819.94
448.767	826.59
449.226	841.94
449.685	853.54
450.143	881.29
450.602	885.19
451.061	839.34
451.519	835.39
451.978	826.09
452.436	827.79
452.895	837.04
453.353	833.29
453.812	826.59
454.27	829.44
454.729	822.79
455.187	841.89
455.646	833.79
456.104	840.69
456.562	849.19
457.021	861.19
457.479	828.59
457.937	851.44
458.395	883.19
458.854	853.84
459.312	848.89
459.77	868.14
460.228	880.89
460.686	884.99
461.144	887.49
461.602	881.49
462.06	876.14
462.518	899.84
462.976	904.34
463.434	907.99
463.892	919.84
464.35	932.49
464.808	955.39
465.266	959.34
465.724	965.69
466.181	983.79
466.639	969.64
467.097	1004.24
467.555	1050.64
468.012	1031.74
468.47	1043.64
468.928	1088.29
469.385	1106.29
469.843	1125.54
470.3	1111.44
470.758	1149.44
471.215	1171.24
471.673	1195.54
472.13	1223.94
472.588	1252.59
473.045	1237.99
473.503	1265.19
473.96	1318.14
474.417	1331.84
474.875	1388.99
475.332	1440.59
475.789	1450.34
476.246	1497.44
476.704	1561.49
477.161	1601.74
477.618	1647.29
478.075	1734.44
478.532	1862.99
478.989	1997.79
479.446	2188.44
479.903	2291.49
480.36	2484.59
480.817	2624.14
481.274	2791.04
481.731	3041.24
482.188	3263.24
482.645	3493.64
483.102	3675.89
483.558	3912.99
484.015	4086.09
484.472	4062.09
484.929	3946.04
485.385	3787.09
485.842	3711.34
486.299	3569.84
486.755	3307.04
487.212	2991.24
487.668	2721.29
488.125	2524.89
488.582	2356.19
489.038	2264.49
489.494	2204.84
489.951	2131.14
490.407	2067.29
490.864	2045.49
491.32	1993.24
491.776	1983.24
492.233	2005.89
492.689	1967.74
493.145	1926.39
493.602	1905.44
494.058	1922.79
494.514	1931.79
494.97	1921.49
495.426	1953.49
495.882	1954.99
496.338	1953.74
496.794	1965.44
497.251	1957.19
497.707	1991.29
498.163	1982.69
498.618	1985.49
499.074	1985.44
499.53	1996.74
499.986	2019.69
500.442	1988.09
500.898	1970.19
501.354	1997.69
501.809	1998.29
502.265	1992.39
502.721	2012.29
503.177	2004.69
503.632	2015.44
504.088	2023.84
504.543	2047.94
504.999	2063.84
505.455	2057.19
505.91	2044.04
506.366	2049.49
506.821	2057.29
507.277	2038.29
507.732	2045.89
508.187	2043.09
508.643	2069.14
509.098	2065.69
509.553	2094.69
510.009	2116.09
510.464	2150.29
510.919	2168.89
511.375	2185.49
511.83	2216.14
512.285	2242.44
512.74	2296.59
513.195	2318.54
513.65	2342.34
514.105	2382.99
514.56	2391.99
515.015	2428.89
515.47	2436.94
515.925	2407.49
516.38	2427.09
516.835	2419.34
517.29	2409.74
517.745	2415.89
518.2	2377.94
518.655	2323.59
519.109	2307.04
519.564	2272.24
520.019	2259.89
520.474	2245.49
520.928	2223.69
521.383	2209.44
521.838	2206.04
522.292	2192.39
522.747	2175.74
523.201	2162.64
523.656	2137.14
524.11	2131.19
524.565	2116.29
525.019	2130.79
525.474	2125.24
525.928	2114.79
526.382	2115.19
526.837	2114.19
527.291	2124.54
527.745	2114.14
528.2	2112.99
528.654	2089.99
529.108	2098.39
529.562	2100.84
530.016	2088.84
530.47	2089.39
530.925	2088.09
531.379	2092.39
531.833	2122.94
532.287	2103.79
532.741	2100.79
533.195	2097.79
533.649	2103.99
534.103	2114.64
534.556	2087.44
535.01	2097.34
535.464	2088.59
535.918	2086.49
536.372	2106.19
536.826	2106.94
537.279	2078.29
537.733	2082.04
538.187	2093.14
538.64	2095.04
539.094	2120.99
539.548	2148.64
540.001	2138.69
540.455	2146.54
540.908	2156.24
541.362	2165.49
541.815	2192.34
542.269	2236.74
542.722	2218.24
543.175	2249.64
543.629	2266.24
544.082	2265.94
544.536	2300.04
544.989	2301.29
545.442	2318.94
545.895	2307.34
546.349	2315.84
546.802	2321.54
547.255	2315.19
547.708	2335.49
548.161	2362.24
548.614	2349.59
549.067	2371.09
549.52	2347.24
549.973	2327.59
550.426	2325.39
550.879	2321.54
551.332	2320.79
551.785	2340.79
552.238	2364.89
552.691	2362.39
553.144	2399.69
553.596	2430.34
554.049	2459.74
554.502	2508.44
554.955	2543.39
555.407	2571.34
555.86	2541.24
556.313	2515.29
556.765	2499.39
557.218	2477.74
557.67	2468.34
558.123	2416.64
558.576	2424.49
559.028	2415.79
559.48	2444.89
559.933	2427.54
560.385	2360.99
560.838	2287.74
561.29	2219.34
561.742	2211.09
562.195	2153.04
562.647	2143.99
563.099	2132.84
563.551	2108.44
564.004	2125.79
564.456	2113.74
564.908	2077.59
565.36	2025.04
565.812	1987.74
566.264	1973.24
566.716	1947.29
567.168	1911.19
567.62	1921.44
568.072	1895.89
568.524	1889.74
568.976	1880.94
569.428	1866.54
569.88	1860.79
570.332	1874.54
570.784	1884.09
571.235	1868.89
571.687	1890.44
572.139	1889.29
572.59	1904.59
573.042	1917.84
573.494	1911.54
573.945	1890.44
574.397	1851.14
574.849	1846.89
575.3	1867.84
575.752	1813.74
576.203	1808.54
576.655	1812.64
577.106	1782.44
577.557	1780.94
578.009	1770.09
578.46	1775.44
578.912	1742.54
579.363	1764.34
579.814	1760.14
580.265	1768.09
580.717	1764.74
581.168	1768.99
581.619	1766.39
582.07	1796.39
582.521	1792.64
582.972	1780.64
583.423	1783.14
583.875	1787.89
584.326	1801.19
584.777	1834.64
585.227	1856.69
585.678	1872.64
586.129	1901.24
586.58	1920.59
587.031	1944.39
587.482	1991.19
587.933	2018.19
588.384	2010.09
588.834	1994.49
589.285	1983.14
589.736	1982.34
590.186	1980.29
590.637	1977.49
591.088	1917.44
591.538	1892.54
591.989	1868.39
592.439	1842.19
592.89	1828.39
593.34	1833.44
593.791	1802.44
594.241	1789.59
594.692	1781.49
595.142	1787.34
595.593	1777.94
596.043	1805.04
596.493	1816.19
596.943	1818.79
597.394	1863.24
597.844	1885.69
598.294	1923.69
598.744	1989.04
599.195	2077.79
599.645	2188.04
600.095	2295.54
600.545	2399.04
600.995	2508.39
601.445	2597.89
601.895	2712.54
602.345	2793.24
602.795	2756.94
603.245	2654.49
603.695	2501.54
604.145	2376.24
604.594	2272.99
605.044	2157.74
605.494	2007.89
605.944	1909.89
606.393	1865.44
606.843	1841.39
607.293	1833.84
607.743	1819.49
608.192	1838.49
608.642	1827.29
609.091	1820.99
609.541	1824.74
609.99	1831.14
610.44	1784.09
610.889	1765.19
611.339	1733.44
611.788	1719.84
612.238	1722.09
612.687	1740.19
613.136	1751.99
613.586	1764.29
614.035	1760.54
614.484	1768.79
614.933	1765.84
615.383	1736.39
615.832	1693.24
616.281	1671.94
616.73	1634.39
617.179	1594.34
617.628	1566.54
618.077	1551.24
618.526	1520.89
618.975	1515.84
619.424	1491.69
619.873	1483.39
620.322	1480.19
620.771	1466.74
621.22	1447.84
621.669	1418.84
622.118	1415.69
622.567	1394.79
623.015	1367.04
623.464	1370.19
623.913	1351.49
624.361	1350.99
624.81	1342.24
625.259	1352.19
625.707	1340.99
626.156	1359.64
626.604	1370.09
627.053	1375.99
627.501	1370.09
627.95	1372.49
628.398	1392.34
628.847	1380.14
629.295	1376.79
629.744	1364.64
630.192	1339.69
630.64	1320.84
631.089	1306.69
631.537	1274.24
631.985	1256.29
632.433	1254.74
632.881	1244.64
633.33	1256.64
633.778	1254.74
634.226	1261.54
634.674	1274.84
635.122	1283.29
635.57	1295.19
636.018	1315.99
636.466	1313.94
636.914	1314.14
637.362	1336.09
637.81	1359.09
638.258	1402.84
638.705	1426.69
639.153	1468.09
639.601	1474.39
640.049	1508.94
640.497	1547.89
640.944	1583.39
641.392	1522.54
641.84	1443.34
642.287	1380.59
642.735	1347.89
643.182	1331.99
643.63	1337.29
644.078	1341.89
644.525	1362.99
644.973	1390.34
645.42	1418.54
645.867	1452.64
646.315	1479.14
646.762	1540.04
647.21	1571.14
647.657	1655.14
648.104	1718.09
648.551	1747.09
648.999	1883.29
649.446	2059.69
649.893	2301.79
650.34	2668.79
650.787	3263.44
651.234	4177.94
651.682	5720.64
652.129	8049.69
652.576	11394.59
653.023	14875.14
653.47	15533.74
653.917	15533.79
654.363	15533.69
654.81	15530.69
655.257	15531.34
655.704	14619.14
656.151	8930.59
656.598	5874.29
657.044	4229.94
657.491	3337.29
657.938	2713.89
658.385	2299.24
658.831	2036.19
659.278	1856.69
659.724	1691.99
660.171	1582.39
660.618	1466.89
661.064	1398.14
661.511	1360.79
661.957	1311.34
662.404	1278.14
662.85	1277.69
663.296	1248.89
663.743	1224.69
664.189	1218.24
664.635	1203.84
665.082	1178.34
665.528	1165.44
665.974	1127.04
666.42	1120.74
666.867	1097.49
667.313	1052.04
667.759	1042.04
668.205	1024.84
668.651	1034.24
669.097	1023.29
669.543	1036.49
669.989	1052.74
670.435	1046.04
670.881	1057.39
671.327	1110.24
671.773	1188.04
672.219	1265.49
672.665	1346.69
673.11	1388.89
673.556	1399.84
674.002	1431.29
674.448	1454.64
674.893	1254.49
675.339	1088.84
675.785	998.24
676.23	953.04
676.676	921.19
677.122	898.59
677.567	874.94
678.013	839.79
678.458	841.84
678.904	832.99
679.349	819.49
679.794	812.04
680.24	806.64
680.685	802.29
681.131	805.04
681.576	809.04
682.021	812.39
682.466	824.39
682.912	836.94
683.357	870.74
683.802	944.24
684.247	1023.24
684.692	1096.04
685.137	1141.69
685.583	1160.09
686.028	1224.79
686.473	1169.24
686.918	1013.59
687.363	921.89
687.807	873.49
688.252	838.79
688.697	805.04
689.142	787.99
689.587	788.99
690.032	803.59
690.477	830.99
690.921	871.84
691.366	917.04
691.811	958.14
692.255	1031.94
692.7	1250.29
693.145	1789.74
693.589	2738.99
694.034	3259.79
694.478	3472.09
694.923	3187.49
695.367	4503.14
695.812	2777.69
696.256	1183.29
696.701	870.79
697.145	797.59
697.59	766.09
698.034	754.84
698.478	751.29
698.922	753.44
699.367	768.19
699.811	806.19
700.255	872.64
700.699	955.19
701.143	1034.94
701.588	1083.14
702.032	1139.54
702.476	1174.94
702.92	1260.04
703.364	1635.69
703.808	2507.44
704.252	3118.99
704.696	3311.34
705.14	3118.14
705.584	4260.19
706.027	2387.74
706.471	1210.19
706.915	903.59
707.359	806.34
707.803	756.64
708.246	719.64
708.69	715.34
709.134	712.04
709.577	704.89
710.021	714.79
710.465	706.74
710.908	695.19
711.352	737.34
711.795	808.69
712.239	868.49
712.682	889.19
713.126	876.59
713.569	970.29
714.012	801.39
714.456	698.39
714.899	661.29
715.342	635.34
715.786	614.94
716.229	595.49
716.672	578.89
717.115	578.64
717.558	589.24
718.002	607.44
718.445	625.84
718.888	657.64
719.331	674.09
719.774	688.99
720.217	679.09
720.66	645.29
721.103	609.99
721.546	575.59
721.989	552.44
722.432	549.49
722.874	543.64
723.317	553.74
723.76	599.29
724.203	735.24
724.645	977.34
725.088	1151.84
725.531	1139.29
725.974	1237.64
726.416	1115.29
726.859	690.59
727.301	573.69
727.744	542.24
728.187	545.69
728.629	561.09
729.071	580.19
729.514	616.69
729.956	640.94
730.399	650.99
730.841	643.29
731.283	633.64
731.726	618.24
732.168	625.64
732.61	654.74
733.053	703.64
733.495	784.94
733.937	868.39
734.379	1021.09
734.821	1296.04
735.263	2058.29
735.705	3706.09
736.148	5420.04
736.59	5470.84
737.032	5917.94
737.474	4901.99
737.916	1886.09
738.357	984.29
738.799	760.09
739.241	707.24
739.683	717.14
740.125	733.09
740.567	745.04
741.008	793.89
741.45	827.64
741.892	878.09
742.334	888.99
742.775	878.24
743.217	842.44
743.658	706.29
744.1	734.24
744.542	848.49
744.983	880.09
745.425	921.94
745.866	895.34
