Data from MSPlasma+Separation6_Subt14_10-14-02-993.txt Node
Date: Fri Jul 21 10:14:02 EDT 2017
User: Ender
Spectrometer: HR+D1039
Trigger mode: 0
Integration Time (sec): 6.430000E-3
Scans to average: 20
Electric dark correction enabled: true
Nonlinearity correction enabled: false
Boxcar width: 0
XAxis mode: Wavelengths
Number of Pixels in Spectrum: 2048
>>>>>Begin Spectral Data<<<<<
187.836	-1.39
188.309	-1.39
188.782	-1.39
189.255	-1.34
189.728	3.06
190.201	-1.84
190.674	0.86
191.147	-1.99
191.619	1.26
192.092	1.61
192.565	-3.09
193.038	0.56
193.511	0.61
193.984	2.91
194.456	1.56
194.929	-2.19
195.402	-1.39
195.874	0.81
196.347	-0.14
196.82	-1.09
197.292	-4.99
197.765	1.41
198.237	-2.99
198.71	-3.94
199.182	2.86
199.655	3.26
200.127	3.06
200.6	-0.79
201.072	2.96
201.544	2.01
202.017	3.81
202.489	-0.64
202.961	3.36
203.433	-3.74
203.906	0.61
204.378	1.16
204.85	2.31
205.322	0.46
205.794	4.81
206.266	0.26
206.739	1.01
207.211	2.41
207.683	-1.59
208.155	2.01
208.627	0.41
209.099	6.16
209.57	1.11
210.042	2.71
210.514	3.96
210.986	-0.09
211.458	1.16
211.93	4.41
212.402	1.56
212.873	-1.64
213.345	-0.74
213.817	4.31
214.288	-4.99
214.76	3.81
215.232	0.26
215.703	5.26
216.175	1.51
216.646	2.76
217.118	4.11
217.589	0.86
218.061	3.11
218.532	-0.54
219.004	3.26
219.475	-1.59
219.946	1.46
220.418	8.16
220.889	5.01
221.36	5.96
221.832	5.51
222.303	4.81
222.774	8.66
223.245	0.06
223.717	1.26
224.188	7.31
224.659	-0.69
225.13	1.21
225.601	3.21
226.072	4.61
226.543	14.21
227.014	8.56
227.485	9.01
227.956	8.56
228.427	12.96
228.898	8.06
229.369	6.11
229.839	10.81
230.31	11.46
230.781	14.96
231.252	12.71
231.722	10.31
232.193	12.81
232.664	13.01
233.135	10.41
233.605	9.81
234.076	16.16
234.546	11.41
235.017	13.01
235.487	12.21
235.958	15.06
236.428	14.96
236.899	11.51
237.369	17.51
237.84	19.11
238.31	19.41
238.78	6.26
239.251	17.16
239.721	14.91
240.191	11.96
240.662	18.96
241.132	15.96
241.602	19.11
242.072	20.06
242.542	18.26
243.013	17.26
243.483	24.76
243.953	15.76
244.423	22.31
244.893	24.81
245.363	26.96
245.833	23.46
246.303	24.16
246.773	24.81
247.243	22.16
247.712	28.36
248.182	25.41
248.652	29.51
249.122	33.26
249.592	26.71
250.061	28.51
250.531	30.16
251.001	28.96
251.471	32.96
251.94	30.26
252.41	30.76
252.879	28.96
253.349	38.06
253.818	30.51
254.288	36.26
254.757	33.01
255.227	35.71
255.696	35.31
256.166	42.31
256.635	39.36
257.105	33.11
257.574	34.46
258.043	39.21
258.513	39.06
258.982	37.51
259.451	43.21
259.92	37.11
260.389	45.61
260.859	43.01
261.328	47.26
261.797	40.11
262.266	42.51
262.735	49.16
263.204	39.81
263.673	45.21
264.142	47.56
264.611	49.86
265.08	48.06
265.549	42.21
266.018	54.61
266.487	50.46
266.955	46.91
267.424	52.96
267.893	58.56
268.362	55.31
268.83	48.81
269.299	55.91
269.768	53.21
270.236	50.06
270.705	63.16
271.174	60.31
271.642	55.16
272.111	59.11
272.579	58.86
273.048	57.36
273.516	61.86
273.985	64.21
274.453	61.16
274.922	63.06
275.39	61.51
275.858	65.06
276.327	65.76
276.795	62.26
277.263	67.41
277.731	69.16
278.2	70.76
278.668	69.76
279.136	73.31
279.604	75.06
280.072	70.41
280.54	74.21
281.008	78.51
281.477	80.16
281.945	74.61
282.413	76.46
282.881	77.41
283.348	72.86
283.816	79.31
284.284	83.61
284.752	83.26
285.22	85.36
285.688	81.56
286.156	84.16
286.623	85.41
287.091	84.16
287.559	88.26
288.026	93.26
288.494	88.31
288.962	91.51
289.429	89.71
289.897	90.76
290.364	89.66
290.832	90.01
291.3	95.66
291.767	93.66
292.234	98.26
292.702	93.76
293.169	96.71
293.637	95.41
294.104	98.36
294.571	101.26
295.039	103.11
295.506	99.81
295.973	102.36
296.44	96.11
296.908	107.46
297.375	106.76
297.842	107.06
298.309	112.81
298.776	107.81
299.243	110.61
299.71	111.36
300.177	111.16
300.644	110.01
301.111	109.66
301.578	119.41
302.045	116.81
302.512	119.91
302.979	119.56
303.446	123.11
303.913	127.56
304.379	130.06
304.846	129.66
305.313	134.46
305.78	133.01
306.246	129.01
306.713	133.11
307.18	136.11
307.646	137.01
308.113	135.91
308.579	140.31
309.046	146.91
309.512	144.86
309.979	146.46
310.445	143.61
310.912	147.21
311.378	157.26
311.845	157.81
312.311	151.91
312.777	154.46
313.244	163.06
313.71	159.86
314.176	165.26
314.642	163.56
315.109	163.21
315.575	160.26
316.041	166.56
316.507	162.06
316.973	162.61
317.439	174.36
317.905	174.31
318.371	167.86
318.837	169.81
319.303	173.56
319.769	173.86
320.235	184.01
320.701	179.41
321.167	177.66
321.633	183.41
322.099	174.66
322.564	185.41
323.03	184.36
323.496	183.26
323.962	185.96
324.427	191.51
324.893	187.16
325.359	197.76
325.824	194.66
326.29	200.31
326.755	197.36
327.221	196.26
327.686	211.01
328.152	207.71
328.617	217.31
329.083	211.51
329.548	215.96
330.014	220.11
330.479	221.01
330.944	219.36
331.41	224.41
331.875	218.71
332.34	216.61
332.805	221.21
333.271	222.21
333.736	220.81
334.201	224.96
334.666	244.16
335.131	250.76
335.596	241.61
336.061	235.21
336.526	234.31
336.991	230.91
337.456	231.16
337.921	228.81
338.386	228.76
338.851	228.26
339.316	230.76
339.781	231.51
340.246	236.86
340.711	240.91
341.175	247.41
341.64	252.41
342.105	255.81
342.569	264.21
343.034	254.56
343.499	256.56
343.963	265.86
344.428	270.41
344.893	270.61
345.357	280.76
345.822	280.56
346.286	282.36
346.751	288.46
347.215	289.01
347.679	306.21
348.144	314.01
348.608	316.56
349.073	321.61
349.537	324.96
350.001	330.91
350.465	327.96
350.93	327.41
351.394	330.26
351.858	338.66
352.322	337.76
352.786	342.21
353.25	340.46
353.715	348.86
354.179	363.96
354.643	367.36
355.107	369.71
355.571	367.01
356.035	362.56
356.498	365.91
356.962	364.51
357.426	362.91
357.89	359.76
358.354	354.11
358.818	349.41
359.281	358.01
359.745	359.06
360.209	357.21
360.673	354.46
361.136	360.36
361.6	363.31
362.064	363.51
362.527	378.36
362.991	375.91
363.454	373.01
363.918	385.11
364.381	383.76
364.845	380.96
365.308	379.76
365.772	390.96
366.235	386.96
366.698	388.51
367.162	382.51
367.625	389.66
368.088	395.66
368.552	390.46
369.015	402.51
369.478	400.76
369.941	401.96
370.404	408.91
370.867	403.66
371.331	413.21
371.794	422.11
372.257	417.21
372.72	417.61
373.183	426.46
373.646	425.71
374.109	423.21
374.572	428.76
375.035	431.66
375.497	436.01
375.96	439.61
376.423	457.21
376.886	458.36
377.349	457.41
377.811	463.91
378.274	464.16
378.737	458.11
379.199	468.16
379.662	466.41
380.125	475.11
380.587	482.11
381.05	484.36
381.512	490.01
381.975	498.91
382.437	512.91
382.9	507.81
383.362	515.96
383.825	513.21
384.287	522.76
384.75	516.86
385.212	513.66
385.674	527.26
386.136	530.71
386.599	520.36
387.061	527.51
387.523	529.66
387.985	530.26
388.447	536.66
388.91	535.66
389.372	536.86
389.834	546.21
390.296	529.11
390.758	542.11
391.22	537.21
391.682	539.36
392.144	545.61
392.606	549.21
393.068	564.41
393.529	589.81
393.991	603.71
394.453	578.46
394.915	560.16
395.377	539.86
395.838	550.76
396.3	553.31
396.762	564.31
397.224	562.01
397.685	557.01
398.147	566.26
398.608	577.56
399.07	585.11
399.531	580.31
399.993	594.41
400.454	605.96
400.916	605.66
401.377	619.86
401.839	621.21
402.3	619.86
402.762	654.06
403.223	690.01
403.684	689.41
404.145	666.71
404.607	647.41
405.068	642.61
405.529	651.36
405.99	659.31
406.451	671.51
406.913	655.76
407.374	670.26
407.835	663.16
408.296	682.81
408.757	672.26
409.218	697.71
409.679	715.31
410.14	711.26
410.601	722.61
411.062	725.46
411.522	728.91
411.983	728.61
412.444	737.96
412.905	750.11
413.366	770.46
413.826	809.66
414.287	913.91
414.748	1078.71
415.208	1106.91
415.669	932.26
416.13	842.96
416.59	828.41
417.051	857.01
417.511	892.41
417.972	960.01
418.432	1031.51
418.893	1155.41
419.353	1106.96
419.814	854.96
420.274	762.71
420.734	750.91
421.195	764.11
421.655	769.86
422.115	777.01
422.576	778.71
423.036	785.11
423.496	809.31
423.956	846.56
424.416	901.81
424.876	1004.01
425.336	1003.66
425.797	979.96
426.257	979.86
426.717	925.26
427.177	861.16
427.637	861.66
428.097	899.01
428.556	931.71
429.016	997.76
429.476	998.01
429.936	980.21
430.396	978.26
430.856	1000.41
431.315	1030.61
431.775	1107.11
432.235	1179.01
432.694	1190.71
433.154	1125.26
433.614	1112.31
434.073	1069.71
434.533	968.46
434.993	936.61
435.452	936.16
435.912	919.36
436.371	912.16
436.83	903.06
437.29	883.71
437.749	860.06
438.209	856.11
438.668	870.11
439.127	888.51
439.587	873.61
440.046	850.16
440.505	866.81
440.964	869.56
441.424	893.46
441.883	911.41
442.342	859.21
442.801	825.01
443.26	836.86
443.719	833.21
444.178	830.91
444.637	838.26
445.096	842.71
445.555	850.71
446.014	852.11
446.473	842.26
446.932	852.06
447.391	853.61
447.849	864.11
448.308	858.36
448.767	865.26
449.226	874.21
449.685	890.36
450.143	924.66
450.602	915.11
451.061	877.11
451.519	874.36
451.978	865.91
452.436	870.06
452.895	872.96
453.353	867.21
453.812	853.46
454.27	859.96
454.729	870.01
455.187	875.81
455.646	878.76
456.104	876.76
456.562	888.76
457.021	902.51
457.479	865.86
457.937	891.61
458.395	922.26
458.854	908.06
459.312	891.81
459.77	895.86
460.228	911.56
460.686	922.81
461.144	922.41
461.602	912.01
462.06	922.56
462.518	939.96
462.976	939.91
463.434	954.66
463.892	956.71
464.35	978.11
464.808	992.81
465.266	1008.96
465.724	1004.91
466.181	1019.06
466.639	1010.96
467.097	1054.26
467.555	1089.31
468.012	1084.91
468.47	1099.81
468.928	1130.91
469.385	1149.91
469.843	1166.01
470.3	1165.46
470.758	1200.71
471.215	1219.11
471.673	1238.96
472.13	1273.01
472.588	1300.76
473.045	1290.36
473.503	1322.71
473.96	1381.81
474.417	1385.41
474.875	1445.21
475.332	1498.51
475.789	1526.61
476.246	1555.66
476.704	1625.96
477.161	1675.76
477.618	1720.41
478.075	1820.51
478.532	1944.26
478.989	2088.46
479.446	2281.76
479.903	2394.71
480.36	2584.11
480.817	2735.61
481.274	2923.31
481.731	3172.96
482.188	3401.96
482.645	3662.31
483.102	3875.06
483.558	4140.61
484.015	4302.61
484.472	4286.61
484.929	4160.31
485.385	4004.76
485.842	3918.86
486.299	3782.06
486.755	3471.86
487.212	3140.21
487.668	2851.76
488.125	2665.21
488.582	2466.51
489.038	2375.46
489.494	2309.36
489.951	2238.36
490.407	2176.31
490.864	2139.66
491.32	2091.81
491.776	2090.11
492.233	2091.06
492.689	2061.31
493.145	2009.41
493.602	1991.21
494.058	2011.71
494.514	2006.01
494.97	2018.91
495.426	2047.61
495.882	2035.16
496.338	2027.31
496.794	2060.31
497.251	2046.91
497.707	2066.81
498.163	2073.86
498.618	2063.51
499.074	2063.71
499.53	2086.36
499.986	2094.56
500.442	2074.36
500.898	2057.71
501.354	2077.11
501.809	2087.76
502.265	2082.96
502.721	2092.66
503.177	2099.86
503.632	2107.76
504.088	2113.01
504.543	2136.31
504.999	2170.26
505.455	2150.96
505.91	2141.61
506.366	2136.01
506.821	2140.31
507.277	2124.91
507.732	2138.46
508.187	2139.76
508.643	2153.91
509.098	2157.31
509.553	2180.41
510.009	2202.56
510.464	2241.46
510.919	2264.21
511.375	2283.61
511.83	2304.66
512.285	2337.41
512.74	2389.06
513.195	2417.91
513.65	2445.01
514.105	2485.36
514.56	2495.21
515.015	2538.86
515.47	2551.01
515.925	2534.36
516.38	2536.61
516.835	2522.16
517.29	2516.91
517.745	2514.26
518.2	2482.66
518.655	2426.51
519.109	2409.06
519.564	2372.06
520.019	2353.86
520.474	2330.41
520.928	2320.71
521.383	2310.31
521.838	2291.11
522.292	2281.11
522.747	2249.31
523.201	2261.16
523.656	2222.06
524.11	2218.26
524.565	2220.01
525.019	2221.51
525.474	2211.06
525.928	2194.66
526.382	2202.31
526.837	2206.76
527.291	2219.81
527.745	2199.66
528.2	2198.06
528.654	2164.66
529.108	2163.16
529.562	2188.36
530.016	2175.46
530.47	2193.56
530.925	2178.01
531.379	2181.66
531.833	2202.96
532.287	2195.96
532.741	2184.91
533.195	2177.31
533.649	2197.01
534.103	2181.66
534.556	2184.26
535.01	2194.76
535.464	2187.01
535.918	2191.21
536.372	2206.36
536.826	2187.36
537.279	2168.76
537.733	2171.46
538.187	2188.21
538.64	2186.81
539.094	2197.51
539.548	2236.11
540.001	2227.66
540.455	2228.21
540.908	2244.26
541.362	2268.36
541.815	2275.96
542.269	2316.71
542.722	2314.06
543.175	2339.76
543.629	2352.56
544.082	2366.36
544.536	2382.16
544.989	2402.21
545.442	2421.91
545.895	2412.76
546.349	2405.56
546.802	2427.51
547.255	2414.21
547.708	2436.26
548.161	2458.16
548.614	2453.76
549.067	2463.06
549.52	2451.91
549.973	2432.56
550.426	2427.31
550.879	2411.16
551.332	2408.16
551.785	2434.46
552.238	2447.81
552.691	2446.71
553.144	2502.11
553.596	2539.26
554.049	2557.31
554.502	2625.21
554.955	2646.81
555.407	2681.81
555.86	2652.46
556.313	2625.81
556.765	2607.76
557.218	2570.66
557.67	2559.81
558.123	2531.51
558.576	2520.86
559.028	2519.61
559.48	2546.16
559.933	2538.96
560.385	2450.96
560.838	2379.11
561.29	2313.41
561.742	2300.06
562.195	2242.01
562.647	2227.16
563.099	2219.01
563.551	2204.31
564.004	2215.06
564.456	2199.71
564.908	2161.41
565.36	2105.81
565.812	2065.31
566.264	2050.31
566.716	2028.06
567.168	1993.71
567.62	1986.61
568.072	1985.46
568.524	1971.66
568.976	1953.16
569.428	1945.01
569.88	1941.11
570.332	1956.36
570.784	1958.81
571.235	1941.66
571.687	1972.56
572.139	1959.81
572.59	1985.26
573.042	1991.71
573.494	1983.71
573.945	1959.56
574.397	1920.21
574.849	1922.66
575.3	1931.01
575.752	1899.91
576.203	1886.41
576.655	1881.31
577.106	1866.96
577.557	1841.46
578.009	1836.06
578.46	1847.16
578.912	1829.86
579.363	1845.06
579.814	1838.86
580.265	1849.46
580.717	1837.71
581.168	1845.41
581.619	1847.81
582.07	1845.61
582.521	1843.91
582.972	1852.76
583.423	1845.16
583.875	1862.56
584.326	1863.91
584.777	1905.61
585.227	1930.16
585.678	1951.91
586.129	1975.36
586.58	1986.61
587.031	2022.51
587.482	2077.06
587.933	2091.56
588.384	2094.26
588.834	2077.01
589.285	2067.21
589.736	2058.16
590.186	2071.16
590.637	2051.06
591.088	2009.91
591.538	1977.91
591.989	1944.36
592.439	1910.21
592.89	1899.26
593.34	1888.16
593.791	1886.81
594.241	1865.46
594.692	1851.86
595.142	1866.56
595.593	1850.91
596.043	1866.31
596.493	1885.96
596.943	1880.71
597.394	1925.61
597.844	1945.86
598.294	2003.66
598.744	2066.61
599.195	2168.71
599.645	2277.71
600.095	2388.96
600.545	2505.51
600.995	2593.61
601.445	2686.86
601.895	2824.71
602.345	2906.56
602.795	2871.51
603.245	2770.61
603.695	2617.11
604.145	2469.81
604.594	2369.61
605.044	2238.71
605.494	2105.16
605.944	1995.96
606.393	1936.41
606.843	1912.16
607.293	1903.46
607.743	1884.81
608.192	1897.56
608.642	1896.96
609.091	1913.01
609.541	1896.81
609.99	1890.81
610.44	1861.76
610.889	1837.46
611.339	1809.91
611.788	1787.71
612.238	1800.56
612.687	1802.71
613.136	1821.56
613.586	1832.76
614.035	1821.96
614.484	1834.01
614.933	1851.51
615.383	1802.26
615.832	1769.56
616.281	1735.46
616.73	1703.56
617.179	1665.91
617.628	1633.06
618.077	1605.06
618.526	1581.16
618.975	1578.41
619.424	1541.01
619.873	1555.51
620.322	1529.31
620.771	1526.06
621.22	1504.21
621.669	1479.61
622.118	1464.96
622.567	1447.46
623.015	1430.66
623.464	1421.81
623.913	1405.01
624.361	1406.36
624.81	1401.41
625.259	1399.61
625.707	1395.96
626.156	1405.71
626.604	1422.91
627.053	1427.71
627.501	1416.66
627.95	1431.11
628.398	1452.81
628.847	1427.76
629.295	1429.66
629.744	1419.61
630.192	1394.31
630.64	1375.51
631.089	1352.21
631.537	1315.96
631.985	1307.81
632.433	1303.16
632.881	1293.96
633.33	1303.01
633.778	1295.91
634.226	1305.61
634.674	1328.61
635.122	1325.86
635.57	1353.31
636.018	1372.51
636.466	1369.96
636.914	1368.66
637.362	1402.21
637.81	1418.76
638.258	1456.16
638.705	1481.86
639.153	1514.21
639.601	1532.96
640.049	1560.91
640.497	1611.51
640.944	1637.76
641.392	1593.21
641.84	1496.21
642.287	1431.06
642.735	1400.16
643.182	1382.76
643.63	1390.01
644.078	1389.61
644.525	1405.51
644.973	1453.66
645.42	1476.01
645.867	1513.96
646.315	1545.46
646.762	1609.51
647.21	1636.91
647.657	1737.41
648.104	1781.51
648.551	1820.26
648.999	1969.36
649.446	2154.01
649.893	2385.81
650.34	2785.76
650.787	3401.16
651.234	4352.16
651.682	5972.61
652.129	8359.66
652.576	11852.66
653.023	15378.91
653.47	15535.26
653.917	15535.31
654.363	15535.21
654.81	15532.21
655.257	15532.86
655.704	15417.96
656.151	9463.46
656.598	6235.61
657.044	4469.51
657.491	3505.76
657.938	2859.41
658.385	2426.51
658.831	2159.06
659.278	1924.81
659.724	1772.06
660.171	1655.11
660.618	1536.51
661.064	1445.31
661.511	1409.41
661.957	1367.41
662.404	1338.36
662.85	1319.26
663.296	1307.36
663.743	1276.16
664.189	1259.46
664.635	1248.66
665.082	1221.36
665.528	1214.26
665.974	1177.61
666.42	1155.26
666.867	1150.01
667.313	1098.96
667.759	1075.56
668.205	1066.21
668.651	1075.11
669.097	1068.21
669.543	1082.06
669.989	1096.46
670.435	1097.01
670.881	1106.31
671.327	1150.01
671.773	1227.36
672.219	1304.86
672.665	1393.51
673.11	1439.66
673.556	1462.81
674.002	1491.91
674.448	1507.01
674.893	1290.06
675.339	1135.66
675.785	1045.41
676.23	996.21
676.676	949.61
677.122	925.01
677.567	897.31
678.013	876.61
678.458	874.56
678.904	861.56
679.349	851.31
679.794	851.71
680.24	852.31
680.685	841.16
681.131	844.76
681.576	845.76
682.021	846.76
682.466	856.91
682.912	860.11
683.357	902.86
683.802	973.56
684.247	1066.76
684.692	1144.71
685.137	1200.01
685.583	1210.76
686.028	1270.46
686.473	1218.66
686.918	1061.51
687.363	963.46
687.807	911.51
688.252	870.36
688.697	841.41
689.142	825.61
689.587	826.81
690.032	835.81
690.477	866.76
690.921	910.06
691.366	958.01
691.811	994.36
692.255	1069.61
692.7	1295.46
693.145	1853.61
693.589	2831.56
694.034	3389.26
694.478	3629.86
694.923	3348.31
695.367	4773.96
695.812	2905.11
696.256	1229.46
696.701	903.61
697.145	822.91
697.59	797.56
698.034	783.61
698.478	781.81
698.922	784.06
699.367	803.51
699.811	841.16
700.255	913.51
700.699	989.26
701.143	1074.46
701.588	1139.86
702.032	1190.76
702.476	1236.31
702.92	1309.61
703.364	1711.56
703.808	2584.71
704.252	3236.86
704.696	3454.76
705.14	3279.86
705.584	4523.36
706.027	2507.96
706.471	1257.61
706.915	938.76
707.359	834.66
707.803	780.91
708.246	745.96
708.69	748.56
709.134	741.71
709.577	736.96
710.021	741.21
710.465	737.06
710.908	733.01
711.352	763.71
711.795	844.06
712.239	902.76
712.682	920.31
713.126	917.96
713.569	1018.06
714.012	837.91
714.456	728.71
714.899	693.16
715.342	654.46
715.786	634.71
716.229	619.06
716.672	598.31
717.115	610.16
717.558	608.06
718.002	623.56
718.445	664.41
718.888	686.26
719.331	702.26
719.774	711.16
720.217	701.96
720.66	671.31
721.103	627.61
721.546	597.26
721.989	582.81
722.432	577.06
722.874	566.26
723.317	576.36
723.76	631.76
724.203	759.26
724.645	1018.51
725.088	1198.36
725.531	1178.71
725.974	1300.21
726.416	1175.76
726.859	719.66
727.301	596.36
727.744	566.21
728.187	567.51
728.629	581.61
729.071	604.66
729.514	634.01
729.956	660.91
730.399	677.36
730.841	676.51
731.283	663.56
731.726	635.56
732.168	657.21
732.61	680.31
733.053	738.36
733.495	815.56
733.937	903.71
734.379	1065.41
734.821	1351.96
735.263	2138.21
735.705	3835.76
736.148	5665.81
736.59	5718.61
737.032	6277.01
737.474	5159.66
737.916	1969.01
738.357	1039.31
738.799	796.96
739.241	737.96
739.683	744.31
740.125	770.36
740.567	775.71
741.008	824.91
741.45	875.46
741.892	911.51
742.334	913.46
742.775	916.11
743.217	890.16
743.658	735.86
744.1	760.66
744.542	886.96
744.983	924.01
