Data from MSPlasma+Separation6_Subt14_10-13-28-018.txt Node
Date: Fri Jul 21 10:13:28 EDT 2017
User: Ender
Spectrometer: HR+D1039
Trigger mode: 0
Integration Time (sec): 6.430000E-3
Scans to average: 20
Electric dark correction enabled: true
Nonlinearity correction enabled: false
Boxcar width: 0
XAxis mode: Wavelengths
Number of Pixels in Spectrum: 2048
>>>>>Begin Spectral Data<<<<<
187.836	1.27
188.309	1.27
188.782	1.27
189.255	2.02
189.728	2.77
190.201	-1.63
190.674	1.32
191.147	-1.98
191.619	1.27
192.092	-2.58
192.565	0.72
193.038	2.87
193.511	0.52
193.984	-2.08
194.456	-3.13
194.929	-0.53
195.402	-3.08
195.874	2.27
196.347	0.22
196.82	1.32
197.292	-2.63
197.765	1.12
198.237	-0.63
198.71	-1.33
199.182	2.27
199.655	1.72
200.127	3.47
200.6	-2.63
201.072	4.77
201.544	0.17
202.017	2.87
202.489	2.12
202.961	-0.18
203.433	-5.68
203.906	-1.18
204.378	-0.33
204.85	-0.28
205.322	-3.03
205.794	1.32
206.266	-1.83
206.739	1.57
207.211	0.37
207.683	0.67
208.155	3.77
208.627	1.02
209.099	5.47
209.57	3.17
210.042	2.62
210.514	3.62
210.986	-2.28
211.458	-1.83
211.93	1.47
212.402	4.27
212.873	1.32
213.345	2.67
213.817	3.87
214.288	-1.83
214.76	1.97
215.232	2.42
215.703	0.92
216.175	0.27
216.646	2.47
217.118	-0.88
217.589	-5.83
218.061	0.72
218.532	-1.43
219.004	3.02
219.475	-1.88
219.946	4.17
220.418	7.97
220.889	4.37
221.36	4.77
221.832	7.82
222.303	8.52
222.774	3.67
223.245	-1.78
223.717	-0.18
224.188	4.07
224.659	2.02
225.13	2.77
225.601	4.22
226.072	3.52
226.543	3.42
227.014	1.12
227.485	8.32
227.956	5.87
228.427	10.52
228.898	5.02
229.369	3.72
229.839	4.57
230.31	6.67
230.781	7.82
231.252	6.02
231.722	8.17
232.193	7.77
232.664	9.42
233.135	7.37
233.605	4.27
234.076	14.17
234.546	6.62
235.017	8.32
235.487	6.92
235.958	6.92
236.428	9.12
236.899	10.67
237.369	16.32
237.84	15.17
238.31	12.67
238.78	6.67
239.251	7.62
239.721	6.97
240.191	11.67
240.662	8.02
241.132	10.47
241.602	12.82
242.072	12.52
242.542	12.22
243.013	7.57
243.483	15.92
243.953	7.17
244.423	9.72
244.893	7.57
245.363	12.22
245.833	15.07
246.303	16.52
246.773	19.22
247.243	14.37
247.712	16.42
248.182	15.17
248.652	15.52
249.122	20.07
249.592	16.17
250.061	14.87
250.531	16.87
251.001	17.47
251.471	16.42
251.94	17.52
252.41	19.02
252.879	20.07
253.349	24.37
253.818	18.22
254.288	24.62
254.757	23.57
255.227	26.87
255.696	21.77
256.166	26.42
256.635	26.87
257.105	24.37
257.574	21.87
258.043	20.72
258.513	24.12
258.982	24.87
259.451	31.07
259.92	24.32
260.389	26.72
260.859	26.42
261.328	31.22
261.797	28.17
262.266	27.17
262.735	30.97
263.204	25.47
263.673	27.87
264.142	23.37
264.611	31.07
265.08	28.92
265.549	29.12
266.018	25.77
266.487	28.02
266.955	24.87
267.424	34.87
267.893	36.57
268.362	32.32
268.83	30.72
269.299	32.52
269.768	37.97
270.236	34.37
270.705	38.72
271.174	36.32
271.642	35.82
272.111	38.77
272.579	37.32
273.048	38.12
273.516	44.27
273.985	41.67
274.453	38.87
274.922	37.17
275.39	41.87
275.858	42.62
276.327	44.57
276.795	43.42
277.263	45.02
277.731	40.92
278.2	44.97
278.668	42.72
279.136	46.62
279.604	42.22
280.072	40.47
280.54	42.47
281.008	52.02
281.477	50.97
281.945	42.87
282.413	46.37
282.881	52.42
283.348	45.47
283.816	50.17
284.284	50.32
284.752	50.17
285.22	54.42
285.688	49.32
286.156	54.57
286.623	58.27
287.091	48.82
287.559	54.97
288.026	61.27
288.494	58.87
288.962	55.37
289.429	57.07
289.897	57.92
290.364	59.17
290.832	59.27
291.3	63.47
291.767	59.12
292.234	60.27
292.702	55.97
293.169	62.17
293.637	65.97
294.104	62.72
294.571	59.87
295.039	67.97
295.506	61.22
295.973	65.92
296.44	59.12
296.908	72.77
297.375	68.47
297.842	68.77
298.309	67.82
298.776	69.82
299.243	71.27
299.71	67.67
300.177	73.12
300.644	68.42
301.111	73.37
301.578	73.32
302.045	75.72
302.512	74.87
302.979	75.27
303.446	81.52
303.913	84.62
304.379	79.92
304.846	82.77
305.313	87.82
305.78	89.37
306.246	90.22
306.713	91.12
307.18	93.22
307.646	87.72
308.113	94.37
308.579	99.52
309.046	97.42
309.512	98.92
309.979	101.72
310.445	94.02
310.912	100.47
311.378	106.47
311.845	101.17
312.311	98.87
312.777	101.82
313.244	106.92
313.71	105.82
314.176	107.22
314.642	106.32
315.109	107.52
315.575	110.97
316.041	106.37
316.507	108.67
316.973	113.87
317.439	109.07
317.905	114.97
318.371	112.77
318.837	112.67
319.303	119.42
319.769	114.97
320.235	117.32
320.701	122.57
321.167	121.27
321.633	127.52
322.099	112.42
322.564	126.12
323.03	120.62
323.496	124.07
323.962	131.87
324.427	132.37
324.893	122.82
325.359	133.37
325.824	133.62
326.29	140.32
326.755	131.57
327.221	136.22
327.686	145.82
328.152	143.57
328.617	142.67
329.083	145.12
329.548	147.17
330.014	145.22
330.479	152.72
330.944	152.27
331.41	156.82
331.875	146.07
332.34	150.77
332.805	150.42
333.271	154.67
333.736	151.92
334.201	152.17
334.666	167.02
335.131	164.87
335.596	166.17
336.061	165.22
336.526	164.62
336.991	155.77
337.456	161.57
337.921	158.67
338.386	159.47
338.851	158.77
339.316	160.12
339.781	161.22
340.246	162.27
340.711	163.52
341.175	168.17
341.64	174.22
342.105	176.52
342.569	184.77
343.034	177.42
343.499	181.72
343.963	186.97
344.428	189.67
344.893	190.92
345.357	191.42
345.822	195.32
346.286	200.52
346.751	201.02
347.215	203.97
347.679	211.47
348.144	220.42
348.608	222.17
349.073	226.62
349.537	231.62
350.001	230.92
350.465	230.17
350.93	230.27
351.394	232.07
351.858	234.02
352.322	235.57
352.786	239.17
353.25	237.37
353.715	241.37
354.179	255.87
354.643	256.67
355.107	265.07
355.571	259.02
356.035	255.87
356.498	260.57
356.962	254.17
357.426	254.77
357.89	257.82
358.354	253.32
358.818	248.82
359.281	254.92
359.745	259.52
360.209	254.12
360.673	252.27
361.136	254.37
361.6	257.62
362.064	267.37
362.527	267.87
362.991	272.07
363.454	263.77
363.918	274.97
364.381	272.52
364.845	267.07
365.308	272.92
365.772	280.52
366.235	275.57
366.698	280.57
367.162	276.97
367.625	283.12
368.088	293.87
368.552	288.32
369.015	287.12
369.478	295.37
369.941	287.77
370.404	302.92
370.867	295.52
371.331	294.12
371.794	308.57
372.257	305.72
372.72	307.42
373.183	305.52
373.646	307.87
374.109	306.87
374.572	311.82
375.035	316.47
375.497	319.02
375.96	327.62
376.423	326.82
376.886	330.17
377.349	343.17
377.811	340.92
378.274	342.42
378.737	338.57
379.199	343.82
379.662	344.47
380.125	348.82
380.587	352.97
381.05	357.02
381.512	364.82
381.975	371.22
382.437	383.47
382.9	377.77
383.362	380.67
383.825	383.07
384.287	386.17
384.75	382.22
385.212	384.87
385.674	394.22
386.136	399.37
386.599	392.97
387.061	389.17
387.523	394.22
387.985	397.87
388.447	401.77
388.91	394.97
389.372	406.22
389.834	404.07
390.296	400.42
390.758	406.47
391.22	405.52
391.682	406.62
392.144	408.37
392.606	410.27
393.068	420.92
393.529	434.82
393.991	445.12
394.453	428.12
394.915	418.17
395.377	408.02
395.838	415.87
396.3	415.07
396.762	422.42
397.224	420.32
397.685	420.92
398.147	432.22
398.608	429.37
399.07	433.27
399.531	438.77
399.993	454.32
400.454	456.22
400.916	455.27
401.377	468.22
401.839	467.22
402.3	465.87
402.762	492.27
403.223	517.02
403.684	517.47
404.145	497.37
404.607	496.37
405.068	485.82
405.529	488.17
405.99	495.37
406.451	507.67
406.913	496.17
407.374	496.37
407.835	504.62
408.296	513.17
408.757	514.67
409.218	534.77
409.679	533.97
410.14	541.97
410.601	555.17
411.062	558.32
411.522	564.07
411.983	562.52
412.444	573.37
412.905	577.62
413.366	592.72
413.826	628.47
414.287	706.07
414.748	816.32
415.208	838.02
415.669	713.22
416.13	658.27
416.59	639.07
417.051	659.07
417.511	683.57
417.972	732.97
418.432	775.17
418.893	850.77
419.353	818.27
419.814	644.52
420.274	574.22
420.734	582.67
421.195	600.42
421.655	598.97
422.115	604.82
422.576	603.12
423.036	612.12
423.496	632.82
423.956	660.42
424.416	694.27
424.876	769.27
425.336	767.22
425.797	748.47
426.257	748.87
426.717	710.32
427.177	665.72
427.637	674.87
428.097	702.82
428.556	725.42
429.016	766.97
429.476	785.77
429.936	766.07
430.396	765.97
430.856	778.57
431.315	794.67
431.775	842.77
432.235	894.07
432.694	912.57
433.154	855.42
433.614	839.62
434.073	812.72
434.533	739.27
434.993	708.07
435.452	719.17
435.912	702.67
436.371	704.27
436.83	693.07
437.29	683.07
437.749	675.42
438.209	659.47
438.668	669.57
439.127	687.02
439.587	674.72
440.046	660.62
440.505	673.17
440.964	676.27
441.424	698.12
441.883	711.47
442.342	675.62
442.801	647.87
443.26	654.47
443.719	645.52
444.178	644.02
444.637	663.07
445.096	658.67
445.555	669.37
446.014	669.47
446.473	653.22
446.932	661.47
447.391	674.02
447.849	682.27
448.308	675.37
448.767	677.52
449.226	692.02
449.685	696.82
450.143	726.52
450.602	720.22
451.061	685.77
451.519	694.57
451.978	675.62
452.436	677.92
452.895	677.87
453.353	683.27
453.812	679.32
454.27	679.92
454.729	681.47
455.187	685.87
455.646	692.62
456.104	693.27
456.562	703.12
457.021	712.72
457.479	672.92
457.937	699.57
458.395	719.67
458.854	720.77
459.312	704.92
459.77	712.27
460.228	724.57
460.686	732.52
461.144	732.32
461.602	734.42
462.06	728.27
462.518	746.72
462.976	742.92
463.434	755.87
463.892	761.82
464.35	770.57
464.808	786.92
465.266	790.42
465.724	800.97
466.181	809.32
466.639	805.02
467.097	831.82
467.555	867.32
468.012	861.22
468.47	868.57
468.928	901.92
469.385	918.32
469.843	929.42
470.3	928.47
470.758	958.72
471.215	969.67
471.673	999.42
472.13	1012.37
472.588	1034.62
473.045	1029.02
473.503	1051.02
473.96	1106.82
474.417	1110.42
474.875	1152.07
475.332	1199.32
475.789	1218.32
476.246	1253.17
476.704	1299.82
477.161	1339.77
477.618	1374.12
478.075	1448.82
478.532	1548.42
478.989	1679.87
479.446	1840.17
479.903	1937.82
480.36	2095.62
480.817	2214.37
481.274	2340.57
481.731	2546.12
482.188	2696.57
482.645	2891.32
483.102	3015.52
483.558	3187.77
484.015	3285.12
484.472	3251.27
484.929	3150.62
485.385	3028.72
485.842	2954.12
486.299	2843.47
486.755	2626.57
487.212	2390.62
487.668	2173.62
488.125	2035.82
488.582	1905.82
489.038	1846.52
489.494	1796.47
489.951	1752.47
490.407	1720.97
490.864	1685.02
491.32	1654.92
491.776	1649.92
492.233	1648.17
492.689	1619.02
493.145	1590.67
493.602	1576.07
494.058	1604.47
494.514	1599.27
494.97	1611.82
495.426	1625.57
495.882	1623.82
496.338	1622.37
496.794	1638.22
497.251	1629.67
497.707	1649.92
498.163	1648.82
498.618	1652.52
499.074	1643.47
499.53	1658.72
499.986	1672.42
500.442	1658.47
500.898	1640.92
501.354	1658.02
501.809	1662.72
502.265	1668.47
502.721	1675.62
503.177	1675.97
503.632	1688.17
504.088	1692.72
504.543	1710.07
504.999	1715.87
505.455	1710.67
505.91	1703.92
506.366	1699.72
506.821	1712.37
507.277	1704.52
507.732	1708.22
508.187	1704.92
508.643	1719.82
509.098	1727.02
509.553	1751.02
510.009	1774.12
510.464	1792.47
510.919	1815.32
511.375	1841.02
511.83	1861.72
512.285	1893.92
512.74	1909.42
513.195	1940.52
513.65	1974.42
514.105	2006.87
514.56	1989.52
515.015	2020.57
515.47	2033.97
515.925	2016.42
516.38	2016.22
516.835	2014.32
517.29	2011.82
517.745	2004.12
518.2	1985.62
518.655	1938.17
519.109	1928.27
519.564	1898.72
520.019	1888.77
520.474	1870.62
520.928	1858.37
521.383	1841.32
521.838	1834.97
522.292	1825.02
522.747	1805.47
523.201	1810.57
523.656	1793.32
524.11	1785.17
524.565	1775.97
525.019	1784.52
525.474	1783.72
525.928	1766.97
526.382	1774.07
526.837	1765.07
527.291	1779.02
527.745	1772.42
528.2	1771.62
528.654	1753.57
529.108	1767.32
529.562	1756.57
530.016	1755.12
530.47	1758.77
530.925	1756.02
531.379	1740.47
531.833	1762.77
532.287	1769.87
532.741	1761.22
533.195	1761.87
533.649	1771.07
534.103	1765.82
534.556	1750.27
535.01	1758.32
535.464	1754.77
535.918	1754.22
536.372	1776.22
536.826	1767.12
537.279	1753.12
537.733	1754.97
538.187	1768.62
538.64	1765.37
539.094	1776.72
539.548	1804.22
540.001	1786.02
540.455	1810.22
540.908	1821.72
541.362	1825.82
541.815	1847.97
542.269	1883.07
542.722	1875.37
543.175	1889.72
543.629	1903.42
544.082	1926.67
544.536	1938.77
544.989	1939.02
545.442	1949.72
545.895	1960.37
546.349	1948.02
546.802	1956.27
547.255	1959.07
547.708	1964.92
548.161	1985.97
548.614	1979.22
549.067	1996.12
549.52	1972.22
549.973	1964.57
550.426	1955.32
550.879	1950.07
551.332	1965.87
551.785	1976.97
552.238	1993.87
552.691	2000.67
553.144	2024.32
553.596	2052.67
554.049	2083.47
554.502	2111.77
554.955	2139.42
555.407	2163.02
555.86	2142.02
556.313	2124.12
556.765	2112.47
557.218	2077.37
557.67	2075.67
558.123	2048.47
558.576	2040.57
559.028	2033.92
559.48	2048.72
559.933	2033.02
560.385	1974.22
560.838	1916.12
561.29	1871.07
561.742	1862.82
562.195	1831.77
562.647	1812.47
563.099	1792.57
563.551	1779.52
564.004	1793.62
564.456	1780.72
564.908	1744.82
565.36	1709.42
565.812	1672.97
566.264	1674.22
566.716	1647.52
567.168	1616.67
567.62	1619.72
568.072	1612.92
568.524	1598.72
568.976	1591.17
569.428	1579.27
569.88	1576.22
570.332	1593.82
570.784	1594.02
571.235	1585.27
571.687	1604.17
572.139	1602.97
572.59	1617.47
573.042	1625.22
573.494	1614.72
573.945	1594.77
574.397	1565.37
574.849	1562.92
575.3	1565.37
575.752	1540.22
576.203	1539.02
576.655	1541.97
577.106	1503.32
577.557	1508.12
578.009	1507.07
578.46	1516.02
578.912	1489.67
579.363	1503.77
579.814	1495.37
580.265	1505.17
580.717	1501.32
581.168	1498.17
581.619	1504.27
582.07	1515.07
582.521	1516.52
582.972	1512.57
583.423	1508.82
583.875	1521.77
584.326	1532.47
584.777	1564.67
585.227	1585.27
585.678	1606.07
586.129	1624.52
586.58	1645.72
587.031	1659.42
587.482	1696.37
587.933	1719.07
588.384	1717.42
588.834	1697.27
589.285	1685.57
589.736	1685.27
590.186	1692.42
590.637	1658.22
591.088	1635.07
591.538	1605.37
591.989	1579.72
592.439	1558.52
592.89	1541.22
593.34	1542.02
593.791	1537.12
594.241	1524.37
594.692	1520.37
595.142	1527.17
595.593	1515.62
596.043	1519.37
596.493	1547.62
596.943	1539.42
597.394	1589.57
597.844	1603.92
598.294	1651.87
598.744	1703.47
599.195	1785.87
599.645	1873.57
600.095	1972.72
600.545	2064.07
600.995	2153.27
601.445	2214.67
601.895	2301.22
602.345	2358.87
602.795	2315.27
603.245	2238.02
603.695	2111.92
604.145	2010.32
604.594	1907.97
605.044	1802.87
605.494	1710.57
605.944	1622.42
606.393	1585.42
606.843	1557.82
607.293	1563.12
607.743	1550.82
608.192	1558.02
608.642	1560.27
609.091	1542.42
609.541	1544.57
609.99	1544.47
610.44	1518.22
610.889	1493.12
611.339	1485.92
611.788	1464.17
612.238	1476.02
612.687	1488.32
613.136	1492.97
613.586	1501.47
614.035	1498.82
614.484	1499.02
614.933	1499.57
615.383	1472.42
615.832	1440.12
616.281	1424.17
616.73	1385.62
617.179	1366.02
617.628	1334.07
618.077	1318.97
618.526	1292.07
618.975	1289.67
619.424	1263.02
619.873	1265.87
620.322	1254.52
620.771	1250.02
621.22	1234.32
621.669	1203.62
622.118	1208.57
622.567	1187.87
623.015	1174.32
623.464	1162.67
623.913	1153.97
624.361	1160.67
624.81	1153.72
625.259	1158.02
625.707	1154.52
626.156	1154.87
626.604	1171.97
627.053	1168.47
627.501	1174.52
627.95	1179.62
628.398	1188.42
628.847	1179.57
629.295	1164.27
629.744	1163.67
630.192	1141.17
630.64	1122.57
631.089	1114.42
631.537	1084.02
631.985	1070.17
632.433	1067.27
632.881	1062.62
633.33	1073.87
633.778	1073.27
634.226	1082.62
634.674	1086.22
635.122	1095.42
635.57	1111.67
636.018	1125.72
636.466	1127.57
636.914	1120.12
637.362	1136.82
637.81	1163.82
638.258	1200.52
638.705	1221.67
639.153	1264.72
639.601	1265.77
640.049	1283.17
640.497	1309.42
640.944	1339.17
641.392	1295.77
641.84	1221.92
642.287	1167.17
642.735	1146.57
643.182	1138.07
643.63	1134.57
644.078	1143.27
644.525	1164.12
644.973	1188.77
645.42	1220.27
645.867	1248.77
646.315	1270.02
646.762	1312.17
647.21	1345.02
647.657	1419.42
648.104	1470.87
648.551	1493.37
648.999	1618.17
649.446	1780.67
649.893	1987.32
650.34	2309.97
650.787	2836.37
651.234	3645.07
651.682	5011.72
652.129	7084.92
652.576	10017.07
653.023	13193.12
653.47	14982.37
653.917	15446.92
654.363	15485.52
654.81	15529.97
655.257	15499.57
655.704	11735.92
656.151	7142.27
656.598	4734.77
657.044	3425.27
657.491	2730.17
657.938	2238.47
658.385	1915.47
658.831	1711.77
659.278	1544.22
659.724	1418.67
660.171	1339.97
660.618	1242.97
661.064	1177.17
661.511	1145.12
661.957	1116.67
662.404	1093.82
662.85	1084.97
663.296	1062.77
663.743	1046.42
664.189	1025.57
664.635	1029.22
665.082	1001.57
665.528	987.77
665.974	962.52
666.42	943.27
666.867	935.22
667.313	886.27
667.759	890.07
668.205	892.37
668.651	888.42
669.097	888.67
669.543	897.27
669.989	901.82
670.435	896.02
670.881	911.87
671.327	959.07
671.773	1015.47
672.219	1095.47
672.665	1154.52
673.11	1193.22
673.556	1211.87
674.002	1210.67
674.448	1202.87
674.893	1043.17
675.339	919.47
675.785	847.22
676.23	807.57
676.676	770.12
677.122	759.67
677.567	738.32
678.013	720.87
678.458	709.97
678.904	709.32
679.349	701.27
679.794	704.57
680.24	705.62
680.685	692.57
681.131	692.17
681.576	694.32
682.021	697.07
682.466	706.67
682.912	713.97
683.357	748.02
683.802	818.87
684.247	891.22
684.692	944.72
685.137	977.12
685.583	992.37
686.028	1025.62
686.473	980.72
686.918	864.57
687.363	790.07
687.807	750.82
688.252	711.02
688.697	692.32
689.142	672.12
689.587	681.97
690.032	694.52
690.477	718.42
690.921	752.22
691.366	798.37
691.811	823.72
692.255	890.97
692.7	1090.42
693.145	1593.42
693.589	2450.72
694.034	2888.57
694.478	2974.12
694.923	2638.07
695.367	3564.02
695.812	2275.97
696.256	999.27
696.701	733.82
697.145	684.77
697.59	654.37
698.034	643.92
698.478	650.82
698.922	648.02
699.367	666.42
699.811	694.77
700.255	753.47
700.699	826.82
701.143	896.27
701.588	940.22
702.032	974.67
702.476	1001.12
702.92	1083.72
703.364	1448.72
703.808	2244.07
704.252	2752.77
704.696	2811.07
705.14	2586.07
705.584	3382.52
706.027	1985.52
706.471	1016.87
706.915	770.62
707.359	689.82
707.803	640.17
708.246	619.22
708.69	613.72
709.134	605.02
709.577	610.77
710.021	611.97
710.465	605.92
710.908	599.37
711.352	625.02
711.795	702.92
712.239	757.72
712.682	756.87
713.126	729.52
713.569	806.07
714.012	677.17
714.456	590.97
714.899	562.62
715.342	535.52
715.786	519.22
716.229	506.57
716.672	500.87
717.115	499.42
717.558	505.27
718.002	513.67
718.445	539.37
718.888	562.77
719.331	569.32
719.774	581.82
720.217	570.47
720.66	542.72
721.103	524.62
721.546	486.92
721.989	476.77
722.432	466.97
722.874	468.57
723.317	468.52
723.76	515.22
724.203	633.92
724.645	862.82
725.088	998.12
725.531	961.92
725.974	1012.82
726.416	923.87
726.859	586.37
727.301	487.67
727.744	459.72
728.187	468.57
728.629	476.97
729.071	492.62
729.514	515.92
729.956	536.07
730.399	550.42
730.841	554.07
731.283	540.77
731.726	521.82
732.168	534.17
732.61	562.62
733.053	611.32
733.495	675.17
733.937	744.27
734.379	885.42
734.821	1126.32
735.263	1820.02
735.705	3284.02
736.148	4716.27
736.59	4585.82
737.032	4694.57
737.474	3910.02
737.916	1598.02
738.357	847.87
738.799	646.87
739.241	597.07
739.683	611.17
740.125	632.72
740.567	626.77
741.008	665.32
741.45	709.57
741.892	748.27
742.334	740.32
742.775	734.57
743.217	700.27
743.658	612.27
744.1	636.17
744.542	732.42
744.983	757.12
745.425	762.47
745.866	744.72
746.307	638.12
746.749	679.92
747.19	988.97
747.632	1932.42
748.073	3552.62
