Data from MSPlasma+Separation6_Subt14_10-13-24-931.txt Node
Date: Fri Jul 21 10:13:24 EDT 2017
User: Ender
Spectrometer: HR+D1039
Trigger mode: 0
Integration Time (sec): 6.430000E-3
Scans to average: 20
Electric dark correction enabled: true
Nonlinearity correction enabled: false
Boxcar width: 0
XAxis mode: Wavelengths
Number of Pixels in Spectrum: 2048
>>>>>Begin Spectral Data<<<<<
187.836	-3.17
188.309	-3.17
188.782	-3.17
189.255	-0.72
189.728	4.73
190.201	-0.07
190.674	-0.37
191.147	-1.62
191.619	-2.12
192.092	-0.02
192.565	-1.22
193.038	2.98
193.511	-0.17
193.984	0.38
194.456	0.33
194.929	1.13
195.402	-2.92
195.874	2.93
196.347	5.18
196.82	2.13
197.292	-3.17
197.765	0.13
198.237	-3.72
198.71	-3.27
199.182	-0.07
199.655	4.08
200.127	5.63
200.6	4.23
201.072	3.88
201.544	-1.27
202.017	1.13
202.489	-2.47
202.961	-1.52
203.433	-0.97
203.906	1.73
204.378	4.23
204.85	0.53
205.322	-0.52
205.794	-1.12
206.266	-1.07
206.739	3.88
207.211	1.98
207.683	-3.47
208.155	5.73
208.627	1.23
209.099	3.73
209.57	4.68
210.042	4.08
210.514	-1.32
210.986	-1.22
211.458	-1.07
211.93	4.03
212.402	1.03
212.873	-1.97
213.345	-0.42
213.817	4.08
214.288	0.53
214.76	3.98
215.232	-0.97
215.703	1.23
216.175	5.98
216.646	3.68
217.118	6.53
217.589	-0.72
218.061	7.18
218.532	3.68
219.004	9.83
219.475	0.23
219.946	5.88
220.418	6.93
220.889	4.48
221.36	4.68
221.832	6.28
222.303	5.33
222.774	6.68
223.245	1.53
223.717	2.88
224.188	4.33
224.659	2.73
225.13	-1.42
225.601	2.98
226.072	7.03
226.543	8.38
227.014	5.23
227.485	9.08
227.956	10.48
228.427	11.58
228.898	8.13
229.369	6.68
229.839	10.63
230.31	13.23
230.781	15.08
231.252	12.88
231.722	10.98
232.193	14.63
232.664	13.13
233.135	13.28
233.605	8.58
234.076	14.68
234.546	11.93
235.017	12.83
235.487	16.28
235.958	15.53
236.428	21.38
236.899	13.58
237.369	19.58
237.84	17.43
238.31	18.28
238.78	11.73
239.251	17.38
239.721	9.58
240.191	14.43
240.662	21.28
241.132	15.08
241.602	19.38
242.072	22.98
242.542	18.88
243.013	19.48
243.483	24.83
243.953	19.88
244.423	20.73
244.893	22.73
245.363	23.03
245.833	21.43
246.303	22.73
246.773	24.93
247.243	23.08
247.712	25.58
248.182	20.93
248.652	27.23
249.122	27.73
249.592	28.58
250.061	29.93
250.531	27.98
251.001	29.03
251.471	29.13
251.94	29.43
252.41	30.93
252.879	32.13
253.349	36.28
253.818	23.43
254.288	38.03
254.757	32.33
255.227	36.23
255.696	31.83
256.166	37.03
256.635	43.63
257.105	41.03
257.574	38.73
258.043	33.38
258.513	38.83
258.982	32.68
259.451	40.38
259.92	37.48
260.389	41.18
260.859	41.93
261.328	46.13
261.797	43.58
262.266	48.48
262.735	46.38
263.204	35.83
263.673	47.03
264.142	43.58
264.611	47.43
265.08	50.83
265.549	44.63
266.018	49.03
266.487	50.08
266.955	50.08
267.424	53.78
267.893	50.78
268.362	54.58
268.83	49.83
269.299	51.78
269.768	53.48
270.236	53.63
270.705	60.43
271.174	49.08
271.642	54.08
272.111	58.73
272.579	60.03
273.048	59.98
273.516	57.18
273.985	58.43
274.453	60.73
274.922	61.03
275.39	59.43
275.858	62.18
276.327	62.68
276.795	58.63
277.263	63.68
277.731	66.28
278.2	65.08
278.668	66.13
279.136	68.23
279.604	70.48
280.072	68.08
280.54	69.08
281.008	75.48
281.477	72.98
281.945	70.03
282.413	72.78
282.881	75.63
283.348	76.83
283.816	74.98
284.284	80.88
284.752	76.68
285.22	80.53
285.688	73.83
286.156	80.58
286.623	80.93
287.091	83.03
287.559	86.28
288.026	87.23
288.494	87.98
288.962	86.38
289.429	84.13
289.897	82.88
290.364	90.03
290.832	86.03
291.3	89.88
291.767	91.68
292.234	92.03
292.702	93.08
293.169	92.73
293.637	96.23
294.104	97.78
294.571	95.08
295.039	96.78
295.506	94.23
295.973	98.43
296.44	96.03
296.908	102.43
297.375	100.03
297.842	107.28
298.309	99.23
298.776	107.08
299.243	111.83
299.71	104.98
300.177	109.63
300.644	105.38
301.111	112.43
301.578	109.23
302.045	108.23
302.512	109.53
302.979	117.13
303.446	118.48
303.913	116.28
304.379	121.83
304.846	124.98
305.313	130.93
305.78	129.63
306.246	131.08
306.713	131.43
307.18	129.28
307.646	134.03
308.113	131.58
308.579	140.18
309.046	138.38
309.512	140.18
309.979	144.83
310.445	142.98
310.912	146.48
311.378	149.98
311.845	155.48
312.311	148.73
312.777	147.58
313.244	153.23
313.71	159.23
314.176	155.18
314.642	161.23
315.109	157.88
315.575	158.38
316.041	158.83
316.507	159.03
316.973	167.53
317.439	165.33
317.905	161.23
318.371	166.68
318.837	168.33
319.303	166.23
319.769	166.63
320.235	175.38
320.701	179.03
321.167	178.08
321.633	176.33
322.099	173.93
322.564	186.48
323.03	176.73
323.496	180.23
323.962	182.43
324.427	194.18
324.893	191.03
325.359	194.78
325.824	193.73
326.29	196.83
326.755	192.08
327.221	198.33
327.686	210.98
328.152	205.58
328.617	212.53
329.083	210.58
329.548	214.43
330.014	212.88
330.479	217.93
330.944	216.03
331.41	220.53
331.875	214.48
332.34	217.68
332.805	218.78
333.271	217.73
333.736	220.43
334.201	228.83
334.666	245.63
335.131	242.88
335.596	239.93
336.061	233.13
336.526	237.93
336.991	235.03
337.456	224.08
337.921	225.08
338.386	226.73
338.851	231.83
339.316	228.78
339.781	227.28
340.246	234.63
340.711	238.13
341.175	247.33
341.64	246.98
342.105	247.28
342.569	265.33
343.034	256.63
343.499	257.03
343.963	267.63
344.428	267.83
344.893	269.13
345.357	279.03
345.822	276.98
346.286	280.23
346.751	283.78
347.215	293.33
347.679	299.88
348.144	314.88
348.608	317.03
349.073	320.48
349.537	322.08
350.001	324.88
350.465	324.83
350.93	324.28
351.394	332.08
351.858	332.78
352.322	340.58
352.786	337.28
353.25	343.38
353.715	347.03
354.179	364.48
354.643	373.78
355.107	367.03
355.571	366.28
356.035	369.43
356.498	363.23
356.962	366.78
357.426	361.88
357.89	360.93
358.354	354.53
358.818	353.68
359.281	359.28
359.745	370.48
360.209	361.13
360.673	359.93
361.136	359.73
361.6	368.13
362.064	372.38
362.527	384.03
362.991	387.23
363.454	379.38
363.918	383.48
364.381	383.73
364.845	389.43
365.308	384.93
365.772	388.98
366.235	395.03
366.698	390.63
367.162	391.78
367.625	393.83
368.088	404.53
368.552	406.28
369.015	405.63
369.478	409.48
369.941	410.38
370.404	419.93
370.867	407.18
371.331	417.03
371.794	420.88
372.257	427.48
372.72	420.28
373.183	427.33
373.646	431.98
374.109	431.58
374.572	433.78
375.035	434.28
375.497	441.98
375.96	449.93
376.423	457.28
376.886	459.28
377.349	468.48
377.811	463.23
378.274	471.28
378.737	464.68
379.199	469.63
379.662	473.88
380.125	482.53
380.587	486.03
381.05	497.03
381.512	495.23
381.975	507.28
382.437	515.28
382.9	511.63
383.362	510.43
383.825	518.63
384.287	527.43
384.75	517.88
385.212	521.23
385.674	532.83
386.136	541.03
386.599	531.63
387.061	536.28
387.523	544.68
387.985	538.83
388.447	543.73
388.91	551.58
389.372	552.83
389.834	553.43
390.296	545.13
390.758	559.38
391.22	549.93
391.682	555.23
392.144	559.38
392.606	562.53
393.068	570.28
393.529	606.58
393.991	613.28
394.453	591.78
394.915	569.73
395.377	561.33
395.838	568.03
396.3	567.83
396.762	575.63
397.224	576.63
397.685	570.88
398.147	583.53
398.608	590.33
399.07	589.18
399.531	589.83
399.993	605.88
400.454	616.53
400.916	610.48
401.377	633.18
401.839	627.58
402.3	637.98
402.762	661.63
403.223	707.78
403.684	706.13
404.145	675.38
404.607	666.88
405.068	654.23
405.529	661.53
405.99	672.28
406.451	683.68
406.913	677.73
407.374	679.88
407.835	676.73
408.296	692.63
408.757	694.03
409.218	722.48
409.679	723.08
410.14	728.68
410.601	747.93
411.062	744.18
411.522	747.88
411.983	739.68
412.444	752.88
412.905	760.13
413.366	789.88
413.826	830.13
414.287	924.13
414.748	1090.78
415.208	1122.73
415.669	939.08
416.13	856.33
416.59	840.08
417.051	871.93
417.511	911.53
417.972	975.83
418.432	1049.53
418.893	1158.03
419.353	1119.38
419.814	859.28
420.274	776.13
420.734	763.38
421.195	788.93
421.655	776.88
422.115	796.23
422.576	790.63
423.036	803.48
423.496	830.88
423.956	862.03
424.416	916.73
424.876	1021.13
425.336	1022.68
425.797	1005.28
426.257	997.18
426.717	949.48
427.177	881.78
427.637	895.23
428.097	930.53
428.556	959.38
429.016	1024.23
429.476	1035.62
429.936	1016.98
430.396	1013.73
430.856	1037.03
431.315	1059.08
431.775	1132.43
432.235	1213.78
432.694	1230.28
433.154	1171.03
433.614	1143.88
434.073	1106.18
434.533	996.98
434.993	953.43
435.452	959.08
435.912	936.18
436.371	941.08
436.83	925.63
437.29	906.53
437.749	880.68
438.209	879.93
438.668	894.63
439.127	901.98
439.587	888.48
440.046	859.53
440.505	872.73
440.964	890.23
441.424	920.33
441.883	936.58
442.342	876.33
442.801	850.33
443.26	854.78
443.719	842.38
444.178	842.68
444.637	854.98
445.096	861.38
445.555	870.73
446.014	854.48
446.473	856.98
446.932	860.28
447.391	872.98
447.849	889.33
448.308	876.43
448.767	883.28
449.226	893.23
449.685	908.08
450.143	948.23
450.602	939.78
451.061	896.38
451.519	887.48
451.978	878.53
452.436	880.08
452.895	885.93
453.353	884.03
453.812	870.63
454.27	882.83
454.729	878.48
455.187	882.28
455.646	884.73
456.104	897.23
456.562	902.03
457.021	911.08
457.479	882.78
457.937	911.13
458.395	933.33
458.854	917.58
459.312	910.93
459.77	921.78
460.228	926.28
460.686	945.23
461.144	951.18
461.602	930.83
462.06	936.93
462.518	958.38
462.976	960.53
463.434	971.33
463.892	976.68
464.35	991.73
464.808	1012.98
465.266	1013.58
465.724	1027.38
466.181	1041.03
466.639	1034.43
467.097	1076.78
467.555	1113.23
468.012	1097.53
468.47	1111.63
468.928	1147.28
469.385	1179.93
469.843	1189.93
470.3	1188.83
470.758	1218.53
471.215	1241.33
471.673	1265.48
472.13	1301.13
472.588	1329.88
473.045	1323.03
473.503	1356.38
473.96	1406.68
474.417	1417.53
474.875	1486.48
475.332	1534.93
475.789	1562.58
476.246	1612.23
476.704	1672.48
477.161	1736.53
477.618	1773.18
478.075	1867.83
478.532	2019.93
478.989	2169.23
479.446	2383.78
479.903	2513.43
480.36	2720.18
480.817	2882.12
481.274	3081.68
481.731	3351.52
482.188	3602.58
482.645	3862.88
483.102	4078.47
483.558	4357.77
484.015	4530.62
484.472	4507.73
484.929	4375.33
485.385	4184.03
485.842	4091.98
486.299	3950.78
486.755	3636.92
487.212	3275.77
487.668	2975.13
488.125	2754.93
488.582	2540.38
489.038	2443.32
489.494	2368.03
489.951	2289.33
490.407	2234.18
490.864	2186.53
491.32	2135.12
491.776	2125.63
492.233	2129.53
492.689	2091.43
493.145	2053.28
493.602	2028.43
494.058	2053.72
494.514	2053.62
494.97	2046.98
495.426	2079.68
495.882	2064.18
496.338	2063.48
496.794	2072.82
497.251	2074.78
497.707	2090.38
498.163	2101.07
498.618	2102.12
499.074	2101.43
499.53	2108.83
499.986	2136.28
500.442	2107.18
500.898	2082.83
501.354	2111.53
501.809	2106.03
502.265	2111.23
502.721	2120.93
503.177	2120.38
503.632	2136.68
504.088	2142.03
504.543	2165.93
504.999	2184.33
505.455	2177.23
505.91	2146.62
506.366	2158.62
506.821	2161.78
507.277	2163.53
507.732	2166.08
508.187	2162.62
508.643	2191.98
509.098	2188.32
509.553	2217.93
510.009	2237.98
510.464	2280.47
510.919	2293.57
511.375	2317.73
511.83	2329.58
512.285	2374.57
512.74	2419.48
513.195	2445.03
513.65	2487.48
514.105	2513.73
514.56	2510.78
515.015	2565.33
515.47	2572.78
515.925	2550.53
516.38	2552.43
516.835	2550.38
517.29	2526.03
517.745	2545.13
518.2	2498.73
518.655	2453.68
519.109	2434.58
519.564	2404.28
520.019	2382.68
520.474	2367.73
520.928	2350.32
521.383	2329.28
521.838	2323.47
522.292	2310.68
522.747	2279.98
523.201	2274.53
523.656	2261.03
524.11	2251.98
524.565	2250.93
525.019	2243.07
525.474	2235.32
525.928	2229.22
526.382	2233.48
526.837	2231.57
527.291	2243.82
527.745	2229.62
528.2	2227.38
528.654	2199.68
529.108	2211.33
529.562	2212.03
530.016	2200.38
530.47	2207.12
530.925	2200.18
531.379	2191.48
531.833	2236.88
532.287	2220.93
532.741	2216.12
533.195	2217.43
533.649	2217.38
534.103	2221.28
534.556	2196.03
535.01	2218.28
535.464	2195.83
535.918	2203.98
536.372	2211.28
536.826	2218.28
537.279	2183.38
537.733	2193.93
538.187	2214.82
538.64	2212.93
539.094	2218.28
539.548	2243.13
540.001	2245.62
540.455	2252.73
540.908	2266.73
541.362	2291.43
541.815	2297.58
542.269	2352.18
542.722	2344.32
543.175	2370.78
543.629	2375.28
544.082	2393.12
544.536	2420.43
544.989	2423.73
545.442	2441.57
545.895	2441.48
546.349	2439.03
546.802	2445.47
547.255	2440.48
547.708	2452.43
548.161	2474.57
548.614	2480.03
549.067	2493.22
549.52	2474.28
549.973	2439.62
550.426	2433.08
550.879	2437.62
551.332	2436.12
551.785	2448.03
552.238	2474.62
552.691	2477.53
553.144	2508.23
553.596	2549.68
554.049	2572.72
554.502	2629.03
554.955	2669.38
555.407	2696.83
555.86	2671.12
556.313	2641.12
556.765	2607.93
557.218	2588.38
557.67	2582.18
558.123	2546.23
558.576	2534.68
559.028	2527.18
559.48	2560.28
559.933	2541.83
560.385	2472.88
560.838	2390.93
561.29	2319.23
561.742	2313.08
562.195	2264.58
562.647	2242.48
563.099	2241.53
563.551	2217.18
564.004	2237.93
564.456	2227.73
564.908	2176.43
565.36	2126.08
565.812	2087.12
566.264	2072.12
566.716	2039.93
567.168	2005.43
567.62	2018.53
568.072	1997.48
568.524	1982.83
568.976	1980.68
569.428	1961.93
569.88	1954.93
570.332	1977.43
570.784	1976.63
571.235	1964.13
571.687	1981.33
572.139	1978.08
572.59	1991.98
573.042	2011.73
573.494	2016.18
573.945	1981.88
574.397	1940.88
574.849	1932.03
575.3	1936.58
575.752	1911.72
576.203	1891.97
576.655	1902.13
577.106	1884.48
577.557	1866.93
578.009	1853.47
578.46	1864.63
578.912	1841.28
579.363	1866.73
579.814	1845.28
580.265	1852.23
580.717	1853.13
581.168	1857.53
581.619	1857.28
582.07	1878.53
582.521	1863.42
582.972	1854.47
583.423	1866.03
583.875	1881.67
584.326	1890.28
584.777	1922.23
585.227	1950.58
585.678	1970.93
586.129	1991.18
586.58	2011.23
587.031	2044.63
587.482	2101.43
587.933	2120.43
588.384	2123.72
588.834	2093.73
589.285	2082.73
589.736	2083.03
590.186	2078.83
590.637	2073.22
591.088	2021.88
591.538	1987.53
591.989	1956.18
592.439	1940.48
592.89	1911.18
593.34	1910.93
593.791	1888.28
594.241	1887.23
594.692	1876.08
595.142	1881.73
595.593	1876.92
596.043	1885.58
596.493	1905.38
596.943	1891.93
597.394	1956.93
597.844	1966.18
598.294	2012.38
598.744	2079.73
599.195	2172.98
599.645	2291.93
600.095	2407.53
600.545	2520.28
600.995	2618.83
601.445	2723.98
601.895	2839.38
602.345	2916.63
602.795	2882.38
603.245	2774.68
603.695	2625.08
604.145	2489.93
604.594	2368.88
605.044	2250.82
605.494	2107.08
605.944	2002.53
606.393	1951.33
606.843	1917.38
607.293	1910.38
607.743	1898.98
608.192	1912.18
608.642	1916.18
609.091	1912.53
609.541	1899.28
609.99	1900.62
610.44	1873.43
610.889	1849.08
611.339	1825.58
611.788	1803.58
612.238	1819.03
612.687	1823.83
613.136	1832.53
613.586	1847.83
614.035	1838.97
614.484	1856.83
614.933	1844.78
615.383	1814.18
615.832	1761.28
616.281	1746.68
616.73	1706.83
617.179	1675.28
617.628	1649.68
618.077	1625.68
618.526	1596.92
618.975	1579.92
619.424	1557.03
619.873	1560.78
620.322	1541.98
620.771	1544.33
621.22	1508.88
621.669	1478.53
622.118	1469.62
622.567	1461.93
623.015	1431.47
623.464	1433.98
623.913	1419.33
624.361	1417.83
624.81	1409.88
625.259	1417.18
625.707	1404.93
626.156	1412.03
626.604	1434.63
627.053	1433.73
627.501	1443.43
627.95	1445.58
628.398	1468.23
628.847	1439.78
629.295	1428.73
629.744	1433.53
630.192	1406.33
630.64	1386.53
631.089	1369.98
631.537	1334.38
631.985	1313.13
632.433	1313.28
632.881	1295.03
633.33	1311.78
633.778	1308.22
634.226	1318.83
634.674	1343.92
635.122	1342.43
635.57	1362.93
636.018	1378.13
636.466	1382.38
636.914	1383.33
637.362	1403.42
637.81	1433.18
638.258	1474.68
638.705	1493.48
639.153	1542.53
639.601	1541.33
640.049	1569.48
640.497	1625.03
640.944	1661.28
641.392	1595.18
641.84	1514.13
642.287	1445.88
642.735	1419.03
643.182	1407.63
643.63	1405.63
644.078	1410.88
644.525	1444.23
644.973	1487.43
645.42	1504.58
645.867	1538.63
646.315	1578.23
646.762	1631.73
647.21	1674.18
647.657	1770.73
648.104	1836.43
648.551	1893.58
648.999	2043.08
649.446	2247.12
649.893	2512.48
650.34	2933.12
650.787	3620.23
651.234	4663.27
651.682	6415.98
652.129	9023.33
652.576	12765.88
653.023	15529.02
653.47	15532.23
653.917	15532.27
654.363	15532.17
654.81	15529.17
655.257	15529.83
655.704	15533.62
656.151	9969.08
656.598	6552.62
657.044	4708.68
657.491	3676.88
657.938	2988.23
658.385	2526.03
658.831	2233.78
659.278	1995.08
659.724	1823.68
660.171	1693.28
660.618	1569.48
661.064	1492.22
661.511	1439.73
661.957	1403.03
662.404	1368.08
662.85	1343.28
663.296	1332.48
663.743	1293.98
664.189	1288.12
664.635	1271.03
665.082	1239.28
665.528	1223.18
665.974	1196.93
666.42	1173.08
666.867	1169.38
667.313	1108.43
667.759	1096.83
668.205	1085.73
668.651	1091.08
669.097	1076.13
669.543	1088.28
669.989	1108.33
670.435	1109.68
670.881	1111.88
671.327	1162.48
671.773	1241.68
672.219	1322.43
672.665	1412.98
673.11	1453.98
673.556	1461.43
674.002	1489.83
674.448	1502.93
674.893	1300.92
675.339	1131.58
675.785	1049.58
676.23	996.58
676.676	957.93
677.122	935.73
677.567	904.18
678.013	879.83
678.458	873.88
678.904	874.53
679.349	857.33
679.794	858.78
680.24	856.53
680.685	841.88
681.131	844.98
681.576	851.93
682.021	850.18
682.466	858.68
682.912	877.48
683.357	914.03
683.802	982.08
684.247	1076.98
684.692	1143.83
685.137	1194.73
685.583	1218.23
686.028	1274.83
686.473	1226.68
686.918	1062.78
687.363	966.38
687.807	920.18
688.252	881.33
688.697	845.63
689.142	825.63
689.587	827.58
690.032	845.73
690.477	873.23
690.921	915.48
691.366	964.63
691.811	993.38
692.255	1076.93
692.7	1300.17
693.145	1876.08
693.589	2860.33
694.034	3419.68
694.478	3631.23
694.923	3329.72
695.367	4688.58
695.812	2874.62
696.256	1226.13
696.701	891.03
697.145	838.08
697.59	802.18
698.034	791.73
698.478	783.93
698.922	791.48
699.367	810.18
699.811	844.88
700.255	913.98
700.699	994.63
701.143	1075.13
701.588	1144.33
702.032	1194.43
702.476	1228.38
702.92	1307.83
703.364	1707.67
703.808	2611.28
704.252	3262.43
704.696	3467.57
705.14	3247.22
705.584	4421.93
706.027	2485.18
706.471	1254.08
706.915	945.78
707.359	838.88
707.803	786.63
708.246	757.03
708.69	751.33
709.134	741.38
709.577	732.78
710.021	742.48
710.465	733.48
710.908	736.83
711.352	761.38
711.795	843.58
712.239	904.13
712.682	934.83
713.126	914.88
713.569	1005.63
714.012	836.58
714.456	732.88
714.899	689.58
715.342	657.23
715.786	640.38
716.229	624.83
716.672	604.73
717.115	605.53
717.558	611.58
718.002	619.88
718.445	652.08
718.888	687.78
719.331	698.68
719.774	711.83
720.217	702.63
720.66	669.38
721.103	637.13
721.546	603.68
721.989	583.78
722.432	572.58
722.874	577.28
723.317	583.73
723.76	626.08
724.203	771.98
724.645	1028.03
725.088	1207.28
725.531	1197.18
725.974	1292.03
726.416	1163.98
726.859	724.68
727.301	598.08
727.744	567.03
728.187	568.53
728.629	578.78
729.071	608.33
729.514	641.78
729.956	664.28
730.399	675.88
730.841	681.98
731.283	660.13
731.726	643.93
732.168	654.98
732.61	692.33
733.053	735.08
733.495	810.78
733.937	903.33
734.379	1061.13
734.821	1352.83
735.263	2143.38
735.705	3864.68
736.148	5665.07
736.59	5716.48
737.032	6141.07
737.474	5086.48
737.916	1961.13
738.357	1035.93
738.799	792.13
739.241	744.38
739.683	753.33
740.125	773.53
740.567	778.48
741.008	824.63
741.45	873.58
741.892	913.98
742.334	918.68
742.775	912.33
743.217	879.13
743.658	736.38
744.1	761.73
744.542	883.28
