Data from MSPlasma+Separation6_Subt14_10-13-29-046.txt Node
Date: Fri Jul 21 10:13:29 EDT 2017
User: Ender
Spectrometer: HR+D1039
Trigger mode: 0
Integration Time (sec): 6.430000E-3
Scans to average: 20
Electric dark correction enabled: true
Nonlinearity correction enabled: false
Boxcar width: 0
XAxis mode: Wavelengths
Number of Pixels in Spectrum: 2048
>>>>>Begin Spectral Data<<<<<
187.836	1.26
188.309	1.26
188.782	1.26
189.255	-2.44
189.728	0.36
190.201	-0.14
190.674	-1.64
191.147	-2.64
191.619	1.16
192.092	-0.04
192.565	-4.04
193.038	5.01
193.511	3.16
193.984	1.16
194.456	-0.99
194.929	-1.29
195.402	2.61
195.874	-1.54
196.347	2.81
196.82	3.86
197.292	-4.59
197.765	-2.39
198.237	-4.19
198.71	-5.84
199.182	-2.54
199.655	2.06
200.127	-2.34
200.6	-0.74
201.072	0.96
201.544	-2.74
202.017	0.26
202.489	-0.04
202.961	0.36
203.433	-4.44
203.906	-4.19
204.378	-0.34
204.85	0.56
205.322	3.21
205.794	-1.19
206.266	-1.44
206.739	2.36
207.211	0.16
207.683	0.06
208.155	1.56
208.627	1.66
209.099	3.91
209.57	3.31
210.042	4.06
210.514	2.51
210.986	-2.14
211.458	0.01
211.93	2.71
212.402	-0.54
212.873	-3.29
213.345	-3.34
213.817	5.81
214.288	-1.59
214.76	-0.59
215.232	-1.14
215.703	2.31
216.175	0.16
216.646	-3.84
217.118	0.81
217.589	-4.74
218.061	-3.49
218.532	-1.34
219.004	4.31
219.475	0.06
219.946	2.96
220.418	1.96
220.889	-0.29
221.36	1.91
221.832	5.41
222.303	-0.69
222.774	1.86
223.245	-2.74
223.717	-2.54
224.188	4.26
224.659	0.31
225.13	0.76
225.601	-2.19
226.072	-0.24
226.543	6.71
227.014	-4.29
227.485	6.51
227.956	2.46
228.427	10.56
228.898	4.96
229.369	5.66
229.839	6.21
230.31	2.31
230.781	6.26
231.252	5.41
231.722	7.16
232.193	0.91
232.664	5.51
233.135	0.06
233.605	1.16
234.076	7.51
234.546	7.51
235.017	6.71
235.487	2.81
235.958	6.16
236.428	11.71
236.899	5.66
237.369	12.91
237.84	11.16
238.31	11.96
238.78	4.91
239.251	6.26
239.721	6.36
240.191	9.21
240.662	12.46
241.132	7.66
241.602	10.16
242.072	5.41
242.542	2.96
243.013	5.36
243.483	10.96
243.953	6.01
244.423	10.01
244.893	6.56
245.363	11.61
245.833	12.01
246.303	10.56
246.773	12.71
247.243	8.46
247.712	11.86
248.182	16.31
248.652	11.31
249.122	12.86
249.592	11.91
250.061	10.96
250.531	14.06
251.001	11.71
251.471	10.16
251.94	15.91
252.41	13.76
252.879	15.36
253.349	19.31
253.818	12.76
254.288	21.96
254.757	15.36
255.227	19.51
255.696	23.41
256.166	22.21
256.635	21.36
257.105	18.76
257.574	16.06
258.043	13.01
258.513	20.46
258.982	21.96
259.451	21.61
259.92	16.26
260.389	16.81
260.859	18.71
261.328	18.86
261.797	17.71
262.266	24.71
262.735	29.26
263.204	22.96
263.673	27.66
264.142	17.56
264.611	21.01
265.08	23.66
265.549	21.81
266.018	25.46
266.487	25.31
266.955	22.91
267.424	26.31
267.893	29.11
268.362	24.56
268.83	23.91
269.299	23.46
269.768	28.91
270.236	25.06
270.705	35.46
271.174	31.26
271.642	24.11
272.111	26.01
272.579	28.81
273.048	30.31
273.516	31.31
273.985	33.21
274.453	29.21
274.922	31.26
275.39	29.26
275.858	34.21
276.327	33.91
276.795	32.66
277.263	35.11
277.731	30.86
278.2	35.61
278.668	32.41
279.136	35.46
279.604	35.26
280.072	37.16
280.54	36.71
281.008	39.76
281.477	44.76
281.945	35.06
282.413	30.01
282.881	41.36
283.348	36.51
283.816	43.76
284.284	39.91
284.752	39.76
285.22	41.51
285.688	42.81
286.156	42.06
286.623	44.96
287.091	44.31
287.559	46.76
288.026	41.76
288.494	42.36
288.962	46.21
289.429	42.76
289.897	46.51
290.364	44.26
290.832	43.96
291.3	49.16
291.767	48.46
292.234	47.26
292.702	46.51
293.169	52.36
293.637	51.21
294.104	53.36
294.571	51.86
295.039	49.76
295.506	44.66
295.973	54.41
296.44	48.56
296.908	54.86
297.375	55.86
297.842	57.41
298.309	58.61
298.776	54.41
299.243	56.86
299.71	60.61
300.177	54.86
300.644	58.11
301.111	61.06
301.578	64.31
302.045	54.66
302.512	57.01
302.979	64.11
303.446	67.91
303.913	61.31
304.379	65.66
304.846	66.56
305.313	75.51
305.78	75.51
306.246	70.41
306.713	69.76
307.18	69.91
307.646	75.71
308.113	75.21
308.579	79.26
309.046	83.11
309.512	74.46
309.979	84.16
310.445	79.61
310.912	79.41
311.378	91.06
311.845	86.51
312.311	83.21
312.777	83.11
313.244	88.46
313.71	88.46
314.176	92.16
314.642	88.91
315.109	87.46
315.575	88.06
316.041	91.31
316.507	91.26
316.973	97.31
317.439	102.16
317.905	100.46
318.371	96.51
318.837	93.26
319.303	96.81
319.769	93.11
320.235	100.41
320.701	98.36
321.167	100.41
321.633	99.11
322.099	94.41
322.564	100.21
323.03	103.21
323.496	105.91
323.962	108.46
324.427	107.56
324.893	107.01
325.359	109.96
325.824	113.66
326.29	115.41
326.755	112.66
327.221	111.41
327.686	119.06
328.152	116.51
328.617	121.31
329.083	123.66
329.548	123.66
330.014	120.16
330.479	122.01
330.944	119.66
331.41	129.01
331.875	122.46
332.34	124.06
332.805	129.81
333.271	128.51
333.736	125.46
334.201	134.86
334.666	144.76
335.131	147.11
335.596	142.26
336.061	134.51
336.526	137.71
336.991	134.31
337.456	132.11
337.921	135.11
338.386	130.06
338.851	133.51
339.316	136.81
339.781	133.41
340.246	140.21
340.711	137.76
341.175	135.86
341.64	146.76
342.105	149.36
342.569	157.26
343.034	147.66
343.499	155.56
343.963	161.86
344.428	159.21
344.893	158.81
345.357	165.66
345.822	170.31
346.286	169.16
346.751	168.51
347.215	171.56
347.679	182.16
348.144	191.21
348.608	190.16
349.073	188.71
349.537	196.31
350.001	195.11
350.465	197.16
350.93	197.61
351.394	196.51
351.858	198.26
352.322	197.81
352.786	198.86
353.25	198.26
353.715	208.76
354.179	216.16
354.643	217.51
355.107	218.31
355.571	214.81
356.035	218.51
356.498	219.86
356.962	215.11
357.426	214.86
357.89	218.36
358.354	217.31
358.818	210.71
359.281	217.91
359.745	214.36
360.209	217.76
360.673	218.91
361.136	216.26
361.6	220.31
362.064	226.61
362.527	230.41
362.991	228.86
363.454	225.81
363.918	235.76
364.381	236.01
364.845	237.96
365.308	236.76
365.772	237.76
366.235	237.46
366.698	236.46
367.162	234.91
367.625	236.26
368.088	248.01
368.552	240.46
369.015	243.46
369.478	245.91
369.941	250.21
370.404	256.51
370.867	255.16
371.331	256.81
371.794	264.01
372.257	258.46
372.72	260.51
373.183	265.96
373.646	265.61
374.109	264.51
374.572	267.86
375.035	268.86
375.497	271.21
375.96	274.06
376.423	276.71
376.886	287.16
377.349	289.51
377.811	288.96
378.274	291.61
378.737	287.61
379.199	290.46
379.662	292.36
380.125	298.46
380.587	304.26
381.05	304.61
381.512	308.21
381.975	328.56
382.437	327.11
382.9	319.76
383.362	322.46
383.825	327.76
384.287	327.61
384.75	330.41
385.212	326.76
385.674	335.76
386.136	335.71
386.599	332.31
387.061	333.21
387.523	341.61
387.985	335.76
388.447	342.76
388.91	347.76
389.372	350.01
389.834	351.46
390.296	340.76
390.758	350.46
391.22	347.86
391.682	349.96
392.144	350.46
392.606	354.76
393.068	368.01
393.529	379.01
393.991	383.51
394.453	369.71
394.915	357.16
395.377	352.26
395.838	355.51
396.3	358.96
396.762	368.66
397.224	367.36
397.685	368.31
398.147	368.91
398.608	370.61
399.07	386.26
399.531	384.56
399.993	392.86
400.454	393.41
400.916	391.56
401.377	406.61
401.839	406.21
402.3	409.61
402.762	423.96
403.223	442.96
403.684	445.21
404.145	435.26
404.607	431.01
405.068	420.76
405.529	426.76
405.99	435.21
406.451	441.41
406.913	434.91
407.374	438.61
407.835	435.56
408.296	444.06
408.757	449.46
409.218	449.36
409.679	465.36
410.14	470.41
410.601	482.71
411.062	491.71
411.522	494.51
411.983	495.01
412.444	497.51
412.905	512.31
413.366	522.21
413.826	554.31
414.287	614.31
414.748	702.61
415.208	722.06
415.669	619.51
416.13	575.36
416.59	560.56
417.051	575.21
417.511	589.51
417.972	632.06
418.432	670.66
418.893	728.71
419.353	698.21
419.814	556.76
420.274	506.36
420.734	510.36
421.195	522.76
421.655	524.76
422.115	537.86
422.576	533.46
423.036	542.41
423.496	560.66
423.956	573.06
424.416	611.31
424.876	678.01
425.336	668.51
425.797	656.71
426.257	654.11
426.717	622.41
427.177	585.81
427.637	592.36
428.097	619.11
428.556	639.91
429.016	673.96
429.476	686.01
429.936	669.46
430.396	674.26
430.856	686.36
431.315	690.16
431.775	735.11
432.235	774.11
432.694	785.31
433.154	746.11
433.614	729.76
434.073	705.81
434.533	646.56
434.993	628.41
435.452	630.56
435.912	615.66
436.371	616.66
436.83	613.71
437.29	603.56
437.749	586.26
438.209	596.61
438.668	599.61
439.127	605.91
439.587	596.46
440.046	580.46
440.505	595.21
440.964	588.76
441.424	615.06
441.883	631.06
442.342	591.01
442.801	567.61
443.26	574.36
443.719	572.26
444.178	565.66
444.637	578.86
445.096	585.46
445.555	592.86
446.014	589.91
446.473	585.51
446.932	587.06
447.391	594.06
447.849	607.96
448.308	589.56
448.767	602.51
449.226	612.36
449.685	612.16
450.143	637.11
450.602	642.51
451.061	607.61
451.519	616.51
451.978	597.91
452.436	599.56
452.895	617.66
453.353	607.46
453.812	594.01
454.27	595.31
454.729	603.26
455.187	617.86
455.646	608.21
456.104	617.76
456.562	622.16
457.021	629.01
457.479	604.36
457.937	628.71
458.395	642.76
458.854	627.26
459.312	619.56
459.77	648.06
460.228	643.56
460.686	651.16
461.144	656.36
461.602	650.41
462.06	651.36
462.518	666.11
462.976	663.26
463.434	671.71
463.892	677.41
464.35	685.96
464.808	701.46
465.266	711.06
465.724	718.61
466.181	718.51
466.639	721.36
467.097	752.51
467.555	779.16
468.012	772.21
468.47	778.06
468.928	805.76
469.385	824.16
469.843	841.71
470.3	829.76
470.758	860.76
471.215	867.71
471.673	889.81
472.13	914.71
472.588	930.81
473.045	932.11
473.503	945.71
473.96	990.56
474.417	1000.06
474.875	1041.06
475.332	1078.31
475.789	1099.16
476.246	1124.26
476.704	1177.86
477.161	1203.41
477.618	1249.16
478.075	1317.66
478.532	1404.26
478.989	1517.36
479.446	1649.46
479.903	1741.86
480.36	1898.16
480.817	1984.61
481.274	2102.41
481.731	2281.41
482.188	2417.81
482.645	2561.56
483.102	2675.01
483.558	2797.36
484.015	2893.61
484.472	2857.36
484.929	2751.46
485.385	2652.11
485.842	2589.51
486.299	2492.21
486.755	2300.86
487.212	2098.61
487.668	1924.06
488.125	1811.66
488.582	1692.61
489.038	1644.71
489.494	1613.36
489.951	1574.11
490.407	1532.21
490.864	1514.81
491.32	1493.11
491.776	1477.81
492.233	1480.61
492.689	1456.86
493.145	1426.41
493.602	1423.61
494.058	1440.01
494.514	1447.56
494.97	1445.61
495.426	1475.01
495.882	1470.91
496.338	1467.16
496.794	1482.06
497.251	1478.56
497.707	1495.66
498.163	1496.46
498.618	1492.46
499.074	1486.21
499.53	1502.91
499.986	1515.66
500.442	1508.66
500.898	1492.91
501.354	1505.96
501.809	1500.41
502.265	1509.76
502.721	1516.16
503.177	1514.76
503.632	1528.36
504.088	1529.26
504.543	1548.76
504.999	1565.66
505.455	1560.36
505.91	1540.86
506.366	1534.71
506.821	1545.51
507.277	1537.91
507.732	1556.21
508.187	1548.26
508.643	1568.91
509.098	1565.56
509.553	1584.31
510.009	1602.56
510.464	1631.86
510.919	1652.76
511.375	1665.41
511.83	1687.31
512.285	1725.41
512.74	1750.96
513.195	1758.31
513.65	1791.86
514.105	1820.36
514.56	1808.21
515.015	1843.11
515.47	1845.51
515.925	1818.56
516.38	1827.81
516.835	1834.21
517.29	1822.46
517.745	1810.41
518.2	1790.51
518.655	1759.26
519.109	1731.51
519.564	1720.86
520.019	1716.11
520.474	1709.61
520.928	1688.21
521.383	1669.81
521.838	1666.31
522.292	1657.96
522.747	1641.31
523.201	1645.51
523.656	1634.36
524.11	1626.06
524.565	1614.66
525.019	1619.41
525.474	1629.06
525.928	1614.36
526.382	1615.11
526.837	1615.71
527.291	1631.66
527.745	1606.26
528.2	1607.46
528.654	1591.86
529.108	1592.31
529.562	1602.01
530.016	1598.56
530.47	1609.41
530.925	1594.56
531.379	1604.21
531.833	1623.41
532.287	1611.06
532.741	1603.46
533.195	1611.01
533.649	1617.31
534.103	1622.71
534.556	1607.96
535.01	1614.71
535.464	1610.71
535.918	1608.21
536.372	1619.16
536.826	1615.71
537.279	1595.96
537.733	1609.91
538.187	1610.31
538.64	1610.56
539.094	1634.56
539.548	1652.61
540.001	1641.71
540.455	1656.91
540.908	1657.06
541.362	1676.26
541.815	1693.36
542.269	1730.91
542.722	1717.41
543.175	1730.76
543.629	1739.66
544.082	1753.21
544.536	1770.96
544.989	1770.66
545.442	1780.11
545.895	1788.71
546.349	1787.66
546.802	1801.56
547.255	1790.71
547.708	1804.01
548.161	1818.26
548.614	1814.06
549.067	1817.36
549.52	1811.61
549.973	1793.76
550.426	1792.66
550.879	1789.91
551.332	1787.81
551.785	1810.86
552.238	1824.16
552.691	1827.71
553.144	1862.86
553.596	1890.01
554.049	1906.81
554.502	1934.31
554.955	1963.21
555.407	1973.91
555.86	1968.61
556.313	1936.71
556.765	1936.66
557.218	1916.36
557.67	1910.96
558.123	1887.86
558.576	1868.21
559.028	1864.46
559.48	1879.81
559.933	1864.16
560.385	1802.36
560.838	1759.51
561.29	1715.41
561.742	1715.01
562.195	1671.41
562.647	1661.06
563.099	1653.71
563.551	1629.96
564.004	1643.21
564.456	1622.01
564.908	1598.71
565.36	1563.01
565.812	1533.91
566.264	1530.81
566.716	1514.61
567.168	1484.41
567.62	1494.56
568.072	1475.56
568.524	1462.61
568.976	1460.06
569.428	1451.91
569.88	1456.41
570.332	1467.96
570.784	1468.01
571.235	1458.61
571.687	1471.61
572.139	1475.86
572.59	1481.71
573.042	1490.06
573.494	1487.06
573.945	1473.36
574.397	1444.76
574.849	1434.21
575.3	1448.06
575.752	1423.16
576.203	1409.16
576.655	1422.86
577.106	1396.66
577.557	1388.91
578.009	1377.11
578.46	1391.21
578.912	1367.06
579.363	1379.76
579.814	1380.61
580.265	1380.06
580.717	1381.66
581.168	1382.16
581.619	1380.56
582.07	1407.16
582.521	1398.06
582.972	1392.26
583.423	1389.56
583.875	1407.81
584.326	1415.51
584.777	1446.91
585.227	1460.21
585.678	1478.46
586.129	1493.36
586.58	1503.51
587.031	1531.46
587.482	1567.61
587.933	1588.66
588.384	1576.76
588.834	1556.46
589.285	1559.61
589.736	1559.21
590.186	1551.71
590.637	1534.06
591.088	1497.36
591.538	1470.61
591.989	1456.11
592.439	1441.01
592.89	1423.16
593.34	1430.66
593.791	1415.66
594.241	1404.86
594.692	1399.66
595.142	1407.51
595.593	1410.56
596.043	1414.36
596.493	1433.06
596.943	1424.51
597.394	1463.31
597.844	1477.91
598.294	1527.56
598.744	1582.01
599.195	1654.26
599.645	1742.36
600.095	1832.21
600.545	1918.81
600.995	1996.36
601.445	2054.46
601.895	2128.61
602.345	2171.26
602.795	2145.31
603.245	2041.71
603.695	1948.96
604.145	1841.26
604.594	1760.31
605.044	1659.01
605.494	1570.36
605.944	1497.21
606.393	1467.46
606.843	1442.16
607.293	1443.41
607.743	1438.91
608.192	1445.66
608.642	1431.76
609.091	1434.21
609.541	1435.46
609.99	1428.76
610.44	1394.81
610.889	1388.91
611.339	1380.41
611.788	1354.51
612.238	1368.36
612.687	1371.46
613.136	1377.96
613.586	1390.66
614.035	1388.66
614.484	1398.51
614.933	1386.86
615.383	1367.76
615.832	1331.61
616.281	1312.81
616.73	1282.36
617.179	1254.61
617.628	1229.66
618.077	1205.66
618.526	1196.41
618.975	1197.86
619.424	1168.36
619.873	1172.06
620.322	1160.81
620.771	1160.51
621.22	1136.51
621.669	1119.71
622.118	1104.06
622.567	1092.51
623.015	1074.26
623.464	1077.76
623.913	1065.96
624.361	1075.11
624.81	1057.96
625.259	1070.26
625.707	1061.16
626.156	1074.91
626.604	1074.41
627.053	1084.66
627.501	1079.51
627.95	1085.96
628.398	1102.81
628.847	1076.86
629.295	1084.21
629.744	1068.61
630.192	1059.71
630.64	1039.96
631.089	1027.86
631.537	1003.51
631.985	991.21
632.433	990.16
632.881	994.51
633.33	985.11
633.778	993.81
634.226	997.06
634.674	1010.41
635.122	1015.66
635.57	1024.31
636.018	1039.51
636.466	1041.61
636.914	1045.36
637.362	1059.26
637.81	1077.71
638.258	1119.46
638.705	1139.76
639.153	1165.76
639.601	1178.36
640.049	1186.31
640.497	1211.91
640.944	1233.31
641.392	1184.86
641.84	1134.76
642.287	1078.11
642.735	1055.96
643.182	1051.96
643.63	1056.26
644.078	1058.36
644.525	1072.31
644.973	1108.61
645.42	1120.36
645.867	1151.71
646.315	1177.21
646.762	1224.46
647.21	1252.66
647.657	1309.76
648.104	1351.41
648.551	1384.76
648.999	1490.01
649.446	1645.61
649.893	1836.41
650.34	2132.36
650.787	2617.66
651.234	3372.56
651.682	4639.86
652.129	6595.46
652.576	9318.91
653.023	12217.41
653.47	13883.41
653.917	14525.31
654.363	14552.01
654.81	14854.71
655.257	14527.56
655.704	10340.76
656.151	6334.31
656.598	4215.71
657.044	3068.91
657.491	2440.26
657.938	2027.51
658.385	1742.11
658.831	1545.01
659.278	1396.01
659.724	1293.31
660.171	1211.36
660.618	1139.96
661.064	1079.96
661.511	1052.71
661.957	1034.51
662.404	1016.66
662.85	1002.86
663.296	981.31
663.743	962.41
664.189	955.61
664.635	942.86
665.082	925.16
665.528	909.21
665.974	887.26
666.42	875.41
666.867	858.96
667.313	829.06
667.759	826.21
668.205	816.46
668.651	814.71
669.097	821.71
669.543	821.01
669.989	836.86
670.435	830.46
670.881	846.21
671.327	886.41
671.773	950.21
672.219	1016.06
672.665	1088.51
673.11	1114.46
673.556	1100.91
674.002	1113.56
674.448	1114.06
674.893	968.76
675.339	850.91
675.785	789.36
676.23	753.46
676.676	717.51
677.122	706.76
677.567	688.36
678.013	664.41
678.458	661.26
678.904	658.46
679.349	653.21
679.794	649.01
680.24	649.21
680.685	633.46
681.131	645.06
681.576	647.11
682.021	648.76
682.466	657.21
682.912	663.31
683.357	700.96
683.802	758.16
684.247	840.01
684.692	890.51
685.137	913.81
685.583	920.36
686.028	952.96
686.473	905.96
686.918	798.26
687.363	725.11
687.807	695.06
688.252	663.56
688.697	641.31
689.142	623.01
689.587	626.46
690.032	643.91
690.477	663.91
690.921	700.36
691.366	740.31
691.811	767.96
692.255	829.21
692.7	1018.86
693.145	1514.66
693.589	2330.06
694.034	2711.31
694.478	2751.91
694.923	2418.86
695.367	3154.56
695.812	2081.01
696.256	924.81
696.701	675.81
697.145	628.56
697.59	609.31
698.034	605.66
698.478	603.91
698.922	599.76
699.367	608.41
699.811	647.81
700.255	703.21
700.699	766.71
701.143	835.46
701.588	871.46
702.032	902.91
702.476	931.06
702.92	1016.81
703.364	1368.31
703.808	2111.71
704.252	2592.36
704.696	2611.41
705.14	2359.01
705.584	3026.81
706.027	1812.56
706.471	946.01
706.915	710.46
707.359	633.96
707.803	594.41
708.246	572.76
708.69	570.06
709.134	554.81
709.577	551.81
710.021	561.81
710.465	561.31
710.908	551.06
711.352	584.91
711.795	651.46
712.239	695.01
712.682	701.46
713.126	680.96
713.569	739.96
714.012	629.66
714.456	545.61
714.899	520.11
715.342	493.56
715.786	482.46
716.229	468.06
716.672	456.01
717.115	454.51
717.558	459.61
718.002	476.06
718.445	496.96
718.888	519.76
719.331	525.31
719.774	538.06
720.217	527.51
720.66	501.01
721.103	479.81
721.546	448.76
721.989	441.16
722.432	439.41
722.874	436.11
723.317	445.41
723.76	484.41
724.203	601.31
724.645	804.16
725.088	938.46
725.531	886.31
725.974	912.26
726.416	842.96
726.859	539.86
727.301	451.46
727.744	428.31
728.187	433.21
728.629	441.71
729.071	465.26
729.514	478.86
729.956	501.46
730.399	510.96
730.841	506.56
731.283	493.36
731.726	487.56
732.168	495.26
732.61	523.71
733.053	568.71
733.495	627.46
733.937	694.56
734.379	825.66
734.821	1062.76
735.263	1718.01
735.705	3090.36
736.148	4392.96
736.59	4212.01
737.032	4193.66
737.474	3512.51
737.916	1476.16
738.357	781.81
738.799	604.16
739.241	543.16
739.683	565.91
740.125	582.56
740.567	581.76
741.008	616.71
741.45	659.01
741.892	702.66
742.334	687.61
742.775	669.66
743.217	641.21
743.658	562.26
744.1	587.31
744.542	675.81
744.983	689.06
745.425	698.36
745.866	686.76
746.307	590.36
746.749	628.06
747.19	922.56
747.632	1821.86
748.073	3318.51
748.514	4469.61
748.956	5721.86
