Data from MSPlasma+Separation6_Subt14_10-13-31-104.txt Node
Date: Fri Jul 21 10:13:31 EDT 2017
User: Ender
Spectrometer: HR+D1039
Trigger mode: 0
Integration Time (sec): 6.430000E-3
Scans to average: 20
Electric dark correction enabled: true
Nonlinearity correction enabled: false
Boxcar width: 0
XAxis mode: Wavelengths
Number of Pixels in Spectrum: 2048
>>>>>Begin Spectral Data<<<<<
187.836	3.45
188.309	3.45
188.782	3.45
189.255	0.9
189.728	1.4
190.201	2.5
190.674	3.15
191.147	-1.85
191.619	-1.85
192.092	-0.6
192.565	-3.95
193.038	2.35
193.511	-1.35
193.984	-1.1
194.456	-2.6
194.929	0.2
195.402	-0.3
195.874	-0.4
196.347	1.7
196.82	-1.85
197.292	-2.8
197.765	-1.8
198.237	-3.9
198.71	-0.75
199.182	-1.75
199.655	-1
200.127	-0.75
200.6	1.8
201.072	-1.55
201.544	0.3
202.017	7.85
202.489	-0.75
202.961	-0.1
203.433	-1.5
203.906	-0.2
204.378	-0.75
204.85	0.25
205.322	0.55
205.794	7.3
206.266	-0.35
206.739	3
207.211	1.05
207.683	-0.45
208.155	-0.85
208.627	1.95
209.099	0.75
209.57	1.35
210.042	1
210.514	3.25
210.986	1.75
211.458	-0.3
211.93	0.45
212.402	4.15
212.873	0.55
213.345	-2.35
213.817	3.35
214.288	-0.4
214.76	4.6
215.232	2.2
215.703	1.55
216.175	2.55
216.646	3.55
217.118	1.15
217.589	0.45
218.061	2.55
218.532	-3.65
219.004	5.05
219.475	6.6
219.946	5.1
220.418	7.25
220.889	3.9
221.36	7.85
221.832	9.65
222.303	2.65
222.774	6.05
223.245	1.65
223.717	0.25
224.188	1.85
224.659	3.85
225.13	3.65
225.601	1.35
226.072	4.35
226.543	10.3
227.014	5.05
227.485	8.8
227.956	9.5
228.427	11.05
228.898	9.2
229.369	9.4
229.839	9.6
230.31	12.65
230.781	9.9
231.252	11.6
231.722	11.55
232.193	9.5
232.664	12.55
233.135	13
233.605	8.35
234.076	17.55
234.546	13.6
235.017	13.4
235.487	15.45
235.958	10.2
236.428	18.15
236.899	12.95
237.369	22.8
237.84	18.6
238.31	20.85
238.78	13.7
239.251	16.4
239.721	14.3
240.191	19.55
240.662	22.25
241.132	17.25
241.602	24.7
242.072	17.1
242.542	17.65
243.013	18.6
243.483	23.45
243.953	18.2
244.423	21.35
244.893	20.9
245.363	24.7
245.833	21
246.303	21.6
246.773	26.2
247.243	26.1
247.712	24.6
248.182	24.7
248.652	25.65
249.122	27.75
249.592	24.45
250.061	24.25
250.531	25.9
251.001	31.45
251.471	27.65
251.94	28.8
252.41	35.4
252.879	33.35
253.349	38.7
253.818	34.75
254.288	42.7
254.757	32.8
255.227	35.05
255.696	34.9
256.166	43.4
256.635	37.15
257.105	37.6
257.574	37.45
258.043	36.65
258.513	45.2
258.982	36.05
259.451	40.45
259.92	42.05
260.389	43.9
260.859	36.35
261.328	47.2
261.797	44.25
262.266	44.75
262.735	47.7
263.204	41.5
263.673	43.9
264.142	42.85
264.611	49.9
265.08	47.85
265.549	48.35
266.018	48.85
266.487	51.55
266.955	47.85
267.424	56.7
267.893	59.55
268.362	53.95
268.83	53.7
269.299	54.45
269.768	55.05
270.236	52.25
270.705	64.25
271.174	59.65
271.642	54.25
272.111	57.15
272.579	59.65
273.048	60.25
273.516	61.8
273.985	61.95
274.453	65.65
274.922	64.6
275.39	58.85
275.858	67.1
276.327	62.25
276.795	67.15
277.263	67.7
277.731	66.5
278.2	67.7
278.668	70.4
279.136	74.8
279.604	74.95
280.072	70.55
280.54	72.7
281.008	82.5
281.477	79.2
281.945	76.8
282.413	76.35
282.881	80.1
283.348	75.55
283.816	77.35
284.284	83.1
284.752	80.5
285.22	82.2
285.688	82.55
286.156	89.5
286.623	87.1
287.091	81.95
287.559	89.6
288.026	90.95
288.494	92.4
288.962	91.7
289.429	89.65
289.897	86.7
290.364	88.85
290.832	90.15
291.3	90.55
291.767	90.05
292.234	92.05
292.702	95.8
293.169	98.2
293.637	98.45
294.104	102.2
294.571	98.65
295.039	102.45
295.506	94.9
295.973	101.35
296.44	99.5
296.908	102
297.375	101.75
297.842	110.3
298.309	101.4
298.776	107.55
299.243	110.45
299.71	110.2
300.177	115.3
300.644	108.95
301.111	111.3
301.578	115.25
302.045	111.9
302.512	114.2
302.979	123.55
303.446	123.95
303.913	127.7
304.379	128.15
304.846	129.2
305.313	136.75
305.78	132.2
306.246	134.35
306.713	135.95
307.18	135
307.646	135.35
308.113	139.5
308.579	145.65
309.046	148.05
309.512	145.9
309.979	147.35
310.445	148.1
310.912	147.85
311.378	154.45
311.845	157.85
312.311	153.25
312.777	157.8
313.244	158.25
313.71	156.8
314.176	164.45
314.642	168.45
315.109	167.2
315.575	161.15
316.041	170.9
316.507	167.75
316.973	173.2
317.439	175.55
317.905	169.1
318.371	168.1
318.837	170.65
319.303	171.8
319.769	170.75
320.235	180.2
320.701	185.4
321.167	175.75
321.633	181.65
322.099	177.8
322.564	185.2
323.03	186.75
323.496	189.4
323.962	186.8
324.427	195.45
324.893	196.05
325.359	199.55
325.824	197.4
326.29	203.15
326.755	203.2
327.221	203.65
327.686	211.95
328.152	205.1
328.617	214.2
329.083	222.85
329.548	224.25
330.014	219.35
330.479	223.45
330.944	222.65
331.41	228.5
331.875	215.75
332.34	224.35
332.805	233.3
333.271	228.85
333.736	227
334.201	230.35
334.666	250.25
335.131	258.05
335.596	250.6
336.061	247.75
336.526	239.25
336.991	238.7
337.456	235.75
337.921	235.1
338.386	238.75
338.851	236
339.316	237.15
339.781	234.75
340.246	250.75
340.711	250.25
341.175	255.25
341.64	255.25
342.105	260.6
342.569	269.3
343.034	265
343.499	266.6
343.963	277.45
344.428	273.6
344.893	277.75
345.357	285.9
345.822	285.05
346.286	287.2
346.751	294.25
347.215	302.1
347.679	308.85
348.144	325.4
348.608	324.6
349.073	325.85
349.537	337.25
350.001	335.75
350.465	338.35
350.93	334.55
351.394	340.8
351.858	338.95
352.322	350.15
352.786	346.15
353.25	348.05
353.715	357.8
354.179	376.8
354.643	374.4
355.107	385.8
355.571	375.65
356.035	377.3
356.498	376.35
356.962	367.35
357.426	372.75
357.89	371.4
358.354	365.55
358.818	361.45
359.281	372.65
359.745	369.45
360.209	370.05
360.673	366.3
361.136	372.35
361.6	378.9
362.064	379.5
362.527	393.95
362.991	390.2
363.454	390.75
363.918	403.15
364.381	399.2
364.845	399.9
365.308	394.3
365.772	403.2
366.235	405.4
366.698	409.05
367.162	402.75
367.625	409.1
368.088	425.7
368.552	409.05
369.015	408.55
369.478	425.3
369.941	416.8
370.404	427.6
370.867	420.5
371.331	431.45
371.794	442.25
372.257	435.8
372.72	432.1
373.183	442.2
373.646	446.15
374.109	440.1
374.572	440.25
375.035	451.55
375.497	456.3
375.96	462.1
376.423	470.2
376.886	476.9
377.349	482.85
377.811	477.85
378.274	485.9
378.737	479.3
379.199	486.7
379.662	488.3
380.125	496.55
380.587	500.65
381.05	504.55
381.512	510.4
381.975	522.95
382.437	531.1
382.9	527.2
383.362	530.85
383.825	537.6
384.287	541.95
384.75	534.5
385.212	539.6
385.674	547.85
386.136	558.3
386.599	549.85
387.061	546.7
387.523	548.8
387.985	560.45
388.447	567.65
388.91	559.9
389.372	565.85
389.834	568.2
390.296	554.15
390.758	572.45
391.22	567.4
391.682	565.1
392.144	567.4
392.606	571.85
393.068	590.4
393.529	624.15
393.991	634.45
394.453	601.1
394.915	584.9
395.377	571.95
395.838	582.8
396.3	576.8
396.762	584.3
397.224	584.5
397.685	590.7
398.147	599.75
398.608	598.6
399.07	606
399.531	610.85
399.993	621.4
400.454	636.3
400.916	631
401.377	649.7
401.839	646.5
402.3	650.25
402.762	678.8
403.223	722.9
403.684	720.7
404.145	693.15
404.607	681.85
405.068	664.05
405.529	675.3
405.99	692.5
406.451	702.65
406.913	693.55
407.374	694.8
407.835	695.15
408.296	713.4
408.757	719.5
409.218	733.5
409.679	741.35
410.14	745.8
410.601	762.55
411.062	770.45
411.522	764.75
411.983	768.45
412.444	782.9
412.905	786.2
413.366	815.4
413.826	857.4
414.287	947.6
414.748	1132.25
415.208	1157.1
415.669	971.1
416.13	874.9
416.59	863.55
417.051	894.75
417.511	933.85
417.972	999.25
418.432	1076.8
418.893	1186.4
419.353	1144.1
419.814	891.35
420.274	797.7
420.734	780.65
421.195	809.65
421.655	801.45
422.115	812.65
422.576	816.3
423.036	818.8
423.496	849.8
423.956	886
424.416	935.9
424.876	1044.65
425.336	1050.6
425.797	1029.1
426.257	1025.2
426.717	967.1
427.177	909.35
427.637	913.95
428.097	946.15
428.556	984.15
429.016	1052.15
429.476	1061.3
429.936	1037.55
430.396	1039.15
430.856	1065.3
431.315	1087.05
431.775	1164.2
432.235	1244.25
432.694	1266.65
433.154	1192.35
433.614	1170.4
434.073	1126.15
434.533	1015.25
434.993	985.6
435.452	985.75
435.912	961.4
436.371	958.55
436.83	942.35
437.29	923.9
437.749	898.65
438.209	898.1
438.668	910.3
439.127	932.35
439.587	910.5
440.046	880.75
440.505	893.2
440.964	907.65
441.424	940.35
441.883	950
442.342	902.15
442.801	869.85
443.26	877.4
443.719	868.2
444.178	866.75
444.637	874.05
445.096	883.15
445.555	885.3
446.014	886.25
446.473	875.35
446.932	880.8
447.391	899.6
447.849	907.9
448.308	890.55
448.767	900
449.226	907.3
449.685	925.05
450.143	965.85
450.602	959
451.061	910.7
451.519	911
451.978	899.2
452.436	899.4
452.895	907.65
453.353	899.2
453.812	893.45
454.27	901.75
454.729	902.9
455.187	913.15
455.646	904.7
456.104	907.35
456.562	922.9
457.021	941.7
457.479	897.25
457.937	926.35
458.395	953.7
458.854	941.15
459.312	929.6
459.77	942.8
460.228	948.8
460.686	962.9
461.144	964.55
461.602	947.9
462.06	955.15
462.518	974.3
462.976	973.95
463.434	988.1
463.892	992.25
464.35	1001.95
464.808	1026.1
465.266	1043.6
465.724	1054.1
466.181	1057.25
466.639	1048.1
467.097	1089.6
467.555	1121.25
468.012	1119.85
468.47	1131.05
468.928	1169.7
469.385	1207.95
469.843	1215.25
470.3	1207.65
470.758	1242.5
471.215	1259.4
471.673	1287.7
472.13	1331.8
472.588	1357.6
473.045	1348.7
473.503	1376.35
473.96	1434.85
474.417	1444.7
474.875	1501.75
475.332	1563.3
475.789	1598.05
476.246	1629.65
476.704	1710.55
477.161	1756.75
477.618	1812.15
478.075	1895.4
478.532	2039.7
478.989	2206.5
479.446	2426.1
479.903	2542.2
480.36	2778.8
480.817	2953.65
481.274	3133.5
481.731	3415.45
482.188	3669.9
482.645	3942.1
483.102	4158.1
483.558	4459.45
484.015	4655
484.472	4599.8
484.929	4481.1
485.385	4295.55
485.842	4207.45
486.299	4044.9
486.755	3720.55
487.212	3351.65
487.668	3026.7
488.125	2813.8
488.582	2600.7
489.038	2507.8
489.494	2427.55
489.951	2340.6
490.407	2289.1
490.864	2230
491.32	2190.15
491.776	2166.7
492.233	2173.85
492.689	2135.75
493.145	2089.55
493.602	2059
494.058	2082.25
494.514	2077.85
494.97	2091.9
495.426	2120.85
495.882	2101.3
496.338	2098.25
496.794	2120.1
497.251	2122.05
497.707	2131.45
498.163	2132.55
498.618	2132.25
499.074	2123.85
499.53	2146.2
499.986	2171.4
500.442	2145.25
500.898	2130.9
501.354	2146.5
501.809	2146.15
502.265	2149.35
502.721	2154.5
503.177	2158.8
503.632	2168.55
504.088	2186.8
504.543	2203.95
504.999	2219.2
505.455	2216.25
505.91	2201.75
506.366	2199.95
506.821	2196.25
507.277	2188.6
507.732	2210.2
508.187	2211.65
508.643	2208.4
509.098	2221.3
509.553	2252.3
510.009	2261.25
510.464	2312.9
510.919	2330.25
511.375	2357.55
511.83	2373.05
512.285	2409.9
512.74	2452.15
513.195	2495.05
513.65	2533.2
514.105	2557.25
514.56	2560.5
515.015	2603.15
515.47	2617.6
515.925	2586.9
516.38	2597.25
516.835	2606.45
517.29	2573.25
517.745	2594.7
518.2	2546.85
518.655	2491.5
519.109	2473.75
519.564	2441.95
520.019	2413.1
520.474	2401.3
520.928	2388.4
521.383	2367.85
521.838	2362.3
522.292	2334.5
522.747	2328.6
523.201	2320.85
523.656	2294.55
524.11	2288.6
524.565	2286
525.019	2291.7
525.474	2272.6
525.928	2267.95
526.382	2275.45
526.837	2267.25
527.291	2272.4
527.745	2259.5
528.2	2260.65
528.654	2242.15
529.108	2244.25
529.562	2239
530.016	2235.15
530.47	2235.9
530.925	2239.05
531.379	2241.5
531.833	2265.85
532.287	2251.6
532.741	2235.2
533.195	2244.95
533.649	2256
534.103	2257.05
534.556	2234.35
535.01	2247.8
535.464	2231.7
535.918	2238.6
536.372	2252.7
536.826	2241.05
537.279	2236.8
537.733	2240.95
538.187	2244.4
538.64	2242.55
539.094	2265.25
539.548	2286.95
540.001	2290.35
540.455	2291.15
540.908	2311.4
541.362	2337.5
541.815	2334.75
542.269	2397.55
542.722	2374.35
543.175	2412.25
543.629	2421.95
544.082	2433.7
544.536	2470.05
544.989	2461.2
545.442	2473.05
545.895	2484.95
546.349	2466.3
546.802	2479.5
547.255	2481.85
547.708	2502.45
548.161	2527.5
548.614	2505.6
549.067	2526.2
549.52	2523.6
549.973	2484.7
550.426	2481.9
550.879	2480
551.332	2469.6
551.785	2494.95
552.238	2504.7
552.691	2510.35
553.144	2543.5
553.596	2578.9
554.049	2614.3
554.502	2663.6
554.955	2697.15
555.407	2751.9
555.86	2719.9
556.313	2687.25
556.765	2664.1
557.218	2626.35
557.67	2618.55
558.123	2585.75
558.576	2582.05
559.028	2576.9
559.48	2597.95
559.933	2585.75
560.385	2500.1
560.838	2431.55
561.29	2364.4
561.742	2352.55
562.195	2301.95
562.647	2287.15
563.099	2279.7
563.551	2253.5
564.004	2279.7
564.456	2249.2
564.908	2209.45
565.36	2162.2
565.812	2107.85
566.264	2102
566.716	2074.15
567.168	2043.15
567.62	2040.85
568.072	2028.35
568.524	2006.3
568.976	2006
569.428	1988.05
569.88	1976
570.332	1997.7
570.784	2009.65
571.235	1993.05
571.687	2011.55
572.139	2014.9
572.59	2019.8
573.042	2038.95
573.494	2028.1
573.945	2006.75
574.397	1964.15
574.849	1968.8
575.3	1966.85
575.752	1945.4
576.203	1913.9
576.655	1927.45
577.106	1907.5
577.557	1899.6
578.009	1889.25
578.46	1884.9
578.912	1878.2
579.363	1893.6
579.814	1884.45
580.265	1873.75
580.717	1885.95
581.168	1889.8
581.619	1881.15
582.07	1910.6
582.521	1893.8
582.972	1879.6
583.423	1889.05
583.875	1894.05
584.326	1915.4
584.777	1941.55
585.227	1979.5
585.678	2007.55
586.129	2020.2
586.58	2034.2
587.031	2068.55
587.482	2127.7
587.933	2173.35
588.384	2157.55
588.834	2130
589.285	2121.05
589.736	2123.2
590.186	2106.85
590.637	2092.7
591.088	2041.3
591.538	2007.85
591.989	1977
592.439	1960.65
592.89	1942.3
593.34	1934.15
593.791	1917.25
594.241	1908.75
594.692	1899.05
595.142	1902.6
595.593	1899.05
596.043	1904.4
596.493	1921.7
596.943	1921
597.394	1974.65
597.844	1994.45
598.294	2041.8
598.744	2106.45
599.195	2205.5
599.645	2326.6
600.095	2437.3
600.545	2554.55
600.995	2667
601.445	2744.95
601.895	2877.85
602.345	2958.9
602.795	2928.75
603.245	2815.4
603.695	2655.8
604.145	2522
604.594	2415.45
605.044	2290
605.494	2150.15
605.944	2033.35
606.393	1999.85
606.843	1948.7
607.293	1957.15
607.743	1937.6
608.192	1940.4
608.642	1941.7
609.091	1937.75
609.541	1929.7
609.99	1927.7
610.44	1899
610.889	1873.15
611.339	1853
611.788	1832.95
612.238	1843.35
612.687	1845
613.136	1857.85
613.586	1869.9
614.035	1862.7
614.484	1884.05
614.933	1884.95
615.383	1843
615.832	1800.85
616.281	1770.75
616.73	1731.45
617.179	1698.8
617.628	1666.05
618.077	1647.1
618.526	1620.75
618.975	1605
619.424	1573.05
619.873	1587.4
620.322	1562.7
620.771	1565.75
621.22	1546.65
621.669	1506.5
622.118	1499.35
622.567	1483.7
623.015	1453.3
623.464	1451.85
623.913	1434
624.361	1434.8
624.81	1430.9
625.259	1437.05
625.707	1427.4
626.156	1443.25
626.604	1447.25
627.053	1458.75
627.501	1457.55
627.95	1462.85
628.398	1489.15
628.847	1456.25
629.295	1459.3
629.744	1441.6
630.192	1426.75
630.64	1409.9
631.089	1390
631.537	1350.9
631.985	1337.1
632.433	1331.7
632.881	1318.95
633.33	1328.8
633.778	1331.1
634.226	1345.5
634.674	1347.3
635.122	1358.5
635.57	1378.85
636.018	1396.2
636.466	1401.3
636.914	1392.25
637.362	1424.65
637.81	1446.75
638.258	1490.1
638.705	1512.1
639.153	1567.95
639.601	1576.05
640.049	1593.6
640.497	1640
640.944	1684.65
641.392	1626.15
641.84	1534.3
642.287	1467.1
642.735	1440.6
643.182	1430.4
643.63	1427.45
644.078	1434.35
644.525	1456.3
644.973	1505.2
645.42	1529.65
645.867	1567.9
646.315	1596.45
646.762	1655.9
647.21	1709.5
647.657	1794.9
648.104	1876.7
648.551	1930.55
648.999	2079.85
649.446	2278
649.893	2564.35
650.34	2999.85
650.787	3686.55
651.234	4741.9
651.682	6520.2
652.129	9208.2
652.576	12976.1
653.023	15529.5
653.47	15532.7
653.917	15532.75
654.363	15532.65
654.81	15529.65
655.257	15530.3
655.704	15534.1
656.151	10261
656.598	6719.1
657.044	4829.45
657.491	3767.45
657.938	3066.55
658.385	2576.25
658.831	2276.9
659.278	2022.4
659.724	1854.3
660.171	1730.95
660.618	1610.45
661.064	1526.5
661.511	1466.85
661.957	1411.1
662.404	1383.85
662.85	1370.65
663.296	1353.85
663.743	1312.65
664.189	1299.35
664.635	1286.2
665.082	1255.1
665.528	1241.9
665.974	1197.1
666.42	1188.95
666.867	1183.25
667.313	1125.75
667.759	1117.05
668.205	1098.5
668.651	1107.05
669.097	1094.15
669.543	1099.9
669.989	1119.45
670.435	1126.75
670.881	1138.05
671.327	1176.8
671.773	1247.85
672.219	1343
672.665	1423.85
673.11	1465.65
673.556	1493.4
674.002	1516.15
674.448	1538
674.893	1324.1
675.339	1160.7
675.785	1068.05
676.23	1012.35
676.676	973.65
677.122	948.75
677.567	919.7
678.013	897.9
678.458	886.1
678.904	878.4
679.349	870.25
679.794	872.05
680.24	868.8
680.685	854.4
681.131	860.7
681.576	859.65
682.021	860.9
682.466	866.3
682.912	880.45
683.357	927.15
683.802	1003.9
684.247	1098.65
684.692	1160.05
685.137	1225.6
685.583	1242.85
686.028	1293.65
686.473	1237
686.918	1069.7
687.363	977.3
687.807	939.05
688.252	886.45
688.697	858.1
689.142	833.75
689.587	837.25
690.032	848.85
690.477	876.2
690.921	929.95
691.366	968.05
691.811	1014.9
692.255	1096.15
692.7	1324.9
693.145	1892.15
693.589	2900.75
694.034	3479.85
694.478	3689.85
694.923	3379.15
695.367	4784.6
695.812	2933.7
696.256	1249.45
696.701	914.65
697.145	843.65
697.59	815.2
698.034	801.15
698.478	795.9
698.922	799.5
699.367	812.95
699.811	862.95
700.255	933
700.699	1002.2
701.143	1096.9
701.588	1156.95
702.032	1214.45
702.476	1245.25
702.92	1328.45
703.364	1740.75
703.808	2643.5
704.252	3319.3
704.696	3514.6
705.14	3305.75
705.584	4532.4
706.027	2533.35
706.471	1279.9
706.915	963.55
707.359	856.55
707.803	786.9
708.246	762.75
708.69	765.05
709.134	744.75
709.577	751.1
710.021	757.55
710.465	750.9
710.908	741.25
711.352	774.1
711.795	860.75
712.239	919.6
712.682	939.85
713.126	925
713.569	1036.5
714.012	843.5
714.456	733.4
714.899	702.15
715.342	669.4
715.786	641.35
716.229	630
716.672	614.85
717.115	612.85
717.558	619.7
718.002	635.8
718.445	665.6
718.888	698.5
719.331	709.85
719.774	726.95
720.217	713.3
720.66	680
721.103	644.15
721.546	606.6
721.989	590.3
722.432	580.05
722.874	581.3
723.317	588.15
723.76	636.25
724.203	780.05
724.645	1033.3
725.088	1221.35
725.531	1210.15
725.974	1311.75
726.416	1189.25
726.859	736.35
727.301	609.3
727.744	573.35
728.187	576.1
728.629	592.25
729.071	618.3
729.514	644.35
729.956	669.25
730.399	688.2
730.841	680.75
731.283	677.9
731.726	660.1
732.168	667.95
732.61	697.45
733.053	753.45
733.495	828.3
733.937	920.55
734.379	1074.1
734.821	1376.35
735.263	2172.55
735.705	3908.5
736.148	5764.8
736.59	5788.65
737.032	6288.3
737.474	5188.65
737.916	1987.5
738.357	1054.8
738.799	809.8
739.241	748.7
739.683	758.95
740.125	781.2
740.567	784.45
741.008	834.9
741.45	880.65
741.892	919.7
742.334	926.95
742.775	927.2
743.217	900.8
743.658	742.05
744.1	774.6
744.542	891.4
744.983	930.1
745.425	962.4
745.866	944.75
746.307	775.7
746.749	819.95
747.19	1177.55
747.632	2271.75
748.073	4257.4
748.514	5905.4
748.956	7806.1
749.397	9222.3
749.838	6408.8
750.279	6068.4
750.72	3153.8
751.162	1340.45
751.603	765.75
752.044	622.15
752.485	545.3
752.926	517.9
753.367	497.4
753.808	480.95
754.249	473.6
754.69	463.7
755.131	456.1
755.572	457.2
756.013	452.75
756.453	461.4
756.894	466.2
757.335	464.65
757.776	475
758.216	492.95
758.657	525.5
759.098	577.25
759.538	697.55
759.979	999.5
760.42	2002.4
760.86	5118.75
761.301	10589.8
761.741	12590.1
762.182	14346.2
762.622	9408.4
763.063	3356.9
763.503	1372.75
763.943	815.1
764.384	646.05
