Data from MSPlasma+Separation6_Subt14_10-13-25-960.txt Node
Date: Fri Jul 21 10:13:25 EDT 2017
User: Ender
Spectrometer: HR+D1039
Trigger mode: 0
Integration Time (sec): 6.430000E-3
Scans to average: 20
Electric dark correction enabled: true
Nonlinearity correction enabled: false
Boxcar width: 0
XAxis mode: Wavelengths
Number of Pixels in Spectrum: 2048
>>>>>Begin Spectral Data<<<<<
187.836	3.78
188.309	3.78
188.782	3.78
189.255	0.98
189.728	3.98
190.201	-5.32
190.674	-1.57
191.147	-1.72
191.619	4.03
192.092	-2.17
192.565	-2.92
193.038	2.83
193.511	1.03
193.984	0.18
194.456	-2.72
194.929	-0.62
195.402	-0.07
195.874	0.38
196.347	5.63
196.82	1.98
197.292	-0.07
197.765	-0.52
198.237	-1.27
198.71	-3.12
199.182	5.73
199.655	4.88
200.127	2.23
200.6	1.33
201.072	-0.47
201.544	1.43
202.017	2.53
202.489	4.08
202.961	-7.72
203.433	-1.87
203.906	-3.87
204.378	-0.52
204.85	1.88
205.322	1.68
205.794	6.08
206.266	2.88
206.739	4.38
207.211	-3.72
207.683	0.93
208.155	1.43
208.627	-4.02
209.099	4.73
209.57	4.03
210.042	4.88
210.514	2.03
210.986	1.23
211.458	-1.97
211.93	1.48
212.402	4.93
212.873	-3.92
213.345	-0.87
213.817	5.83
214.288	-2.32
214.76	3.13
215.232	1.93
215.703	-0.42
216.175	4.38
216.646	4.78
217.118	1.33
217.589	1.53
218.061	1.98
218.532	-0.77
219.004	5.33
219.475	3.23
219.946	6.03
220.418	8.28
220.889	4.48
221.36	7.13
221.832	10.43
222.303	5.48
222.774	9.08
223.245	7.13
223.717	3.83
224.188	4.58
224.659	3.33
225.13	5.43
225.601	3.33
226.072	5.08
226.543	10.53
227.014	9.78
227.485	10.73
227.956	8.98
228.427	10.38
228.898	11.73
229.369	10.03
229.839	4.03
230.31	14.13
230.781	14.33
231.252	13.98
231.722	11.93
232.193	12.93
232.664	11.93
233.135	10.68
233.605	11.68
234.076	16.73
234.546	13.83
235.017	12.73
235.487	14.18
235.958	10.33
236.428	17.78
236.899	14.78
237.369	21.38
237.84	15.68
238.31	22.98
238.78	12.28
239.251	14.28
239.721	12.63
240.191	13.03
240.662	17.53
241.132	17.78
241.602	17.53
242.072	15.13
242.542	12.83
243.013	16.88
243.483	19.18
243.953	17.73
244.423	17.48
244.893	18.93
245.363	28.63
245.833	20.38
246.303	26.33
246.773	25.28
247.243	24.68
247.712	25.78
248.182	22.83
248.652	25.28
249.122	24.08
249.592	27.88
250.061	21.93
250.531	25.08
251.001	24.38
251.471	31.98
251.94	30.83
252.41	31.43
252.879	30.83
253.349	33.03
253.818	32.38
254.288	35.13
254.757	34.93
255.227	33.68
255.696	33.08
256.166	37.83
256.635	34.78
257.105	35.78
257.574	39.23
258.043	38.18
258.513	41.53
258.982	34.93
259.451	40.93
259.92	35.53
260.389	35.03
260.859	39.33
261.328	41.88
261.797	38.28
262.266	38.78
262.735	42.78
263.204	44.23
263.673	42.13
264.142	37.23
264.611	45.43
265.08	43.38
265.549	40.63
266.018	47.88
266.487	47.88
266.955	39.33
267.424	51.08
267.893	47.33
268.362	49.58
268.83	45.98
269.299	49.18
269.768	51.63
270.236	50.78
270.705	57.58
271.174	55.98
271.642	52.08
272.111	51.48
272.579	56.23
273.048	57.38
273.516	62.83
273.985	57.28
274.453	57.33
274.922	55.03
275.39	54.43
275.858	58.83
276.327	62.28
276.795	60.03
277.263	60.58
277.731	56.88
278.2	68.58
278.668	61.23
279.136	65.38
279.604	66.08
280.072	66.28
280.54	66.18
281.008	77.53
281.477	72.43
281.945	66.98
282.413	71.68
282.881	73.03
283.348	75.43
283.816	68.53
284.284	72.93
284.752	75.63
285.22	78.78
285.688	75.13
286.156	78.58
286.623	80.63
287.091	78.93
287.559	83.53
288.026	83.78
288.494	88.23
288.962	81.58
289.429	86.08
289.897	84.78
290.364	83.13
290.832	85.63
291.3	88.58
291.767	85.28
292.234	90.73
292.702	89.43
293.169	89.18
293.637	89.93
294.104	90.63
294.571	89.78
295.039	92.03
295.506	82.68
295.973	97.13
296.44	95.33
296.908	99.23
297.375	95.23
297.842	95.33
298.309	98.63
298.776	103.58
299.243	104.83
299.71	99.63
300.177	104.63
300.644	106.98
301.111	109.13
301.578	111.33
302.045	109.83
302.512	104.83
302.979	104.13
303.446	110.18
303.913	109.38
304.379	120.88
304.846	117.93
305.313	127.33
305.78	130.93
306.246	126.43
306.713	126.68
307.18	125.18
307.646	133.18
308.113	127.13
308.579	135.68
309.046	134.78
309.512	136.48
309.979	140.98
310.445	134.33
310.912	141.43
311.378	145.63
311.845	145.58
312.311	139.78
312.777	144.43
313.244	148.83
313.71	150.68
314.176	154.13
314.642	153.13
315.109	151.08
315.575	151.88
316.041	150.48
316.507	152.73
316.973	162.18
317.439	154.68
317.905	157.08
318.371	156.68
318.837	163.33
319.303	167.03
319.769	162.53
320.235	168.98
320.701	166.83
321.167	166.68
321.633	172.28
322.099	171.68
322.564	171.33
323.03	171.48
323.496	171.68
323.962	176.13
324.427	177.83
324.893	178.58
325.359	187.18
325.824	179.33
326.29	185.33
326.755	184.93
327.221	186.03
327.686	196.23
328.152	198.13
328.617	198.78
329.083	200.98
329.548	199.93
330.014	201.48
330.479	204.03
330.944	206.13
331.41	213.33
331.875	206.18
332.34	204.63
332.805	219.23
333.271	209.48
333.736	215.53
334.201	213.53
334.666	229.38
335.131	232.73
335.596	228.68
336.061	220.23
336.526	224.48
336.991	222.38
337.456	222.58
337.921	216.28
338.386	215.93
338.851	214.78
339.316	217.38
339.781	219.78
340.246	223.68
340.711	228.58
341.175	232.38
341.64	239.68
342.105	245.83
342.569	250.78
343.034	249.83
343.499	249.88
343.963	256.63
344.428	254.03
344.893	253.73
345.357	265.38
345.822	265.88
346.286	273.23
346.751	274.28
347.215	278.33
347.679	289.53
348.144	299.48
348.608	303.88
349.073	304.68
349.537	315.38
350.001	307.98
350.465	310.33
350.93	311.28
351.394	318.18
351.858	313.08
352.322	320.03
352.786	330.43
353.25	322.18
353.715	329.18
354.179	341.13
354.643	351.48
355.107	354.13
355.571	349.28
356.035	350.53
356.498	344.13
356.962	346.33
357.426	346.88
357.89	343.03
358.354	337.08
358.818	336.18
359.281	339.43
359.745	343.83
360.209	342.88
360.673	342.08
361.136	345.58
361.6	344.78
362.064	356.23
362.527	358.43
362.991	363.08
363.454	357.83
363.918	364.63
364.381	365.63
364.845	365.38
365.308	375.43
365.772	371.23
366.235	373.98
366.698	374.08
367.162	369.73
367.625	379.28
368.088	390.28
368.552	380.98
369.015	380.48
369.478	389.68
369.941	386.38
370.404	391.83
370.867	389.33
371.331	390.48
371.794	404.23
372.257	407.48
372.72	396.83
373.183	404.68
373.646	412.78
374.109	412.98
374.572	413.78
375.035	415.58
375.497	414.78
375.96	426.28
376.423	435.43
376.886	440.63
377.349	445.03
377.811	444.33
378.274	446.08
378.737	444.08
379.199	447.28
379.662	452.23
380.125	455.28
380.587	464.53
381.05	473.18
381.512	468.53
381.975	486.03
382.437	493.43
382.9	488.13
383.362	488.98
383.825	496.38
384.287	500.33
384.75	500.63
385.212	503.63
385.674	502.23
386.136	511.43
386.599	506.48
387.061	505.18
387.523	513.43
387.985	512.78
388.447	518.88
388.91	520.63
389.372	524.88
389.834	525.83
390.296	514.03
390.758	526.88
391.22	526.58
391.682	527.33
392.144	530.78
392.606	540.33
393.068	546.43
393.529	577.98
393.991	580.13
394.453	558.48
394.915	543.38
395.377	532.23
395.838	539.18
396.3	541.23
396.762	549.28
397.224	552.78
397.685	543.08
398.147	548.18
398.608	558.83
399.07	565.58
399.531	561.13
399.993	578.18
400.454	589.28
400.916	589.13
401.377	595.98
401.839	595.53
402.3	598.53
402.762	634.53
403.223	670.63
403.684	671.43
404.145	647.78
404.607	630.93
405.068	620.23
405.529	626.68
405.99	644.58
406.451	649.33
406.913	640.83
407.374	649.38
407.835	644.13
408.296	656.38
408.757	658.53
409.218	679.18
409.679	679.23
410.14	692.23
410.601	709.63
411.062	704.13
411.522	713.83
411.983	710.88
412.444	720.28
412.905	732.28
413.366	761.38
413.826	791.28
414.287	891.63
414.748	1045.28
415.208	1072.78
415.669	903.53
416.13	820.38
416.59	803.58
417.051	832.38
417.511	863.98
417.972	933.23
418.432	994.73
418.893	1093.28
419.353	1054.28
419.814	827.73
420.274	736.38
420.734	732.43
421.195	749.83
421.655	749.08
422.115	766.08
422.576	760.53
423.036	770.53
423.496	791.48
423.956	825.63
424.416	873.73
424.876	980.28
425.336	983.08
425.797	964.83
426.257	952.38
426.717	904.98
427.177	836.53
427.637	845.48
428.097	883.63
428.556	919.83
429.016	981.88
429.476	975.33
429.936	970.43
430.396	959.13
430.856	986.03
431.315	1003.03
431.775	1077.68
432.235	1142.78
432.694	1168.78
433.154	1110.18
433.614	1085.68
434.073	1042.43
434.533	942.83
434.993	917.03
435.452	913.98
435.912	894.63
436.371	898.93
436.83	880.98
437.29	867.58
437.749	839.53
438.209	836.08
438.668	849.78
439.127	867.13
439.587	847.03
440.046	824.93
440.505	844.63
440.964	846.18
441.424	876.48
441.883	891.38
442.342	854.28
442.801	805.53
443.26	809.53
443.719	808.48
444.178	808.33
444.637	823.93
445.096	830.93
445.555	841.58
446.014	829.43
446.473	822.08
446.932	829.43
447.391	834.23
447.849	854.48
448.308	841.43
448.767	847.93
449.226	858.28
449.685	870.53
450.143	904.78
450.602	903.88
451.061	847.63
451.519	852.98
451.978	846.13
452.436	849.53
452.895	852.03
453.353	848.03
453.812	842.58
454.27	843.48
454.729	850.98
455.187	852.73
455.646	854.08
456.104	857.28
456.562	867.03
457.021	882.88
457.479	853.33
457.937	875.73
458.395	897.68
458.854	887.38
459.312	870.48
459.77	888.43
460.228	891.88
460.686	912.73
461.144	910.63
461.602	891.63
462.06	896.43
462.518	917.23
462.976	917.93
463.434	931.88
463.892	941.63
464.35	959.88
464.808	966.08
465.266	977.88
465.724	994.13
466.181	1005.28
466.639	992.43
467.097	1029.78
467.555	1070.73
468.012	1063.18
468.47	1076.03
468.928	1101.18
469.385	1134.33
469.843	1152.28
470.3	1144.68
470.758	1179.03
471.215	1194.63
471.673	1228.78
472.13	1249.28
472.588	1281.28
473.045	1271.63
473.503	1301.83
473.96	1348.43
474.417	1359.78
474.875	1422.68
475.332	1475.78
475.789	1507.03
476.246	1547.03
476.704	1610.98
477.161	1662.78
477.618	1705.53
478.075	1785.38
478.532	1921.78
478.989	2067.62
479.446	2282.88
479.903	2398.28
480.36	2607.23
480.817	2748.43
481.274	2917.43
481.731	3191.18
482.188	3413.13
482.645	3652.03
483.102	3853.88
483.558	4115.88
484.015	4269.83
484.472	4240.93
484.929	4124.58
485.385	3965.12
485.842	3857.08
486.299	3719.73
486.755	3427.83
487.212	3098.12
487.668	2809.28
488.125	2614.03
488.582	2431.68
489.038	2337.38
489.494	2258.93
489.951	2204.63
490.407	2136.68
490.864	2108.38
491.32	2066.43
491.776	2034.48
492.233	2051.33
492.689	2006.23
493.145	1974.23
493.602	1943.43
494.058	1977.38
494.514	1978.18
494.97	1984.08
495.426	2000.53
495.882	2013.13
496.338	2005.58
496.794	2014.23
497.251	2001.03
497.707	2026.18
498.163	2024.53
498.618	2022.83
499.074	2037.68
499.53	2062.03
499.986	2058.83
500.442	2048.48
500.898	2024.23
501.354	2039.88
501.809	2034.88
502.265	2042.48
502.721	2057.63
503.177	2051.03
503.632	2061.38
504.088	2071.83
504.543	2105.43
504.999	2122.48
505.455	2112.13
505.91	2098.23
506.366	2107.68
506.821	2101.18
507.277	2093.43
507.732	2091.88
508.187	2095.98
508.643	2111.18
509.098	2109.03
509.553	2137.12
510.009	2168.62
510.464	2202.08
510.919	2214.93
511.375	2250.08
511.83	2263.93
512.285	2291.33
512.74	2346.48
513.195	2361.18
513.65	2420.12
514.105	2444.48
514.56	2445.58
515.015	2478.98
515.47	2495.33
515.925	2468.43
516.38	2480.13
516.835	2481.23
517.29	2462.48
517.745	2461.03
518.2	2429.48
518.655	2382.18
519.109	2347.68
519.564	2319.73
520.019	2313.78
520.474	2286.38
520.928	2284.78
521.383	2261.23
521.838	2254.73
522.292	2233.83
522.747	2213.62
523.201	2206.33
523.656	2184.18
524.11	2175.08
524.565	2167.88
525.019	2174.53
525.474	2168.28
525.928	2157.83
526.382	2166.03
526.837	2160.08
527.291	2178.62
527.745	2154.08
528.2	2159.83
528.654	2127.48
529.108	2145.48
529.562	2140.33
530.016	2132.78
530.47	2143.78
530.925	2134.13
531.379	2136.98
531.833	2164.78
532.287	2164.48
532.741	2143.33
533.195	2152.78
533.649	2162.03
534.103	2155.43
534.556	2142.53
535.01	2160.58
535.464	2138.63
535.918	2142.18
536.372	2163.18
536.826	2150.03
537.279	2130.68
537.733	2146.98
538.187	2144.08
538.64	2139.48
539.094	2164.93
539.548	2184.98
540.001	2179.08
540.455	2189.08
540.908	2195.83
541.362	2218.73
541.815	2244.33
542.269	2288.03
542.722	2269.98
543.175	2308.68
543.629	2315.63
544.082	2333.23
544.536	2360.33
544.989	2355.58
545.442	2370.83
545.895	2369.83
546.349	2365.28
546.802	2375.88
547.255	2384.38
547.708	2381.83
548.161	2412.68
548.614	2415.03
549.067	2422.08
549.52	2406.48
549.973	2389.78
550.426	2377.23
550.879	2372.62
551.332	2360.03
551.785	2383.33
552.238	2408.78
552.691	2401.08
553.144	2446.03
553.596	2499.38
554.049	2509.13
554.502	2566.83
554.955	2609.58
555.407	2637.08
555.86	2597.43
556.313	2565.38
556.765	2563.83
557.218	2517.83
557.67	2525.63
558.123	2477.23
558.576	2468.98
559.028	2466.73
559.48	2494.68
559.933	2483.68
560.385	2412.78
560.838	2341.03
561.29	2275.23
561.742	2258.88
562.195	2198.83
562.647	2194.83
563.099	2168.93
563.551	2169.23
564.004	2182.38
564.456	2161.03
564.908	2123.73
565.36	2067.33
565.812	2033.28
566.264	2005.03
566.716	1990.18
567.168	1947.33
567.62	1966.58
568.072	1951.53
568.524	1930.23
568.976	1928.98
569.428	1905.33
569.88	1895.48
570.332	1925.68
570.784	1926.83
571.235	1912.33
571.687	1937.53
572.139	1927.98
572.59	1953.63
573.042	1955.33
573.494	1965.03
573.945	1929.48
574.397	1890.03
574.849	1886.88
575.3	1886.48
575.752	1863.53
576.203	1857.68
576.655	1865.03
577.106	1823.58
577.557	1822.38
578.009	1811.28
578.46	1818.33
578.912	1799.88
579.363	1810.43
579.814	1802.58
580.265	1809.83
580.717	1805.83
581.168	1808.08
581.619	1811.43
582.07	1830.33
582.521	1821.88
582.972	1816.98
583.423	1823.03
583.875	1825.23
584.326	1849.28
584.777	1871.43
585.227	1900.33
585.678	1928.28
586.129	1940.63
586.58	1950.28
587.031	1994.83
587.482	2034.63
587.933	2063.68
588.384	2071.88
588.834	2040.23
589.285	2037.83
589.736	2028.53
590.186	2021.53
590.637	2016.53
591.088	1964.43
591.538	1935.83
591.989	1905.83
592.439	1878.13
592.89	1871.63
593.34	1860.83
593.791	1853.63
594.241	1832.53
594.692	1833.33
595.142	1816.93
595.593	1821.53
596.043	1832.73
596.493	1855.48
596.943	1843.23
597.394	1900.23
597.844	1916.88
598.294	1969.28
598.744	2041.88
599.195	2122.28
599.645	2235.03
600.095	2346.48
600.545	2466.03
600.995	2553.63
601.445	2632.78
601.895	2763.78
602.345	2850.23
602.795	2818.18
603.245	2715.28
603.695	2557.83
604.145	2438.58
604.594	2318.23
605.044	2195.62
605.494	2065.08
605.944	1967.73
606.393	1908.08
606.843	1873.48
607.293	1864.13
607.743	1854.18
608.192	1872.83
608.642	1875.98
609.091	1853.03
609.541	1859.33
609.99	1861.58
610.44	1818.33
610.889	1804.63
611.339	1779.88
611.788	1765.63
612.238	1763.78
612.687	1784.93
613.136	1785.08
613.586	1807.03
614.035	1800.38
614.484	1803.43
614.933	1808.73
615.383	1774.68
615.832	1735.18
616.281	1700.63
616.73	1674.73
617.179	1639.58
617.628	1606.58
618.077	1583.18
618.526	1548.63
618.975	1556.43
619.424	1513.18
619.873	1515.93
620.322	1510.58
620.771	1504.33
621.22	1484.53
621.669	1452.88
622.118	1431.63
622.567	1426.88
623.015	1400.38
623.464	1410.33
623.913	1380.63
624.361	1393.43
624.81	1377.63
625.259	1379.83
625.707	1374.33
626.156	1387.58
626.604	1398.53
627.053	1406.58
627.501	1401.18
627.95	1404.13
628.398	1422.68
628.847	1402.18
629.295	1400.23
629.744	1404.48
630.192	1370.48
630.64	1362.83
631.089	1334.58
631.537	1298.93
631.985	1291.33
632.433	1282.28
632.881	1278.78
633.33	1277.03
633.778	1270.18
634.226	1287.33
634.674	1294.13
635.122	1312.03
635.57	1324.73
636.018	1346.98
636.466	1340.13
636.914	1348.93
637.362	1376.93
637.81	1397.38
638.258	1440.88
638.705	1458.08
639.153	1497.83
639.601	1515.18
640.049	1538.03
640.497	1588.63
640.944	1617.38
641.392	1551.43
641.84	1469.68
642.287	1408.23
642.735	1384.58
643.182	1373.58
643.63	1361.93
644.078	1381.23
644.525	1394.08
644.973	1437.03
645.42	1461.58
645.867	1495.18
646.315	1526.68
646.762	1587.53
647.21	1628.38
647.657	1712.53
648.104	1772.68
648.551	1836.68
648.999	1963.88
649.446	2158.73
649.893	2402.63
650.34	2816.83
650.787	3468.88
651.234	4450.12
651.682	6115.73
652.129	8587.88
652.576	12169.22
653.023	15479.67
653.47	15533.52
653.917	15533.57
654.363	15533.47
654.81	15530.47
655.257	15531.12
655.704	15255.07
656.151	9423.12
656.598	6205.98
657.044	4449.73
657.491	3496.28
657.938	2852.93
658.385	2425.83
658.831	2140.63
659.278	1922.08
659.724	1751.68
660.171	1643.78
660.618	1519.48
661.064	1451.63
661.511	1399.88
661.957	1354.48
662.404	1329.13
662.85	1308.73
663.296	1292.98
663.743	1263.53
664.189	1243.43
664.635	1227.53
665.082	1212.23
665.528	1198.33
665.974	1162.88
666.42	1139.43
666.867	1120.58
667.313	1078.33
667.759	1060.68
668.205	1058.03
668.651	1057.33
669.097	1064.33
669.543	1067.38
669.989	1078.93
670.435	1077.53
670.881	1084.18
671.327	1123.48
671.773	1201.43
672.219	1293.18
672.665	1369.08
673.11	1419.53
673.556	1436.68
674.002	1463.03
674.448	1477.48
674.893	1267.93
675.339	1113.18
675.785	1027.23
676.23	974.83
676.676	928.08
677.122	916.23
677.567	883.73
678.013	861.03
678.458	858.98
678.904	850.83
679.349	836.98
679.794	832.78
680.24	829.33
680.685	825.93
681.131	824.68
681.576	829.13
682.021	833.68
682.466	841.33
682.912	849.48
683.357	896.13
683.802	966.03
684.247	1053.48
684.692	1127.78
685.137	1164.93
685.583	1192.53
686.028	1253.88
686.473	1196.13
686.918	1030.98
687.363	940.93
687.807	900.08
688.252	857.53
688.697	826.28
689.142	805.88
689.587	816.13
690.032	826.23
690.477	855.88
690.921	894.38
691.366	933.83
691.811	974.53
692.255	1056.43
692.7	1276.83
693.145	1847.88
693.589	2798.68
694.034	3353.78
694.478	3556.78
694.923	3237.23
695.367	4553.83
695.812	2802.28
696.256	1202.13
696.701	876.58
697.145	813.48
697.59	789.88
698.034	770.08
698.478	768.98
698.922	775.93
699.367	791.78
699.811	827.23
700.255	897.83
700.699	974.63
701.143	1062.58
701.588	1120.33
702.032	1162.88
702.476	1203.98
702.92	1286.68
703.364	1683.53
703.808	2572.08
704.252	3198.48
704.696	3370.38
705.14	3173.13
705.584	4312.62
706.027	2422.83
706.471	1226.58
706.915	921.88
707.359	820.78
707.803	758.28
708.246	734.58
708.69	733.93
709.134	723.63
709.577	717.78
710.021	723.68
710.465	725.28
710.908	721.28
711.352	746.73
711.795	828.53
712.239	884.13
712.682	909.18
713.126	894.23
713.569	986.53
714.012	822.03
714.456	714.53
714.899	669.98
715.342	653.73
715.786	624.78
716.229	610.43
716.672	595.83
717.115	594.43
717.558	594.53
718.002	613.38
718.445	643.33
718.888	672.08
719.331	691.33
719.774	698.78
720.217	690.03
720.66	655.93
721.103	620.78
721.546	589.43
721.989	567.18
722.432	566.98
722.874	552.33
723.317	567.08
723.76	618.78
724.203	751.78
724.645	1002.58
725.088	1180.18
725.531	1152.63
725.974	1253.63
726.416	1136.98
726.859	701.63
727.301	590.38
727.744	561.08
728.187	558.88
728.629	573.58
729.071	595.73
729.514	627.38
729.956	649.63
730.399	661.88
730.841	664.88
731.283	649.43
731.726	633.93
732.168	644.28
732.61	677.53
733.053	723.98
733.495	802.78
733.937	887.78
734.379	1046.38
734.821	1326.43
735.263	2106.68
735.705	3786.48
736.148	5556.82
736.59	5582.48
737.032	5977.78
737.474	4950.23
737.916	1918.43
738.357	1019.03
738.799	781.33
739.241	727.73
739.683	733.08
740.125	751.63
740.567	754.68
741.008	811.88
741.45	853.28
741.892	893.48
742.334	901.88
742.775	898.13
743.217	860.88
743.658	719.28
744.1	747.43
744.542	863.23
744.983	899.78
745.425	928.63
