Data from MSPlasma+Separation6_Subt14_10-13-34-190.txt Node
Date: Fri Jul 21 10:13:34 EDT 2017
User: Ender
Spectrometer: HR+D1039
Trigger mode: 0
Integration Time (sec): 6.430000E-3
Scans to average: 20
Electric dark correction enabled: true
Nonlinearity correction enabled: false
Boxcar width: 0
XAxis mode: Wavelengths
Number of Pixels in Spectrum: 2048
>>>>>Begin Spectral Data<<<<<
187.836	1.14
188.309	1.14
188.782	1.14
189.255	1.39
189.728	1.59
190.201	-0.96
190.674	-2.86
191.147	-0.71
191.619	3.64
192.092	-3.21
192.565	-1.81
193.038	4.29
193.511	0.89
193.984	-1.46
194.456	-1.96
194.929	-0.56
195.402	0.79
195.874	-0.16
196.347	4.09
196.82	-1.46
197.292	-6.86
197.765	0.24
198.237	-2.46
198.71	-2.26
199.182	-1.26
199.655	3.09
200.127	1.84
200.6	-0.96
201.072	3.94
201.544	-0.81
202.017	-0.56
202.489	2.84
202.961	-3.21
203.433	-4.36
203.906	-0.16
204.378	3.24
204.85	0.89
205.322	2.04
205.794	2.64
206.266	-1.31
206.739	5.34
207.211	0.49
207.683	1.44
208.155	1.69
208.627	0.89
209.099	7.79
209.57	9.14
210.042	3.09
210.514	-0.46
210.986	-0.41
211.458	-0.31
211.93	3.14
212.402	1.94
212.873	-3.41
213.345	-0.26
213.817	-0.21
214.288	-5.61
214.76	1.94
215.232	-2.56
215.703	2.64
216.175	0.24
216.646	4.89
217.118	4.59
217.589	-1.66
218.061	0.84
218.532	-0.46
219.004	7.44
219.475	5.59
219.946	2.69
220.418	7.69
220.889	1.74
221.36	4.99
221.832	5.74
222.303	5.89
222.774	5.74
223.245	2.04
223.717	2.24
224.188	3.39
224.659	1.59
225.13	3.19
225.601	5.69
226.072	8.24
226.543	8.24
227.014	4.14
227.485	7.39
227.956	8.34
228.427	14.44
228.898	11.49
229.369	13.34
229.839	11.79
230.31	11.64
230.781	8.79
231.252	13.09
231.722	9.24
232.193	10.29
232.664	10.94
233.135	9.39
233.605	11.49
234.076	19.24
234.546	12.49
235.017	14.74
235.487	12.09
235.958	12.09
236.428	18.04
236.899	16.14
237.369	20.89
237.84	17.29
238.31	18.49
238.78	15.94
239.251	16.44
239.721	12.79
240.191	19.24
240.662	19.19
241.132	17.89
241.602	18.84
242.072	18.34
242.542	17.09
243.013	19.44
243.483	23.94
243.953	18.84
244.423	19.39
244.893	19.64
245.363	25.89
245.833	24.74
246.303	26.64
246.773	27.99
247.243	23.59
247.712	25.24
248.182	26.29
248.652	27.09
249.122	33.19
249.592	28.19
250.061	24.64
250.531	29.24
251.001	29.29
251.471	28.19
251.94	31.64
252.41	30.84
252.879	35.04
253.349	38.94
253.818	30.24
254.288	35.84
254.757	30.89
255.227	34.39
255.696	38.99
256.166	41.79
256.635	36.74
257.105	38.04
257.574	38.99
258.043	37.39
258.513	36.89
258.982	36.14
259.451	41.44
259.92	35.29
260.389	40.94
260.859	43.39
261.328	46.19
261.797	45.19
262.266	49.04
262.735	49.24
263.204	44.94
263.673	47.04
264.142	50.69
264.611	47.39
265.08	46.09
265.549	46.34
266.018	48.74
266.487	50.89
266.955	50.44
267.424	54.79
267.893	55.49
268.362	57.74
268.83	55.49
269.299	50.64
269.768	53.24
270.236	53.59
270.705	62.04
271.174	54.79
271.642	54.54
272.111	59.64
272.579	58.79
273.048	60.34
273.516	61.94
273.985	67.89
274.453	63.79
274.922	61.24
275.39	62.19
275.858	65.99
276.327	69.89
276.795	67.89
277.263	66.29
277.731	69.69
278.2	70.39
278.668	64.84
279.136	73.89
279.604	72.04
280.072	71.64
280.54	72.89
281.008	78.74
281.477	79.24
281.945	76.74
282.413	75.94
282.881	77.64
283.348	76.44
283.816	79.59
284.284	81.04
284.752	81.84
285.22	88.29
285.688	81.74
286.156	89.74
286.623	86.74
287.091	84.49
287.559	88.29
288.026	90.64
288.494	89.24
288.962	85.99
289.429	86.34
289.897	91.14
290.364	92.24
290.832	90.74
291.3	96.29
291.767	90.99
292.234	96.64
292.702	94.39
293.169	99.49
293.637	100.59
294.104	100.14
294.571	100.19
295.039	104.69
295.506	96.59
295.973	106.49
296.44	105.79
296.908	109.34
297.375	105.49
297.842	111.19
298.309	103.49
298.776	107.49
299.243	113.79
299.71	109.44
300.177	109.39
300.644	112.49
301.111	115.34
301.578	116.89
302.045	115.24
302.512	118.74
302.979	124.84
303.446	120.84
303.913	126.99
304.379	121.94
304.846	126.49
305.313	136.09
305.78	137.79
306.246	136.84
306.713	136.79
307.18	141.44
307.646	139.54
308.113	140.49
308.579	145.44
309.046	153.04
309.512	140.89
309.979	147.74
310.445	144.79
310.912	155.69
311.378	156.39
311.845	156.39
312.311	154.49
312.777	155.74
313.244	157.29
313.71	160.74
314.176	166.24
314.642	160.89
315.109	168.14
315.575	164.29
316.041	173.74
316.507	169.39
316.973	168.24
317.439	169.14
317.905	174.99
318.371	174.09
318.837	170.94
319.303	178.84
319.769	175.64
320.235	182.29
320.701	183.34
321.167	186.34
321.633	183.69
322.099	179.74
322.564	189.29
323.03	184.79
323.496	190.39
323.962	195.19
324.427	196.24
324.893	189.74
325.359	201.14
325.824	202.34
326.29	201.99
326.755	201.94
327.221	200.49
327.686	213.79
328.152	215.79
328.617	215.34
329.083	219.94
329.548	224.04
330.014	220.44
330.479	226.49
330.944	229.19
331.41	235.79
331.875	219.69
332.34	219.89
332.805	228.39
333.271	224.44
333.736	231.74
334.201	236.44
334.666	253.24
335.131	254.09
335.596	250.94
336.061	244.59
336.526	241.49
336.991	236.09
337.456	237.09
337.921	238.49
338.386	239.64
338.851	233.84
339.316	238.59
339.781	234.14
340.246	242.09
340.711	247.74
341.175	254.94
341.64	260.44
342.105	257.19
342.569	271.79
343.034	266.74
343.499	267.99
343.963	276.54
344.428	277.59
344.893	276.09
345.357	284.74
345.822	288.64
346.286	285.44
346.751	293.59
347.215	298.54
347.679	309.74
348.144	327.99
348.608	325.04
349.073	323.24
349.537	337.04
350.001	341.64
350.465	337.59
350.93	336.84
351.394	339.64
351.858	342.89
352.322	353.14
352.786	350.34
353.25	351.29
353.715	359.89
354.179	374.84
354.643	379.99
355.107	384.89
355.571	378.44
356.035	366.69
356.498	373.74
356.962	372.19
357.426	374.99
357.89	369.94
358.354	363.49
358.818	361.04
359.281	362.14
359.745	366.39
360.209	366.39
360.673	368.54
361.136	372.59
361.6	374.99
362.064	384.74
362.527	389.74
362.991	390.74
363.454	387.84
363.918	391.14
364.381	398.44
364.845	391.29
365.308	397.69
365.772	408.49
366.235	403.34
366.698	398.44
367.162	404.44
367.625	400.74
368.088	409.84
368.552	409.49
369.015	410.14
369.478	421.29
369.941	421.44
370.404	428.39
370.867	422.54
371.331	425.84
371.794	436.19
372.257	440.09
372.72	438.94
373.183	441.74
373.646	442.04
374.109	438.29
374.572	444.64
375.035	446.29
375.497	455.04
375.96	456.79
376.423	467.09
376.886	469.74
377.349	473.49
377.811	478.89
378.274	478.84
378.737	475.49
379.199	485.39
379.662	485.14
380.125	489.84
380.587	499.59
381.05	505.44
381.512	510.69
381.975	516.09
382.437	533.74
382.9	528.04
383.362	523.64
383.825	536.29
384.287	539.84
384.75	533.64
385.212	536.39
385.674	546.39
386.136	543.79
386.599	542.99
387.061	545.09
387.523	550.74
387.985	557.74
388.447	561.74
388.91	563.49
389.372	566.54
389.834	563.34
390.296	550.79
390.758	566.49
391.22	560.74
391.682	564.19
392.144	570.34
392.606	569.14
393.068	589.14
393.529	612.14
393.991	628.54
394.453	598.59
394.915	580.14
395.377	572.09
395.838	570.89
396.3	583.49
396.762	587.24
397.224	584.39
397.685	583.49
398.147	595.54
398.608	596.94
399.07	611.79
399.531	608.24
399.993	628.99
400.454	629.54
400.916	633.44
401.377	646.24
401.839	646.74
402.3	644.19
402.762	670.04
403.223	724.44
403.684	717.29
404.145	690.49
404.607	680.64
405.068	669.89
405.529	675.84
405.99	686.54
406.451	699.44
406.913	686.14
407.374	695.69
407.835	691.49
408.296	710.34
408.757	709.89
409.218	727.54
409.679	730.94
410.14	737.99
410.601	757.64
411.062	756.49
411.522	763.89
411.983	761.19
412.444	773.54
412.905	787.79
413.366	804.09
413.826	836.44
414.287	951.64
414.748	1133.89
415.208	1153.54
415.669	967.49
416.13	880.59
416.59	856.89
417.051	892.24
417.511	925.19
417.972	998.94
418.432	1075.89
418.893	1183.74
419.353	1145.39
419.814	878.04
420.274	791.14
420.734	780.34
421.195	804.64
421.655	798.14
422.115	810.94
422.576	800.04
423.036	818.94
423.496	845.89
423.956	878.39
424.416	932.94
424.876	1046.74
425.336	1052.39
425.797	1029.09
426.257	1013.99
426.717	962.69
427.177	900.34
427.637	905.04
428.097	947.74
428.556	971.64
429.016	1040.49
429.476	1048.34
429.936	1031.64
430.396	1028.84
430.856	1050.89
431.315	1077.14
431.775	1160.74
432.235	1234.24
432.694	1246.24
433.154	1186.49
433.614	1157.89
434.073	1130.14
434.533	1019.04
434.993	973.69
435.452	977.49
435.912	954.59
436.371	951.74
436.83	939.74
437.29	914.19
437.749	899.59
438.209	893.49
438.668	901.84
439.127	927.54
439.587	899.14
440.046	879.34
440.505	898.84
440.964	901.09
441.424	927.39
441.883	945.89
442.342	904.64
442.801	861.14
443.26	867.54
443.719	867.64
444.178	864.29
444.637	873.94
445.096	876.14
445.555	884.19
446.014	884.34
446.473	876.24
446.932	877.49
447.391	890.09
447.849	901.39
448.308	885.39
448.767	887.94
449.226	905.94
449.685	919.24
450.143	964.49
450.602	957.34
451.061	908.29
451.519	914.89
451.978	898.74
452.436	893.99
452.895	898.39
453.353	893.04
453.812	888.14
454.27	897.69
454.729	890.79
455.187	897.79
455.646	905.99
456.104	908.59
456.562	916.74
457.021	934.99
457.479	890.59
457.937	927.69
458.395	952.34
458.854	938.24
459.312	930.99
459.77	935.59
460.228	943.94
460.686	958.19
461.144	962.89
461.602	956.94
462.06	957.89
462.518	968.99
462.976	971.49
463.434	982.49
463.892	991.79
464.35	1006.19
464.808	1028.74
465.266	1037.84
465.724	1046.99
466.181	1048.34
466.639	1048.04
467.097	1088.39
467.555	1122.19
468.012	1119.24
468.47	1135.69
468.928	1168.44
469.385	1191.84
469.843	1213.54
470.3	1202.59
470.758	1239.69
471.215	1253.54
471.673	1289.14
472.13	1327.99
472.588	1351.74
473.045	1351.39
473.503	1367.44
473.96	1422.64
474.417	1444.14
474.875	1506.14
475.332	1559.54
475.789	1592.44
476.246	1616.99
476.704	1700.09
477.161	1741.84
477.618	1793.59
478.075	1887.84
478.532	2034.39
478.989	2182.44
479.446	2389.19
479.903	2517.89
480.36	2730.54
480.817	2896.39
481.274	3080.34
481.731	3360.79
482.188	3604.89
482.645	3883.19
483.102	4100.29
483.558	4377.69
484.015	4556.79
484.472	4518.54
484.929	4402.69
485.385	4232.49
485.842	4124.59
486.299	3989.79
486.755	3653.24
487.212	3310.99
487.668	2992.09
488.125	2775.69
488.582	2575.39
489.038	2461.59
489.494	2402.34
489.951	2321.44
490.407	2269.99
490.864	2218.39
491.32	2172.84
491.776	2149.44
492.233	2163.04
492.689	2129.14
493.145	2082.79
493.602	2051.09
494.058	2078.49
494.514	2086.04
494.97	2075.84
495.426	2103.04
495.882	2106.19
496.338	2092.99
496.794	2113.09
497.251	2102.14
497.707	2120.49
498.163	2121.19
498.618	2133.74
499.074	2125.64
499.53	2160.24
499.986	2163.84
500.442	2149.34
500.898	2123.24
501.354	2149.69
501.809	2141.89
502.265	2137.69
502.721	2142.49
503.177	2149.89
503.632	2171.54
504.088	2182.49
504.543	2208.14
504.999	2230.54
505.455	2206.14
505.91	2189.99
506.366	2192.74
506.821	2210.94
507.277	2188.89
507.732	2197.39
508.187	2199.69
508.643	2221.79
509.098	2220.14
509.553	2259.44
510.009	2266.89
510.464	2314.79
510.919	2322.29
511.375	2358.79
511.83	2355.59
512.285	2401.94
512.74	2454.14
513.195	2474.59
513.65	2527.44
514.105	2553.29
514.56	2557.29
515.015	2606.74
515.47	2612.99
515.925	2583.74
516.38	2582.29
516.835	2602.04
517.29	2569.89
517.745	2577.89
518.2	2545.09
518.655	2488.74
519.109	2462.64
519.564	2429.49
520.019	2421.44
520.474	2393.99
520.928	2377.39
521.383	2367.64
521.838	2352.44
522.292	2339.19
522.747	2314.64
523.201	2315.19
523.656	2294.04
524.11	2286.14
524.565	2271.79
525.019	2273.84
525.474	2282.79
525.928	2261.44
526.382	2277.94
526.837	2275.19
527.291	2276.19
527.745	2259.84
528.2	2257.74
528.654	2222.89
529.108	2242.39
529.562	2239.14
530.016	2235.74
530.47	2237.34
530.925	2236.99
531.379	2232.24
531.833	2257.74
532.287	2252.54
532.741	2238.99
533.195	2239.34
533.649	2257.69
534.103	2250.09
534.556	2229.74
535.01	2254.44
535.464	2238.29
535.918	2230.84
536.372	2247.44
536.826	2241.24
537.279	2227.89
537.733	2240.14
538.187	2247.84
538.64	2241.19
539.094	2251.44
539.548	2279.94
540.001	2287.74
540.455	2299.44
540.908	2302.09
541.362	2317.49
541.815	2331.44
542.269	2391.94
542.722	2385.64
543.175	2409.74
543.629	2420.99
544.082	2431.79
544.536	2463.69
544.989	2459.59
545.442	2474.24
545.895	2468.59
546.349	2463.34
546.802	2472.94
547.255	2474.14
547.708	2484.99
548.161	2508.49
548.614	2521.09
549.067	2521.64
549.52	2507.09
549.973	2489.84
550.426	2473.29
550.879	2468.09
551.332	2468.64
551.785	2495.14
552.238	2504.74
552.691	2509.89
553.144	2540.54
553.596	2579.49
554.049	2621.04
554.502	2660.09
554.955	2691.64
555.407	2729.09
555.86	2722.74
556.313	2680.19
556.765	2655.99
557.218	2625.89
557.67	2625.19
558.123	2592.99
558.576	2576.34
559.028	2574.44
559.48	2600.59
559.933	2577.69
560.385	2518.14
560.838	2427.44
561.29	2367.84
561.742	2361.84
562.195	2303.44
562.647	2278.39
563.099	2270.84
563.551	2255.04
564.004	2288.74
564.456	2264.84
564.908	2205.89
565.36	2159.14
565.812	2120.84
566.264	2104.69
566.716	2071.54
567.168	2038.39
567.62	2047.34
568.072	2031.74
568.524	2016.24
568.976	2004.89
569.428	1994.04
569.88	1983.49
570.332	2001.34
570.784	1994.04
571.235	1995.59
571.687	2012.84
572.139	2010.94
572.59	2026.99
573.042	2049.49
573.494	2027.09
573.945	2012.59
574.397	1973.89
574.849	1958.19
575.3	1964.49
575.752	1929.74
576.203	1923.19
576.655	1934.04
577.106	1897.04
577.557	1884.39
578.009	1875.14
578.46	1894.19
578.912	1868.19
579.363	1888.49
579.814	1881.69
580.265	1887.44
580.717	1882.14
581.168	1884.04
581.619	1879.49
582.07	1906.09
582.521	1904.74
582.972	1892.39
583.423	1883.84
583.875	1902.74
584.326	1914.19
584.777	1949.34
585.227	1983.99
585.678	2013.39
586.129	2027.84
586.58	2041.64
587.031	2077.99
587.482	2123.34
587.933	2166.34
588.384	2151.39
588.834	2128.64
589.285	2116.09
589.736	2108.79
590.186	2116.09
590.637	2099.64
591.088	2053.39
591.538	2017.19
591.989	1987.54
592.439	1953.69
592.89	1944.29
593.34	1931.24
593.791	1920.34
594.241	1913.04
594.692	1903.89
595.142	1905.49
595.593	1909.64
596.043	1906.04
596.493	1939.99
596.943	1922.99
597.394	1979.74
597.844	1999.84
598.294	2037.34
598.744	2107.79
599.195	2193.04
599.645	2325.74
600.095	2437.54
600.545	2555.09
600.995	2666.09
601.445	2752.59
601.895	2882.74
602.345	2964.44
602.795	2930.39
603.245	2822.34
603.695	2669.64
604.145	2522.29
604.594	2406.84
605.044	2290.29
605.494	2142.54
605.944	2035.64
606.393	1987.84
606.843	1958.39
607.293	1946.69
607.743	1929.99
608.192	1951.84
608.642	1942.84
609.091	1942.79
609.541	1940.79
609.99	1934.99
610.44	1898.39
610.889	1876.04
611.339	1847.14
611.788	1831.44
612.238	1842.69
612.687	1845.64
613.136	1851.19
613.586	1876.89
614.035	1870.79
614.484	1894.79
614.933	1889.64
615.383	1845.99
615.832	1798.09
616.281	1771.64
616.73	1730.99
617.179	1713.59
617.628	1667.14
618.077	1645.04
618.526	1621.69
618.975	1608.94
619.424	1574.54
619.873	1584.29
620.322	1570.54
620.771	1555.04
621.22	1538.89
621.669	1505.79
622.118	1493.54
622.567	1484.19
623.015	1458.74
623.464	1456.74
623.913	1441.54
624.361	1434.49
624.81	1427.24
625.259	1429.59
625.707	1435.29
626.156	1443.79
626.604	1448.34
627.053	1443.74
627.501	1450.89
627.95	1460.79
628.398	1476.89
628.847	1456.99
629.295	1458.19
629.744	1444.04
630.192	1424.49
630.64	1405.99
631.089	1395.14
631.537	1351.54
631.985	1333.84
632.433	1328.09
632.881	1321.79
633.33	1329.54
633.778	1334.09
634.226	1340.89
634.674	1359.49
635.122	1358.69
635.57	1381.99
636.018	1399.84
636.466	1393.29
636.914	1395.79
637.362	1426.54
637.81	1447.09
638.258	1498.84
638.705	1512.89
639.153	1556.39
639.601	1572.19
640.049	1602.34
640.497	1644.24
640.944	1686.59
641.392	1631.24
641.84	1538.94
642.287	1461.44
642.735	1431.14
643.182	1421.59
643.63	1426.59
644.078	1421.89
644.525	1455.64
644.973	1486.39
645.42	1516.24
645.867	1566.74
646.315	1589.19
646.762	1651.74
647.21	1707.54
647.657	1790.79
648.104	1840.04
648.551	1899.59
648.999	2059.14
649.446	2242.69
649.893	2504.74
650.34	2936.49
650.787	3605.24
651.234	4633.49
651.682	6354.39
652.129	8971.84
652.576	12618.94
653.023	15529.49
653.47	15532.69
653.917	15532.74
654.363	15532.64
654.81	15529.64
655.257	15530.29
655.704	15534.09
656.151	10020.04
656.598	6611.79
657.044	4724.54
657.491	3696.84
657.938	2995.74
658.385	2543.89
658.831	2251.14
659.278	2012.14
659.724	1838.14
660.171	1714.39
660.618	1605.09
661.064	1512.64
661.511	1456.89
661.957	1405.54
662.404	1374.74
662.85	1362.94
663.296	1349.49
663.743	1308.64
664.189	1302.34
664.635	1286.09
665.082	1260.74
665.528	1239.24
665.974	1211.09
666.42	1185.44
666.867	1175.39
667.313	1117.34
667.759	1108.34
668.205	1105.84
668.651	1096.89
669.097	1100.59
669.543	1103.54
669.989	1116.29
670.435	1123.54
670.881	1123.99
671.327	1161.89
671.773	1249.69
672.219	1342.74
672.665	1432.49
673.11	1468.19
673.556	1489.84
674.002	1529.19
674.448	1535.34
674.893	1324.39
675.339	1155.09
675.785	1065.54
676.23	1013.94
676.676	967.19
677.122	944.49
677.567	920.84
678.013	892.09
678.458	888.69
678.904	885.09
679.349	866.94
679.794	873.34
680.24	868.69
680.685	861.69
681.131	859.84
681.576	865.29
682.021	867.44
682.466	869.49
682.912	874.44
683.357	920.79
683.802	1001.89
684.247	1095.04
684.692	1158.14
685.137	1213.39
685.583	1240.14
686.028	1297.89
686.473	1235.09
686.918	1074.39
687.363	981.49
687.807	932.59
688.252	898.69
688.697	855.89
689.142	834.84
689.587	835.34
690.032	856.09
690.477	886.64
690.921	924.49
691.366	970.14
691.811	1016.44
692.255	1097.64
692.7	1319.19
693.145	1910.64
693.589	2893.79
694.034	3458.74
694.478	3712.89
694.923	3396.69
695.367	4826.09
695.812	2939.69
696.256	1244.09
696.701	918.14
697.145	843.94
697.59	812.44
698.034	799.14
698.478	799.14
698.922	801.09
699.367	814.09
699.811	848.79
700.255	920.24
700.699	999.64
701.143	1094.34
701.588	1156.84
702.032	1211.14
702.476	1254.89
702.92	1336.99
703.364	1750.59
703.808	2645.59
704.252	3307.04
704.696	3503.94
705.14	3315.59
705.584	4568.84
706.027	2544.64
706.471	1281.14
706.915	960.19
707.359	853.84
707.803	794.94
708.246	764.34
708.69	762.14
709.134	749.04
709.577	743.74
710.021	754.14
710.465	748.54
710.908	749.24
711.352	781.59
711.795	855.99
712.239	918.19
712.682	941.74
713.126	921.69
713.569	1026.49
714.012	852.44
714.456	738.79
714.899	700.44
715.342	672.94
715.786	648.89
716.229	630.29
716.672	621.44
717.115	611.79
717.558	613.59
718.002	641.59
718.445	668.64
718.888	700.54
719.331	717.39
719.774	727.24
720.217	710.59
720.66	676.49
721.103	643.59
721.546	611.79
721.989	595.59
722.432	588.94
722.874	580.34
723.317	589.19
723.76	638.94
724.203	775.49
724.645	1034.84
725.088	1229.59
725.531	1205.89
725.974	1319.49
726.416	1188.34
726.859	739.44
727.301	606.19
727.744	571.94
728.187	577.79
728.629	591.24
729.071	615.69
729.514	645.24
729.956	665.74
730.399	688.24
730.841	684.09
731.283	666.29
731.726	657.54
732.168	663.14
732.61	698.94
733.053	751.99
733.495	832.84
733.937	925.19
734.379	1082.09
734.821	1372.89
735.263	2171.04
735.705	3905.44
736.148	5764.19
736.59	5823.29
737.032	6328.59
737.474	5249.14
737.916	2002.94
738.357	1053.39
738.799	808.09
739.241	759.59
739.683	760.74
740.125	783.29
740.567	791.64
741.008	836.24
741.45	885.74
741.892	922.74
742.334	928.99
742.775	926.84
743.217	896.19
743.658	747.84
744.1	775.34
744.542	902.54
