Data from MSPlasma+Separation6_Subt14_10-13-12-587.txt Node
Date: Fri Jul 21 10:13:12 EDT 2017
User: Ender
Spectrometer: HR+D1039
Trigger mode: 0
Integration Time (sec): 6.430000E-3
Scans to average: 20
Electric dark correction enabled: true
Nonlinearity correction enabled: false
Boxcar width: 0
XAxis mode: Wavelengths
Number of Pixels in Spectrum: 2048
>>>>>Begin Spectral Data<<<<<
187.836	-5.46
188.309	-5.46
188.782	-5.46
189.255	1.04
189.728	3.44
190.201	-0.16
190.674	-1.71
191.147	-1.21
191.619	-0.26
192.092	-3.96
192.565	-3.01
193.038	0.64
193.511	4.69
193.984	2.44
194.456	-0.16
194.929	1.49
195.402	3.44
195.874	-1.21
196.347	0.69
196.82	2.49
197.292	-1.31
197.765	-0.81
198.237	-2.36
198.71	-2.91
199.182	0.89
199.655	5.64
200.127	2.09
200.6	1.24
201.072	2.59
201.544	2.94
202.017	0.04
202.489	3.69
202.961	1.79
203.433	-3.26
203.906	-0.41
204.378	3.94
204.85	2.84
205.322	-1.21
205.794	4.84
206.266	-0.11
206.739	6.04
207.211	4.89
207.683	1.59
208.155	2.09
208.627	-0.26
209.099	7.94
209.57	3.49
210.042	4.39
210.514	4.74
210.986	2.04
211.458	4.94
211.93	2.29
212.402	5.29
212.873	1.39
213.345	0.49
213.817	4.99
214.288	-0.51
214.76	1.84
215.232	4.49
215.703	6.29
216.175	6.34
216.646	10.24
217.118	2.89
217.589	5.39
218.061	1.69
218.532	2.54
219.004	6.99
219.475	4.34
219.946	7.69
220.418	5.74
220.889	7.04
221.36	12.04
221.832	9.84
222.303	12.29
222.774	9.84
223.245	7.64
223.717	6.14
224.188	6.29
224.659	6.69
225.13	3.79
225.601	6.39
226.072	9.29
226.543	9.89
227.014	11.24
227.485	11.99
227.956	11.14
228.427	14.94
228.898	10.44
229.369	11.99
229.839	10.14
230.31	16.64
230.781	15.59
231.252	15.89
231.722	15.94
232.193	14.24
232.664	11.89
233.135	11.54
233.605	17.84
234.076	19.19
234.546	19.39
235.017	23.24
235.487	17.14
235.958	13.09
236.428	21.64
236.899	20.04
237.369	26.59
237.84	27.44
238.31	22.49
238.78	18.29
239.251	20.94
239.721	22.89
240.191	21.44
240.662	28.79
241.132	24.39
241.602	27.44
242.072	24.84
242.542	23.59
243.013	24.24
243.483	30.19
243.953	23.84
244.423	34.69
244.893	25.49
245.363	34.69
245.833	29.99
246.303	30.54
246.773	40.29
247.243	34.24
247.712	43.34
248.182	37.29
248.652	38.64
249.122	34.34
249.592	37.14
250.061	35.09
250.531	37.19
251.001	39.14
251.471	39.94
251.94	43.99
252.41	39.74
252.879	43.34
253.349	46.74
253.818	41.09
254.288	48.14
254.757	43.04
255.227	45.54
255.696	46.89
256.166	52.79
256.635	50.19
257.105	47.64
257.574	49.24
258.043	51.69
258.513	53.59
258.982	50.14
259.451	56.74
259.92	50.04
260.389	56.64
260.859	53.19
261.328	56.39
261.797	57.44
262.266	63.14
262.735	59.04
263.204	53.19
263.673	57.84
264.142	56.09
264.611	61.69
265.08	65.89
265.549	59.84
266.018	60.39
266.487	66.19
266.955	60.44
267.424	72.34
267.893	67.34
268.362	69.44
268.83	67.09
269.299	68.99
269.768	72.09
270.236	73.29
270.705	78.44
271.174	70.44
271.642	70.74
272.111	76.09
272.579	72.79
273.048	77.34
273.516	77.79
273.985	78.09
274.453	79.89
274.922	72.69
275.39	76.99
275.858	80.64
276.327	81.84
276.795	83.69
277.263	86.44
277.731	83.19
278.2	87.29
278.668	86.14
279.136	89.84
279.604	87.69
280.072	88.54
280.54	92.79
281.008	99.54
281.477	94.39
281.945	89.19
282.413	94.39
282.881	92.09
283.348	96.09
283.816	96.04
284.284	98.59
284.752	98.44
285.22	102.94
285.688	103.34
286.156	101.19
286.623	105.24
287.091	105.54
287.559	107.54
288.026	109.79
288.494	112.29
288.962	109.39
289.429	106.59
289.897	111.39
290.364	109.69
290.832	114.29
291.3	110.74
291.767	108.34
292.234	115.84
292.702	114.94
293.169	120.44
293.637	122.14
294.104	120.94
294.571	120.34
295.039	121.89
295.506	119.44
295.973	126.14
296.44	121.79
296.908	126.24
297.375	128.44
297.842	126.54
298.309	131.29
298.776	131.54
299.243	136.49
299.71	138.64
300.177	137.59
300.644	132.54
301.111	135.69
301.578	141.04
302.045	138.99
302.512	138.94
302.979	146.39
303.446	149.29
303.913	150.24
304.379	157.04
304.846	157.29
305.313	154.19
305.78	162.59
306.246	163.94
306.713	161.04
307.18	164.09
307.646	165.59
308.113	166.24
308.579	172.74
309.046	175.74
309.512	173.59
309.979	180.24
310.445	176.79
310.912	184.69
311.378	185.74
311.845	185.34
312.311	181.74
312.777	184.74
313.244	197.04
313.71	194.59
314.176	198.44
314.642	197.39
315.109	199.54
315.575	198.44
316.041	200.54
316.507	201.69
316.973	206.89
317.439	209.14
317.905	204.79
318.371	206.64
318.837	206.54
319.303	210.64
319.769	208.94
320.235	213.79
320.701	217.99
321.167	219.89
321.633	221.64
322.099	217.59
322.564	220.79
323.03	221.99
323.496	226.99
323.962	232.39
324.427	233.24
324.893	223.34
325.359	237.74
325.824	241.04
326.29	246.24
326.755	240.44
327.221	241.34
327.686	252.49
328.152	251.84
328.617	255.39
329.083	259.44
329.548	258.19
330.014	263.49
330.479	263.89
330.944	266.09
331.41	271.09
331.875	261.84
332.34	265.59
332.805	275.89
333.271	272.74
333.736	273.34
334.201	274.94
334.666	292.94
335.131	289.94
335.596	294.09
336.061	285.24
336.526	291.44
336.991	280.64
337.456	280.84
337.921	277.79
338.386	276.24
338.851	282.24
339.316	279.34
339.781	277.39
340.246	284.04
340.711	288.39
341.175	299.79
341.64	305.74
342.105	305.29
342.569	320.74
343.034	313.64
343.499	317.14
343.963	328.19
344.428	328.84
344.893	329.99
345.357	337.39
345.822	340.04
346.286	345.59
346.751	352.64
347.215	358.34
347.679	363.49
348.144	388.59
348.608	385.79
349.073	387.64
349.537	396.59
350.001	394.74
350.465	387.74
350.93	397.44
351.394	402.74
351.858	403.44
352.322	413.09
352.786	409.89
353.25	401.29
353.715	416.69
354.179	433.19
354.643	445.54
355.107	450.34
355.571	439.49
356.035	438.59
356.498	440.39
356.962	437.44
357.426	442.39
357.89	442.64
358.354	438.24
358.818	429.19
359.281	438.74
359.745	441.04
360.209	434.64
360.673	432.14
361.136	439.14
361.6	441.94
362.064	450.14
362.527	459.14
362.991	461.94
363.454	457.99
363.918	464.44
364.381	467.39
364.845	460.99
365.308	465.94
365.772	480.94
366.235	471.09
366.698	474.44
367.162	472.74
367.625	476.99
368.088	490.34
368.552	485.44
369.015	491.09
369.478	490.79
369.941	498.64
370.404	504.84
370.867	493.99
371.331	507.39
371.794	517.34
372.257	513.99
372.72	517.19
373.183	525.69
373.646	526.69
374.109	519.39
374.572	528.74
375.035	533.64
375.497	532.94
375.96	544.19
376.423	552.69
376.886	562.84
377.349	565.24
377.811	565.24
378.274	568.59
378.737	564.74
379.199	574.29
379.662	574.14
380.125	584.74
380.587	588.89
381.05	604.14
381.512	611.04
381.975	624.54
382.437	635.19
382.9	623.59
383.362	629.59
383.825	640.09
384.287	640.84
384.75	626.19
385.212	641.34
385.674	640.44
386.136	652.44
386.599	643.04
387.061	645.94
387.523	656.74
387.985	658.59
388.447	676.64
388.91	666.89
389.372	669.44
389.834	676.69
390.296	664.94
390.758	672.89
391.22	671.94
391.682	681.09
392.144	694.39
392.606	698.49
393.068	697.39
393.529	738.19
393.991	740.19
394.453	710.44
394.915	699.44
395.377	683.04
395.838	699.69
396.3	695.84
396.762	700.89
397.224	701.54
397.685	704.14
398.147	713.84
398.608	715.89
399.07	728.24
399.531	725.64
399.993	744.74
400.454	754.99
400.916	753.09
401.377	777.19
401.839	777.79
402.3	776.49
402.762	804.69
403.223	856.64
403.684	853.99
404.145	824.29
404.607	815.79
405.068	795.54
405.529	813.84
405.99	828.89
406.451	845.54
406.913	821.29
407.374	825.99
407.835	828.09
408.296	857.64
408.757	857.84
409.218	874.74
409.679	880.79
410.14	889.39
410.601	914.64
411.062	915.44
411.522	920.79
411.983	915.69
412.444	928.19
412.905	944.59
413.366	975.49
413.826	1023.09
414.287	1134.29
414.748	1334.54
415.208	1377.79
415.669	1153.24
416.13	1058.04
416.59	1033.64
417.051	1067.44
417.511	1104.99
417.972	1192.19
418.432	1268.74
418.893	1394.39
419.353	1342.49
419.814	1053.64
420.274	948.44
420.734	942.69
421.195	971.29
421.655	965.84
422.115	979.74
422.576	976.99
423.036	986.09
423.496	1018.79
423.956	1055.89
424.416	1132.79
424.876	1258.39
425.336	1254.69
425.797	1234.79
426.257	1223.04
426.717	1160.24
427.177	1082.59
427.637	1107.49
428.097	1144.89
428.556	1196.59
429.016	1275.39
429.476	1273.89
429.936	1253.84
430.396	1250.94
430.856	1294.74
431.315	1312.54
431.775	1392.44
432.235	1495.89
432.694	1503.09
433.154	1423.94
433.614	1395.99
434.073	1352.04
434.533	1217.99
434.993	1187.14
435.452	1182.39
435.912	1163.79
436.371	1160.59
436.83	1144.19
437.29	1128.14
437.749	1089.84
438.209	1074.54
438.668	1089.59
439.127	1120.79
439.587	1095.89
440.046	1074.84
440.505	1088.94
440.964	1098.49
441.424	1139.94
441.883	1160.54
442.342	1093.89
442.801	1043.64
443.26	1051.49
443.719	1039.79
444.178	1033.89
444.637	1057.99
445.096	1071.39
445.555	1075.79
446.014	1066.34
446.473	1060.74
446.932	1060.69
447.391	1069.99
447.849	1089.79
448.308	1076.79
448.767	1088.24
449.226	1100.29
449.685	1120.49
450.143	1156.84
450.602	1150.94
451.061	1098.24
451.519	1112.29
451.978	1086.69
452.436	1089.89
452.895	1101.89
453.353	1087.04
453.812	1081.09
454.27	1092.34
454.729	1090.44
455.187	1096.64
455.646	1108.19
456.104	1107.04
456.562	1117.09
457.021	1136.04
457.479	1095.94
457.937	1133.89
458.395	1165.74
458.854	1146.74
459.312	1132.84
459.77	1138.54
460.228	1160.84
460.686	1178.34
461.144	1173.64
461.602	1156.04
462.06	1159.59
462.518	1195.89
462.976	1194.34
463.434	1208.24
463.892	1222.94
464.35	1242.24
464.808	1274.19
465.266	1278.04
465.724	1291.44
466.181	1299.89
466.639	1290.19
467.097	1342.99
467.555	1388.84
468.012	1380.89
468.47	1403.69
468.928	1445.79
469.385	1467.04
469.843	1494.09
470.3	1478.54
470.758	1532.99
471.215	1549.39
471.673	1587.29
472.13	1628.94
472.588	1667.74
473.045	1647.69
473.503	1693.29
473.96	1759.29
474.417	1785.19
474.875	1854.19
475.332	1933.24
475.789	1975.64
476.246	2021.14
476.704	2122.59
477.161	2192.99
477.618	2248.04
478.075	2370.69
478.532	2564.19
478.989	2757.99
479.446	3049.84
479.903	3207.54
480.36	3511.19
480.817	3712.74
481.274	3958.69
481.731	4327.99
482.188	4620.29
482.645	4987.19
483.102	5235.64
483.558	5554.99
484.015	5782.84
484.472	5716.84
484.929	5525.99
485.385	5296.34
485.842	5201.69
486.299	4997.99
486.755	4587.49
487.212	4139.99
487.668	3746.59
488.125	3487.59
488.582	3230.59
489.038	3107.14
489.494	3010.94
489.951	2919.19
490.407	2838.04
490.864	2783.09
491.32	2715.59
491.776	2703.29
492.233	2703.94
492.689	2662.59
493.145	2615.09
493.602	2556.89
494.058	2590.44
494.514	2596.94
494.97	2594.64
495.426	2642.44
495.882	2636.59
496.338	2637.99
496.794	2667.74
497.251	2652.64
497.707	2677.99
498.163	2694.39
498.618	2685.44
499.074	2659.94
499.53	2696.79
499.986	2709.79
500.442	2684.79
500.898	2659.84
501.354	2682.99
501.809	2686.19
502.265	2690.39
502.721	2705.94
503.177	2709.59
503.632	2701.09
504.088	2715.84
504.543	2739.24
504.999	2787.79
505.455	2780.89
505.91	2745.24
506.366	2751.79
506.821	2757.84
507.277	2744.09
507.732	2756.54
508.187	2751.54
508.643	2782.29
509.098	2781.84
509.553	2821.09
510.009	2858.64
510.464	2894.64
510.919	2924.04
511.375	2955.04
511.83	2979.74
512.285	3030.89
512.74	3093.34
513.195	3139.34
513.65	3180.34
514.105	3219.79
514.56	3230.94
515.015	3280.89
515.47	3295.74
515.925	3251.09
516.38	3265.64
516.835	3264.04
517.29	3254.09
517.745	3255.44
518.2	3204.09
518.655	3132.44
519.109	3119.54
519.564	3065.59
520.019	3057.99
520.474	3027.69
520.928	2993.94
521.383	2970.59
521.838	2964.94
522.292	2945.94
522.747	2926.79
523.201	2915.94
523.656	2879.24
524.11	2882.99
524.565	2866.94
525.019	2878.89
525.474	2868.14
525.928	2858.39
526.382	2853.94
526.837	2868.24
527.291	2875.69
527.745	2858.49
528.2	2854.49
528.654	2829.69
529.108	2830.09
529.562	2832.89
530.016	2845.24
530.47	2841.59
530.925	2831.69
531.379	2840.69
531.833	2870.74
532.287	2860.99
532.741	2839.44
533.195	2852.54
533.649	2865.04
534.103	2876.04
534.556	2852.24
535.01	2866.49
535.464	2833.99
535.918	2854.59
536.372	2878.89
536.826	2845.59
537.279	2824.54
537.733	2829.99
538.187	2850.09
538.64	2825.84
539.094	2853.74
539.548	2901.89
540.001	2895.79
540.455	2905.79
540.908	2931.94
541.362	2956.29
541.815	2959.14
542.269	3015.74
542.722	3012.69
543.175	3056.69
543.629	3067.49
544.082	3077.49
544.536	3118.54
544.989	3105.79
545.442	3135.99
545.895	3138.79
546.349	3131.69
546.802	3140.14
547.255	3132.19
547.708	3164.39
548.161	3189.89
548.614	3195.69
549.067	3202.99
549.52	3198.54
549.973	3158.54
550.426	3143.34
550.879	3146.44
551.332	3148.69
551.785	3164.69
552.238	3199.64
552.691	3225.19
553.144	3258.89
553.596	3307.89
554.049	3334.99
554.502	3398.34
554.955	3442.19
555.407	3496.54
555.86	3470.59
556.313	3411.19
556.765	3387.54
557.218	3350.44
557.67	3350.69
558.123	3312.29
558.576	3293.64
559.028	3282.09
559.48	3301.74
559.933	3272.84
560.385	3192.84
560.838	3087.24
561.29	3004.69
561.742	3002.44
562.195	2928.69
562.647	2903.49
563.099	2891.59
563.551	2854.94
564.004	2899.79
564.456	2866.79
564.908	2801.54
565.36	2753.14
565.812	2699.29
566.264	2674.64
566.716	2634.89
567.168	2593.44
567.62	2597.49
568.072	2591.19
568.524	2567.94
568.976	2551.89
569.428	2525.89
569.88	2526.99
570.332	2550.04
570.784	2550.14
571.235	2552.59
571.687	2576.04
572.139	2571.84
572.59	2588.89
573.042	2607.44
573.494	2612.69
573.945	2573.09
574.397	2521.19
574.849	2517.89
575.3	2518.84
575.752	2482.09
576.203	2452.34
576.655	2484.39
577.106	2445.79
577.557	2419.74
578.009	2412.99
578.46	2421.84
578.912	2387.49
579.363	2410.49
579.814	2405.89
580.265	2415.49
580.717	2411.64
581.168	2414.39
581.619	2417.09
582.07	2429.34
582.521	2425.14
582.972	2421.04
583.423	2422.44
583.875	2437.29
584.326	2464.29
584.777	2517.54
585.227	2576.04
585.678	2608.69
586.129	2642.94
586.58	2651.99
587.031	2701.99
587.482	2772.34
587.933	2837.99
588.384	2806.04
588.834	2737.09
589.285	2695.74
589.736	2708.39
590.186	2698.09
590.637	2670.24
591.088	2608.39
591.538	2566.79
591.989	2541.24
592.439	2504.79
592.89	2469.64
593.34	2467.19
593.791	2467.19
594.241	2441.54
594.692	2434.54
595.142	2440.29
595.593	2432.04
596.043	2455.34
596.493	2465.89
596.943	2461.59
597.394	2537.44
597.844	2560.24
598.294	2622.54
598.744	2717.79
599.195	2837.64
599.645	2993.34
600.095	3145.29
600.545	3269.24
600.995	3400.99
601.445	3537.34
601.895	3677.34
602.345	3771.34
602.795	3734.54
603.245	3586.89
603.695	3395.94
604.145	3223.29
604.594	3059.04
605.044	2919.24
605.494	2741.79
605.944	2616.44
606.393	2563.69
606.843	2498.69
607.293	2489.34
607.743	2474.89
608.192	2487.64
608.642	2485.04
609.091	2479.99
609.541	2471.79
609.99	2477.49
610.44	2424.59
610.889	2403.24
611.339	2379.54
611.788	2351.59
612.238	2370.49
612.687	2378.79
613.136	2401.64
613.586	2431.84
614.035	2415.44
614.484	2439.54
614.933	2431.74
615.383	2381.69
615.832	2326.94
616.281	2296.04
616.73	2238.74
617.179	2183.54
617.628	2139.29
618.077	2107.39
618.526	2078.34
618.975	2067.24
619.424	2033.44
619.873	2030.19
620.322	2003.79
620.771	2002.34
621.22	1976.19
621.669	1932.79
622.118	1920.24
622.567	1904.59
623.015	1865.49
623.464	1869.44
623.913	1838.09
624.361	1839.79
624.81	1841.79
625.259	1848.54
625.707	1835.19
626.156	1838.34
626.604	1863.54
627.053	1867.44
627.501	1872.69
627.95	1878.09
628.398	1901.24
628.847	1869.54
629.295	1864.44
629.744	1849.54
630.192	1818.04
630.64	1794.64
631.089	1770.79
631.537	1729.54
631.985	1700.74
632.433	1710.54
632.881	1704.49
633.33	1709.74
633.778	1712.29
634.226	1713.79
634.674	1737.34
635.122	1753.54
635.57	1779.99
636.018	1799.69
636.466	1795.44
636.914	1804.84
637.362	1830.54
637.81	1859.09
638.258	1929.44
638.705	1948.39
639.153	1996.44
639.601	2030.34
640.049	2064.39
640.497	2105.59
640.944	2156.04
641.392	2091.94
641.84	1970.79
642.287	1895.44
642.735	1861.04
643.182	1855.04
643.63	1861.19
644.078	1870.69
644.525	1904.24
644.973	1959.24
645.42	2001.74
645.867	2054.09
646.315	2106.24
646.762	2185.24
647.21	2241.59
647.657	2363.29
648.104	2450.44
648.551	2531.14
648.999	2728.74
649.446	3000.24
649.893	3381.19
650.34	3950.64
650.787	4873.49
651.234	6282.29
651.682	8569.29
652.129	12089.39
652.576	15528.84
653.023	15528.19
653.47	15531.39
653.917	15531.44
654.363	15531.34
654.81	15528.34
655.257	15528.99
655.704	15532.79
656.151	13040.79
656.598	8608.49
657.044	6221.19
657.491	4884.74
657.938	3942.99
658.385	3344.29
658.831	2943.39
659.278	2624.94
659.724	2404.14
660.171	2225.49
660.618	2070.34
661.064	1971.09
661.511	1892.79
661.957	1840.54
662.404	1804.44
662.85	1774.74
663.296	1761.64
663.743	1702.49
664.189	1691.64
664.635	1680.44
665.082	1639.69
665.528	1611.89
665.974	1563.24
666.42	1534.89
666.867	1519.09
667.313	1437.09
667.759	1432.59
668.205	1425.34
668.651	1427.79
669.097	1426.39
669.543	1438.44
669.989	1447.34
670.435	1458.84
670.881	1472.24
671.327	1528.04
671.773	1616.54
672.219	1739.29
672.665	1838.99
673.11	1895.74
673.556	1903.89
674.002	1934.44
674.448	1963.04
674.893	1695.69
675.339	1479.24
675.785	1372.19
676.23	1298.94
676.676	1247.19
677.122	1220.24
677.567	1180.79
678.013	1145.49
678.458	1136.89
678.904	1136.74
679.349	1128.19
679.794	1108.14
680.24	1105.79
680.685	1096.79
681.131	1103.34
681.576	1113.09
682.021	1108.34
682.466	1124.39
682.912	1138.04
683.357	1195.84
683.802	1286.29
684.247	1403.49
684.692	1494.39
685.137	1554.69
685.583	1567.69
686.028	1640.74
686.473	1569.69
686.918	1370.69
687.363	1245.19
687.807	1191.64
688.252	1138.59
688.697	1098.09
689.142	1068.29
689.587	1079.94
690.032	1096.49
690.477	1141.04
690.921	1179.44
691.366	1248.09
691.811	1311.89
692.255	1408.69
692.7	1705.59
693.145	2442.54
693.589	3750.74
694.034	4484.34
694.478	4700.89
694.923	4281.84
695.367	5924.59
695.812	3666.64
696.256	1572.14
696.701	1170.14
697.145	1080.04
697.59	1043.84
698.034	1020.79
698.478	1019.94
698.922	1030.69
699.367	1053.59
699.811	1104.59
700.255	1187.29
700.699	1289.69
701.143	1404.24
701.588	1476.24
702.032	1528.74
702.476	1584.99
702.92	1707.69
703.364	2230.34
703.808	3427.49
704.252	4269.44
704.696	4466.44
705.14	4146.99
705.584	5611.69
706.027	3171.59
706.471	1619.04
706.915	1209.84
707.359	1088.29
707.803	1013.69
708.246	981.09
708.69	966.84
709.134	963.04
709.577	955.59
710.021	959.14
710.465	958.24
710.908	951.44
711.352	995.34
711.795	1094.54
712.239	1183.74
712.682	1209.69
713.126	1193.14
713.569	1317.99
714.012	1095.89
714.456	960.89
714.899	906.94
715.342	861.84
715.786	826.49
716.229	805.09
716.672	786.24
717.115	778.84
717.558	794.99
718.002	814.49
718.445	845.54
718.888	894.64
719.331	918.24
719.774	917.74
720.217	903.64
720.66	862.49
721.103	816.89
721.546	782.24
721.989	756.39
722.432	748.39
722.874	748.19
723.317	754.74
723.76	813.24
724.203	991.44
724.645	1327.79
725.088	1552.34
725.531	1523.94
725.974	1644.19
726.416	1484.84
726.859	935.29
727.301	768.59
727.744	737.44
728.187	738.84
728.629	751.79
729.071	784.94
729.514	825.99
729.956	862.59
730.399	873.54
730.841	876.74
731.283	853.89
731.726	835.49
732.168	850.29
732.61	891.54
733.053	954.59
733.495	1051.19
733.937	1171.44
734.379	1368.84
734.821	1743.64
735.263	2777.49
735.705	5032.79
736.148	7279.69
736.59	7276.79
737.032	7675.04
737.474	6417.04
737.916	2490.39
738.357	1335.24
738.799	1033.19
739.241	957.89
739.683	980.34
740.125	1026.89
