Data from MSPlasma+Separation6_Subt14_10-13-13-616.txt Node
Date: Fri Jul 21 10:13:13 EDT 2017
User: Ender
Spectrometer: HR+D1039
Trigger mode: 0
Integration Time (sec): 6.430000E-3
Scans to average: 20
Electric dark correction enabled: true
Nonlinearity correction enabled: false
Boxcar width: 0
XAxis mode: Wavelengths
Number of Pixels in Spectrum: 2048
>>>>>Begin Spectral Data<<<<<
187.836	0.58
188.309	0.58
188.782	0.58
189.255	-1.47
189.728	3.28
190.201	-3.12
190.674	4.43
191.147	-0.77
191.619	3.63
192.092	-2.12
192.565	-6.62
193.038	2.13
193.511	1.33
193.984	-1.67
194.456	-1.47
194.929	1.88
195.402	-1.47
195.874	1.43
196.347	3.58
196.82	3.28
197.292	-2.47
197.765	-1.77
198.237	-0.82
198.71	-7.97
199.182	0.38
199.655	0.73
200.127	2.03
200.6	0.28
201.072	8.33
201.544	-2.42
202.017	0.88
202.489	3.38
202.961	-2.87
203.433	-3.47
203.906	2.73
204.378	4.63
204.85	2.98
205.322	1.68
205.794	2.08
206.266	-1.62
206.739	9.68
207.211	-0.37
207.683	-0.72
208.155	1.98
208.627	-1.02
209.099	7.83
209.57	7.03
210.042	2.63
210.514	1.48
210.986	1.23
211.458	-0.82
211.93	4.93
212.402	3.93
212.873	-1.82
213.345	-2.12
213.817	3.28
214.288	1.73
214.76	10.28
215.232	2.63
215.703	5.13
216.175	7.23
216.646	9.28
217.118	4.48
217.589	3.33
218.061	0.03
218.532	3.68
219.004	8.08
219.475	6.18
219.946	6.63
220.418	8.58
220.889	6.53
221.36	10.38
221.832	12.63
222.303	9.23
222.774	8.13
223.245	7.13
223.717	4.38
224.188	6.73
224.659	5.68
225.13	3.13
225.601	5.03
226.072	11.58
226.543	13.33
227.014	9.18
227.485	12.98
227.956	12.28
228.427	18.58
228.898	15.53
229.369	16.13
229.839	13.98
230.31	19.38
230.781	19.33
231.252	15.13
231.722	16.33
232.193	16.28
232.664	17.18
233.135	15.43
233.605	19.38
234.076	22.43
234.546	22.73
235.017	19.23
235.487	20.63
235.958	17.78
236.428	23.48
236.899	20.73
237.369	29.73
237.84	25.38
238.31	28.98
238.78	23.03
239.251	21.53
239.721	23.93
240.191	23.33
240.662	32.18
241.132	25.73
241.602	28.83
242.072	28.43
242.542	26.63
243.013	26.33
243.483	33.08
243.953	28.93
244.423	32.03
244.893	34.63
245.363	34.88
245.833	33.48
246.303	40.33
246.773	39.63
247.243	34.78
247.712	37.68
248.182	37.33
248.652	42.43
249.122	37.58
249.592	36.93
250.061	38.33
250.531	43.43
251.001	41.33
251.471	47.83
251.94	46.63
252.41	41.43
252.879	47.78
253.349	50.98
253.818	52.43
254.288	53.18
254.757	50.43
255.227	52.18
255.696	55.43
256.166	54.63
256.635	55.08
257.105	49.53
257.574	54.98
258.043	52.68
258.513	58.08
258.982	56.73
259.451	61.68
259.92	56.03
260.389	62.98
260.859	63.53
261.328	61.63
261.797	59.68
262.266	67.28
262.735	70.48
263.204	60.63
263.673	66.93
264.142	60.38
264.611	67.23
265.08	70.13
265.549	63.28
266.018	71.58
266.487	72.48
266.955	73.23
267.424	77.28
267.893	78.73
268.362	74.83
268.83	71.18
269.299	76.38
269.768	74.28
270.236	78.43
270.705	82.63
271.174	83.73
271.642	77.53
272.111	85.38
272.579	84.63
273.048	87.33
273.516	91.13
273.985	85.83
274.453	85.48
274.922	87.43
275.39	92.63
275.858	94.73
276.327	92.43
276.795	96.33
277.263	100.58
277.731	99.88
278.2	100.58
278.668	98.98
279.136	101.83
279.604	97.33
280.072	98.83
280.54	98.48
281.008	106.83
281.477	104.43
281.945	98.68
282.413	106.78
282.881	107.73
283.348	108.53
283.816	113.73
284.284	115.53
284.752	108.33
285.22	117.43
285.688	115.93
286.156	117.88
286.623	118.28
287.091	118.38
287.559	120.63
288.026	121.43
288.494	126.88
288.962	123.83
289.429	127.93
289.897	123.83
290.364	127.18
290.832	130.78
291.3	128.18
291.767	130.88
292.234	133.08
292.702	132.38
293.169	136.03
293.637	136.58
294.104	136.88
294.571	138.98
295.039	139.48
295.506	132.78
295.973	143.18
296.44	139.13
296.908	150.53
297.375	145.53
297.842	147.93
298.309	149.93
298.776	147.28
299.243	154.23
299.71	149.13
300.177	152.23
300.644	153.48
301.111	156.98
301.578	157.23
302.045	162.18
302.512	161.78
302.979	168.48
303.446	172.58
303.913	169.83
304.379	181.88
304.846	174.08
305.313	181.18
305.78	184.68
306.246	185.78
306.713	184.23
307.18	187.13
307.646	187.73
308.113	184.18
308.579	195.13
309.046	200.03
309.512	200.43
309.979	202.03
310.445	194.73
310.912	204.28
311.378	214.53
311.845	218.88
312.311	208.53
312.777	211.58
313.244	212.48
313.71	218.98
314.176	222.38
314.642	227.33
315.109	222.18
315.575	228.13
316.041	227.13
316.507	225.63
316.973	233.43
317.439	234.78
317.905	240.63
318.371	240.53
318.837	237.43
319.303	241.43
319.769	236.78
320.235	246.98
320.701	256.43
321.167	249.63
321.633	252.08
322.099	251.28
322.564	253.93
323.03	255.13
323.496	263.78
323.962	261.68
324.427	271.23
324.893	268.13
325.359	274.53
325.824	276.48
326.29	282.63
326.755	283.88
327.221	278.18
327.686	293.33
328.152	288.93
328.617	292.33
329.083	302.93
329.548	304.23
330.014	307.98
330.479	308.08
330.944	309.63
331.41	315.43
331.875	308.98
332.34	302.08
332.805	310.43
333.271	308.73
333.736	313.88
334.201	317.73
334.666	332.73
335.131	343.28
335.596	336.33
336.061	328.53
336.526	331.08
336.991	318.08
337.456	317.23
337.921	321.43
338.386	319.58
338.851	322.73
339.316	326.03
339.781	325.13
340.246	334.88
340.711	336.73
341.175	344.63
341.64	351.03
342.105	366.13
342.569	365.83
343.034	365.93
343.499	370.78
343.963	372.38
344.428	383.18
344.893	378.73
345.357	387.03
345.822	394.18
346.286	397.93
346.751	406.93
347.215	413.38
347.679	420.78
348.144	434.28
348.608	446.33
349.073	446.88
349.537	450.68
350.001	451.18
350.465	454.53
350.93	460.33
351.394	457.83
351.858	463.13
352.322	468.68
352.786	467.73
353.25	472.98
353.715	473.53
354.179	493.63
354.643	510.93
355.107	513.03
355.571	504.83
356.035	502.63
356.498	505.73
356.962	509.63
357.426	504.18
357.89	499.08
358.354	494.93
358.818	494.38
359.281	503.33
359.745	507.18
360.209	504.43
360.673	503.38
361.136	500.63
361.6	508.83
362.064	520.78
362.527	527.88
362.991	533.53
363.454	523.08
363.918	537.18
364.381	536.43
364.845	539.68
365.308	545.78
365.772	541.58
366.235	550.43
366.698	554.78
367.162	546.03
367.625	555.98
368.088	568.48
368.552	556.38
369.015	564.43
369.478	574.73
369.941	567.43
370.404	582.73
370.867	571.23
371.331	584.03
371.794	595.98
372.257	598.03
372.72	592.53
373.183	600.18
373.646	607.13
374.109	599.93
374.572	609.03
375.035	618.78
375.497	615.03
375.96	620.63
376.423	636.58
376.886	642.43
377.349	654.93
377.811	650.53
378.274	660.28
378.737	651.93
379.199	663.28
379.662	671.78
380.125	673.18
380.587	680.18
381.05	693.03
381.512	700.73
381.975	716.13
382.437	721.83
382.9	721.13
383.362	730.43
383.825	732.68
384.287	738.63
384.75	730.28
385.212	741.43
385.674	738.58
386.136	751.68
386.599	744.43
387.061	753.18
387.523	757.38
387.985	759.28
388.447	764.98
388.91	770.73
389.372	776.88
389.834	774.13
390.296	766.88
390.758	774.88
391.22	773.88
391.682	786.23
392.144	807.23
392.606	808.08
393.068	797.63
393.529	844.03
393.991	858.48
394.453	827.58
394.915	802.38
395.377	797.23
395.838	801.03
396.3	807.48
396.762	807.43
397.224	801.63
397.685	806.33
398.147	808.48
398.608	823.08
399.07	830.88
399.531	833.78
399.993	857.03
400.454	874.73
400.916	870.43
401.377	877.58
401.839	887.63
402.3	892.43
402.762	929.03
403.223	989.83
403.684	982.98
404.145	944.63
404.607	929.98
405.068	930.68
405.529	948.88
405.99	965.43
406.451	977.53
406.913	958.18
407.374	966.98
407.835	975.33
408.296	996.38
408.757	994.43
409.218	1016.43
409.679	1021.48
410.14	1022.53
410.601	1044.28
411.062	1044.08
411.522	1060.13
411.983	1050.33
412.444	1061.38
412.905	1065.28
413.366	1108.28
413.826	1149.88
414.287	1278.73
414.748	1505.88
415.208	1532.98
415.669	1292.68
416.13	1177.73
416.59	1156.88
417.051	1189.48
417.511	1242.13
417.972	1331.48
418.432	1420.38
418.893	1558.73
419.353	1498.13
419.814	1183.18
420.274	1067.33
420.734	1047.03
421.195	1084.33
421.655	1077.68
422.115	1095.63
422.576	1102.28
423.036	1119.38
423.496	1141.78
423.956	1199.03
424.416	1265.58
424.876	1423.28
425.336	1425.08
425.797	1410.08
426.257	1400.03
426.717	1342.68
427.177	1262.98
427.637	1291.53
428.097	1335.83
428.556	1390.03
429.016	1493.78
429.476	1519.23
429.936	1503.38
430.396	1508.28
430.856	1551.58
431.315	1589.18
431.775	1696.33
432.235	1792.98
432.694	1829.38
433.154	1733.93
433.614	1699.53
434.073	1630.63
434.533	1468.28
434.993	1411.93
435.452	1405.18
435.912	1378.23
436.371	1352.78
436.83	1329.08
437.29	1292.63
437.749	1250.98
438.209	1238.43
438.668	1247.98
439.127	1274.78
439.587	1245.53
440.046	1200.83
440.505	1231.08
440.964	1227.53
441.424	1266.33
441.883	1286.03
442.342	1214.48
442.801	1163.38
443.26	1171.78
443.719	1153.43
444.178	1153.58
444.637	1169.03
445.096	1180.68
445.555	1195.58
446.014	1183.83
446.473	1170.08
446.932	1169.03
447.391	1194.23
447.849	1212.43
448.308	1189.98
448.767	1209.78
449.226	1219.93
449.685	1235.68
450.143	1280.08
450.602	1279.38
451.061	1202.73
451.519	1217.43
451.978	1199.63
452.436	1197.23
452.895	1211.78
453.353	1208.18
453.812	1186.48
454.27	1204.68
454.729	1197.18
455.187	1219.03
455.646	1218.68
456.104	1224.68
456.562	1231.13
457.021	1250.73
457.479	1214.98
457.937	1243.13
458.395	1272.18
458.854	1254.78
459.312	1235.83
459.77	1255.93
460.228	1264.48
460.686	1295.33
461.144	1290.03
461.602	1281.98
462.06	1285.73
462.518	1307.48
462.976	1310.58
463.434	1327.43
463.892	1343.28
464.35	1364.33
464.808	1390.28
465.266	1402.48
465.724	1414.38
466.181	1426.68
466.639	1416.03
467.097	1472.78
467.555	1531.18
468.012	1513.83
468.47	1535.83
468.928	1592.68
469.385	1620.18
469.843	1643.88
470.3	1636.88
470.758	1687.88
471.215	1720.03
471.673	1770.83
472.13	1813.53
472.588	1868.43
473.045	1841.73
473.503	1886.98
473.96	1978.43
474.417	2008.53
474.875	2096.63
475.332	2196.23
475.789	2237.63
476.246	2328.48
476.704	2439.18
477.161	2541.08
477.618	2639.23
478.075	2821.68
478.532	3069.88
478.989	3359.98
479.446	3768.68
479.903	4037.98
480.36	4479.48
480.817	4799.88
481.274	5188.58
481.731	5724.88
482.188	6187.28
482.645	6698.83
483.102	7072.83
483.558	7563.88
484.015	7870.18
484.472	7821.33
484.929	7517.03
485.385	7168.68
485.842	7014.23
486.299	6694.93
486.755	6077.63
487.212	5408.08
487.668	4795.13
488.125	4383.68
488.582	3984.43
489.038	3771.28
489.494	3622.03
489.951	3455.03
490.407	3319.23
490.864	3253.53
491.32	3136.53
491.776	3087.78
492.233	3067.58
492.689	3013.28
493.145	2940.23
493.602	2891.33
494.058	2913.23
494.514	2899.23
494.97	2902.08
495.426	2928.43
495.882	2913.98
496.338	2914.78
496.794	2929.33
497.251	2916.88
497.707	2945.43
498.163	2965.93
498.618	2949.58
499.074	2928.98
499.53	2965.63
499.986	2982.53
500.442	2947.93
500.898	2925.38
501.354	2939.18
501.809	2949.78
502.265	2941.33
502.721	2967.18
503.177	2964.78
503.632	2978.48
504.088	2983.88
504.543	3005.18
504.999	3049.58
505.455	3027.88
505.91	3019.88
506.366	3011.88
506.821	3006.13
507.277	2995.98
507.732	3009.53
508.187	3010.53
508.643	3036.73
509.098	3034.03
509.553	3082.58
510.009	3094.43
510.464	3167.08
510.919	3196.58
511.375	3229.63
511.83	3235.58
512.285	3301.78
512.74	3371.18
513.195	3407.93
513.65	3443.38
514.105	3504.88
514.56	3504.48
515.015	3563.88
515.47	3582.38
515.925	3543.68
516.38	3553.03
516.835	3562.18
517.29	3524.08
517.745	3524.23
518.2	3483.28
518.655	3412.18
519.109	3379.23
519.564	3332.83
520.019	3300.63
520.474	3284.58
520.928	3263.93
521.383	3229.18
521.838	3216.23
522.292	3201.23
522.747	3173.78
523.201	3176.93
523.656	3131.83
524.11	3140.33
524.565	3096.23
525.019	3124.78
525.474	3122.43
525.928	3110.38
526.382	3113.38
526.837	3112.23
527.291	3119.18
527.745	3093.63
528.2	3108.58
528.654	3071.83
529.108	3078.38
529.562	3085.78
530.016	3082.43
530.47	3083.73
530.925	3081.88
531.379	3076.38
531.833	3118.08
532.287	3100.68
532.741	3084.33
533.195	3080.03
533.649	3097.53
534.103	3097.83
534.556	3092.53
535.01	3088.48
535.464	3072.38
535.918	3074.18
536.372	3102.28
536.826	3090.38
537.279	3069.63
537.733	3073.63
538.187	3083.33
538.64	3072.48
539.094	3111.38
539.548	3149.03
540.001	3139.98
540.455	3145.63
540.908	3161.98
541.362	3196.68
541.815	3217.08
542.269	3274.48
542.722	3283.08
543.175	3308.98
543.629	3323.33
544.082	3343.73
544.536	3366.23
544.989	3361.53
545.442	3405.43
545.895	3405.58
546.349	3390.68
546.802	3410.63
547.255	3402.08
547.708	3422.88
548.161	3459.13
548.614	3447.23
549.067	3477.93
549.52	3460.63
549.973	3412.03
550.426	3404.33
550.879	3395.43
551.332	3402.23
551.785	3439.63
552.238	3465.28
552.691	3466.08
553.144	3517.68
553.596	3567.28
554.049	3607.73
554.502	3662.88
554.955	3713.88
555.407	3770.03
555.86	3731.88
556.313	3700.03
556.765	3666.28
557.218	3643.63
557.67	3631.93
558.123	3568.43
558.576	3541.58
559.028	3550.08
559.48	3574.63
559.933	3553.93
560.385	3456.53
560.838	3355.63
561.29	3262.28
561.742	3255.73
562.195	3165.13
562.647	3158.68
563.099	3111.63
563.551	3102.28
564.004	3133.38
564.456	3103.28
564.908	3050.73
565.36	2991.93
565.812	2916.58
566.264	2899.28
566.716	2862.93
567.168	2817.88
567.62	2818.23
568.072	2799.78
568.524	2780.88
568.976	2773.73
569.428	2741.08
569.88	2737.63
570.332	2752.78
570.784	2770.93
571.235	2758.68
571.687	2787.08
572.139	2771.18
572.59	2801.73
573.042	2810.93
573.494	2803.38
573.945	2773.93
574.397	2717.83
574.849	2718.48
575.3	2721.93
575.752	2672.43
576.203	2644.63
576.655	2674.33
577.106	2633.23
577.557	2614.38
578.009	2606.58
578.46	2623.23
578.912	2567.43
579.363	2615.38
579.814	2606.18
580.265	2604.13
580.717	2605.98
581.168	2593.63
581.619	2607.93
582.07	2634.38
582.521	2620.08
582.972	2617.23
583.423	2620.83
583.875	2639.38
584.326	2652.83
584.777	2715.53
585.227	2757.78
585.678	2818.63
586.129	2835.18
586.58	2865.43
587.031	2908.33
587.482	2975.48
587.933	3046.33
588.384	3030.18
588.834	2949.53
589.285	2918.23
589.736	2916.88
590.186	2910.93
590.637	2891.43
591.088	2819.58
591.538	2766.83
591.989	2732.13
592.439	2706.48
592.89	2686.23
593.34	2673.33
593.791	2661.18
594.241	2634.28
594.692	2642.23
595.142	2629.28
595.593	2628.68
596.043	2634.78
596.493	2666.83
596.943	2651.33
597.394	2727.33
597.844	2759.68
598.294	2819.23
598.744	2913.33
599.195	3042.18
599.645	3216.28
600.095	3374.63
600.545	3531.38
600.995	3672.63
601.445	3788.38
601.895	3958.28
602.345	4062.43
602.795	4025.03
603.245	3888.03
603.695	3664.43
604.145	3485.53
604.594	3323.03
605.044	3135.78
605.494	2959.13
605.944	2814.78
606.393	2748.93
606.843	2687.98
607.293	2683.38
607.743	2684.43
608.192	2686.48
608.642	2685.53
609.091	2670.98
609.541	2674.68
609.99	2685.58
610.44	2621.38
610.889	2595.08
611.339	2555.58
611.788	2528.28
612.238	2574.28
612.687	2555.63
613.136	2580.68
613.586	2600.88
614.035	2586.03
614.484	2618.98
614.933	2612.63
615.383	2562.63
615.832	2492.03
616.281	2459.48
616.73	2408.18
617.179	2354.53
617.628	2306.63
618.077	2269.93
618.526	2246.03
618.975	2222.58
619.424	2181.53
619.873	2194.93
620.322	2163.48
620.771	2164.08
621.22	2142.38
621.669	2094.33
622.118	2079.98
622.567	2051.13
623.015	2017.93
623.464	2012.53
623.913	1995.18
624.361	2001.93
624.81	1993.93
625.259	1993.98
625.707	1986.98
626.156	2000.93
626.604	2017.98
627.053	2016.78
627.501	2021.08
627.95	2036.03
628.398	2056.98
628.847	2031.53
629.295	2014.43
629.744	2013.03
630.192	1976.58
630.64	1969.58
631.089	1931.78
631.537	1884.28
631.985	1875.93
632.433	1863.48
632.881	1857.03
633.33	1871.53
633.778	1868.23
634.226	1869.98
634.674	1899.33
635.122	1917.88
635.57	1941.58
636.018	1967.88
636.466	1960.43
636.914	1968.83
637.362	2008.93
637.81	2049.58
638.258	2111.48
638.705	2137.23
639.153	2199.03
639.601	2232.63
640.049	2263.03
640.497	2329.13
640.944	2379.68
641.392	2296.28
641.84	2196.48
642.287	2115.73
642.735	2091.38
643.182	2081.18
643.63	2094.68
644.078	2111.93
644.525	2144.58
644.973	2228.33
645.42	2290.48
645.867	2357.28
646.315	2429.58
646.762	2548.98
647.21	2648.63
647.657	2825.28
648.104	2989.78
648.551	3145.03
648.999	3497.78
649.446	3912.23
649.893	4487.88
650.34	5411.13
650.787	6790.23
651.234	8895.93
651.682	12376.98
652.129	15474.88
652.576	15528.48
653.023	15527.83
653.47	15531.03
653.917	15531.08
654.363	15530.98
654.81	15527.98
655.257	15528.63
655.704	15532.43
656.151	15526.43
656.598	12607.18
657.044	8945.08
657.491	6900.68
657.938	5483.93
658.385	4525.03
658.831	3890.78
659.278	3399.18
659.724	3046.83
660.171	2782.03
660.618	2557.28
661.064	2376.28
661.511	2281.23
661.957	2164.18
662.404	2112.23
662.85	2065.63
663.296	2022.23
663.743	1949.63
664.189	1912.08
664.635	1886.38
665.082	1843.48
665.528	1811.68
665.974	1747.33
666.42	1715.03
666.867	1695.63
667.313	1614.63
667.759	1596.58
668.205	1580.38
668.651	1579.53
669.097	1577.28
669.543	1580.03
669.989	1586.28
670.435	1593.03
670.881	1606.58
671.327	1666.73
671.773	1776.18
672.219	1902.38
672.665	2002.48
673.11	2069.88
673.556	2075.58
674.002	2106.18
674.448	2122.33
674.893	1834.38
675.339	1612.28
675.785	1488.73
676.23	1417.58
676.676	1362.88
677.122	1325.08
677.567	1281.53
678.013	1240.73
678.458	1246.38
678.904	1238.68
679.349	1219.73
679.794	1212.73
680.24	1204.93
680.685	1188.18
681.131	1191.58
681.576	1195.08
682.021	1197.43
682.466	1212.18
682.912	1229.28
683.357	1286.38
683.802	1379.58
684.247	1511.98
684.692	1614.13
685.137	1667.98
685.583	1696.28
686.028	1770.23
686.473	1691.63
686.918	1476.98
687.363	1356.78
687.807	1286.18
688.252	1222.78
688.697	1190.28
689.142	1150.83
689.587	1169.93
690.032	1180.63
690.477	1226.98
690.921	1277.28
691.366	1346.68
691.811	1399.98
692.255	1505.18
692.7	1815.08
693.145	2611.38
693.589	4002.88
694.034	4782.78
694.478	5045.68
694.923	4608.38
695.367	6402.73
695.812	3960.28
696.256	1699.68
696.701	1252.83
697.145	1164.48
697.59	1128.13
698.034	1113.58
698.478	1100.28
698.922	1106.28
699.367	1132.83
699.811	1191.43
700.255	1276.28
700.699	1382.13
701.143	1499.78
701.588	1587.23
702.032	1647.93
702.476	1706.83
702.92	1825.63
703.364	2389.53
703.808	3647.78
704.252	4560.83
704.696	4793.83
705.14	4478.33
705.584	6092.38
706.027	3386.83
706.471	1723.33
706.915	1316.03
707.359	1172.58
707.803	1093.53
708.246	1058.73
708.69	1044.98
709.134	1033.28
709.577	1031.33
710.021	1038.23
710.465	1027.83
710.908	1025.13
711.352	1067.48
711.795	1177.13
712.239	1267.38
712.682	1296.78
713.126	1278.43
713.569	1409.08
714.012	1173.68
714.456	1024.23
714.899	964.33
715.342	920.63
715.786	885.58
716.229	864.23
716.672	843.73
717.115	845.53
717.558	853.28
718.002	878.33
718.445	909.43
718.888	960.58
719.331	981.08
719.774	997.83
720.217	976.53
720.66	929.78
721.103	885.33
721.546	838.38
721.989	813.53
722.432	802.08
722.874	804.13
723.317	807.53
723.76	874.13
724.203	1067.08
724.645	1430.73
725.088	1664.38
725.531	1635.48
725.974	1766.93
726.416	1598.83
726.859	999.73
727.301	828.58
727.744	788.93
728.187	795.83
728.629	805.73
729.071	851.48
729.514	884.43
729.956	922.03
730.399	938.53
730.841	941.58
731.283	927.13
731.726	903.58
732.168	914.68
732.61	958.08
733.053	1025.28
733.495	1129.33
733.937	1248.93
734.379	1469.43
734.821	1878.33
735.263	2955.98
735.705	5377.13
736.148	7801.68
736.59	7806.18
737.032	8313.13
737.474	6928.88
737.916	2665.28
738.357	1424.63
738.799	1108.93
