Data from MSPlasma+Separation6_Subt14_10-13-14-644.txt Node
Date: Fri Jul 21 10:13:14 EDT 2017
User: Ender
Spectrometer: HR+D1039
Trigger mode: 0
Integration Time (sec): 6.430000E-3
Scans to average: 20
Electric dark correction enabled: true
Nonlinearity correction enabled: false
Boxcar width: 0
XAxis mode: Wavelengths
Number of Pixels in Spectrum: 2048
>>>>>Begin Spectral Data<<<<<
187.836	0.37
188.309	0.37
188.782	0.37
189.255	-0.73
189.728	2.42
190.201	0.97
190.674	-2.38
191.147	-0.73
191.619	2.17
192.092	0.92
192.565	-0.68
193.038	1.12
193.511	1.52
193.984	1.02
194.456	0.52
194.929	-2.38
195.402	-5.68
195.874	1.62
196.347	1.97
196.82	2.37
197.292	-0.43
197.765	0.22
198.237	-3.18
198.71	-8.68
199.182	-3.33
199.655	4.62
200.127	8.92
200.6	3.37
201.072	7.37
201.544	2.17
202.017	4.42
202.489	2.97
202.961	2.47
203.433	0.92
203.906	2.52
204.378	1.57
204.85	1.62
205.322	3.37
205.794	7.97
206.266	5.82
206.739	6.02
207.211	-0.03
207.683	5.87
208.155	4.02
208.627	4.97
209.099	9.62
209.57	6.82
210.042	7.52
210.514	7.97
210.986	4.67
211.458	3.32
211.93	6.47
212.402	4.32
212.873	4.02
213.345	-2.13
213.817	6.87
214.288	2.17
214.76	5.72
215.232	4.07
215.703	4.27
216.175	6.92
216.646	9.42
217.118	7.92
217.589	4.42
218.061	6.77
218.532	2.17
219.004	10.12
219.475	8.42
219.946	13.22
220.418	14.37
220.889	7.32
221.36	14.92
221.832	11.52
222.303	9.57
222.774	11.67
223.245	9.42
223.717	10.12
224.188	13.27
224.659	8.52
225.13	6.27
225.601	5.97
226.072	12.12
226.543	17.42
227.014	14.07
227.485	18.77
227.956	19.52
228.427	18.37
228.898	14.72
229.369	18.92
229.839	20.12
230.31	21.67
230.781	23.32
231.252	25.32
231.722	23.72
232.193	21.62
232.664	21.37
233.135	19.12
233.605	22.22
234.076	35.02
234.546	24.22
235.017	24.17
235.487	27.22
235.958	26.17
236.428	35.22
236.899	26.92
237.369	35.92
237.84	33.37
238.31	36.47
238.78	30.82
239.251	32.97
239.721	32.52
240.191	31.72
240.662	34.72
241.132	35.22
241.602	39.52
242.072	38.67
242.542	34.27
243.013	42.37
243.483	46.57
243.953	39.67
244.423	42.97
244.893	43.27
245.363	47.97
245.833	45.32
246.303	44.07
246.773	50.12
247.243	48.97
247.712	48.62
248.182	52.42
248.652	53.12
249.122	55.57
249.592	51.22
250.061	55.82
250.531	58.57
251.001	59.47
251.471	57.32
251.94	64.27
252.41	61.87
252.879	58.47
253.349	67.97
253.818	60.22
254.288	71.47
254.757	66.67
255.227	68.42
255.696	73.37
256.166	71.17
256.635	72.37
257.105	71.77
257.574	72.62
258.043	76.37
258.513	79.67
258.982	75.17
259.451	80.17
259.92	73.12
260.389	80.02
260.859	82.92
261.328	85.77
261.797	78.37
262.266	84.77
262.735	90.27
263.204	82.52
263.673	92.37
264.142	88.72
264.611	87.32
265.08	93.37
265.549	89.12
266.018	92.67
266.487	100.02
266.955	93.77
267.424	99.02
267.893	100.07
268.362	97.02
268.83	99.87
269.299	96.07
269.768	98.77
270.236	102.17
270.705	107.52
271.174	104.32
271.642	103.22
272.111	108.27
272.579	108.97
273.048	111.52
273.516	113.67
273.985	114.12
274.453	112.27
274.922	119.32
275.39	119.47
275.858	117.67
276.327	120.07
276.795	121.17
277.263	122.27
277.731	124.72
278.2	130.72
278.668	131.17
279.136	134.22
279.604	133.12
280.072	131.87
280.54	135.17
281.008	141.17
281.477	138.32
281.945	136.72
282.413	139.52
282.881	143.82
283.348	141.57
283.816	145.27
284.284	152.52
284.752	149.72
285.22	148.22
285.688	149.27
286.156	150.07
286.623	156.47
287.091	151.47
287.559	155.27
288.026	159.32
288.494	164.07
288.962	158.92
289.429	159.22
289.897	162.07
290.364	164.77
290.832	170.42
291.3	168.52
291.767	164.22
292.234	167.67
292.702	172.82
293.169	176.47
293.637	173.47
294.104	177.47
294.571	182.12
295.039	182.32
295.506	174.27
295.973	184.47
296.44	182.42
296.908	186.17
297.375	189.02
297.842	190.37
298.309	186.77
298.776	192.87
299.243	195.52
299.71	198.22
300.177	195.62
300.644	197.72
301.111	203.27
301.578	209.82
302.045	202.42
302.512	207.82
302.979	217.97
303.446	218.57
303.913	224.37
304.379	226.57
304.846	228.37
305.313	237.02
305.78	238.12
306.246	237.12
306.713	239.97
307.18	243.22
307.646	243.32
308.113	247.22
308.579	259.07
309.046	254.32
309.512	254.07
309.979	262.17
310.445	262.87
310.912	266.17
311.378	271.47
311.845	272.62
312.311	267.47
312.777	275.17
313.244	283.52
313.71	286.47
314.176	287.17
314.642	289.87
315.109	297.67
315.575	291.62
316.041	297.22
316.507	293.02
316.973	302.12
317.439	298.77
317.905	303.47
318.371	308.87
318.837	303.92
319.303	317.42
319.769	317.37
320.235	321.27
320.701	324.37
321.167	318.12
321.633	324.92
322.099	318.22
322.564	333.62
323.03	325.42
323.496	337.87
323.962	342.67
324.427	346.12
324.893	344.17
325.359	354.07
325.824	355.17
326.29	353.87
326.755	360.22
327.221	356.37
327.686	374.92
328.152	371.57
328.617	380.22
329.083	377.17
329.548	384.02
330.014	390.22
330.479	391.77
330.944	392.02
331.41	406.72
331.875	390.32
332.34	390.82
332.805	404.27
333.271	402.37
333.736	406.77
334.201	412.67
334.666	432.57
335.131	442.27
335.596	435.02
336.061	424.37
336.526	419.42
336.991	417.47
337.456	415.82
337.921	414.12
338.386	413.92
338.851	414.72
339.316	418.82
339.781	423.72
340.246	426.37
340.711	431.97
341.175	443.87
341.64	458.22
342.105	458.77
342.569	468.82
343.034	466.22
343.499	465.02
343.963	484.02
344.428	478.27
344.893	478.87
345.357	495.77
345.822	492.67
346.286	504.47
346.751	513.92
347.215	515.12
347.679	535.57
348.144	555.92
348.608	562.02
349.073	564.82
349.537	573.77
350.001	580.02
350.465	575.97
350.93	574.22
351.394	588.92
351.858	587.27
352.322	590.42
352.786	595.97
353.25	600.37
353.715	607.02
354.179	631.47
354.643	652.02
355.107	652.37
355.571	648.82
356.035	645.82
356.498	631.27
356.962	640.47
357.426	640.87
357.89	644.82
358.354	630.82
358.818	617.47
359.281	635.72
359.745	641.72
360.209	640.27
360.673	637.72
361.136	638.12
361.6	651.32
362.064	658.02
362.527	677.02
362.991	679.07
363.454	665.82
363.918	678.12
364.381	681.12
364.845	681.02
365.308	684.02
365.772	693.57
366.235	688.52
366.698	696.72
367.162	685.57
367.625	697.07
368.088	711.82
368.552	710.67
369.015	710.82
369.478	709.17
369.941	716.27
370.404	728.77
370.867	722.67
371.331	726.77
371.794	748.37
372.257	752.22
372.72	751.52
373.183	755.92
373.646	752.87
374.109	757.97
374.572	758.82
375.035	770.92
375.497	774.07
375.96	786.82
376.423	797.02
376.886	806.77
377.349	815.97
377.811	814.67
378.274	816.92
378.737	820.92
379.199	835.62
379.662	834.32
380.125	849.57
380.587	856.17
381.05	860.72
381.512	861.67
381.975	894.22
382.437	902.52
382.9	893.57
383.362	901.77
383.825	909.32
384.287	923.92
384.75	911.77
385.212	912.37
385.674	927.37
386.136	940.92
386.599	921.17
387.061	938.97
387.523	942.42
387.985	939.22
388.447	955.87
388.91	947.97
389.372	967.97
389.834	967.57
390.296	956.72
390.758	965.32
391.22	964.62
391.682	977.07
392.144	990.22
392.606	987.37
393.068	997.27
393.529	1055.92
393.991	1075.37
394.453	1025.02
394.915	1000.37
395.377	981.77
395.838	994.62
396.3	995.47
396.762	1002.52
397.224	997.32
397.685	986.62
398.147	1001.02
398.608	1013.92
399.07	1031.82
399.531	1029.32
399.993	1045.02
400.454	1073.67
400.916	1070.17
401.377	1090.12
401.839	1095.67
402.3	1108.37
402.762	1145.82
403.223	1220.12
403.684	1237.57
404.145	1187.67
404.607	1169.62
405.068	1151.27
405.529	1167.27
405.99	1194.97
406.451	1202.32
406.913	1191.07
407.374	1192.62
407.835	1200.17
408.296	1225.77
408.757	1224.02
409.218	1248.02
409.679	1268.17
410.14	1267.67
410.601	1289.52
411.062	1288.57
411.522	1286.27
411.983	1276.42
412.444	1297.22
412.905	1304.97
413.366	1339.12
413.826	1400.72
414.287	1567.62
414.748	1849.77
415.208	1892.27
415.669	1589.27
416.13	1445.22
416.59	1414.17
417.051	1461.92
417.511	1544.47
417.972	1653.17
418.432	1765.77
418.893	1962.22
419.353	1884.62
419.814	1450.57
420.274	1300.97
420.734	1282.17
421.195	1321.87
421.655	1319.37
422.115	1334.97
422.576	1340.37
423.036	1355.67
423.496	1394.57
423.956	1452.62
424.416	1550.47
424.876	1742.97
425.336	1756.62
425.797	1740.42
426.257	1723.47
426.717	1645.62
427.177	1544.67
427.637	1570.52
428.097	1632.97
428.556	1707.17
429.016	1836.12
429.476	1855.52
429.936	1838.82
430.396	1846.77
430.856	1914.97
431.315	1950.62
431.775	2089.37
432.235	2236.17
432.694	2275.32
433.154	2154.62
433.614	2105.17
434.073	2027.52
434.533	1812.92
434.993	1739.72
435.452	1728.82
435.912	1690.02
436.371	1664.47
436.83	1614.02
437.29	1575.37
437.749	1524.97
438.209	1504.42
438.668	1518.77
439.127	1539.82
439.587	1506.37
440.046	1463.77
440.505	1485.92
440.964	1492.32
441.424	1539.17
441.883	1562.72
442.342	1476.12
442.801	1411.32
443.26	1413.72
443.719	1414.12
444.178	1402.52
444.637	1424.32
445.096	1428.27
445.555	1449.27
446.014	1432.82
446.473	1413.92
446.932	1429.52
447.391	1439.32
447.849	1469.12
448.308	1432.77
448.767	1454.62
449.226	1480.57
449.685	1482.32
450.143	1548.57
450.602	1554.87
451.061	1464.87
451.519	1471.87
451.978	1448.32
452.436	1446.07
452.895	1458.62
453.353	1455.32
453.812	1430.02
454.27	1445.97
454.729	1438.07
455.187	1459.92
455.646	1456.02
456.104	1465.97
456.562	1480.17
457.021	1494.87
457.479	1448.77
457.937	1489.67
458.395	1538.97
458.854	1512.72
459.312	1488.27
459.77	1507.52
460.228	1528.02
460.686	1536.47
461.144	1540.12
461.602	1532.52
462.06	1539.22
462.518	1564.92
462.976	1574.02
463.434	1586.87
463.892	1599.62
464.35	1628.77
464.808	1666.22
465.266	1671.52
465.724	1699.37
466.181	1705.62
466.639	1702.37
467.097	1771.57
467.555	1825.72
468.012	1816.02
468.47	1831.27
468.928	1893.72
469.385	1940.67
469.843	1963.72
470.3	1945.02
470.758	2018.97
471.215	2046.72
471.673	2112.57
472.13	2167.42
472.588	2209.02
473.045	2215.27
473.503	2262.22
473.96	2343.22
474.417	2396.42
474.875	2505.62
475.332	2611.82
475.789	2679.17
476.246	2763.67
476.704	2911.32
477.161	3020.37
477.618	3141.52
478.075	3365.17
478.532	3647.92
478.989	3987.57
479.446	4476.32
479.903	4800.67
480.36	5316.02
480.817	5707.22
481.274	6188.52
481.731	6840.92
482.188	7372.27
482.645	8046.87
483.102	8577.22
483.558	9255.02
484.015	9702.42
484.472	9665.97
484.929	9295.57
485.385	8865.22
485.842	8690.67
486.299	8279.02
486.755	7511.97
487.212	6668.27
487.668	5925.47
488.125	5372.57
488.582	4864.77
489.038	4585.57
489.494	4382.42
489.951	4158.52
490.407	4007.52
490.864	3882.32
491.32	3766.52
491.776	3707.52
492.233	3683.07
492.689	3617.22
493.145	3518.72
493.602	3437.82
494.058	3480.27
494.514	3461.17
494.97	3456.22
495.426	3494.82
495.882	3479.87
496.338	3460.07
496.794	3488.22
497.251	3464.17
497.707	3509.07
498.163	3495.57
498.618	3479.62
499.074	3469.67
499.53	3516.67
499.986	3539.37
500.442	3499.12
500.898	3470.02
501.354	3484.57
501.809	3501.07
502.265	3494.67
502.721	3514.77
503.177	3503.67
503.632	3507.92
504.088	3526.22
504.543	3573.62
504.999	3630.67
505.455	3593.57
505.91	3559.37
506.366	3553.22
506.821	3562.87
507.277	3551.62
507.732	3579.22
508.187	3569.57
508.643	3592.37
509.098	3598.32
509.553	3639.87
510.009	3685.67
510.464	3742.47
510.919	3760.02
511.375	3796.72
511.83	3825.17
512.285	3880.97
512.74	3960.32
513.195	4015.87
513.65	4091.62
514.105	4130.57
514.56	4133.87
515.015	4196.52
515.47	4214.52
515.925	4176.92
516.38	4205.42
516.835	4207.87
517.29	4165.27
517.745	4169.47
518.2	4120.37
518.655	4040.87
519.109	3992.82
519.564	3934.87
520.019	3916.77
520.474	3870.77
520.928	3852.67
521.383	3799.12
521.838	3799.62
522.292	3767.57
522.747	3751.47
523.201	3734.77
523.656	3697.17
524.11	3687.07
524.565	3665.82
525.019	3681.37
525.474	3660.27
525.928	3655.17
526.382	3660.02
526.837	3656.17
527.291	3675.27
527.745	3631.07
528.2	3648.47
528.654	3593.67
529.108	3612.52
529.562	3612.62
530.016	3608.77
530.47	3602.72
530.925	3588.52
531.379	3614.67
531.833	3648.62
532.287	3620.62
532.741	3608.07
533.195	3608.27
533.649	3628.87
534.103	3622.17
534.556	3594.02
535.01	3636.12
535.464	3603.17
535.918	3608.92
536.372	3636.62
536.826	3615.62
537.279	3576.97
537.733	3604.12
538.187	3607.42
538.64	3589.22
539.094	3631.32
539.548	3684.52
540.001	3671.77
540.455	3703.27
540.908	3698.97
541.362	3737.02
541.815	3759.97
542.269	3846.27
542.722	3826.97
543.175	3871.12
543.629	3888.12
544.082	3908.92
544.536	3952.72
544.989	3946.17
545.442	3960.87
545.895	3965.77
546.349	3967.42
546.802	3963.27
547.255	3984.22
547.708	4004.72
548.161	4035.47
548.614	4038.72
549.067	4064.47
549.52	4032.27
549.973	3973.12
550.426	3990.62
550.879	3975.07
551.332	3968.27
551.785	4005.02
552.238	4024.57
552.691	4033.62
553.144	4097.12
553.596	4155.92
554.049	4190.37
554.502	4290.92
554.955	4360.07
555.407	4404.32
555.86	4367.32
556.313	4309.07
556.765	4285.82
557.218	4228.87
557.67	4213.12
558.123	4160.72
558.576	4153.82
559.028	4147.22
559.48	4178.72
559.933	4144.52
560.385	4055.97
560.838	3905.22
561.29	3789.82
561.742	3770.27
562.195	3689.92
562.647	3663.62
563.099	3642.77
563.551	3608.72
564.004	3661.02
564.456	3622.17
564.908	3554.07
565.36	3474.72
565.812	3391.42
566.264	3363.47
566.716	3322.57
567.168	3269.02
567.62	3287.42
568.072	3252.12
568.524	3244.77
568.976	3227.07
569.428	3181.92
569.88	3184.32
570.332	3197.52
570.784	3215.82
571.235	3190.42
571.687	3214.92
572.139	3222.82
572.59	3250.67
573.042	3264.02
573.494	3276.07
573.945	3214.62
574.397	3146.97
574.849	3138.82
575.3	3147.57
575.752	3101.52
576.203	3067.17
576.655	3081.37
577.106	3051.47
577.557	3029.62
578.009	3012.87
578.46	3023.17
578.912	2992.87
579.363	3032.12
579.814	3003.52
580.265	3005.57
580.717	3009.12
581.168	3014.82
581.619	3021.32
582.07	3048.97
582.521	3033.37
582.972	3007.57
583.423	3029.12
583.875	3038.27
584.326	3068.32
584.777	3112.32
585.227	3190.47
585.678	3228.07
586.129	3254.37
586.58	3293.72
587.031	3341.67
587.482	3425.07
587.933	3516.52
588.384	3478.52
588.834	3419.12
589.285	3385.07
589.736	3368.07
590.186	3383.97
590.637	3357.27
591.088	3279.67
591.538	3225.12
591.989	3173.17
592.439	3138.47
592.89	3101.17
593.34	3103.37
593.791	3080.52
594.241	3049.67
594.692	3044.62
595.142	3045.22
595.593	3031.42
596.043	3047.22
596.493	3084.52
596.943	3060.72
597.394	3137.22
597.844	3180.92
598.294	3252.62
598.744	3356.57
599.195	3509.67
599.645	3686.67
600.095	3867.57
600.545	4038.12
600.995	4200.57
601.445	4365.32
601.895	4582.27
602.345	4723.42
602.795	4672.07
603.245	4505.82
603.695	4262.17
604.145	4044.97
604.594	3843.87
605.044	3663.37
605.494	3436.07
605.944	3258.32
606.393	3165.97
606.843	3113.62
607.293	3108.87
607.743	3087.77
608.192	3102.97
608.642	3084.72
609.091	3092.72
609.541	3091.52
609.99	3091.12
610.44	3022.12
610.889	2991.47
611.339	2956.02
611.788	2920.27
612.238	2936.17
612.687	2937.97
613.136	2964.47
613.586	2991.12
614.035	2979.07
614.484	2986.67
614.933	3001.42
615.383	2934.72
615.832	2862.42
616.281	2827.37
616.73	2771.52
617.179	2721.77
617.628	2663.62
618.077	2622.22
618.526	2593.77
618.975	2565.02
619.424	2518.12
619.873	2519.47
620.322	2506.47
620.771	2508.77
621.22	2458.02
621.669	2405.67
622.118	2391.07
622.567	2362.47
623.015	2328.82
623.464	2331.27
623.913	2294.17
624.361	2306.27
624.81	2286.07
625.259	2308.67
625.707	2276.67
626.156	2298.02
626.604	2322.92
627.053	2328.32
627.501	2327.72
627.95	2338.02
628.398	2370.22
628.847	2335.82
629.295	2327.77
629.744	2317.17
630.192	2265.87
630.64	2249.32
631.089	2214.47
631.537	2176.72
631.985	2157.42
632.433	2136.67
632.881	2128.52
633.33	2141.57
633.778	2136.37
634.226	2144.87
634.674	2181.97
635.122	2193.82
635.57	2224.37
636.018	2258.92
636.466	2259.92
636.914	2260.37
637.362	2307.22
637.81	2345.22
638.258	2413.72
638.705	2439.27
639.153	2508.52
639.601	2549.12
640.049	2598.62
640.497	2678.32
640.944	2748.47
641.392	2660.92
641.84	2534.72
642.287	2423.02
642.735	2395.32
643.182	2384.12
643.63	2397.37
644.078	2418.32
644.525	2452.82
644.973	2546.82
645.42	2610.22
645.867	2692.72
646.315	2783.82
646.762	2926.62
647.21	3041.52
647.657	3247.57
648.104	3437.97
648.551	3614.37
648.999	3998.62
649.446	4505.72
649.893	5178.57
650.34	6193.47
650.787	7753.72
651.234	10204.42
651.682	13998.47
652.129	15529.62
652.576	15528.97
653.023	15528.32
653.47	15531.52
653.917	15531.57
654.363	15531.47
654.81	15528.47
655.257	15529.12
655.704	15532.92
656.151	15526.92
656.598	15111.87
657.044	10800.37
657.491	8253.42
657.938	6548.77
658.385	5380.22
658.831	4618.77
659.278	4018.57
659.724	3589.97
660.171	3271.27
660.618	2984.37
661.064	2778.77
661.511	2644.07
661.957	2521.42
662.404	2424.32
662.85	2373.52
663.296	2326.07
663.743	2252.12
664.189	2199.82
664.635	2175.42
665.082	2110.62
665.528	2074.62
665.974	2009.27
666.42	1974.47
666.867	1943.42
667.313	1854.77
667.759	1827.57
668.205	1811.77
668.651	1817.92
669.097	1800.77
669.543	1808.37
669.989	1814.47
670.435	1811.07
670.881	1838.22
671.327	1894.12
671.773	2013.77
672.219	2152.97
672.665	2271.42
673.11	2365.62
673.556	2389.02
674.002	2453.12
674.448	2483.22
674.893	2119.72
675.339	1850.77
675.785	1714.57
676.23	1628.02
676.676	1544.47
677.122	1516.57
677.567	1469.22
678.013	1423.22
678.458	1418.92
678.904	1410.17
679.349	1394.47
679.794	1380.17
680.24	1376.72
680.685	1358.22
681.131	1362.47
681.576	1368.32
682.021	1378.32
682.466	1377.42
682.912	1398.27
683.357	1461.37
683.802	1574.17
684.247	1720.92
684.692	1825.37
685.137	1910.07
685.583	1957.37
686.028	2055.57
686.473	1959.37
686.918	1709.22
687.363	1558.67
687.807	1481.42
688.252	1413.12
688.697	1362.47
689.142	1326.02
689.587	1327.12
690.032	1341.82
690.477	1392.27
690.921	1460.57
691.366	1526.27
691.811	1590.72
692.255	1721.12
692.7	2063.47
693.145	2921.87
693.589	4462.72
694.034	5387.07
694.478	5839.12
694.923	5415.42
695.367	7720.22
695.812	4697.47
696.256	1946.27
696.701	1447.32
697.145	1341.97
697.59	1284.42
698.034	1273.32
698.478	1263.87
698.922	1270.22
699.367	1291.72
699.811	1352.22
700.255	1455.92
700.699	1578.87
701.143	1719.52
701.588	1816.17
702.032	1895.52
702.476	1960.07
702.92	2092.17
703.364	2690.82
703.808	4095.22
704.252	5163.27
704.696	5518.57
705.14	5295.62
705.584	7313.22
706.027	4005.67
706.471	2000.02
706.915	1518.37
707.359	1358.42
707.803	1249.57
708.246	1209.87
708.69	1204.12
709.134	1185.47
709.577	1178.02
710.021	1189.47
710.465	1180.77
710.908	1176.77
711.352	1215.97
711.795	1340.47
712.239	1439.52
712.682	1482.02
713.126	1469.52
713.569	1635.82
714.012	1339.82
714.456	1180.57
714.899	1107.77
715.342	1051.27
715.786	1012.17
716.229	996.52
716.672	980.97
717.115	977.22
717.558	977.42
718.002	1012.42
718.445	1039.97
718.888	1088.52
719.331	1123.82
719.774	1151.47
720.217	1126.22
720.66	1077.37
721.103	1017.42
721.546	963.72
721.989	935.72
722.432	928.52
722.874	926.52
723.317	927.32
723.76	1000.92
724.203	1213.02
724.645	1607.57
725.088	1904.57
725.531	1893.32
725.974	2093.57
726.416	1884.97
726.859	1152.97
727.301	953.62
727.744	910.52
728.187	912.52
728.629	932.42
729.071	972.82
729.514	1011.62
729.956	1052.32
730.399	1074.92
730.841	1088.12
731.283	1059.77
731.726	1036.72
732.168	1041.02
732.61	1094.27
733.053	1183.37
733.495	1286.67
733.937	1439.77
734.379	1674.27
734.821	2120.82
735.263	3343.12
735.705	6040.67
736.148	8892.82
736.59	9123.97
737.032	10097.52
