Data from MSPlasma+Separation6_Subt14_10-14-20-667.txt Node
Date: Fri Jul 21 10:14:20 EDT 2017
User: Ender
Spectrometer: HR+D1039
Trigger mode: 0
Integration Time (sec): 6.430000E-3
Scans to average: 20
Electric dark correction enabled: true
Nonlinearity correction enabled: false
Boxcar width: 0
XAxis mode: Wavelengths
Number of Pixels in Spectrum: 2048
>>>>>Begin Spectral Data<<<<<
187.836	-0.52
188.309	-0.52
188.782	-0.52
189.255	1.43
189.728	0.13
190.201	0.28
190.674	2.23
191.147	-0.77
191.619	0.08
192.092	-2.72
192.565	-0.52
193.038	-0.82
193.511	2.58
193.984	-2.42
194.456	0.18
194.929	1.18
195.402	0.63
195.874	-0.87
196.347	7.08
196.82	1.53
197.292	-2.82
197.765	-2.62
198.237	-1.72
198.71	-6.92
199.182	2.13
199.655	1.38
200.127	2.33
200.6	-3.27
201.072	7.83
201.544	-2.47
202.017	0.18
202.489	3.48
202.961	-3.47
203.433	-7.67
203.906	-0.57
204.378	1.83
204.85	1.43
205.322	0.58
205.794	4.53
206.266	1.13
206.739	2.93
207.211	0.88
207.683	-2.92
208.155	2.83
208.627	3.23
209.099	2.83
209.57	6.48
210.042	3.78
210.514	1.88
210.986	1.28
211.458	-3.47
211.93	4.58
212.402	2.48
212.873	0.08
213.345	-2.12
213.817	6.23
214.288	-2.82
214.76	1.23
215.232	-0.02
215.703	-0.12
216.175	7.28
216.646	5.73
217.118	4.23
217.589	-3.12
218.061	4.08
218.532	-3.07
219.004	4.88
219.475	1.53
219.946	-0.27
220.418	2.98
220.889	4.83
221.36	7.93
221.832	6.53
222.303	3.73
222.774	6.03
223.245	3.38
223.717	1.18
224.188	8.18
224.659	2.18
225.13	1.83
225.601	3.08
226.072	6.68
226.543	11.13
227.014	2.93
227.485	7.43
227.956	13.08
228.427	11.23
228.898	4.23
229.369	7.38
229.839	6.38
230.31	9.28
230.781	6.78
231.252	9.83
231.722	12.98
232.193	6.93
232.664	8.78
233.135	8.18
233.605	5.83
234.076	16.93
234.546	11.78
235.017	9.18
235.487	12.88
235.958	11.23
236.428	13.93
236.899	10.38
237.369	20.23
237.84	16.38
238.31	17.53
238.78	11.63
239.251	12.23
239.721	12.18
240.191	14.78
240.662	18.33
241.132	15.03
241.602	20.98
242.072	20.13
242.542	16.33
243.013	12.68
243.483	22.33
243.953	13.68
244.423	21.18
244.893	20.48
245.363	19.83
245.833	20.53
246.303	19.43
246.773	26.98
247.243	23.43
247.712	26.83
248.182	26.48
248.652	31.83
249.122	22.38
249.592	26.58
250.061	25.58
250.531	27.43
251.001	27.03
251.471	29.53
251.94	30.13
252.41	29.08
252.879	29.98
253.349	34.53
253.818	31.08
254.288	38.83
254.757	34.18
255.227	33.38
255.696	29.03
256.166	37.63
256.635	35.58
257.105	33.38
257.574	36.28
258.043	35.83
258.513	38.13
258.982	34.38
259.451	37.73
259.92	35.23
260.389	37.88
260.859	39.43
261.328	44.63
261.797	43.83
262.266	42.93
262.735	43.33
263.204	40.23
263.673	46.23
264.142	40.53
264.611	47.98
265.08	46.63
265.549	41.63
266.018	46.78
266.487	50.68
266.955	46.83
267.424	51.08
267.893	55.88
268.362	57.58
268.83	46.53
269.299	48.08
269.768	48.88
270.236	55.18
270.705	55.23
271.174	53.78
271.642	46.78
272.111	51.78
272.579	52.73
273.048	56.18
273.516	58.28
273.985	57.48
274.453	52.33
274.922	53.38
275.39	55.93
275.858	63.98
276.327	58.23
276.795	60.98
277.263	62.48
277.731	57.83
278.2	67.73
278.668	66.98
279.136	70.88
279.604	67.33
280.072	68.88
280.54	64.73
281.008	76.98
281.477	71.28
281.945	70.53
282.413	69.08
282.881	70.68
283.348	72.48
283.816	77.43
284.284	74.58
284.752	73.88
285.22	83.08
285.688	76.73
286.156	80.83
286.623	82.33
287.091	83.18
287.559	81.48
288.026	82.03
288.494	86.53
288.962	84.53
289.429	86.23
289.897	78.68
290.364	79.18
290.832	90.23
291.3	87.03
291.767	84.98
292.234	86.38
292.702	88.73
293.169	87.88
293.637	91.88
294.104	92.78
294.571	92.98
295.039	94.23
295.506	90.53
295.973	94.83
296.44	91.18
296.908	102.58
297.375	103.18
297.842	105.73
298.309	98.53
298.776	94.58
299.243	103.23
299.71	104.63
300.177	102.63
300.644	100.23
301.111	102.48
301.578	111.93
302.045	107.98
302.512	107.18
302.979	112.73
303.446	112.68
303.913	116.68
304.379	117.48
304.846	117.68
305.313	123.68
305.78	126.78
306.246	121.88
306.713	127.43
307.18	124.23
307.646	127.28
308.113	129.08
308.579	137.93
309.046	136.28
309.512	131.48
309.979	134.78
310.445	135.98
310.912	140.43
311.378	144.83
311.845	144.93
312.311	134.88
312.777	142.13
313.244	146.13
313.71	149.13
314.176	154.18
314.642	151.63
315.109	146.83
315.575	145.48
316.041	153.68
316.507	153.78
316.973	158.98
317.439	158.83
317.905	157.23
318.371	161.73
318.837	160.73
319.303	165.08
319.769	157.48
320.235	165.78
320.701	170.08
321.167	164.68
321.633	169.43
322.099	163.88
322.564	166.78
323.03	169.13
323.496	169.58
323.962	172.28
324.427	177.28
324.893	173.93
325.359	180.38
325.824	181.18
326.29	187.08
326.755	183.53
327.221	187.13
327.686	196.13
328.152	198.18
328.617	199.88
329.083	198.28
329.548	198.63
330.014	197.13
330.479	201.68
330.944	205.73
331.41	208.58
331.875	197.28
332.34	200.98
332.805	208.33
333.271	207.13
333.736	207.73
334.201	209.98
334.666	227.98
335.131	230.28
335.596	225.83
336.061	217.33
336.526	225.63
336.991	212.33
337.456	214.93
337.921	210.78
338.386	214.08
338.851	210.68
339.316	212.98
339.781	213.63
340.246	216.83
340.711	221.28
341.175	227.63
341.64	237.03
342.105	240.23
342.569	244.58
343.034	240.83
343.499	243.73
343.963	252.88
344.428	247.43
344.893	254.38
345.357	252.78
345.822	255.33
346.286	268.28
346.751	265.43
347.215	270.13
347.679	280.43
348.144	292.48
348.608	292.73
349.073	299.23
349.537	305.08
350.001	298.93
350.465	300.53
350.93	301.33
351.394	308.13
351.858	303.68
352.322	315.28
352.786	318.18
353.25	313.23
353.715	319.78
354.179	331.73
354.643	337.83
355.107	343.03
355.571	342.58
356.035	333.63
356.498	331.53
356.962	336.38
357.426	336.18
357.89	333.13
358.354	327.53
358.818	326.78
359.281	323.63
359.745	330.58
360.209	329.48
360.673	323.83
361.136	335.28
361.6	334.83
362.064	342.63
362.527	350.08
362.991	348.33
363.454	343.08
363.918	349.78
364.381	355.28
364.845	353.98
365.308	353.48
365.772	359.23
366.235	358.28
366.698	358.18
367.162	362.83
367.625	365.68
368.088	373.73
368.552	375.18
369.015	367.13
369.478	374.98
369.941	377.73
370.404	381.53
370.867	375.08
371.331	377.83
371.794	394.33
372.257	387.63
372.72	390.23
373.183	394.73
373.646	389.28
374.109	394.08
374.572	399.78
375.035	396.33
375.497	400.68
375.96	411.83
376.423	421.43
376.886	423.78
377.349	426.28
377.811	424.93
378.274	431.08
378.737	420.38
379.199	430.88
379.662	433.53
380.125	437.48
380.587	442.33
381.05	452.33
381.512	453.38
381.975	466.53
382.437	477.83
382.9	464.83
383.362	471.88
383.825	474.28
384.287	480.88
384.75	477.48
385.212	478.58
385.674	481.93
386.136	487.08
386.599	489.93
387.061	485.73
387.523	489.93
387.985	493.08
388.447	503.38
388.91	496.43
389.372	494.33
389.834	500.48
390.296	496.38
390.758	504.33
391.22	500.08
391.682	500.78
392.144	508.43
392.606	511.93
393.068	522.93
393.529	557.33
393.991	559.58
394.453	534.38
394.915	515.03
395.377	508.93
395.838	509.48
396.3	508.78
396.762	515.98
397.224	517.38
397.685	520.23
398.147	528.23
398.608	532.98
399.07	547.63
399.531	534.13
399.993	552.53
400.454	555.78
400.916	557.93
401.377	572.68
401.839	567.53
402.3	572.33
402.762	596.88
403.223	638.53
403.684	638.93
404.145	609.53
404.607	604.28
405.068	591.73
405.529	604.18
405.99	613.93
406.451	619.73
406.913	609.48
407.374	614.73
407.835	619.23
408.296	631.83
408.757	634.13
409.218	650.53
409.679	658.83
410.14	656.23
410.601	674.88
411.062	676.98
411.522	680.63
411.983	678.48
412.444	683.28
412.905	699.68
413.366	715.43
413.826	748.83
414.287	845.48
414.748	1007.83
415.208	1028.48
415.669	863.63
416.13	774.58
416.59	755.98
417.051	792.88
417.511	829.08
417.972	890.93
418.432	960.38
418.893	1058.18
419.353	1015.78
419.814	790.33
420.274	698.63
420.734	696.53
421.195	712.68
421.655	711.13
422.115	731.98
422.576	717.68
423.036	726.28
423.496	757.38
423.956	781.53
424.416	829.88
424.876	944.08
425.336	941.08
425.797	921.03
426.257	905.83
426.717	856.98
427.177	800.18
427.637	806.28
428.097	835.53
428.556	876.83
429.016	931.28
429.476	934.98
429.936	914.48
430.396	921.53
430.856	937.23
431.315	961.08
431.775	1037.43
432.235	1112.42
432.694	1129.18
433.154	1062.12
433.614	1035.93
434.073	991.58
434.533	909.58
434.993	874.23
435.452	875.98
435.912	848.73
436.371	849.53
436.83	833.78
437.29	827.08
437.749	805.68
438.209	788.63
438.668	804.43
439.127	822.68
439.587	803.03
440.046	784.73
440.505	803.83
440.964	808.43
441.424	833.78
441.883	846.63
442.342	802.13
442.801	764.93
443.26	780.23
443.719	772.38
444.178	767.53
444.637	779.18
445.096	783.13
445.555	791.33
446.014	792.03
446.473	780.33
446.932	790.68
447.391	795.28
447.849	817.03
448.308	797.03
448.767	794.88
449.226	811.33
449.685	827.58
450.143	864.98
450.602	864.18
451.061	816.78
451.519	824.18
451.978	809.73
452.436	802.68
452.895	810.23
453.353	801.63
453.812	797.43
454.27	807.23
454.729	805.43
455.187	814.38
455.646	814.18
456.104	815.38
456.562	822.38
457.021	832.08
457.479	800.13
457.937	836.48
458.395	855.58
458.854	844.43
459.312	825.38
459.77	845.53
460.228	852.78
460.686	856.88
461.144	859.18
461.602	858.88
462.06	856.83
462.518	878.18
462.976	864.33
463.434	886.33
463.892	894.23
464.35	913.08
464.808	927.38
465.266	936.68
465.724	952.18
466.181	956.83
466.639	943.48
467.097	987.78
467.555	1017.78
468.012	1011.88
468.47	1017.42
468.928	1060.38
469.385	1071.03
469.843	1095.88
470.3	1078.18
470.758	1115.28
471.215	1134.13
471.673	1163.67
472.13	1186.43
472.588	1211.18
473.045	1211.73
473.503	1234.98
473.96	1291.13
474.417	1295.38
474.875	1353.28
475.332	1400.98
475.789	1426.08
476.246	1477.68
476.704	1532.28
477.161	1582.88
477.618	1624.28
478.075	1709.48
478.532	1850.18
478.989	1984.08
479.446	2176.23
479.903	2286.18
480.36	2496.93
480.817	2648.23
481.274	2816.83
481.731	3076.33
482.188	3310.62
482.645	3551.12
483.102	3745.88
483.558	3989.58
484.015	4174.43
484.472	4165.23
484.929	4030.48
485.385	3883.33
485.842	3791.22
486.299	3632.62
486.755	3346.93
487.212	3011.48
487.668	2720.78
488.125	2528.93
488.582	2337.28
489.038	2246.58
489.494	2176.43
489.951	2104.58
490.407	2054.38
490.864	2013.33
491.32	1968.08
491.776	1967.23
492.233	1965.83
492.689	1926.28
493.145	1889.78
493.602	1866.88
494.058	1887.98
494.514	1894.58
494.97	1888.48
495.426	1921.28
495.882	1913.98
496.338	1918.13
496.794	1921.88
497.251	1929.43
497.707	1938.13
498.163	1957.58
498.618	1948.88
499.074	1932.73
499.53	1964.58
499.986	1971.58
500.442	1952.93
500.898	1933.98
501.354	1952.93
501.809	1959.08
502.265	1955.88
502.721	1962.43
503.177	1969.78
503.632	1976.33
504.088	1986.83
504.543	2015.93
504.999	2025.03
505.455	2010.23
505.91	1997.18
506.366	1991.68
506.821	2008.33
507.277	2000.58
507.732	2002.18
508.187	1998.98
508.643	2021.03
509.098	2029.63
509.553	2052.18
510.009	2062.12
510.464	2111.93
510.919	2129.62
511.375	2148.43
511.83	2169.83
512.285	2202.78
512.74	2251.38
513.195	2271.58
513.65	2320.88
514.105	2349.18
514.56	2345.03
515.015	2383.12
515.47	2391.38
515.925	2369.68
516.38	2375.28
516.835	2378.28
517.29	2358.33
517.745	2361.78
518.2	2326.48
518.655	2286.28
519.109	2265.48
519.564	2224.28
520.019	2211.23
520.474	2187.78
520.928	2185.08
521.383	2163.98
521.838	2155.43
522.292	2128.98
522.747	2118.93
523.201	2131.03
523.656	2091.23
524.11	2091.73
524.565	2079.58
525.019	2081.88
525.474	2067.12
525.928	2073.12
526.382	2074.93
526.837	2072.43
527.291	2074.18
527.745	2065.03
528.2	2071.53
528.654	2047.38
529.108	2054.68
529.562	2055.03
530.016	2051.23
530.47	2051.08
530.925	2042.03
531.379	2053.88
531.833	2072.93
532.287	2075.23
532.741	2051.12
533.195	2057.83
533.649	2073.43
534.103	2062.68
534.556	2058.57
535.01	2073.78
535.464	2044.13
535.918	2063.83
536.372	2074.18
536.826	2074.53
537.279	2058.18
537.733	2058.08
538.187	2059.32
538.64	2063.48
539.094	2077.83
539.548	2108.83
540.001	2093.48
540.455	2113.98
540.908	2108.93
541.362	2122.62
541.815	2148.08
542.269	2178.43
542.722	2185.23
543.175	2218.93
543.629	2225.13
544.082	2236.33
544.536	2263.93
544.989	2255.38
545.442	2265.98
545.895	2282.08
546.349	2265.07
546.802	2269.12
547.255	2286.63
547.708	2295.23
548.161	2325.28
548.614	2318.62
549.067	2327.73
549.52	2314.08
549.973	2292.23
550.426	2281.03
550.879	2285.03
551.332	2288.23
551.785	2294.23
552.238	2315.93
552.691	2313.93
553.144	2352.12
553.596	2393.23
554.049	2411.12
554.502	2470.03
554.955	2490.23
555.407	2531.68
555.86	2511.53
556.313	2477.88
556.765	2465.63
557.218	2429.48
557.67	2419.98
558.123	2398.53
558.576	2380.63
559.028	2382.83
559.48	2398.53
559.933	2396.08
560.385	2320.98
560.838	2245.33
561.29	2181.53
561.742	2181.38
562.195	2127.88
562.647	2101.03
563.099	2105.83
563.551	2074.93
564.004	2090.28
564.456	2079.08
564.908	2029.48
565.36	1983.33
565.812	1945.62
566.264	1942.58
566.716	1912.13
567.168	1874.13
567.62	1881.48
568.072	1869.33
568.524	1858.83
568.976	1853.53
569.428	1831.58
569.88	1818.83
570.332	1839.23
570.784	1848.83
571.235	1834.23
571.687	1861.38
572.139	1869.73
572.59	1884.98
573.042	1882.68
573.494	1881.98
573.945	1853.63
574.397	1828.73
574.849	1815.18
575.3	1827.63
575.752	1788.28
576.203	1781.62
576.655	1791.73
577.106	1764.38
577.557	1753.18
578.009	1737.58
578.46	1737.23
578.912	1733.58
579.363	1744.93
579.814	1739.28
580.265	1737.03
580.717	1743.38
581.168	1734.98
581.619	1746.03
582.07	1764.53
582.521	1753.68
582.972	1738.53
583.423	1746.28
583.875	1764.13
584.326	1768.78
584.777	1804.33
585.227	1821.63
585.678	1850.18
586.129	1863.08
586.58	1878.18
587.031	1900.68
587.482	1946.43
587.933	1971.93
588.384	1979.28
588.834	1958.78
589.285	1943.58
589.736	1950.33
590.186	1966.58
590.637	1942.68
591.088	1891.33
591.538	1860.08
591.989	1830.43
592.439	1808.18
592.89	1787.68
593.34	1791.03
593.791	1783.78
594.241	1764.13
594.692	1772.98
595.142	1765.93
595.593	1754.23
596.043	1774.63
596.493	1777.93
596.943	1776.38
597.394	1826.83
597.844	1847.53
598.294	1894.28
598.744	1956.58
599.195	2052.88
599.645	2149.12
600.095	2252.93
600.545	2366.73
600.995	2460.23
601.445	2551.08
601.895	2670.78
602.345	2749.43
602.795	2719.33
603.245	2634.13
603.695	2480.28
604.145	2338.12
604.594	2227.58
605.044	2114.62
605.494	1989.78
605.944	1884.53
606.393	1835.18
606.843	1804.53
607.293	1807.78
607.743	1789.98
608.192	1803.98
608.642	1799.88
609.091	1790.53
609.541	1798.78
609.99	1802.28
610.44	1757.33
610.889	1736.78
611.339	1709.53
611.788	1694.68
612.238	1710.33
612.687	1710.28
613.136	1717.03
613.586	1740.33
614.035	1733.08
614.484	1743.38
614.933	1753.23
615.383	1720.73
615.832	1672.43
616.281	1651.33
616.73	1603.08
617.179	1576.08
617.628	1543.03
618.077	1516.93
618.526	1502.18
618.975	1495.58
619.424	1469.88
619.873	1470.18
620.322	1454.23
620.771	1451.98
621.22	1426.43
621.669	1396.68
622.118	1387.38
622.567	1375.98
623.015	1351.58
623.464	1355.93
623.913	1326.88
624.361	1344.18
624.81	1335.58
625.259	1340.38
625.707	1325.38
626.156	1330.88
626.604	1353.73
627.053	1351.68
627.501	1353.48
627.95	1365.63
628.398	1377.68
628.847	1353.28
629.295	1352.78
629.744	1352.53
630.192	1327.98
630.64	1307.08
631.089	1277.18
631.537	1247.33
631.985	1232.38
632.433	1234.98
632.881	1235.18
633.33	1237.48
633.778	1234.43
634.226	1245.73
634.674	1256.98
635.122	1267.63
635.57	1274.28
636.018	1310.88
636.466	1308.53
636.914	1299.03
637.362	1324.83
637.81	1345.73
638.258	1392.62
638.705	1397.38
639.153	1444.08
639.601	1459.68
640.049	1488.38
640.497	1523.63
640.944	1569.23
641.392	1503.12
641.84	1422.83
642.287	1363.38
642.735	1328.73
643.182	1321.63
643.63	1327.98
644.078	1334.08
644.525	1353.03
644.973	1387.58
645.42	1414.88
645.867	1446.18
646.315	1465.98
646.762	1539.68
647.21	1581.03
647.657	1671.73
648.104	1733.43
648.551	1779.12
648.999	1910.63
649.446	2099.23
649.893	2351.03
650.34	2744.93
650.787	3359.83
651.234	4350.12
651.682	5990.02
652.129	8436.77
652.576	11964.53
653.023	15314.57
653.47	15536.38
653.917	15536.42
654.363	15536.33
654.81	15533.33
655.257	15533.98
655.704	15109.73
656.151	9445.62
656.598	6208.57
657.044	4419.77
657.491	3459.62
657.938	2807.88
658.385	2376.03
658.831	2093.23
659.278	1884.93
659.724	1712.58
660.171	1591.68
660.618	1488.38
661.064	1405.33
661.511	1353.08
661.957	1308.88
662.404	1288.38
662.85	1269.23
663.296	1253.98
663.743	1226.93
664.189	1203.28
664.635	1195.58
665.082	1170.47
665.528	1148.83
665.974	1126.28
666.42	1100.12
666.867	1090.23
667.313	1049.78
667.759	1037.43
668.205	1024.18
668.651	1022.33
669.097	1021.68
669.543	1029.68
669.989	1043.58
670.435	1041.67
670.881	1052.78
671.327	1086.38
671.773	1159.33
672.219	1245.33
672.665	1322.23
673.11	1368.38
673.556	1390.33
674.002	1423.93
674.448	1439.78
674.893	1222.63
675.339	1074.48
675.785	990.38
676.23	944.88
676.676	902.03
677.122	882.03
677.567	857.63
678.013	826.13
678.458	816.68
678.904	819.98
679.349	805.03
679.794	810.93
680.24	809.03
680.685	800.33
681.131	800.63
681.576	798.63
682.021	800.78
682.466	813.13
682.912	818.63
683.357	860.23
683.802	934.03
684.247	1020.73
684.692	1078.88
685.137	1136.17
685.583	1153.83
686.028	1213.78
686.473	1150.23
686.918	998.58
687.363	913.73
687.807	874.23
688.252	825.53
688.697	804.68
689.142	774.98
689.587	779.58
690.032	799.28
690.477	824.88
690.921	864.38
691.366	905.73
691.811	943.48
692.255	1019.38
692.7	1223.43
693.145	1763.83
693.589	2689.08
694.034	3202.03
694.478	3427.72
694.923	3148.62
695.367	4475.52
695.812	2755.98
696.256	1165.83
696.701	845.43
697.145	793.68
697.59	756.83
698.034	746.18
698.478	739.78
698.922	758.38
699.367	764.78
699.811	798.23
700.255	858.53
700.699	939.73
701.143	1023.12
701.588	1082.73
702.032	1124.08
702.476	1165.38
702.92	1246.98
703.364	1632.43
703.808	2462.43
704.252	3064.53
704.696	3259.63
705.14	3092.58
705.584	4226.82
706.027	2364.08
706.471	1187.68
706.915	890.98
707.359	799.08
707.803	743.98
708.246	709.93
708.69	713.88
709.134	698.93
709.577	697.13
710.021	701.58
710.465	696.88
710.908	691.63
711.352	722.98
711.795	791.98
712.239	854.98
712.682	876.68
713.126	870.03
713.569	962.93
714.012	789.58
714.456	695.48
714.899	651.68
715.342	627.78
715.786	604.93
716.229	592.13
716.672	568.78
717.115	577.88
717.558	577.08
718.002	593.73
718.445	620.68
718.888	663.83
719.331	662.53
719.774	673.33
720.217	669.23
720.66	635.78
721.103	603.03
721.546	573.33
721.989	556.18
722.432	540.68
722.874	544.03
723.317	558.58
723.76	597.28
724.203	727.83
724.645	969.63
725.088	1149.33
725.531	1120.23
725.974	1223.58
726.416	1105.68
726.859	689.18
727.301	564.43
727.744	537.63
728.187	536.08
728.629	546.38
729.071	576.33
729.514	596.98
729.956	623.38
730.399	640.23
730.841	640.88
731.283	627.88
731.726	606.43
732.168	619.53
732.61	652.68
733.053	698.93
733.495	771.43
733.937	854.63
734.379	1015.78
734.821	1282.53
735.263	2027.38
735.705	3632.78
736.148	5347.92
736.59	5391.53
737.032	5869.52
737.474	4852.62
737.916	1856.98
738.357	979.88
738.799	759.78
739.241	705.38
739.683	710.13
740.125	730.23
740.567	738.43
741.008	788.03
741.45	831.13
741.892	864.98
742.334	875.78
742.775	871.93
743.217	839.63
743.658	703.13
744.1	734.78
744.542	837.18
744.983	872.93
745.425	917.33
745.866	888.88
