Data from MSPlasma+Separation6_Subt14_10-14-33-011.txt Node
Date: Fri Jul 21 10:14:33 EDT 2017
User: Ender
Spectrometer: HR+D1039
Trigger mode: 0
Integration Time (sec): 6.430000E-3
Scans to average: 20
Electric dark correction enabled: true
Nonlinearity correction enabled: false
Boxcar width: 0
XAxis mode: Wavelengths
Number of Pixels in Spectrum: 2048
>>>>>Begin Spectral Data<<<<<
187.836	-1.79
188.309	-1.79
188.782	-1.79
189.255	-1.24
189.728	-0.14
190.201	-0.84
190.674	2.26
191.147	-3.44
191.619	-0.49
192.092	-0.04
192.565	-1.79
193.038	4.01
193.511	4.71
193.984	0.16
194.456	1.16
194.929	1.41
195.402	-4.69
195.874	0.76
196.347	3.71
196.82	1.71
197.292	-1.29
197.765	-3.99
198.237	-0.84
198.71	-7.49
199.182	-1.34
199.655	4.16
200.127	2.81
200.6	-4.84
201.072	-0.44
201.544	-4.09
202.017	3.91
202.489	3.71
202.961	1.71
203.433	-2.14
203.906	-1.34
204.378	1.51
204.85	0.36
205.322	0.06
205.794	1.81
206.266	-0.44
206.739	0.46
207.211	-2.04
207.683	-0.29
208.155	-0.39
208.627	-2.54
209.099	6.41
209.57	2.56
210.042	6.11
210.514	0.96
210.986	4.01
211.458	0.11
211.93	0.21
212.402	1.91
212.873	0.71
213.345	-5.39
213.817	3.51
214.288	1.16
214.76	-0.54
215.232	-3.59
215.703	-0.89
216.175	6.56
216.646	5.26
217.118	3.66
217.589	-2.14
218.061	-0.29
218.532	0.01
219.004	5.56
219.475	0.81
219.946	5.61
220.418	9.46
220.889	9.21
221.36	7.36
221.832	4.91
222.303	4.31
222.774	7.31
223.245	2.71
223.717	1.21
224.188	5.91
224.659	3.56
225.13	2.61
225.601	1.16
226.072	6.46
226.543	8.61
227.014	3.36
227.485	8.06
227.956	9.71
228.427	12.46
228.898	7.81
229.369	12.26
229.839	9.26
230.31	9.56
230.781	10.26
231.252	11.91
231.722	9.61
232.193	11.31
232.664	7.06
233.135	10.31
233.605	9.51
234.076	16.21
234.546	6.91
235.017	19.06
235.487	10.21
235.958	13.61
236.428	17.31
236.899	11.06
237.369	17.01
237.84	20.56
238.31	20.46
238.78	10.91
239.251	13.81
239.721	14.16
240.191	15.71
240.662	16.36
241.132	15.11
241.602	16.71
242.072	17.46
242.542	18.76
243.013	20.96
243.483	23.51
243.953	17.96
244.423	20.51
244.893	17.06
245.363	25.41
245.833	22.71
246.303	22.11
246.773	22.91
247.243	21.01
247.712	27.96
248.182	26.61
248.652	27.06
249.122	26.96
249.592	25.56
250.061	26.16
250.531	29.66
251.001	26.71
251.471	30.41
251.94	27.81
252.41	28.06
252.879	34.16
253.349	33.66
253.818	33.11
254.288	33.26
254.757	33.51
255.227	37.36
255.696	39.16
256.166	39.41
256.635	38.86
257.105	36.86
257.574	37.56
258.043	36.16
258.513	41.01
258.982	37.71
259.451	38.86
259.92	41.21
260.389	45.51
260.859	41.96
261.328	37.86
261.797	42.76
262.266	43.41
262.735	45.01
263.204	38.51
263.673	46.26
264.142	39.11
264.611	47.41
265.08	44.71
265.549	40.86
266.018	46.91
266.487	47.96
266.955	42.21
267.424	52.96
267.893	51.26
268.362	53.56
268.83	52.26
269.299	49.46
269.768	54.76
270.236	49.51
270.705	59.01
271.174	52.01
271.642	53.21
272.111	54.56
272.579	59.76
273.048	58.31
273.516	57.56
273.985	60.76
274.453	61.56
274.922	64.31
275.39	58.06
275.858	67.56
276.327	63.36
276.795	65.26
277.263	67.26
277.731	66.26
278.2	68.56
278.668	64.31
279.136	73.81
279.604	71.36
280.072	62.06
280.54	71.71
281.008	70.01
281.477	68.81
281.945	70.31
282.413	70.86
282.881	77.11
283.348	72.36
283.816	75.56
284.284	81.11
284.752	78.01
285.22	83.11
285.688	80.11
286.156	81.01
286.623	85.71
287.091	83.46
287.559	84.46
288.026	86.16
288.494	86.31
288.962	85.16
289.429	79.21
289.897	88.66
290.364	83.31
290.832	87.86
291.3	87.81
291.767	91.11
292.234	94.81
292.702	87.31
293.169	91.61
293.637	97.81
294.104	94.26
294.571	92.21
295.039	93.06
295.506	87.51
295.973	97.96
296.44	97.21
296.908	99.86
297.375	99.56
297.842	104.31
298.309	99.26
298.776	102.56
299.243	103.01
299.71	105.66
300.177	104.06
300.644	107.46
301.111	107.06
301.578	114.51
302.045	106.66
302.512	108.01
302.979	115.01
303.446	121.16
303.913	116.21
304.379	119.51
304.846	122.86
305.313	125.01
305.78	130.76
306.246	129.51
306.713	130.81
307.18	134.56
307.646	132.51
308.113	135.11
308.579	138.71
309.046	138.16
309.512	137.11
309.979	145.31
310.445	135.66
310.912	140.86
311.378	142.71
311.845	153.11
312.311	143.56
312.777	143.81
313.244	155.26
313.71	150.01
314.176	153.41
314.642	154.16
315.109	154.16
315.575	153.66
316.041	158.21
316.507	158.06
316.973	162.81
317.439	163.71
317.905	163.06
318.371	168.66
318.837	165.21
319.303	170.06
319.769	162.51
320.235	168.16
320.701	176.61
321.167	170.56
321.633	176.81
322.099	171.96
322.564	173.96
323.03	175.26
323.496	173.46
323.962	182.56
324.427	187.21
324.893	185.06
325.359	190.51
325.824	188.86
326.29	189.36
326.755	186.66
327.221	190.26
327.686	197.96
328.152	197.86
328.617	208.06
329.083	203.31
329.548	205.36
330.014	207.86
330.479	214.31
330.944	207.26
331.41	216.26
331.875	206.56
332.34	209.61
332.805	217.96
333.271	214.51
333.736	219.06
334.201	216.86
334.666	231.36
335.131	238.81
335.596	236.76
336.061	230.66
336.526	231.11
336.991	230.01
337.456	222.01
337.921	220.66
338.386	221.06
338.851	218.66
339.316	219.21
339.781	219.81
340.246	224.56
340.711	228.91
341.175	231.26
341.64	238.11
342.105	241.91
342.569	256.46
343.034	244.41
343.499	250.71
343.963	254.86
344.428	255.81
344.893	265.51
345.357	265.21
345.822	267.41
346.286	271.76
346.751	273.16
347.215	276.16
347.679	289.26
348.144	300.86
348.608	300.46
349.073	307.31
349.537	315.16
350.001	317.81
350.465	313.86
350.93	316.36
351.394	314.76
351.858	320.91
352.322	327.16
352.786	326.26
353.25	327.51
353.715	333.66
354.179	342.66
354.643	358.36
355.107	363.11
355.571	353.96
356.035	348.61
356.498	351.41
356.962	348.41
357.426	347.21
357.89	347.41
358.354	339.81
358.818	331.76
359.281	341.21
359.745	348.86
360.209	345.31
360.673	340.81
361.136	345.91
361.6	351.46
362.064	365.31
362.527	368.96
362.991	363.41
363.454	360.06
363.918	366.26
364.381	368.96
364.845	372.31
365.308	369.71
365.772	376.41
366.235	373.76
366.698	377.16
367.162	377.21
367.625	381.46
368.088	389.01
368.552	385.41
369.015	383.76
369.478	387.86
369.941	390.56
370.404	398.11
370.867	394.81
371.331	393.56
371.794	413.31
372.257	412.31
372.72	403.81
373.183	410.21
373.646	416.61
374.109	411.61
374.572	411.41
375.035	423.91
375.497	425.21
375.96	427.06
376.423	437.01
376.886	435.86
377.349	447.21
377.811	449.36
378.274	445.76
378.737	445.61
379.199	450.51
379.662	450.96
380.125	457.91
380.587	469.41
381.05	469.81
381.512	474.01
381.975	485.66
382.437	493.36
382.9	491.96
383.362	493.31
383.825	499.91
384.287	505.26
384.75	494.36
385.212	503.21
385.674	506.46
386.136	515.61
386.599	509.61
387.061	508.11
387.523	509.61
387.985	517.11
388.447	521.06
388.91	517.56
389.372	522.26
389.834	527.26
390.296	520.81
390.758	528.71
391.22	522.61
391.682	530.81
392.144	534.56
392.606	540.21
393.068	550.81
393.529	576.61
393.991	584.81
394.453	563.61
394.915	538.91
395.377	532.16
395.838	542.76
396.3	539.11
396.762	550.01
397.224	539.76
397.685	544.61
398.147	546.26
398.608	560.36
399.07	567.71
399.531	564.86
399.993	577.81
400.454	591.36
400.916	586.96
401.377	597.56
401.839	598.41
402.3	604.96
402.762	627.61
403.223	670.81
403.684	671.41
404.145	648.76
404.607	633.06
405.068	614.36
405.529	630.51
405.99	640.81
406.451	652.16
406.913	639.26
407.374	641.46
407.835	646.36
408.296	661.01
408.757	661.96
409.218	673.86
409.679	687.96
410.14	689.26
410.601	701.66
411.062	707.71
411.522	715.26
411.983	712.36
412.444	717.36
412.905	723.06
413.366	757.96
413.826	799.21
414.287	889.01
414.748	1058.91
415.208	1090.01
415.669	906.91
416.13	828.51
416.59	801.31
417.051	833.26
417.511	874.36
417.972	942.26
418.432	1010.41
418.893	1123.26
419.353	1064.16
419.814	824.21
420.274	741.41
420.734	729.16
421.195	747.86
421.655	748.36
422.115	759.96
422.576	753.56
423.036	767.86
423.496	794.81
423.956	820.21
424.416	874.86
424.876	983.26
425.336	977.06
425.797	961.71
426.257	956.16
426.717	899.86
427.177	831.46
427.637	838.66
428.097	879.26
428.556	909.81
429.016	981.51
429.476	982.66
429.936	954.06
430.396	957.46
430.856	976.21
431.315	996.91
431.775	1061.41
432.235	1151.26
432.694	1163.96
433.154	1100.31
433.614	1070.16
434.073	1033.76
434.533	937.66
434.993	907.76
435.452	911.46
435.912	891.21
436.371	886.16
436.83	877.11
437.29	858.26
437.749	836.11
438.209	839.46
438.668	850.61
439.127	859.36
439.587	843.06
440.046	821.41
440.505	840.51
440.964	844.86
441.424	877.46
441.883	887.91
442.342	839.71
442.801	804.96
443.26	818.76
443.719	809.96
444.178	803.56
444.637	826.86
445.096	819.61
445.555	832.86
446.014	831.71
446.473	826.41
446.932	824.31
447.391	829.76
447.849	844.16
448.308	831.01
448.767	841.06
449.226	855.46
449.685	881.01
450.143	906.36
450.602	902.41
451.061	859.16
451.519	859.21
451.978	845.56
452.436	844.01
452.895	855.11
453.353	847.31
453.812	835.26
454.27	840.81
454.729	835.91
455.187	850.01
455.646	857.21
456.104	852.96
456.562	866.81
457.021	876.71
457.479	841.81
457.937	874.81
458.395	897.56
458.854	881.56
459.312	873.16
459.77	888.36
460.228	897.71
460.686	900.56
461.144	906.51
461.602	893.21
462.06	900.66
462.518	919.36
462.976	919.56
463.434	926.71
463.892	941.31
464.35	952.51
464.808	969.06
465.266	976.16
465.724	984.91
466.181	992.81
466.639	992.46
467.097	1024.26
467.555	1070.96
468.012	1057.46
468.47	1065.36
468.928	1103.11
469.385	1133.06
469.843	1144.36
470.3	1140.41
470.758	1171.41
471.215	1187.61
471.673	1208.11
472.13	1250.41
472.588	1270.86
473.045	1265.51
473.503	1285.51
473.96	1346.21
474.417	1353.06
474.875	1412.16
475.332	1461.61
475.789	1492.61
476.246	1522.51
476.704	1594.21
477.161	1642.96
477.618	1680.51
478.075	1771.66
478.532	1893.81
478.989	2027.61
479.446	2234.11
479.903	2341.56
480.36	2530.31
480.817	2677.01
481.274	2853.16
481.731	3117.11
482.188	3331.51
482.645	3564.61
483.102	3747.66
483.558	3996.06
484.015	4182.11
484.472	4181.46
484.929	4055.41
485.385	3886.01
485.842	3804.26
486.299	3676.71
486.755	3365.56
487.212	3044.66
487.668	2759.71
488.125	2574.36
488.582	2391.01
489.038	2308.81
489.494	2246.26
489.951	2182.36
490.407	2123.81
490.864	2084.06
491.32	2047.21
491.776	2031.01
492.233	2031.16
492.689	2006.41
493.145	1954.21
493.602	1933.16
494.058	1971.71
494.514	1965.91
494.97	1969.21
495.426	2000.01
495.882	1991.56
496.338	1982.16
496.794	2000.26
497.251	1998.71
497.707	2018.01
498.163	2019.41
498.618	2026.81
499.074	2020.86
499.53	2034.26
499.986	2054.36
500.442	2037.16
500.898	2020.26
501.354	2032.81
501.809	2031.51
502.265	2035.86
502.721	2052.16
503.177	2057.31
503.632	2048.06
504.088	2077.06
504.543	2098.46
504.999	2108.01
505.455	2102.61
505.91	2086.21
506.366	2098.71
506.821	2091.96
507.277	2084.56
507.732	2102.01
508.187	2091.36
508.643	2113.81
509.098	2108.01
509.553	2133.76
510.009	2161.76
510.464	2206.46
510.919	2203.71
511.375	2222.96
511.83	2249.41
512.285	2293.81
512.74	2336.26
513.195	2355.56
513.65	2400.41
514.105	2443.61
514.56	2454.81
515.015	2485.76
515.47	2502.26
515.925	2465.71
516.38	2476.26
516.835	2481.56
517.29	2469.41
517.745	2472.31
518.2	2426.86
518.655	2367.56
519.109	2348.91
519.564	2324.06
520.019	2300.11
520.474	2284.06
520.928	2279.51
521.383	2256.01
521.838	2255.21
522.292	2233.61
522.747	2208.21
523.201	2206.51
523.656	2183.76
524.11	2172.31
524.565	2174.56
525.019	2181.56
525.474	2161.56
525.928	2159.31
526.382	2170.61
526.837	2151.06
527.291	2162.01
527.745	2147.51
528.2	2152.81
528.654	2125.61
529.108	2121.06
529.562	2133.16
530.016	2128.26
530.47	2137.36
530.925	2125.51
531.379	2129.31
531.833	2139.01
532.287	2146.26
532.741	2128.26
533.195	2138.31
533.649	2146.36
534.103	2143.31
534.556	2135.61
535.01	2133.86
535.464	2135.41
535.918	2122.26
536.372	2151.91
536.826	2139.81
537.279	2120.71
537.733	2120.41
538.187	2137.96
538.64	2143.61
539.094	2154.01
539.548	2180.96
540.001	2170.41
540.455	2185.11
540.908	2195.66
541.362	2216.71
541.815	2236.31
542.269	2279.46
542.722	2278.16
543.175	2295.16
543.629	2310.81
544.082	2323.31
544.536	2351.86
544.989	2359.31
545.442	2370.36
545.895	2373.11
546.349	2377.96
546.802	2383.31
547.255	2388.16
547.708	2391.01
548.161	2414.36
548.614	2411.31
549.067	2424.41
549.52	2405.46
549.973	2383.31
550.426	2385.81
550.879	2376.61
551.332	2364.41
551.785	2395.11
552.238	2408.21
552.691	2406.46
553.144	2439.61
553.596	2496.71
554.049	2517.66
554.502	2558.71
554.955	2606.21
555.407	2629.96
555.86	2597.26
556.313	2576.31
556.765	2547.71
557.218	2531.31
557.67	2516.46
558.123	2501.21
558.576	2473.26
559.028	2469.56
559.48	2504.31
559.933	2483.31
560.385	2401.76
560.838	2338.21
561.29	2261.61
561.742	2253.51
562.195	2195.16
562.647	2185.91
563.099	2168.66
563.551	2156.91
564.004	2182.41
564.456	2162.06
564.908	2123.71
565.36	2077.66
565.812	2029.81
566.264	2000.71
566.716	1985.16
567.168	1946.01
567.62	1949.41
568.072	1941.01
568.524	1929.06
568.976	1911.91
569.428	1892.06
569.88	1891.66
570.332	1912.86
570.784	1913.81
571.235	1903.01
571.687	1933.96
572.139	1924.21
572.59	1944.31
573.042	1950.01
573.494	1943.16
573.945	1920.16
574.397	1880.71
574.849	1877.71
575.3	1889.76
575.752	1849.91
576.203	1844.11
576.655	1851.41
577.106	1817.16
577.557	1818.76
578.009	1800.16
578.46	1799.56
578.912	1790.11
579.363	1798.56
579.814	1803.51
580.265	1799.66
580.717	1790.51
581.168	1796.66
581.619	1802.36
582.07	1809.46
582.521	1811.91
582.972	1806.21
583.423	1800.86
583.875	1830.56
584.326	1843.36
584.777	1886.06
585.227	1927.06
585.678	1954.81
586.129	1959.91
586.58	1985.81
587.031	2012.61
587.482	2070.81
587.933	2127.26
588.384	2105.56
588.834	2056.56
589.285	2027.61
589.736	2029.06
590.186	2039.71
590.637	2009.36
591.088	1957.46
591.538	1931.51
591.989	1904.06
592.439	1876.71
592.89	1857.91
593.34	1846.66
593.791	1841.21
594.241	1822.86
594.692	1830.21
595.142	1824.01
595.593	1819.81
596.043	1835.81
596.493	1851.06
596.943	1842.06
597.394	1888.21
597.844	1916.21
598.294	1954.81
598.744	2019.36
599.195	2121.26
599.645	2253.26
600.095	2364.01
600.545	2467.06
600.995	2568.76
601.445	2667.56
601.895	2804.16
602.345	2880.66
602.795	2840.26
603.245	2729.31
603.695	2589.41
604.145	2433.41
604.594	2316.26
605.044	2202.01
605.494	2049.51
605.944	1944.06
606.393	1903.01
606.843	1871.91
607.293	1865.76
607.743	1853.81
608.192	1864.66
608.642	1860.81
609.091	1851.51
609.541	1859.56
609.99	1860.56
610.44	1812.61
610.889	1793.61
611.339	1777.46
611.788	1748.46
612.238	1758.06
612.687	1766.11
613.136	1775.61
613.586	1794.56
614.035	1786.76
614.484	1793.86
614.933	1777.91
615.383	1761.61
615.832	1719.76
616.281	1694.76
616.73	1666.46
617.179	1632.71
617.628	1594.41
618.077	1581.86
618.526	1551.96
618.975	1541.66
619.424	1514.51
619.873	1523.86
620.322	1506.36
620.771	1502.16
621.22	1473.71
621.669	1447.96
622.118	1435.41
622.567	1419.81
623.015	1398.11
623.464	1400.56
623.913	1367.86
624.361	1379.41
624.81	1366.66
625.259	1379.51
625.707	1365.96
626.156	1378.76
626.604	1399.81
627.053	1406.26
627.501	1399.76
627.95	1403.41
628.398	1426.21
628.847	1404.81
629.295	1397.71
629.744	1387.61
630.192	1364.01
630.64	1349.36
631.089	1315.41
631.537	1294.66
631.985	1284.31
632.433	1282.21
632.881	1269.16
633.33	1280.41
633.778	1281.21
634.226	1284.16
634.674	1290.91
635.122	1305.61
635.57	1324.31
636.018	1350.71
636.466	1333.31
636.914	1344.46
637.362	1366.41
637.81	1387.31
638.258	1431.11
638.705	1444.06
639.153	1491.71
639.601	1505.21
640.049	1521.86
640.497	1573.96
640.944	1606.96
641.392	1549.36
641.84	1458.21
642.287	1395.06
642.735	1369.26
643.182	1350.01
643.63	1346.51
644.078	1353.96
644.525	1369.06
644.973	1403.11
645.42	1428.11
645.867	1466.46
646.315	1481.71
646.762	1545.66
647.21	1587.86
647.657	1673.61
648.104	1727.96
648.551	1772.26
648.999	1913.66
649.446	2093.11
649.893	2313.96
650.34	2706.21
650.787	3316.06
651.234	4250.01
651.682	5830.56
652.129	8202.21
652.576	11606.81
653.023	15169.41
653.47	15536.96
653.917	15537.01
654.363	15536.91
654.81	15533.91
655.257	15534.56
655.704	14982.46
656.151	9103.91
656.598	5996.86
657.044	4308.71
657.491	3382.16
657.938	2755.16
658.385	2341.16
658.831	2088.21
659.278	1868.86
659.724	1719.71
660.171	1601.91
660.618	1492.36
661.064	1409.21
661.511	1372.81
661.957	1322.86
662.404	1307.21
662.85	1277.51
663.296	1265.51
663.743	1243.06
664.189	1227.71
664.635	1216.66
665.082	1192.61
665.528	1177.31
665.974	1150.01
666.42	1130.96
666.867	1115.96
667.313	1070.81
667.759	1050.01
668.205	1046.61
668.651	1050.01
669.097	1046.91
669.543	1055.41
669.989	1060.81
670.435	1060.31
670.881	1071.16
671.327	1119.26
671.773	1205.56
672.219	1289.76
672.665	1372.61
673.11	1419.26
673.556	1433.01
674.002	1466.21
674.448	1479.06
674.893	1269.56
675.339	1102.46
675.785	1018.96
676.23	966.06
676.676	929.71
677.122	905.41
677.567	885.61
678.013	852.81
678.458	852.01
678.904	838.36
679.349	834.06
679.794	837.91
680.24	828.16
680.685	817.31
681.131	822.91
681.576	823.01
682.021	838.91
682.466	836.96
682.912	847.76
683.357	891.86
683.802	960.81
684.247	1051.66
684.692	1126.21
685.137	1166.41
685.583	1191.86
686.028	1256.61
686.473	1205.31
686.918	1031.36
687.363	948.81
687.807	906.01
688.252	852.51
688.697	832.01
689.142	798.86
689.587	807.91
690.032	823.86
690.477	849.61
690.921	892.16
691.366	932.06
691.811	974.26
692.255	1054.96
692.7	1282.96
693.145	1852.01
693.589	2821.86
694.034	3377.16
694.478	3607.91
694.923	3308.76
695.367	4700.31
695.812	2871.21
696.256	1211.66
696.701	874.71
697.145	813.96
697.59	776.96
698.034	766.66
698.478	768.46
698.922	774.16
699.367	795.21
699.811	834.56
700.255	896.61
700.699	980.11
701.143	1062.01
701.588	1129.76
702.032	1174.01
702.476	1214.01
702.92	1298.06
703.364	1692.11
703.808	2585.76
704.252	3230.46
704.696	3421.41
705.14	3245.21
705.584	4472.41
706.027	2471.36
706.471	1232.11
706.915	917.86
707.359	822.06
707.803	767.51
708.246	733.01
708.69	733.51
709.134	726.21
709.577	724.21
710.021	729.16
710.465	725.41
710.908	720.21
711.352	748.16
711.795	828.01
712.239	890.41
712.682	914.86
713.126	896.06
713.569	993.51
714.012	815.46
714.456	710.21
714.899	675.56
715.342	647.81
715.786	624.86
716.229	602.41
716.672	588.21
717.115	595.81
717.558	596.46
718.002	610.96
718.445	637.11
718.888	684.51
719.331	687.96
719.774	697.66
720.217	690.51
720.66	653.56
721.103	613.26
721.546	583.86
721.989	567.21
722.432	563.66
722.874	565.81
723.317	568.81
723.76	619.01
724.203	753.01
724.645	1016.91
725.088	1193.76
725.531	1170.11
725.974	1281.71
726.416	1158.81
726.859	714.01
727.301	586.16
727.744	557.96
728.187	552.51
728.629	563.41
729.071	597.51
729.514	622.21
729.956	652.56
730.399	669.11
730.841	663.06
731.283	643.91
731.726	630.56
732.168	645.66
732.61	677.01
733.053	727.56
733.495	796.96
733.937	895.21
734.379	1048.51
734.821	1350.06
735.263	2152.16
735.705	3849.86
736.148	5662.21
736.59	5682.61
737.032	6178.06
737.474	5098.66
737.916	1943.06
738.357	1019.26
738.799	783.11
739.241	725.76
739.683	724.91
740.125	746.06
740.567	745.11
741.008	793.46
741.45	833.21
741.892	877.81
742.334	880.31
742.775	872.31
743.217	840.86
743.658	714.11
744.1	726.76
744.542	836.36
744.983	862.61
745.425	898.31
