Data from 20171114-ORNL-Ar_H_NY_Subt18_08-07-57-640.txt Node
Date: Tue Nov 14 08:07:57 EST 2017
User: Ender
Spectrometer: HR+D1039
Trigger mode: 0
Integration Time (sec): 2.730000E-2
Scans to average: 10
Electric dark correction enabled: true
Nonlinearity correction enabled: false
Boxcar width: 0
XAxis mode: Wavelengths
Number of Pixels in Spectrum: 2048
>>>>>Begin Spectral Data<<<<<
187.836	-7.65
188.309	-7.65
188.782	-7.65
189.255	0.95
189.728	-0.35
190.201	7.35
190.674	-0.05
191.147	2.35
191.619	-10.95
192.092	1.85
192.565	6.95
193.038	-1.55
193.511	-0.25
193.984	0.75
194.456	-2.25
194.929	4.55
195.402	1.35
195.874	-3.05
196.347	-7.95
196.82	-8.95
197.292	0.25
197.765	-4.15
198.237	-3.05
198.71	-1.85
199.182	-1.35
199.655	-0.55
200.127	-0.95
200.6	-4.25
201.072	-3.15
201.544	-1.65
202.017	-6.95
202.489	4.45
202.961	-6.35
203.433	0.55
203.906	-6.95
204.378	-7.55
204.85	2.05
205.322	-11.75
205.794	-5.65
206.266	-5.25
206.739	-10.45
207.211	-1.45
207.683	-5.05
208.155	-6.55
208.627	-4.75
209.099	-2.55
209.57	-10.85
210.042	-5.25
210.514	-3.95
210.986	-6.75
211.458	-12.85
211.93	-2.05
212.402	-1.05
212.873	-6.65
213.345	-6.65
213.817	-12.45
214.288	-8.35
214.76	-13.65
215.232	-2.85
215.703	-0.95
216.175	-6.45
216.646	-10.05
217.118	-11.95
217.589	0.35
218.061	-0.75
218.532	-4.45
219.004	-4.85
219.475	-8.35
219.946	-0.75
220.418	-5.25
220.889	8.15
221.36	-2.35
221.832	-2.55
222.303	-4.95
222.774	2.25
223.245	-9.15
223.717	-7.45
224.188	-9.25
224.659	-10.05
225.13	-4.35
225.601	-0.25
226.072	-0.15
226.543	-5.35
227.014	3.25
227.485	-2.65
227.956	-1.15
228.427	-3.35
228.898	-3.55
229.369	5.95
229.839	2.25
230.31	-3.45
230.781	1.05
231.252	-4.15
231.722	-4.05
232.193	0.25
232.664	-3.55
233.135	-3.05
233.605	-4.95
234.076	-10.35
234.546	-5.25
235.017	3.55
235.487	4.55
235.958	-1.65
236.428	3.15
236.899	0.75
237.369	-0.55
237.84	-4.15
238.31	0.35
238.78	-0.25
239.251	-4.55
239.721	1.95
240.191	0.85
240.662	-3.45
241.132	-3.35
241.602	-4.85
242.072	2.75
242.542	9.85
243.013	0.95
243.483	-0.35
243.953	-0.45
244.423	1.45
244.893	-5.05
245.363	6.45
245.833	1.35
246.303	-0.75
246.773	6.85
247.243	-1.45
247.712	7.55
248.182	2.85
248.652	3.45
249.122	-0.65
249.592	9.85
250.061	19.95
250.531	30.65
251.001	15.65
251.471	19.65
251.94	16.65
252.41	3.65
252.879	-3.85
253.349	10.95
253.818	9.85
254.288	2.15
254.757	4.95
255.227	-0.15
255.696	4.35
256.166	5.05
256.635	9.95
257.105	3.95
257.574	4.15
258.043	7.45
258.513	3.75
258.982	18.35
259.451	6.45
259.92	9.45
260.389	4.55
260.859	21.65
261.328	12.85
261.797	19.25
262.266	14.05
262.735	7.75
263.204	1.25
263.673	-4.25
264.142	8.65
264.611	2.15
265.08	-4.35
265.549	-1.85
266.018	3.05
266.487	-8.45
266.955	0.05
267.424	1.05
267.893	5.65
268.362	-1.25
268.83	2.35
269.299	14.75
269.768	6.05
270.236	0.45
270.705	1.15
271.174	4.95
271.642	6.45
272.111	5.45
272.579	15.15
273.048	21.85
273.516	29.55
273.985	23.05
274.453	22.45
274.922	16.65
275.39	5.25
275.858	3.75
276.327	7.55
276.795	21.65
277.263	5.85
277.731	36.55
278.2	50.45
278.668	53.45
279.136	42.55
279.604	16.25
280.072	16.95
280.54	8.85
281.008	10.85
281.477	10.25
281.945	10.65
282.413	15.05
282.881	12.15
283.348	3.95
283.816	10.45
284.284	10.85
284.752	19.75
285.22	8.05
285.688	13.95
286.156	19.15
286.623	40.55
287.091	51.85
287.559	28.75
288.026	17.25
288.494	14.85
288.962	3.15
289.429	7.05
289.897	17.15
290.364	9.65
290.832	10.95
291.3	6.75
291.767	13.65
292.234	18.85
292.702	13.15
293.169	15.65
293.637	15.85
294.104	20.25
294.571	5.45
295.039	12.75
295.506	15.75
295.973	13.95
296.44	10.35
296.908	14.35
297.375	14.65
297.842	13.65
298.309	17.05
298.776	8.05
299.243	14.85
299.71	12.15
300.177	17.15
300.644	19.75
301.111	12.75
301.578	20.05
302.045	11.45
302.512	18.65
302.979	23.95
303.446	17.95
303.913	21.55
304.379	15.45
304.846	25.05
305.313	23.35
305.78	24.15
306.246	24.75
306.713	26.35
307.18	24.55
307.646	24.95
308.113	27.95
308.579	18.35
309.046	18.55
309.512	25.55
309.979	18.55
310.445	22.25
310.912	23.95
311.378	23.75
311.845	19.25
312.311	28.25
312.777	27.35
313.244	26.95
313.71	33.65
314.176	26.35
314.642	27.15
315.109	32.15
315.575	38.15
316.041	36.75
316.507	25.85
316.973	36.75
317.439	34.05
317.905	33.25
318.371	34.95
318.837	33.65
319.303	30.85
319.769	28.45
320.235	28.75
320.701	30.25
321.167	31.55
321.633	28.55
322.099	36.85
322.564	40.25
323.03	39.45
323.496	33.85
323.962	39.65
324.427	35.45
324.893	39.55
325.359	32.15
325.824	35.85
326.29	35.85
326.755	32.35
327.221	35.95
327.686	40.15
328.152	42.95
328.617	42.85
329.083	51.75
329.548	41.35
330.014	43.25
330.479	39.65
330.944	38.35
331.41	35.95
331.875	41.15
332.34	39.45
332.805	33.45
333.271	40.95
333.736	39.25
334.201	47.65
334.666	50.25
335.131	44.75
335.596	44.55
336.061	44.35
336.526	37.95
336.991	44.05
337.456	50.95
337.921	48.15
338.386	40.95
338.851	41.75
339.316	42.35
339.781	42.05
340.246	46.45
340.711	43.05
341.175	46.85
341.64	39.15
342.105	49.45
342.569	48.55
343.034	51.05
343.499	54.15
343.963	50.35
344.428	63.25
344.893	55.05
345.357	57.05
345.822	57.35
346.286	63.75
346.751	66.75
347.215	62.55
347.679	71.15
348.144	90.75
348.608	80.25
349.073	68.05
349.537	69.95
350.001	71.95
350.465	88.55
350.93	78.35
351.394	76.75
351.858	63.15
352.322	74.25
352.786	85.05
353.25	92.35
353.715	104.75
354.179	93.95
354.643	109.75
355.107	124.75
355.571	106.85
356.035	101.35
356.498	107.25
356.962	117.55
357.426	125.05
357.89	111.95
358.354	81.65
358.818	79.45
359.281	75.45
359.745	73.15
360.209	74.05
360.673	72.45
361.136	72.45
361.6	81.35
362.064	87.05
362.527	82.55
362.991	82.15
363.454	72.55
363.918	76.65
364.381	71.65
364.845	71.55
365.308	81.95
365.772	86.75
366.235	83.45
366.698	82.45
367.162	81.25
367.625	81.85
368.088	82.15
368.552	86.05
369.015	91.75
369.478	92.35
369.941	98.25
370.404	93.65
370.867	101.25
371.331	104.55
371.794	110.65
372.257	112.55
372.72	111.55
373.183	106.15
373.646	100.55
374.109	99.05
374.572	104.65
375.035	107.35
375.497	107.65
375.96	102.45
376.423	100.45
376.886	111.25
377.349	107.15
377.811	100.55
378.274	106.55
378.737	106.85
379.199	107.55
379.662	107.45
380.125	110.95
380.587	119.85
381.05	120.05
381.512	122.35
381.975	130.95
382.437	123.55
382.9	125.35
383.362	125.75
383.825	142.45
384.287	145.45
384.75	133.85
385.212	139.45
385.674	138.95
386.136	126.15
386.599	123.75
387.061	128.65
387.523	127.65
387.985	130.05
388.447	142.05
388.91	144.35
389.372	159.05
389.834	147.85
390.296	145.35
390.758	157.65
391.22	168.45
391.682	209.75
392.144	310.85
392.606	224.35
393.068	163.65
393.529	170.95
393.991	154.35
394.453	148.35
394.915	150.85
395.377	189.75
395.838	219.45
396.3	152.25
396.762	144.05
397.224	131.35
397.685	121.75
398.147	125.75
398.608	129.15
399.07	129.65
399.531	128.05
399.993	142.95
400.454	147.25
400.916	142.85
401.377	139.75
401.839	148.85
402.3	151.35
402.762	165.35
403.223	184.75
403.684	170.45
404.145	161.55
404.607	155.85
405.068	161.95
405.529	167.25
405.99	183.35
406.451	171.25
406.913	170.05
407.374	168.35
407.835	159.15
408.296	169.05
408.757	167.95
409.218	185.25
409.679	171.85
410.14	175.25
410.601	172.95
411.062	179.95
411.522	191.15
411.983	187.55
412.444	165.95
412.905	181.45
413.366	176.05
413.826	189.25
414.287	214.95
414.748	254.75
415.208	240.55
415.669	206.25
416.13	201.85
416.59	200.55
417.051	208.85
417.511	215.95
417.972	233.25
418.432	244.25
418.893	283.55
419.353	249.35
419.814	193.45
420.274	179.75
420.734	179.85
421.195	191.65
421.655	196.35
422.115	187.05
422.576	188.25
423.036	188.15
423.496	202.05
423.956	211.55
424.416	222.35
424.876	257.35
425.336	260.15
425.797	256.45
426.257	248.75
426.717	231.75
427.177	228.35
427.637	219.25
428.097	231.75
428.556	243.15
429.016	264.25
429.476	267.35
429.936	272.35
430.396	274.15
430.856	284.75
431.315	306.05
431.775	359.35
432.235	374.25
432.694	352.65
433.154	355.75
433.614	392.05
434.073	337.95
434.533	285.55
434.993	265.05
435.452	277.95
435.912	295.45
436.371	282.85
436.83	281.95
437.29	267.15
437.749	237.75
438.209	244.25
438.668	268.85
439.127	285.35
439.587	262.45
440.046	245.85
440.505	253.15
440.964	274.45
441.424	318.65
441.883	302.05
442.342	255.05
442.801	223.15
443.26	224.05
443.719	221.45
444.178	211.35
444.637	204.05
445.096	208.75
445.555	214.75
446.014	223.25
446.473	221.85
446.932	230.25
447.391	221.15
447.849	227.65
448.308	219.55
448.767	210.15
449.226	225.25
449.685	229.05
450.143	244.85
450.602	231.15
451.061	224.55
451.519	223.45
451.978	230.55
452.436	231.45
452.895	236.15
453.353	245.55
453.812	237.35
454.27	229.55
454.729	233.55
455.187	227.85
455.646	236.65
456.104	251.55
456.562	254.85
457.021	257.65
457.479	250.25
457.937	266.45
458.395	255.75
458.854	237.15
459.312	247.95
459.77	270.45
460.228	249.15
460.686	234.05
461.144	233.45
461.602	240.75
462.06	239.15
462.518	238.55
462.976	242.75
463.434	248.15
463.892	251.55
464.35	265.25
464.808	289.55
465.266	264.35
465.724	260.45
466.181	265.05
466.639	266.45
467.097	281.25
467.555	286.55
468.012	291.45
468.47	296.25
468.928	316.35
469.385	333.35
469.843	336.75
470.3	331.45
470.758	354.25
471.215	380.95
471.673	388.45
472.13	399.55
472.588	416.05
473.045	367.15
473.503	367.25
473.96	391.05
474.417	391.15
474.875	425.95
475.332	470.55
475.789	448.95
476.246	460.05
476.704	477.75
477.161	500.45
477.618	510.15
478.075	549.75
478.532	597.05
478.989	678.15
479.446	797.35
479.903	767.35
480.36	798.25
480.817	846.25
481.274	949.55
481.731	1047.65
482.188	1146.15
482.645	1265.35
483.102	1387.05
483.558	1515.15
484.015	1568.65
484.472	1559.15
484.929	1502.45
485.385	1456.95
485.842	1407.15
486.299	1340.75
486.755	1273.85
487.212	1075.65
487.668	906.25
488.125	824.35
488.582	750.85
489.038	727.95
489.494	686.15
489.951	668.15
490.407	651.35
490.864	630.75
491.32	622.95
491.776	620.65
492.233	632.25
492.689	597.35
493.145	584.85
493.602	585.65
494.058	598.45
494.514	600.45
494.97	614.75
495.426	636.25
495.882	611.45
496.338	593.95
496.794	598.15
497.251	598.05
497.707	616.65
498.163	614.65
498.618	619.05
499.074	624.25
499.53	656.85
499.986	652.85
500.442	631.75
500.898	614.95
501.354	601.45
501.809	619.35
502.265	619.25
502.721	642.55
503.177	650.95
503.632	651.95
504.088	653.95
504.543	687.25
504.999	684.15
505.455	639.15
505.91	617.55
506.366	613.35
506.821	600.75
507.277	604.45
507.732	608.65
508.187	604.85
508.643	614.85
509.098	613.45
509.553	637.55
510.009	638.35
510.464	649.75
510.919	667.35
511.375	666.15
511.83	682.45
512.285	705.35
512.74	733.05
513.195	749.25
513.65	738.15
514.105	749.15
514.56	745.65
515.015	760.25
515.47	788.85
515.925	759.85
516.38	757.95
516.835	771.55
517.29	748.85
517.745	751.75
518.2	737.45
518.655	720.35
519.109	709.05
519.564	709.95
520.019	708.25
520.474	700.25
520.928	703.85
521.383	690.45
521.838	695.25
522.292	692.05
522.747	684.25
523.201	683.25
523.656	674.35
524.11	674.35
524.565	669.05
525.019	673.65
525.474	683.05
525.928	683.25
526.382	673.05
526.837	674.25
527.291	675.65
527.745	673.35
528.2	669.25
528.654	663.85
529.108	666.95
529.562	657.45
530.016	664.15
530.47	659.65
530.925	679.55
531.379	669.05
531.833	687.85
532.287	674.25
532.741	669.55
533.195	676.75
533.649	681.55
534.103	690.05
534.556	691.15
535.01	685.95
535.464	682.75
535.918	693.45
536.372	690.65
536.826	690.45
537.279	688.05
537.733	677.15
538.187	688.55
538.64	686.65
539.094	708.55
539.548	713.35
540.001	704.55
540.455	707.15
540.908	703.65
541.362	723.95
541.815	730.05
542.269	721.85
542.722	735.95
543.175	745.05
543.629	743.05
544.082	763.45
544.536	761.25
544.989	758.85
545.442	756.95
545.895	771.45
546.349	768.75
546.802	773.45
547.255	770.85
547.708	782.35
548.161	778.55
548.614	790.85
549.067	805.95
549.52	797.45
549.973	783.45
550.426	778.05
550.879	766.55
551.332	771.25
551.785	778.65
552.238	777.55
552.691	796.35
553.144	811.75
553.596	812.25
554.049	828.95
554.502	853.25
554.955	882.35
555.407	878.45
555.86	868.05
556.313	860.65
556.765	846.95
557.218	853.45
557.67	860.95
558.123	847.85
558.576	848.15
559.028	853.55
559.48	856.25
559.933	852.65
560.385	814.15
560.838	783.15
561.29	760.25
561.742	754.95
562.195	740.45
562.647	745.05
563.099	750.05
563.551	747.55
564.004	760.75
564.456	749.05
564.908	743.45
565.36	731.05
565.812	710.25
566.264	697.95
566.716	701.95
567.168	695.85
567.62	701.25
568.072	689.35
568.524	675.75
568.976	664.85
569.428	658.55
569.88	660.25
570.332	664.25
570.784	662.95
571.235	662.45
571.687	668.85
572.139	683.55
572.59	683.15
573.042	684.95
573.494	680.05
573.945	683.35
574.397	662.35
574.849	673.55
575.3	662.65
575.752	655.25
576.203	658.45
576.655	666.55
577.106	645.15
577.557	646.95
578.009	653.55
578.46	647.35
578.912	644.85
579.363	641.25
579.814	647.95
580.265	653.35
580.717	647.75
581.168	644.35
581.619	654.35
582.07	667.05
582.521	655.65
582.972	645.35
583.423	659.35
583.875	671.05
584.326	680.25
584.777	728.65
585.227	807.95
585.678	913.95
586.129	1003.35
586.58	1080.45
587.031	1168.95
587.482	1327.85
587.933	1524.55
588.384	1318.25
588.834	968.95
589.285	796.55
589.736	764.95
590.186	755.05
590.637	745.35
591.088	730.15
591.538	715.55
591.989	704.95
592.439	703.15
592.89	701.75
593.34	698.95
593.791	698.55
594.241	687.45
594.692	695.05
595.142	686.85
595.593	674.45
596.043	684.55
596.493	701.35
596.943	701.85
597.394	696.95
597.844	700.35
598.294	708.95
598.744	727.55
599.195	746.25
599.645	788.75
600.095	821.35
600.545	890.55
600.995	937.55
601.445	995.55
601.895	1068.05
602.345	1095.45
602.795	1077.65
603.245	1032.15
603.695	982.45
604.145	924.25
604.594	886.65
605.044	821.85
605.494	772.55
605.944	725.55
606.393	727.05
606.843	713.95
607.293	710.75
607.743	713.95
608.192	729.35
608.642	741.55
609.091	751.55
609.541	746.55
609.99	746.05
610.44	746.35
610.889	700.75
611.339	677.75
611.788	668.05
612.238	683.75
612.687	701.35
613.136	709.15
613.586	724.15
614.035	723.15
614.484	758.85
614.933	743.75
615.383	736.45
615.832	724.85
616.281	712.05
616.73	675.45
617.179	656.75
617.628	631.35
618.077	624.75
618.526	606.95
618.975	599.95
619.424	590.45
619.873	607.75
620.322	612.25
620.771	590.75
621.22	597.25
621.669	575.95
622.118	582.55
622.567	570.65
623.015	550.05
623.464	554.35
623.913	548.75
624.361	539.45
624.81	539.15
625.259	540.35
625.707	541.85
626.156	542.65
626.604	561.85
627.053	542.45
627.501	549.95
627.95	557.75
628.398	566.05
628.847	554.15
629.295	555.65
629.744	560.05
630.192	557.95
630.64	564.25
631.089	553.75
631.537	565.85
631.985	576.35
632.433	586.85
632.881	603.75
633.33	663.25
633.778	642.65
634.226	552.65
634.674	555.65
635.122	570.35
635.57	584.25
636.018	611.75
636.466	569.25
636.914	542.95
637.362	556.35
637.81	564.35
638.258	567.45
638.705	571.35
639.153	591.85
639.601	598.75
640.049	626.55
640.497	644.45
640.944	669.95
641.392	633.15
641.84	602.35
642.287	571.45
642.735	559.65
643.182	563.95
643.63	563.35
644.078	565.65
644.525	580.15
644.973	588.15
645.42	591.45
645.867	610.35
646.315	628.45
646.762	643.15
647.21	681.45
647.657	691.75
648.104	739.15
648.551	749.25
648.999	816.65
649.446	899.45
649.893	996.95
650.34	1148.65
650.787	1401.35
651.234	1722.25
651.682	2254.15
652.129	3121.75
652.576	4531.05
653.023	6670.15
653.47	9133.65
653.917	11327.65
654.363	13013.75
654.81	14331.65
655.257	13663.25
655.704	8883.75
656.151	5226.95
656.598	3362.55
657.044	2393.55
657.491	1842.45
657.938	1480.35
658.385	1224.45
658.831	1059.25
659.278	947.85
659.724	840.85
660.171	777.15
660.618	714.05
661.064	672.85
661.511	652.05
661.957	645.95
662.404	627.75
662.85	630.35
663.296	611.15
663.743	540.35
664.189	529.15
664.635	524.55
665.082	509.85
665.528	514.45
665.974	501.85
666.42	504.45
666.867	493.05
667.313	478.25
667.759	477.95
668.205	475.55
668.651	483.65
669.097	484.95
669.543	501.15
669.989	460.85
670.435	435.05
670.881	439.95
671.327	438.15
671.773	455.65
672.219	479.15
672.665	535.65
673.11	563.85
673.556	613.05
674.002	655.75
674.448	647.85
674.893	529.75
675.339	460.85
675.785	420.05
676.23	402.55
676.676	385.65
677.122	373.55
677.567	365.85
678.013	359.85
678.458	340.05
678.904	340.05
679.349	329.25
679.794	351.05
680.24	342.15
680.685	340.65
681.131	346.15
681.576	338.75
682.021	348.35
682.466	334.65
682.912	333.25
683.357	336.85
683.802	361.95
684.247	393.75
684.692	448.15
685.137	476.75
685.583	522.35
686.028	541.45
686.473	495.05
686.918	432.25
687.363	403.45
687.807	384.65
688.252	355.95
688.697	343.35
689.142	327.65
689.587	326.25
690.032	324.05
690.477	335.95
690.921	346.75
691.366	373.35
691.811	390.25
692.255	426.85
692.7	447.95
693.145	496.55
693.589	694.65
694.034	1114.15
694.478	1506.45
694.923	1673.35
695.367	2185.75
695.812	1147.55
696.256	481.55
696.701	359.15
697.145	341.55
697.59	324.05
698.034	324.05
698.478	317.25
698.922	314.95
699.367	322.25
699.811	325.85
700.255	341.95
700.699	378.45
701.143	417.05
701.588	471.35
702.032	502.65
702.476	500.75
702.92	480.75
703.364	480.05
703.808	627.25
704.252	1026.15
704.696	1420.35
705.14	1605.75
705.584	2044.75
706.027	1023.45
706.471	505.55
706.915	378.65
707.359	343.55
707.803	311.95
708.246	310.25
708.69	303.05
709.134	305.05
709.577	312.25
710.021	311.65
710.465	298.95
710.908	287.35
711.352	299.25
711.795	312.95
712.239	344.45
712.682	380.65
713.126	409.35
713.569	453.05
714.012	366.95
714.456	319.05
714.899	294.85
715.342	269.25
715.786	261.35
716.229	251.55
716.672	249.25
717.115	238.65
717.558	248.65
718.002	249.65
718.445	254.45
718.888	280.55
719.331	283.85
719.774	307.35
720.217	303.75
720.66	277.05
721.103	262.25
721.546	248.85
721.989	249.45
722.432	231.85
722.874	227.75
723.317	222.15
723.76	231.95
724.203	250.25
724.645	306.65
725.088	445.85
725.531	556.55
725.974	619.85
726.416	530.45
726.859	304.25
727.301	245.75
727.744	233.45
728.187	228.85
728.629	230.55
729.071	236.05
729.514	249.55
729.956	262.75
730.399	277.45
730.841	277.45
731.283	264.55
731.726	253.05
732.168	249.65
732.61	264.85
733.053	279.05
733.495	304.95
733.937	333.95
734.379	386.05
734.821	429.15
735.263	530.45
735.705	826.95
736.148	1563.65
736.59	2525.45
737.032	2919.15
737.474	2387.45
737.916	784.85
738.357	415.15
738.799	322.35
739.241	281.95
739.683	278.45
740.125	286.85
740.567	286.65
741.008	307.45
741.45	310.45
741.892	302.35
742.334	337.05
742.775	349.25
743.217	330.05
743.658	262.15
744.1	241.15
744.542	257.95
744.983	301.05
745.425	325.75
745.866	336.35
746.307	276.35
746.749	279.75
747.19	322.45
747.632	446.55
748.073	881.15
748.514	1856.05
748.956	2749.15
749.397	3461.45
749.838	2881.15
750.279	2816.95
750.72	1448.25
751.162	524.65
751.603	313.15
752.044	251.65
752.485	210.65
752.926	206.75
753.367	196.65
753.808	186.45
754.249	181.25
754.69	175.25
755.131	175.95
755.572	175.75
756.013	181.55
756.453	183.15
756.894	187.55
757.335	184.95
757.776	186.25
758.216	188.25
758.657	194.25
759.098	195.25
759.538	221.15
759.979	258.45
760.42	368.95
760.86	714.05
761.301	1844.55
761.741	4368.35
762.182	6124.95
