Data from 20171114-ORNL-Ar_H_NY_Subt18_08-04-44-373.txt Node
Date: Tue Nov 14 08:04:44 EST 2017
User: Ender
Spectrometer: HR+D1039
Trigger mode: 0
Integration Time (sec): 2.730000E-2
Scans to average: 10
Electric dark correction enabled: true
Nonlinearity correction enabled: false
Boxcar width: 0
XAxis mode: Wavelengths
Number of Pixels in Spectrum: 2048
>>>>>Begin Spectral Data<<<<<
187.836	-6.36
188.309	-6.36
188.782	-6.36
189.255	0.74
189.728	-1.56
190.201	9.14
190.674	2.74
191.147	3.94
191.619	-6.46
192.092	-2.76
192.565	2.84
193.038	-4.26
193.511	-0.06
193.984	1.04
194.456	-0.06
194.929	0.14
195.402	0.04
195.874	0.84
196.347	-1.46
196.82	-2.96
197.292	5.14
197.765	-0.66
198.237	-5.36
198.71	0.74
199.182	-1.06
199.655	2.74
200.127	2.64
200.6	-6.06
201.072	-0.26
201.544	-0.06
202.017	-2.46
202.489	7.04
202.961	4.14
203.433	0.44
203.906	-3.06
204.378	-3.36
204.85	4.54
205.322	-12.56
205.794	5.94
206.266	-4.36
206.739	-10.66
207.211	3.24
207.683	-4.06
208.155	-2.86
208.627	0.34
209.099	-3.26
209.57	-0.06
210.042	-6.16
210.514	7.34
210.986	0.84
211.458	-7.16
211.93	-4.16
212.402	3.24
212.873	2.84
213.345	-4.86
213.817	-9.26
214.288	-6.76
214.76	-10.86
215.232	2.94
215.703	1.04
216.175	-1.36
216.646	-2.36
217.118	0.04
217.589	-6.76
218.061	2.34
218.532	0.94
219.004	0.54
219.475	-0.76
219.946	4.44
220.418	-3.16
220.889	1.34
221.36	2.24
221.832	-1.26
222.303	-6.86
222.774	-0.36
223.245	-7.16
223.717	-3.56
224.188	-1.36
224.659	-7.26
225.13	-3.16
225.601	-0.06
226.072	5.84
226.543	0.14
227.014	1.94
227.485	-2.96
227.956	-1.46
228.427	0.04
228.898	5.04
229.369	1.84
229.839	-2.96
230.31	-7.56
230.781	-0.66
231.252	0.04
231.722	-0.36
232.193	2.34
232.664	-0.76
233.135	-1.86
233.605	0.14
234.076	-2.26
234.546	-1.56
235.017	5.64
235.487	4.94
235.958	0.14
236.428	0.84
236.899	6.64
237.369	3.94
237.84	-0.96
238.31	6.04
238.78	2.84
239.251	6.24
239.721	4.84
240.191	3.84
240.662	1.04
241.132	3.34
241.602	-1.16
242.072	-1.06
242.542	9.54
243.013	5.64
243.483	10.94
243.953	11.44
244.423	2.34
244.893	-0.26
245.363	4.24
245.833	9.14
246.303	4.34
246.773	11.24
247.243	4.04
247.712	5.84
248.182	8.24
248.652	14.34
249.122	1.54
249.592	10.94
250.061	25.74
250.531	36.94
251.001	18.94
251.471	23.74
251.94	23.14
252.41	13.84
252.879	9.34
253.349	12.54
253.818	8.84
254.288	9.44
254.757	8.44
255.227	6.14
255.696	6.74
256.166	5.44
256.635	4.94
257.105	21.34
257.574	9.84
258.043	13.54
258.513	16.74
258.982	25.14
259.451	11.74
259.92	17.74
260.389	18.24
260.859	23.64
261.328	11.74
261.797	25.24
262.266	8.54
262.735	11.34
263.204	5.34
263.673	5.74
264.142	11.44
264.611	1.34
265.08	0.94
265.549	4.94
266.018	13.14
266.487	0.64
266.955	-0.06
267.424	9.04
267.893	11.94
268.362	5.44
268.83	7.34
269.299	10.54
269.768	6.84
270.236	9.34
270.705	8.54
271.174	9.64
271.642	15.34
272.111	7.64
272.579	16.84
273.048	27.14
273.516	35.24
273.985	37.04
274.453	33.14
274.922	22.44
275.39	17.14
275.858	8.54
276.327	14.64
276.795	24.04
277.263	9.14
277.731	33.54
278.2	61.64
278.668	66.34
279.136	56.84
279.604	20.84
280.072	18.74
280.54	12.54
281.008	11.04
281.477	21.34
281.945	18.54
282.413	19.94
282.881	19.54
283.348	12.14
283.816	20.14
284.284	15.34
284.752	25.94
285.22	16.74
285.688	18.74
286.156	24.74
286.623	48.94
287.091	63.64
287.559	33.54
288.026	22.24
288.494	17.64
288.962	8.64
289.429	8.74
289.897	27.24
290.364	15.24
290.832	17.24
291.3	20.54
291.767	19.14
292.234	23.34
292.702	14.94
293.169	23.24
293.637	26.04
294.104	24.24
294.571	9.84
295.039	17.34
295.506	18.14
295.973	23.94
296.44	19.64
296.908	20.64
297.375	17.64
297.842	20.24
298.309	18.74
298.776	18.84
299.243	24.44
299.71	18.64
300.177	25.34
300.644	26.94
301.111	23.24
301.578	29.24
302.045	18.34
302.512	29.14
302.979	31.24
303.446	24.54
303.913	27.24
304.379	23.44
304.846	31.14
305.313	23.54
305.78	30.94
306.246	31.94
306.713	32.34
307.18	29.94
307.646	30.24
308.113	29.74
308.579	28.44
309.046	27.24
309.512	30.44
309.979	19.24
310.445	30.94
310.912	35.14
311.378	36.84
311.845	34.64
312.311	32.04
312.777	39.04
313.244	34.94
313.71	47.44
314.176	36.64
314.642	34.64
315.109	38.14
315.575	40.74
316.041	39.44
316.507	39.74
316.973	43.44
317.439	37.34
317.905	42.24
318.371	46.34
318.837	34.94
319.303	35.74
319.769	35.94
320.235	34.54
320.701	40.54
321.167	39.94
321.633	43.84
322.099	47.94
322.564	50.54
323.03	46.64
323.496	41.54
323.962	40.64
324.427	44.84
324.893	50.14
325.359	46.74
325.824	39.54
326.29	35.74
326.755	46.64
327.221	44.64
327.686	43.24
328.152	52.44
328.617	45.24
329.083	49.44
329.548	55.84
330.014	51.04
330.479	38.94
330.944	47.34
331.41	46.14
331.875	50.34
332.34	49.94
332.805	46.94
333.271	53.24
333.736	47.44
334.201	61.84
334.666	56.34
335.131	52.44
335.596	56.64
336.061	53.74
336.526	49.64
336.991	49.24
337.456	66.24
337.921	51.64
338.386	47.64
338.851	47.24
339.316	57.04
339.781	51.84
340.246	58.74
340.711	54.74
341.175	50.14
341.64	42.64
342.105	56.74
342.569	65.14
343.034	64.94
343.499	63.64
343.963	66.54
344.428	68.04
344.893	63.74
345.357	58.84
345.822	60.74
346.286	70.44
346.751	84.04
347.215	72.24
347.679	80.34
348.144	98.04
348.608	86.34
349.073	66.44
349.537	78.84
350.001	81.84
350.465	93.54
350.93	79.34
351.394	86.34
351.858	74.84
352.322	86.14
352.786	85.14
353.25	97.04
353.715	113.54
354.179	100.54
354.643	124.44
355.107	125.94
355.571	103.94
356.035	105.24
356.498	119.64
356.962	124.44
357.426	125.14
357.89	117.24
358.354	96.44
358.818	85.04
359.281	87.84
359.745	81.14
360.209	75.74
360.673	81.44
361.136	82.34
361.6	86.44
362.064	85.04
362.527	80.94
362.991	92.54
363.454	81.84
363.918	78.74
364.381	73.84
364.845	80.44
365.308	89.54
365.772	91.44
366.235	88.34
366.698	84.44
367.162	88.64
367.625	91.24
368.088	84.14
368.552	92.74
369.015	88.44
369.478	95.64
369.941	98.24
370.404	99.04
370.867	98.44
371.331	106.64
371.794	114.54
372.257	106.14
372.72	118.14
373.183	106.14
373.646	104.84
374.109	100.34
374.572	103.44
375.035	104.84
375.497	108.44
375.96	105.64
376.423	102.64
376.886	111.04
377.349	108.24
377.811	97.54
378.274	110.54
378.737	107.24
379.199	113.74
379.662	111.04
380.125	128.04
380.587	124.04
381.05	119.94
381.512	131.34
381.975	135.34
382.437	127.84
382.9	124.44
383.362	135.94
383.825	140.94
384.287	149.84
384.75	135.24
385.212	136.54
385.674	136.74
386.136	132.14
386.599	128.34
387.061	125.34
387.523	123.14
387.985	129.94
388.447	143.24
388.91	133.44
389.372	154.34
389.834	146.74
390.296	145.64
390.758	157.04
391.22	166.94
391.682	201.64
392.144	285.74
392.606	225.64
393.068	162.34
393.529	166.54
393.991	159.34
394.453	145.04
394.915	151.44
395.377	188.94
395.838	209.54
396.3	152.04
396.762	144.74
397.224	130.64
397.685	133.84
398.147	128.84
398.608	126.04
399.07	135.84
399.531	132.44
399.993	140.54
400.454	143.34
400.916	144.24
401.377	142.84
401.839	144.04
402.3	147.64
402.762	161.24
403.223	174.84
403.684	169.84
404.145	157.24
404.607	158.94
405.068	157.54
405.529	165.74
405.99	182.24
406.451	169.34
406.913	173.14
407.374	162.14
407.835	162.94
408.296	166.24
408.757	171.64
409.218	189.14
409.679	174.74
410.14	172.74
410.601	174.14
411.062	183.24
411.522	184.24
411.983	182.24
412.444	166.54
412.905	176.04
413.366	174.84
413.826	191.34
414.287	211.14
414.748	258.84
415.208	240.94
415.669	210.24
416.13	199.24
416.59	196.94
417.051	206.44
417.511	217.04
417.972	228.34
418.432	239.34
418.893	276.94
419.353	243.24
419.814	188.44
420.274	180.34
420.734	182.24
421.195	194.74
421.655	188.24
422.115	191.34
422.576	182.64
423.036	183.74
423.496	196.14
423.956	203.64
424.416	225.54
424.876	255.24
425.336	252.94
425.797	253.94
426.257	245.54
426.717	227.94
427.177	228.04
427.637	214.74
428.097	228.44
428.556	237.24
429.016	251.14
429.476	257.24
429.936	262.74
430.396	263.44
430.856	281.74
431.315	309.14
431.775	334.14
432.235	366.74
432.694	333.14
433.154	343.14
433.614	374.04
434.073	320.84
434.533	273.54
434.993	256.64
435.452	268.74
435.912	283.64
436.371	293.24
436.83	284.54
437.29	265.74
437.749	236.54
438.209	236.04
438.668	259.14
439.127	281.44
439.587	252.24
440.046	237.04
440.505	249.94
440.964	268.94
441.424	314.14
441.883	299.84
442.342	244.84
442.801	215.54
443.26	212.94
443.719	215.64
444.178	212.14
444.637	201.14
445.096	215.74
445.555	215.54
446.014	216.84
446.473	214.84
446.932	226.74
447.391	207.94
447.849	218.14
448.308	206.04
448.767	211.44
449.226	230.04
449.685	226.94
450.143	244.74
450.602	228.94
451.061	214.24
451.519	226.34
451.978	225.84
452.436	225.54
452.895	233.04
453.353	238.54
453.812	231.74
454.27	234.44
454.729	232.84
455.187	236.34
455.646	237.44
456.104	240.94
456.562	247.64
457.021	251.54
457.479	248.64
457.937	261.24
458.395	255.54
458.854	241.24
459.312	249.64
459.77	260.64
460.228	249.94
460.686	238.04
461.144	239.64
461.602	237.34
462.06	235.44
462.518	243.74
462.976	245.24
463.434	245.94
463.892	255.04
464.35	262.94
464.808	274.04
465.266	263.84
465.724	256.04
466.181	259.74
466.639	266.24
467.097	276.64
467.555	286.24
468.012	291.94
468.47	301.94
468.928	310.84
469.385	323.64
469.843	325.24
470.3	330.64
470.758	339.64
471.215	365.04
471.673	386.64
472.13	375.54
472.588	397.34
473.045	354.24
473.503	363.24
473.96	371.94
474.417	385.64
474.875	411.54
475.332	452.74
475.789	443.84
476.246	440.54
476.704	468.54
477.161	486.14
477.618	504.44
478.075	545.44
478.532	593.34
478.989	667.14
479.446	773.94
479.903	741.94
480.36	771.64
480.817	834.24
481.274	930.54
481.731	1039.54
482.188	1119.74
482.645	1260.24
483.102	1372.24
483.558	1494.94
484.015	1550.34
484.472	1527.24
484.929	1472.84
485.385	1435.44
485.842	1389.84
486.299	1313.84
486.755	1241.94
487.212	1055.74
487.668	899.04
488.125	821.54
488.582	753.54
489.038	719.54
489.494	683.04
489.951	667.04
490.407	642.94
490.864	622.94
491.32	631.24
491.776	613.74
492.233	619.14
492.689	583.54
493.145	573.54
493.602	571.64
494.058	595.44
494.514	585.64
494.97	610.64
495.426	618.94
495.882	598.24
496.338	589.64
496.794	604.44
497.251	595.64
497.707	609.24
498.163	617.54
498.618	616.14
499.074	623.64
499.53	644.04
499.986	647.24
500.442	622.04
500.898	602.04
501.354	601.14
501.809	614.04
502.265	617.64
502.721	627.84
503.177	638.84
503.632	638.04
504.088	646.54
504.543	682.34
504.999	677.14
505.455	625.04
505.91	610.14
506.366	608.44
506.821	597.14
507.277	597.74
507.732	602.04
508.187	590.54
508.643	606.24
509.098	611.84
509.553	628.54
510.009	639.54
510.464	640.44
510.919	655.94
511.375	658.34
511.83	672.44
512.285	690.94
512.74	734.24
513.195	751.84
513.65	731.74
514.105	740.34
514.56	746.84
515.015	752.24
515.47	779.44
515.925	770.24
516.38	760.94
516.835	769.14
517.29	751.54
517.745	748.04
518.2	740.34
518.655	723.04
519.109	712.44
519.564	705.24
520.019	704.34
520.474	698.54
520.928	696.54
521.383	688.44
521.838	672.64
522.292	675.64
522.747	676.14
523.201	674.74
523.656	659.74
524.11	652.44
524.565	653.44
525.019	660.94
525.474	668.94
525.928	669.94
526.382	667.04
526.837	669.94
527.291	674.84
527.745	663.34
528.2	663.64
528.654	658.44
529.108	660.44
529.562	660.94
530.016	657.44
530.47	660.74
530.925	658.44
531.379	663.54
531.833	665.34
532.287	664.54
532.741	666.04
533.195	665.04
533.649	683.04
534.103	690.44
534.556	675.54
535.01	675.34
535.464	679.34
535.918	686.14
536.372	680.24
536.826	693.14
537.279	668.44
537.733	675.64
538.187	680.04
538.64	671.54
539.094	683.84
539.548	690.54
540.001	686.64
540.455	684.84
540.908	691.94
541.362	699.44
541.815	709.44
542.269	720.04
542.722	706.64
543.175	726.94
543.629	725.84
544.082	746.34
544.536	745.34
544.989	730.34
545.442	751.64
545.895	741.94
546.349	743.64
546.802	748.64
547.255	758.54
547.708	753.94
548.161	766.24
548.614	769.84
549.067	786.04
549.52	779.64
549.973	763.04
550.426	761.94
550.879	751.64
551.332	758.64
551.785	763.04
552.238	757.04
552.691	766.54
553.144	788.54
553.596	794.04
554.049	812.34
554.502	849.14
554.955	858.84
555.407	859.14
555.86	846.54
556.313	838.14
556.765	834.54
557.218	837.04
557.67	836.64
558.123	829.34
558.576	824.14
559.028	831.14
559.48	836.94
559.933	823.04
560.385	783.64
560.838	758.24
561.29	734.74
561.742	738.34
562.195	726.84
562.647	713.14
563.099	724.04
563.551	728.54
564.004	735.34
564.456	726.04
564.908	708.64
565.36	704.54
565.812	693.34
566.264	688.54
566.716	683.44
567.168	663.34
567.62	681.04
568.072	664.34
568.524	651.24
568.976	636.74
569.428	629.54
569.88	628.44
570.332	630.94
570.784	636.74
571.235	639.94
571.687	650.54
572.139	654.04
572.59	659.34
573.042	667.14
573.494	661.54
573.945	663.74
574.397	634.54
574.849	645.54
575.3	646.14
575.752	632.34
576.203	635.64
576.655	635.64
577.106	633.34
577.557	622.14
578.009	626.94
578.46	613.24
578.912	612.84
579.363	612.44
579.814	618.14
580.265	610.34
580.717	612.14
581.168	623.34
581.619	637.94
582.07	639.94
582.521	627.04
582.972	624.64
583.423	632.64
583.875	635.44
584.326	650.14
584.777	693.64
585.227	752.64
585.678	853.74
586.129	932.84
586.58	1003.54
587.031	1090.74
587.482	1267.14
587.933	1430.64
588.384	1235.74
588.834	913.74
589.285	741.64
589.736	719.64
590.186	712.34
590.637	702.34
591.088	682.84
591.538	685.34
591.989	676.64
592.439	667.54
592.89	669.44
593.34	655.84
593.791	654.04
594.241	645.14
594.692	654.24
595.142	644.14
595.593	641.84
596.043	648.54
596.493	661.04
596.943	657.34
597.394	651.84
597.844	651.54
598.294	665.44
598.744	688.24
599.195	714.04
599.645	745.94
600.095	781.14
600.545	834.64
600.995	871.54
601.445	940.44
601.895	983.14
602.345	1031.94
602.795	1027.04
603.245	974.24
603.695	928.54
604.145	878.94
604.594	838.64
605.044	782.84
605.494	732.74
605.944	687.04
606.393	676.54
606.843	660.64
607.293	662.84
607.743	668.54
608.192	682.74
608.642	687.04
609.091	694.34
609.541	699.94
609.99	712.34
610.44	696.44
610.889	656.24
611.339	629.34
611.788	627.04
612.238	629.34
612.687	637.44
613.136	656.84
613.586	673.74
614.035	661.84
614.484	682.04
614.933	684.14
615.383	682.04
615.832	673.14
616.281	650.44
616.73	624.54
617.179	609.34
617.628	596.24
618.077	577.14
618.526	566.44
618.975	555.64
619.424	551.34
619.873	548.74
620.322	556.64
620.771	548.54
621.22	542.74
621.669	537.64
622.118	523.84
622.567	521.34
623.015	521.04
623.464	511.84
623.913	513.44
624.361	495.84
624.81	497.04
625.259	504.14
625.707	493.04
626.156	494.34
626.604	505.24
627.053	497.94
627.501	506.54
627.95	514.34
628.398	521.44
628.847	517.04
629.295	511.54
629.744	522.64
630.192	517.14
630.64	517.24
631.089	505.24
631.537	516.54
631.985	521.34
632.433	534.84
632.881	538.54
633.33	589.84
633.778	567.44
634.226	509.54
634.674	513.74
635.122	514.54
635.57	534.24
636.018	559.74
636.466	525.44
636.914	501.44
637.362	512.14
637.81	512.14
638.258	517.14
638.705	512.14
639.153	542.94
639.601	545.34
640.049	576.64
640.497	601.34
640.944	625.74
641.392	572.64
641.84	550.24
642.287	527.84
642.735	503.54
643.182	505.54
643.63	510.44
644.078	513.74
644.525	528.94
644.973	527.24
645.42	529.14
645.867	554.94
646.315	572.54
646.762	592.14
647.21	614.94
647.657	633.84
648.104	662.54
648.551	693.14
648.999	742.34
649.446	819.84
649.893	897.04
650.34	1024.54
650.787	1232.74
651.234	1524.24
651.682	1972.64
652.129	2680.24
652.576	3881.44
653.023	5762.24
653.47	7894.34
653.917	10003.34
654.363	11712.34
654.81	13118.04
655.257	12402.34
655.704	8050.84
656.151	4777.14
656.598	3060.44
657.044	2177.24
657.491	1667.44
657.938	1334.44
658.385	1103.04
658.831	972.44
659.278	855.84
659.724	764.44
660.171	701.64
660.618	640.54
661.064	613.14
661.511	588.14
661.957	573.94
662.404	565.74
662.85	571.04
663.296	549.84
663.743	495.74
664.189	483.64
664.635	476.04
665.082	468.64
665.528	465.94
665.974	463.74
666.42	458.04
666.867	443.74
667.313	433.04
667.759	417.14
668.205	425.44
668.651	431.84
669.097	433.74
669.543	451.14
669.989	417.74
670.435	389.84
670.881	394.64
671.327	391.64
671.773	411.14
672.219	423.64
672.665	477.44
673.11	508.24
673.556	548.64
674.002	593.24
674.448	574.34
674.893	488.44
675.339	410.34
675.785	386.64
676.23	370.64
676.676	350.94
677.122	333.94
677.567	324.04
678.013	324.74
678.458	319.04
678.904	317.34
679.349	300.84
679.794	312.44
680.24	304.94
680.685	309.64
681.131	310.24
681.576	309.54
682.021	308.44
682.466	303.94
682.912	304.94
683.357	309.44
683.802	339.84
684.247	347.14
684.692	399.94
685.137	434.94
685.583	464.44
686.028	495.54
686.473	454.34
686.918	392.94
687.363	366.54
687.807	340.84
688.252	318.34
688.697	317.04
689.142	300.04
689.587	292.74
690.032	288.24
690.477	301.24
690.921	307.64
691.366	331.84
691.811	347.94
692.255	378.84
692.7	405.34
693.145	432.04
693.589	590.64
694.034	968.84
694.478	1315.24
694.923	1537.94
695.367	2023.04
695.812	1051.94
696.256	432.54
696.701	325.04
697.145	295.74
697.59	283.84
698.034	281.84
698.478	284.14
698.922	288.74
699.367	281.54
699.811	295.14
700.255	307.04
700.699	332.64
701.143	370.74
701.588	409.74
702.032	455.54
702.476	445.54
702.92	424.34
703.364	432.84
703.808	545.54
704.252	875.64
704.696	1258.34
705.14	1469.04
705.584	1898.34
706.027	935.44
706.471	458.44
706.915	350.94
707.359	309.64
707.803	283.34
708.246	269.14
708.69	270.94
709.134	273.54
709.577	267.64
710.021	280.64
710.465	271.14
710.908	268.54
711.352	260.74
711.795	265.64
712.239	305.04
712.682	328.24
713.126	362.74
713.569	411.74
714.012	320.64
714.456	279.44
714.899	263.74
715.342	236.94
715.786	227.44
716.229	223.34
716.672	229.04
717.115	213.24
717.558	217.94
718.002	221.24
718.445	228.14
718.888	244.84
719.331	260.14
719.774	274.54
720.217	263.04
720.66	244.04
721.103	232.54
721.546	223.54
721.989	222.14
722.432	197.24
722.874	205.64
723.317	198.44
723.76	202.54
724.203	220.54
724.645	275.94
725.088	383.54
725.531	491.84
725.974	568.14
726.416	483.34
726.859	267.54
727.301	212.34
727.744	213.24
728.187	197.64
728.629	212.24
729.071	210.64
729.514	221.54
729.956	234.24
730.399	244.94
730.841	247.44
731.283	232.84
731.726	232.74
732.168	225.34
732.61	234.04
733.053	248.54
733.495	268.04
733.937	307.14
734.379	343.14
734.821	368.74
735.263	457.04
735.705	697.94
736.148	1308.24
736.59	2200.54
737.032	2713.14
737.474	2206.74
737.916	707.54
738.357	364.04
738.799	284.34
739.241	266.44
739.683	243.54
740.125	255.34
740.567	257.84
741.008	274.34
741.45	274.74
741.892	274.84
742.334	303.04
742.775	316.74
743.217	304.14
743.658	234.44
744.1	219.24
744.542	222.84
744.983	267.04
745.425	302.14
745.866	300.04
746.307	248.14
746.749	246.74
747.19	276.14
747.632	382.34
748.073	724.24
748.514	1560.44
748.956	2472.64
749.397	3082.24
749.838	2564.24
750.279	2610.04
750.72	1306.34
751.162	480.54
751.603	277.74
752.044	219.64
752.485	186.34
752.926	177.74
753.367	169.14
753.808	166.94
754.249	165.84
754.69	168.44
755.131	159.74
755.572	152.24
756.013	156.64
756.453	161.84
756.894	167.94
757.335	168.34
757.776	171.14
758.216	169.54
758.657	170.34
759.098	173.24
759.538	190.74
759.979	229.94
760.42	322.04
760.86	586.34
761.301	1505.24
761.741	3750.44
762.182	5745.94
762.622	4025.74
763.063	1153.14
