Data from 20171114-ORNL-Ar_H_NY_Subt18_08-05-52-344.txt Node
Date: Tue Nov 14 08:05:52 EST 2017
User: Ender
Spectrometer: HR+D1039
Trigger mode: 0
Integration Time (sec): 2.730000E-2
Scans to average: 10
Electric dark correction enabled: true
Nonlinearity correction enabled: false
Boxcar width: 0
XAxis mode: Wavelengths
Number of Pixels in Spectrum: 2048
>>>>>Begin Spectral Data<<<<<
187.836	-3.3
188.309	-3.3
188.782	-3.3
189.255	2.4
189.728	2
190.201	6.4
190.674	0.4
191.147	5
191.619	-9.6
192.092	2.3
192.565	7
193.038	1.4
193.511	-0.8
193.984	-1.7
194.456	-0.4
194.929	-3
195.402	-6.5
195.874	-1.6
196.347	-1
196.82	-8.9
197.292	10
197.765	0.3
198.237	-4.3
198.71	2.1
199.182	-2.8
199.655	1.6
200.127	4.4
200.6	-1.9
201.072	4
201.544	2.6
202.017	-1.9
202.489	8.7
202.961	-5.1
203.433	-1.8
203.906	-3
204.378	-3.4
204.85	-3.8
205.322	-10.6
205.794	1.7
206.266	-4.7
206.739	-6.3
207.211	0.1
207.683	-3.8
208.155	-7.1
208.627	-7.2
209.099	-5.5
209.57	-11.5
210.042	-2.7
210.514	-1.8
210.986	-2.3
211.458	1.3
211.93	-5.7
212.402	6.2
212.873	-4.3
213.345	-9.2
213.817	-8.2
214.288	-2.4
214.76	-8.2
215.232	-3.2
215.703	-4
216.175	-2.9
216.646	-4.5
217.118	-5.2
217.589	0.3
218.061	-0.1
218.532	-1.7
219.004	-2.5
219.475	-3.2
219.946	1.2
220.418	4.7
220.889	-1.9
221.36	-5.1
221.832	-2.6
222.303	-11
222.774	3.1
223.245	-6.5
223.717	-2.1
224.188	-8.1
224.659	-1.9
225.13	-1.6
225.601	1.3
226.072	4.7
226.543	-1.2
227.014	1.9
227.485	-1.1
227.956	-6.6
228.427	-2.7
228.898	-0.7
229.369	3.1
229.839	-2.2
230.31	-1.4
230.781	3.2
231.252	-3.7
231.722	-8.3
232.193	3.8
232.664	5
233.135	0.1
233.605	3.2
234.076	-5
234.546	4.1
235.017	4.9
235.487	-0.3
235.958	2.3
236.428	8.3
236.899	2.3
237.369	3.6
237.84	-5.3
238.31	2.4
238.78	12
239.251	2.5
239.721	9.1
240.191	2.8
240.662	-0.8
241.132	-0.7
241.602	-3.8
242.072	5.5
242.542	5.4
243.013	5.2
243.483	3.8
243.953	4.6
244.423	2.8
244.893	2.9
245.363	5.8
245.833	0.3
246.303	-0.5
246.773	9.3
247.243	2.5
247.712	2.9
248.182	10.2
248.652	6.5
249.122	3
249.592	14
250.061	26.5
250.531	38.1
251.001	22.1
251.471	25.9
251.94	19.3
252.41	13.6
252.879	7.7
253.349	14.6
253.818	12.3
254.288	9.8
254.757	6
255.227	-0.2
255.696	7.2
256.166	4.3
256.635	11.5
257.105	10.2
257.574	8.8
258.043	5.9
258.513	14.3
258.982	15.4
259.451	10.4
259.92	21.8
260.389	13.6
260.859	16.7
261.328	12.5
261.797	20
262.266	8.6
262.735	14.8
263.204	6.1
263.673	3.1
264.142	5
264.611	-1.4
265.08	7
265.549	3.9
266.018	11.1
266.487	0.3
266.955	2.5
267.424	3.6
267.893	7.9
268.362	9.2
268.83	11.5
269.299	14.7
269.768	7.8
270.236	10
270.705	4.9
271.174	12.5
271.642	16.5
272.111	13
272.579	19.2
273.048	25.6
273.516	32.5
273.985	21.4
274.453	26.9
274.922	18.8
275.39	17.9
275.858	2.5
276.327	11.4
276.795	18.4
277.263	10.1
277.731	29.5
278.2	54.5
278.668	66.1
279.136	47.8
279.604	24.3
280.072	19
280.54	15
281.008	15.3
281.477	18.2
281.945	16.4
282.413	16.4
282.881	19.1
283.348	13.9
283.816	21.6
284.284	17.8
284.752	24.4
285.22	14.4
285.688	19.5
286.156	21.6
286.623	48.8
287.091	58.9
287.559	30.3
288.026	18.3
288.494	17.3
288.962	11.7
289.429	14.7
289.897	17.7
290.364	16.9
290.832	17.9
291.3	14.3
291.767	20.9
292.234	22.6
292.702	11.9
293.169	20.7
293.637	28.2
294.104	26
294.571	14
295.039	22.1
295.506	18.3
295.973	22.7
296.44	18.9
296.908	23.9
297.375	27.1
297.842	24.5
298.309	18.8
298.776	13.2
299.243	18.3
299.71	14.6
300.177	22.4
300.644	31.6
301.111	27.3
301.578	20.8
302.045	21.6
302.512	26
302.979	26.9
303.446	23.8
303.913	17.8
304.379	15.7
304.846	34.4
305.313	24.5
305.78	33.4
306.246	26.6
306.713	34
307.18	35.8
307.646	29.1
308.113	30
308.579	26.9
309.046	34.2
309.512	26
309.979	22.8
310.445	28.7
310.912	31.4
311.378	36.6
311.845	31.1
312.311	32
312.777	35.4
313.244	31.4
313.71	41.8
314.176	34.3
314.642	33.3
315.109	25.8
315.575	36.8
316.041	42.7
316.507	39.4
316.973	39.9
317.439	37.2
317.905	35.6
318.371	37.2
318.837	34.1
319.303	38.4
319.769	32.1
320.235	37.3
320.701	37.9
321.167	38.5
321.633	37.9
322.099	40
322.564	44.2
323.03	44
323.496	40.8
323.962	42.4
324.427	39.7
324.893	48.2
325.359	43.1
325.824	44.2
326.29	36
326.755	41.4
327.221	44.2
327.686	43.3
328.152	52.8
328.617	51.4
329.083	49
329.548	54.8
330.014	50.9
330.479	45.5
330.944	53.1
331.41	50.4
331.875	52.4
332.34	47.1
332.805	47.8
333.271	43.7
333.736	43.4
334.201	54.7
334.666	49.2
335.131	60.5
335.596	53.4
336.061	59.6
336.526	44.2
336.991	45.1
337.456	55.3
337.921	49.8
338.386	49.2
338.851	44.4
339.316	52.8
339.781	48.3
340.246	56.1
340.711	49.1
341.175	53.9
341.64	44.5
342.105	53.5
342.569	56.5
343.034	62.6
343.499	67.5
343.963	60.2
344.428	64
344.893	61.2
345.357	65.4
345.822	65.1
346.286	65.4
346.751	81.4
347.215	70.7
347.679	75.4
348.144	101.1
348.608	82.3
349.073	68.9
349.537	75.1
350.001	81.8
350.465	93.3
350.93	85.2
351.394	77.1
351.858	75
352.322	88.6
352.786	90.8
353.25	100.8
353.715	112.5
354.179	109.2
354.643	128.5
355.107	130.6
355.571	108.1
356.035	103.1
356.498	117.3
356.962	127.4
357.426	133.2
357.89	124.3
358.354	92.4
358.818	83.6
359.281	81.4
359.745	79.7
360.209	79
360.673	76.9
361.136	91.8
361.6	92.4
362.064	92.6
362.527	81.9
362.991	95.5
363.454	85
363.918	83.8
364.381	81.3
364.845	85.5
365.308	97.9
365.772	90.1
366.235	92.1
366.698	80
367.162	85.9
367.625	86.5
368.088	86.9
368.552	91.4
369.015	92.1
369.478	96.1
369.941	101.1
370.404	97
370.867	99.7
371.331	114.9
371.794	121.4
372.257	114.6
372.72	117.1
373.183	111.1
373.646	109.4
374.109	105.7
374.572	107.2
375.035	113.1
375.497	110.2
375.96	113.6
376.423	112.3
376.886	123.3
377.349	117.4
377.811	108.7
378.274	110.4
378.737	108.7
379.199	113.1
379.662	116
380.125	126.1
380.587	120.7
381.05	119.7
381.512	127.2
381.975	135.1
382.437	128.6
382.9	134.7
383.362	134.7
383.825	141.6
384.287	150.1
384.75	144.5
385.212	138.1
385.674	147.8
386.136	135.5
386.599	126.9
387.061	129.9
387.523	128.4
387.985	140.2
388.447	154.6
388.91	155.9
389.372	158.3
389.834	156.8
390.296	155.2
390.758	157.6
391.22	171.5
391.682	211.9
392.144	300.1
392.606	230
393.068	169.3
393.529	175
393.991	153.2
394.453	147.7
394.915	154.5
395.377	197.5
395.838	218
396.3	158.1
396.762	146.9
397.224	137.7
397.685	132.5
398.147	134.1
398.608	130.8
399.07	133.4
399.531	139.9
399.993	152.6
400.454	158
400.916	151.6
401.377	151.2
401.839	160.9
402.3	155.4
402.762	172.7
403.223	186.5
403.684	176.5
404.145	164.1
404.607	161.2
405.068	167.2
405.529	173.8
405.99	189.5
406.451	182.1
406.913	179.2
407.374	163.5
407.835	169.4
408.296	169.1
408.757	177.8
409.218	191.4
409.679	181
410.14	177.6
410.601	179.9
411.062	183.6
411.522	196.8
411.983	191
412.444	180.3
412.905	184
413.366	182.6
413.826	196.8
414.287	213.7
414.748	262.1
415.208	247.6
415.669	215.3
416.13	209.2
416.59	201.9
417.051	218.6
417.511	228.2
417.972	245.2
418.432	252.2
418.893	290.9
419.353	245.5
419.814	200
420.274	187.6
420.734	185.2
421.195	204.7
421.655	193.1
422.115	198.7
422.576	193.4
423.036	203.8
423.496	203.8
423.956	221.5
424.416	232.9
424.876	261.9
425.336	266
425.797	257.4
426.257	255.8
426.717	246.2
427.177	232.6
427.637	234
428.097	241.1
428.556	252.7
429.016	273.8
429.476	270.2
429.936	275
430.396	287.3
430.856	296.6
431.315	318.4
431.775	351.3
432.235	378.9
432.694	353.3
433.154	365.5
433.614	391.7
434.073	342.3
434.533	296.9
434.993	275.5
435.452	291.6
435.912	303.3
436.371	291.2
436.83	291.3
437.29	277.2
437.749	248.8
438.209	246.9
438.668	279.7
439.127	289.7
439.587	270
440.046	257.8
440.505	256.3
440.964	288.7
441.424	331.4
441.883	319.8
442.342	265.1
442.801	223.7
443.26	219.8
443.719	226.9
444.178	216.9
444.637	214.3
445.096	224.8
445.555	220.7
446.014	228.6
446.473	226.6
446.932	241.4
447.391	222
447.849	227.4
448.308	224.1
448.767	227.3
449.226	240.4
449.685	243.4
450.143	253.9
450.602	244.3
451.061	230.9
451.519	235.1
451.978	231.1
452.436	236.6
452.895	243.6
453.353	258.8
453.812	239.4
454.27	238.2
454.729	244.3
455.187	241.2
455.646	250.7
456.104	248.7
456.562	266.3
457.021	272.8
457.479	268.8
457.937	282.5
458.395	271.9
458.854	251.8
459.312	264
459.77	285.8
460.228	256.2
460.686	246.3
461.144	250.7
461.602	249.3
462.06	251
462.518	258.4
462.976	262.8
463.434	266
463.892	262.2
464.35	284
464.808	292.5
465.266	265.9
465.724	274.9
466.181	276
466.639	269.5
467.097	293.7
467.555	305.5
468.012	312.1
468.47	318.6
468.928	329.3
469.385	349.2
469.843	361.9
470.3	354.9
470.758	373.9
471.215	391.5
471.673	419.6
472.13	410.6
472.588	431.2
473.045	378.2
473.503	382.5
473.96	402
474.417	406.4
474.875	443.7
475.332	483.7
475.789	468.3
476.246	473.8
476.704	493.7
477.161	523.3
477.618	533.2
478.075	569.4
478.532	619.9
478.989	699
479.446	822
479.903	784.4
480.36	814.7
480.817	882.4
481.274	982
481.731	1072.8
482.188	1177.4
482.645	1323.6
483.102	1417.7
483.558	1571.9
484.015	1621.2
484.472	1588.8
484.929	1552.4
485.385	1492.2
485.842	1460.5
486.299	1390.9
486.755	1337.2
487.212	1115.7
487.668	937.2
488.125	866.3
488.582	789.1
489.038	751.9
489.494	726.4
489.951	699.3
490.407	679
490.864	661.8
491.32	658.5
491.776	660.4
492.233	658.9
492.689	622.3
493.145	619.3
493.602	606.8
494.058	626.4
494.514	619.7
494.97	644.5
495.426	661.3
495.882	627.1
496.338	627.1
496.794	628.7
497.251	641
497.707	635.1
498.163	645.2
498.618	667.9
499.074	660.6
499.53	690.1
499.986	692.8
500.442	665.6
500.898	640.7
501.354	641.7
501.809	645.8
502.265	649.2
502.721	672.3
503.177	673.9
503.632	677.8
504.088	693.1
504.543	729.7
504.999	728.9
505.455	675.6
505.91	644.3
506.366	641.3
506.821	639.3
507.277	626.2
507.732	634.6
508.187	622
508.643	641.2
509.098	640.2
509.553	667
510.009	667.4
510.464	681.5
510.919	699.5
511.375	708.6
511.83	716.2
512.285	737.3
512.74	770.9
513.195	795.5
513.65	786.8
514.105	788.7
514.56	786.2
515.015	814.5
515.47	821.3
515.925	808.7
516.38	814.5
516.835	810.6
517.29	796.1
517.745	795.8
518.2	779.5
518.655	758.2
519.109	754.1
519.564	747
520.019	734.8
520.474	745.9
520.928	734.1
521.383	730.4
521.838	736.7
522.292	723.2
522.747	724
523.201	723.3
523.656	710.3
524.11	698.7
524.565	698.9
525.019	699.9
525.474	715.3
525.928	711.2
526.382	713.3
526.837	705.5
527.291	707.8
527.745	703.8
528.2	702.3
528.654	695.6
529.108	687
529.562	698.6
530.016	703.9
530.47	694.4
530.925	704
531.379	698.3
531.833	725.1
532.287	718.4
532.741	711.1
533.195	721.6
533.649	716
534.103	732.9
534.556	722.9
535.01	722.2
535.464	717.8
535.918	724.4
536.372	731
536.826	726.4
537.279	709.8
537.733	718
538.187	720.7
538.64	730.3
539.094	740.4
539.548	736.8
540.001	724.5
540.455	724.6
540.908	733.5
541.362	742.2
541.815	761.7
542.269	767.6
542.722	766.4
543.175	772.1
543.629	779.7
544.082	788.7
544.536	792.5
544.989	789.8
545.442	806.6
545.895	792.1
546.349	799.9
546.802	800.2
547.255	811.2
547.708	809.5
548.161	814.2
548.614	824.9
549.067	832.7
549.52	829.8
549.973	826.7
550.426	813.9
550.879	805
551.332	811.5
551.785	812.9
552.238	810.7
552.691	820.1
553.144	844.1
553.596	860.5
554.049	866.4
554.502	899.7
554.955	923.1
555.407	921.6
555.86	908.1
556.313	915.3
556.765	896.3
557.218	893.5
557.67	897.8
558.123	893.7
558.576	881.5
559.028	891.1
559.48	889.3
559.933	887.2
560.385	844.6
560.838	808.7
561.29	792.1
561.742	797.1
562.195	766.8
562.647	780
563.099	774.1
563.551	782.6
564.004	786.9
564.456	778.5
564.908	768.7
565.36	763.9
565.812	735.4
566.264	734.2
566.716	734.9
567.168	716
567.62	729.3
568.072	717.2
568.524	698.9
568.976	698.9
569.428	686.8
569.88	672
570.332	687.7
570.784	682.6
571.235	691.6
571.687	707.9
572.139	716.5
572.59	719.7
573.042	715.1
573.494	716.9
573.945	717.8
574.397	701.6
574.849	696.6
575.3	697.6
575.752	696.6
576.203	675.6
576.655	693.2
577.106	666.1
577.557	676.9
578.009	671.2
578.46	678.8
578.912	675
579.363	684.5
579.814	673.1
580.265	667.1
580.717	669.3
581.168	682.5
581.619	680.7
582.07	678.8
582.521	672.6
582.972	682
583.423	690.1
583.875	681
584.326	704.4
584.777	746.7
585.227	819.3
585.678	913.4
586.129	1000.9
586.58	1066.3
587.031	1142.5
587.482	1308.7
587.933	1470.4
588.384	1298
588.834	971.6
589.285	804.4
589.736	782.5
590.186	773.1
590.637	768.3
591.088	741
591.538	747
591.989	737.7
592.439	730.9
592.89	722.5
593.34	708.9
593.791	710.9
594.241	708.8
594.692	716.2
595.142	707.2
595.593	707.1
596.043	705.9
596.493	710
596.943	716.1
597.394	727.4
597.844	713.6
598.294	730.6
598.744	761
599.195	777
599.645	815.4
600.095	858.5
600.545	916.5
600.995	970.7
601.445	1016.6
601.895	1083.4
602.345	1131
602.795	1122
603.245	1063.4
603.695	1012.3
604.145	964
604.594	916.1
605.044	858.9
605.494	796.8
605.944	758.9
606.393	740.7
606.843	724.8
607.293	732.5
607.743	728.8
608.192	749.3
608.642	762.3
609.091	761.7
609.541	766.2
609.99	775.7
610.44	759.4
610.889	718.6
611.339	702.5
611.788	674
612.238	687.8
612.687	725.1
613.136	717.7
613.586	738.9
614.035	738.2
614.484	752.7
614.933	760.7
615.383	741.9
615.832	739.2
616.281	721.7
616.73	690.3
617.179	658.8
617.628	655.2
618.077	637.6
618.526	622.5
618.975	615.4
619.424	611.9
619.873	616.1
620.322	615.4
620.771	606.6
621.22	600.6
621.669	588.3
622.118	596.2
622.567	579.6
623.015	572.3
623.464	566.2
623.913	565.4
624.361	550
624.81	552.3
625.259	549.2
625.707	557.6
626.156	554.7
626.604	556.3
627.053	563.7
627.501	557.9
627.95	564.4
628.398	576.6
628.847	568.2
629.295	570.2
629.744	570.2
630.192	570.9
630.64	567.5
631.089	558.2
631.537	582.6
631.985	579.1
632.433	597.8
632.881	604.2
633.33	642.7
633.778	631.8
634.226	567.4
634.674	578
635.122	577.6
635.57	586
636.018	615.8
636.466	579
636.914	554.5
637.362	563.4
637.81	568.7
638.258	571.7
638.705	577.4
639.153	600.3
639.601	605.4
640.049	638.1
640.497	667.6
640.944	687
641.392	646.5
641.84	606.3
642.287	580.8
642.735	567.8
643.182	557.1
643.63	570.4
644.078	572
644.525	586.7
644.973	589.4
645.42	589.4
645.867	612.2
646.315	635.4
646.762	666.1
647.21	683
647.657	704.4
648.104	756.6
648.551	765.6
648.999	826.4
649.446	894.8
649.893	998.6
650.34	1146.1
650.787	1364.3
651.234	1700.3
651.682	2214.8
652.129	3036.9
652.576	4369.4
653.023	6469.1
653.47	8879.1
653.917	11112.7
654.363	12862
654.81	14226.5
655.257	13549.5
655.704	8899.1
656.151	5256.3
656.598	3415.5
657.044	2414.1
657.491	1846.7
657.938	1478.9
658.385	1233.6
658.831	1073.5
659.278	950.4
659.724	863.6
660.171	777.2
660.618	712.8
661.064	683.8
661.511	657.8
661.957	651.6
662.404	635.2
662.85	644.1
663.296	618.3
663.743	559.4
664.189	530.7
664.635	517.8
665.082	523.4
665.528	518.8
665.974	507.9
666.42	503.2
666.867	501.7
667.313	484
667.759	469.5
668.205	462.9
668.651	476
669.097	474.7
669.543	500.2
669.989	468.8
670.435	439.4
670.881	437
671.327	444.4
671.773	465.2
672.219	477.5
672.665	530.2
673.11	576.7
673.556	612.8
674.002	659.6
674.448	644.9
674.893	536.3
675.339	469.7
675.785	432.4
676.23	413.9
676.676	387.6
677.122	377.4
677.567	359.9
678.013	357.6
678.458	348
678.904	357
679.349	346.4
679.794	352.2
680.24	347
680.685	343.1
681.131	343.7
681.576	342.1
682.021	353.6
682.466	338.4
682.912	344.1
683.357	344.2
683.802	372.6
684.247	394
684.692	444.2
685.137	498.3
685.583	533.4
686.028	551.6
686.473	510
686.918	437.6
687.363	409.4
687.807	380.9
688.252	368
688.697	347
689.142	333.1
689.587	330.1
690.032	321.7
690.477	328.4
690.921	342.9
691.366	374.1
691.811	400
692.255	419
692.7	449
693.145	487.1
693.589	670.6
694.034	1085.7
694.478	1490.1
694.923	1703.6
695.367	2223
695.812	1172.3
696.256	483.8
696.701	367.5
697.145	338.9
697.59	327.6
698.034	317
698.478	316.4
698.922	321.4
699.367	314.1
699.811	332.5
700.255	345.7
700.699	380.2
701.143	409.5
701.588	465.7
702.032	516
702.476	505.3
702.92	485.2
703.364	479.8
703.808	615.9
704.252	989.5
704.696	1399.8
705.14	1645.5
705.584	2093.7
706.027	1043.2
706.471	507.9
706.915	384.3
707.359	344.4
707.803	304.2
708.246	299.7
708.69	301.7
709.134	303.8
709.577	304.6
710.021	316.1
710.465	304.1
710.908	289.6
711.352	295.9
711.795	300.3
712.239	338.2
712.682	374
713.126	414
713.569	455.8
714.012	359.9
714.456	314.9
714.899	298.5
715.342	268.5
715.786	253.2
716.229	250.8
716.672	255.2
717.115	246
717.558	249.7
718.002	241.6
718.445	252.6
718.888	277.5
719.331	278.7
719.774	302.7
720.217	295.7
720.66	272.5
721.103	262.1
721.546	253.5
721.989	245.4
722.432	226.7
722.874	227.3
723.317	222.2
723.76	230.6
724.203	244.4
724.645	308.7
725.088	429.1
725.531	555.6
725.974	635.1
726.416	522.2
726.859	305.9
727.301	236.7
727.744	234.5
728.187	219.3
728.629	231.1
729.071	237.6
729.514	247.6
729.956	264.7
730.399	282.9
730.841	278.8
731.283	265.9
731.726	257.7
732.168	250
732.61	262.5
733.053	273.9
733.495	302.7
733.937	336.5
734.379	398.4
734.821	430.6
735.263	518
735.705	793.5
736.148	1503.1
736.59	2489.1
737.032	2985
737.474	2417.1
737.916	781.2
738.357	419.8
738.799	316.3
739.241	291
739.683	279.1
740.125	282.4
740.567	289
741.008	304.7
741.45	306.2
741.892	307.6
742.334	337.5
742.775	352.7
743.217	329.9
743.658	268.5
744.1	251.3
744.542	252.7
744.983	300.1
745.425	340.5
745.866	329.6
746.307	275.8
746.749	276.9
747.19	312.7
747.632	439.1
748.073	832.1
748.514	1761.9
748.956	2770.8
749.397	3439.8
749.838	2876.6
750.279	2906.6
750.72	1464.8
751.162	535.3
751.603	307.8
752.044	241.7
752.485	214.4
752.926	203.3
753.367	200.5
753.808	185.7
754.249	184.1
754.69	179.2
755.131	169.9
755.572	177.5
756.013	180.4
756.453	179
756.894	178.9
757.335	189
757.776	187.4
758.216	186.8
758.657	194.3
759.098	199.2
759.538	223.8
759.979	259.4
760.42	359.2
760.86	669.5
761.301	1736.7
761.741	4228.8
762.182	6290.7
762.622	4426.9
763.063	1271.3
763.503	525.7
763.943	341.6
764.384	329.8
764.824	389.1
765.264	421.7
765.705	292.1
766.145	201.3
766.585	183.4
767.025	173.9
767.465	178.3
767.906	234.8
768.346	304.3
768.786	330.9
769.226	258.7
769.666	302.5
770.106	588.3
770.546	1475.2
770.986	2560.4
771.426	2309.2
771.866	773.1
772.306	315.7
772.745	202.5
773.185	166.7
773.625	160.2
774.065	157.7
774.505	189.7
774.944	296.6
775.384	639.1
775.824	1170.1
776.263	1156.8
776.703	485.1
777.142	208
777.582	153.2
778.021	139.3
778.461	140.9
778.9	139.2
779.34	127.6
779.779	116.2
780.219	110.4
780.658	113.7
781.097	100.5
781.537	108.7
781.976	110.6
782.415	106.3
782.855	101
783.294	100.4
783.733	104.8
784.172	109.7
784.611	97.9
785.05	106.5
785.489	111.8
785.928	113.7
786.367	119.5
786.806	115.8
787.245	126.5
787.684	135.9
788.123	147
788.562	132.5
789.001	122.7
789.44	123.8
789.879	122.7
790.317	111.3
790.756	125.9
791.195	126.1
791.634	135.2
792.072	200.2
792.511	342.7
792.95	955.3
793.388	2062.3
793.827	1892.6
794.265	658.4
794.704	270.1
795.142	176.9
795.581	143.2
796.019	131.2
796.458	124.9
796.896	122.7
797.334	124.9
797.773	144.6
798.211	209.7
798.649	415
799.087	977.2
799.526	1536.3
799.964	1939.5
800.402	1973.8
800.84	740.2
801.278	286.6
801.716	180.8
802.154	148.9
802.592	140.2
803.03	131.6
803.468	136.5
803.906	139.5
804.344	148.5
804.782	140.1
805.22	122.9
805.658	121.1
806.096	143.1
806.533	156.3
