Data from 20171114-ORNL-Ar_H_NY_Subt18_08-05-38-696.txt Node
Date: Tue Nov 14 08:05:38 EST 2017
User: Ender
Spectrometer: HR+D1039
Trigger mode: 0
Integration Time (sec): 2.730000E-2
Scans to average: 10
Electric dark correction enabled: true
Nonlinearity correction enabled: false
Boxcar width: 0
XAxis mode: Wavelengths
Number of Pixels in Spectrum: 2048
>>>>>Begin Spectral Data<<<<<
187.836	-4.92
188.309	-4.92
188.782	-4.92
189.255	2.28
189.728	-7.62
190.201	5.28
190.674	4.58
191.147	0.98
191.619	-5.72
192.092	-0.42
192.565	5.18
193.038	1.28
193.511	2.38
193.984	5.08
194.456	-3.92
194.929	0.78
195.402	-6.32
195.874	1.08
196.347	-2.92
196.82	-6.52
197.292	1.58
197.765	0.28
198.237	-7.12
198.71	-2.02
199.182	0.88
199.655	1.78
200.127	2.98
200.6	-4.12
201.072	-4.52
201.544	-2.62
202.017	-6.52
202.489	3.48
202.961	-3.12
203.433	-0.02
203.906	-2.92
204.378	-7.32
204.85	-8.82
205.322	-12.42
205.794	0.88
206.266	-5.22
206.739	-10.92
207.211	-4.82
207.683	-7.32
208.155	-5.62
208.627	-6.42
209.099	-6.42
209.57	-9.22
210.042	-5.62
210.514	-11.32
210.986	-3.42
211.458	-14.42
211.93	0.18
212.402	1.38
212.873	-10.92
213.345	-8.32
213.817	-7.92
214.288	-5.82
214.76	-15.32
215.232	-3.72
215.703	2.68
216.175	-4.02
216.646	-9.72
217.118	-1.92
217.589	-7.32
218.061	0.28
218.532	-2.22
219.004	-1.12
219.475	-2.02
219.946	-4.32
220.418	-6.92
220.889	0.78
221.36	-1.12
221.832	-0.52
222.303	-5.32
222.774	-2.42
223.245	-9.42
223.717	-7.52
224.188	-8.02
224.659	-8.22
225.13	-1.82
225.601	-5.02
226.072	-0.72
226.543	3.38
227.014	-0.02
227.485	-3.72
227.956	-7.32
228.427	-3.72
228.898	0.18
229.369	-0.22
229.839	-3.02
230.31	-0.62
230.781	3.28
231.252	-7.02
231.722	-5.42
232.193	-4.22
232.664	-1.12
233.135	-2.12
233.605	-5.62
234.076	-1.02
234.546	5.38
235.017	7.18
235.487	-1.82
235.958	-3.82
236.428	-5.62
236.899	1.78
237.369	3.88
237.84	-2.22
238.31	7.68
238.78	4.38
239.251	2.78
239.721	5.38
240.191	0.18
240.662	-0.02
241.132	-3.62
241.602	-1.62
242.072	3.58
242.542	5.18
243.013	-2.12
243.483	7.08
243.953	1.98
244.423	3.48
244.893	0.78
245.363	3.18
245.833	3.78
246.303	-0.32
246.773	11.68
247.243	5.38
247.712	-0.22
248.182	1.68
248.652	3.18
249.122	-1.52
249.592	7.78
250.061	25.98
250.531	33.08
251.001	21.78
251.471	21.48
251.94	20.28
252.41	6.98
252.879	3.48
253.349	11.88
253.818	6.38
254.288	-0.12
254.757	0.28
255.227	1.48
255.696	-5.42
256.166	12.18
256.635	2.88
257.105	11.38
257.574	5.08
258.043	11.98
258.513	9.18
258.982	21.98
259.451	6.48
259.92	13.98
260.389	14.48
260.859	14.48
261.328	15.88
261.797	13.78
262.266	9.28
262.735	12.48
263.204	10.58
263.673	3.88
264.142	11.18
264.611	-0.02
265.08	-1.72
265.549	-0.52
266.018	5.58
266.487	-2.62
266.955	-0.52
267.424	0.28
267.893	5.68
268.362	2.88
268.83	7.28
269.299	12.48
269.768	5.88
270.236	2.48
270.705	10.88
271.174	8.38
271.642	0.28
272.111	10.18
272.579	16.38
273.048	24.38
273.516	30.88
273.985	27.18
274.453	23.28
274.922	17.38
275.39	9.28
275.858	3.18
276.327	15.28
276.795	16.88
277.263	10.78
277.731	30.98
278.2	59.88
278.668	59.78
279.136	52.28
279.604	19.48
280.072	19.48
280.54	14.38
281.008	11.28
281.477	13.88
281.945	11.18
282.413	17.68
282.881	16.38
283.348	15.38
283.816	18.98
284.284	17.18
284.752	21.98
285.22	14.98
285.688	17.48
286.156	19.68
286.623	46.18
287.091	54.08
287.559	29.08
288.026	16.58
288.494	17.98
288.962	9.28
289.429	11.18
289.897	25.18
290.364	22.78
290.832	16.78
291.3	20.18
291.767	24.78
292.234	21.28
292.702	14.58
293.169	17.88
293.637	19.98
294.104	21.18
294.571	7.68
295.039	9.08
295.506	13.48
295.973	16.68
296.44	16.98
296.908	18.28
297.375	16.08
297.842	21.28
298.309	22.08
298.776	20.28
299.243	25.88
299.71	10.68
300.177	18.18
300.644	24.88
301.111	29.88
301.578	19.08
302.045	17.08
302.512	24.68
302.979	22.28
303.446	25.98
303.913	15.18
304.379	19.78
304.846	25.58
305.313	24.38
305.78	23.78
306.246	32.78
306.713	26.58
307.18	23.28
307.646	29.98
308.113	25.48
308.579	23.68
309.046	19.18
309.512	26.98
309.979	21.48
310.445	23.48
310.912	26.78
311.378	27.98
311.845	32.18
312.311	37.08
312.777	36.78
313.244	34.68
313.71	35.38
314.176	35.28
314.642	35.68
315.109	26.88
315.575	33.08
316.041	41.88
316.507	28.58
316.973	41.78
317.439	37.78
317.905	36.68
318.371	38.08
318.837	39.18
319.303	31.48
319.769	31.88
320.235	35.38
320.701	34.88
321.167	42.28
321.633	32.98
322.099	49.48
322.564	45.98
323.03	43.48
323.496	37.28
323.962	43.18
324.427	36.98
324.893	48.08
325.359	38.78
325.824	38.58
326.29	37.68
326.755	37.58
327.221	44.98
327.686	40.18
328.152	51.58
328.617	47.78
329.083	53.58
329.548	53.98
330.014	47.88
330.479	42.78
330.944	45.48
331.41	45.28
331.875	44.88
332.34	44.28
332.805	44.18
333.271	48.28
333.736	42.58
334.201	55.28
334.666	56.98
335.131	62.38
335.596	54.68
336.061	51.18
336.526	50.38
336.991	44.58
337.456	57.08
337.921	50.48
338.386	40.88
338.851	48.48
339.316	47.08
339.781	44.58
340.246	49.68
340.711	48.98
341.175	52.38
341.64	43.38
342.105	52.58
342.569	50.88
343.034	60.48
343.499	51.78
343.963	54.78
344.428	63.98
344.893	68.58
345.357	66.48
345.822	65.28
346.286	64.18
346.751	72.28
347.215	66.68
347.679	77.58
348.144	99.48
348.608	82.98
349.073	72.48
349.537	72.28
350.001	84.68
350.465	92.08
350.93	77.88
351.394	77.98
351.858	74.48
352.322	92.28
352.786	86.88
353.25	104.68
353.715	113.48
354.179	104.58
354.643	122.98
355.107	121.88
355.571	112.58
356.035	109.78
356.498	117.68
356.962	129.08
357.426	133.48
357.89	118.88
358.354	89.38
358.818	84.58
359.281	81.48
359.745	79.08
360.209	79.78
360.673	75.68
361.136	79.08
361.6	80.68
362.064	80.08
362.527	79.88
362.991	91.48
363.454	71.48
363.918	70.78
364.381	80.38
364.845	83.78
365.308	85.58
365.772	82.48
366.235	84.58
366.698	83.88
367.162	88.08
367.625	85.58
368.088	90.18
368.552	92.38
369.015	90.48
369.478	97.88
369.941	102.78
370.404	93.98
370.867	103.78
371.331	105.78
371.794	111.58
372.257	108.28
372.72	110.68
373.183	114.48
373.646	104.28
374.109	110.38
374.572	106.88
375.035	107.48
375.497	108.68
375.96	100.58
376.423	103.28
376.886	112.68
377.349	108.78
377.811	106.38
378.274	99.08
378.737	106.48
379.199	106.88
379.662	108.38
380.125	115.98
380.587	113.08
381.05	120.78
381.512	125.58
381.975	123.78
382.437	129.68
382.9	125.68
383.362	138.08
383.825	146.68
384.287	149.88
384.75	138.98
385.212	139.28
385.674	139.08
386.136	136.48
386.599	128.98
387.061	120.68
387.523	128.68
387.985	135.98
388.447	147.68
388.91	136.28
389.372	156.78
389.834	153.98
390.296	141.68
390.758	159.28
391.22	163.38
391.682	202.78
392.144	288.88
392.606	218.68
393.068	166.58
393.529	165.98
393.991	155.98
394.453	146.48
394.915	155.88
395.377	193.58
395.838	219.48
396.3	151.78
396.762	143.48
397.224	129.58
397.685	127.78
398.147	134.28
398.608	132.38
399.07	128.18
399.531	133.48
399.993	143.48
400.454	149.38
400.916	145.38
401.377	147.58
401.839	147.08
402.3	155.08
402.762	160.98
403.223	182.78
403.684	170.88
404.145	162.88
404.607	161.08
405.068	163.28
405.529	165.58
405.99	191.08
406.451	175.28
406.913	173.08
407.374	165.48
407.835	161.98
408.296	169.88
408.757	165.28
409.218	177.68
409.679	179.28
410.14	175.98
410.601	174.58
411.062	185.98
411.522	191.08
411.983	188.08
412.444	184.78
412.905	171.58
413.366	176.78
413.826	195.98
414.287	214.58
414.748	256.68
415.208	245.18
415.669	213.98
416.13	202.28
416.59	198.78
417.051	218.88
417.511	221.48
417.972	236.18
418.432	245.58
418.893	283.78
419.353	245.48
419.814	196.88
420.274	179.98
420.734	182.58
421.195	195.28
421.655	196.38
422.115	189.58
422.576	189.98
423.036	187.88
423.496	204.08
423.956	211.18
424.416	225.98
424.876	264.28
425.336	256.08
425.797	253.58
426.257	254.48
426.717	235.68
427.177	232.78
427.637	231.88
428.097	238.78
428.556	240.08
429.016	262.38
429.476	266.38
429.936	278.28
430.396	288.18
430.856	297.58
431.315	313.78
431.775	349.68
432.235	375.88
432.694	349.58
433.154	369.18
433.614	399.08
434.073	338.18
434.533	278.58
434.993	266.48
435.452	284.78
435.912	293.78
436.371	293.68
436.83	285.58
437.29	272.58
437.749	246.38
438.209	249.28
438.668	279.48
439.127	288.78
439.587	266.18
440.046	256.38
440.505	264.48
440.964	282.48
441.424	327.68
441.883	308.28
442.342	264.18
442.801	228.08
443.26	218.68
443.719	215.58
444.178	215.48
444.637	205.28
445.096	220.38
445.555	231.18
446.014	229.98
446.473	222.68
446.932	224.78
447.391	221.38
447.849	224.28
448.308	216.58
448.767	220.18
449.226	237.08
449.685	241.28
450.143	245.28
450.602	238.28
451.061	223.48
451.519	232.48
451.978	233.88
452.436	227.28
452.895	235.18
453.353	258.38
453.812	247.18
454.27	241.98
454.729	241.98
455.187	247.58
455.646	244.78
456.104	254.78
456.562	265.08
457.021	269.38
457.479	260.78
457.937	272.58
458.395	261.78
458.854	250.08
459.312	250.68
459.77	278.28
460.228	257.68
460.686	242.38
461.144	248.18
461.602	243.98
462.06	245.98
462.518	253.78
462.976	247.98
463.434	264.88
463.892	271.58
464.35	279.98
464.808	295.18
465.266	267.28
465.724	270.68
466.181	275.18
466.639	269.68
467.097	293.48
467.555	303.08
468.012	305.08
468.47	311.08
468.928	335.38
469.385	353.28
469.843	339.88
470.3	347.58
470.758	366.98
471.215	389.18
471.673	407.68
472.13	406.48
472.588	416.68
473.045	377.08
473.503	376.48
473.96	395.88
474.417	400.58
474.875	434.58
475.332	483.78
475.789	465.48
476.246	473.98
476.704	487.68
477.161	510.28
477.618	531.08
478.075	566.88
478.532	620.38
478.989	697.58
479.446	802.48
479.903	774.98
480.36	813.58
480.817	858.88
481.274	969.18
481.731	1079.58
482.188	1170.68
482.645	1306.18
483.102	1424.88
483.558	1560.28
484.015	1606.58
484.472	1576.78
484.929	1530.38
485.385	1487.98
485.842	1444.28
486.299	1373.28
486.755	1295.08
487.212	1097.98
487.668	935.98
488.125	850.88
488.582	782.68
489.038	753.28
489.494	724.08
489.951	691.38
490.407	674.98
490.864	661.08
491.32	650.08
491.776	645.88
492.233	651.58
492.689	607.38
493.145	610.78
493.602	609.58
494.058	616.68
494.514	620.38
494.97	638.38
495.426	657.78
495.882	618.78
496.338	620.68
496.794	632.38
497.251	630.98
497.707	643.28
498.163	650.88
498.618	658.28
499.074	654.58
499.53	684.58
499.986	684.98
500.442	657.98
500.898	637.68
501.354	628.98
501.809	654.38
502.265	646.28
502.721	667.38
503.177	683.58
503.632	663.68
504.088	675.08
504.543	711.48
504.999	717.48
505.455	663.68
505.91	641.18
506.366	641.38
506.821	637.48
507.277	611.68
507.732	623.28
508.187	622.98
508.643	634.28
509.098	629.18
509.553	663.08
510.009	665.48
510.464	677.38
510.919	688.58
511.375	698.08
511.83	713.98
512.285	735.48
512.74	758.08
513.195	786.78
513.65	777.88
514.105	768.88
514.56	770.48
515.015	801.68
515.47	814.38
515.925	798.28
516.38	787.68
516.835	796.48
517.29	792.88
517.745	781.18
518.2	769.78
518.655	752.78
519.109	735.08
519.564	741.18
520.019	739.78
520.474	732.18
520.928	725.88
521.383	716.58
521.838	715.98
522.292	705.68
522.747	697.58
523.201	707.38
523.656	698.68
524.11	687.28
524.565	701.28
525.019	696.88
525.474	704.98
525.928	707.38
526.382	702.68
526.837	700.48
527.291	704.38
527.745	692.38
528.2	705.38
528.654	701.88
529.108	695.38
529.562	696.88
530.016	692.28
530.47	698.68
530.925	699.18
531.379	702.28
531.833	713.58
532.287	704.48
532.741	713.38
533.195	706.98
533.649	715.78
534.103	734.38
534.556	715.58
535.01	719.78
535.464	701.38
535.918	723.38
536.372	719.88
536.826	724.88
537.279	714.08
537.733	725.98
538.187	719.48
538.64	718.98
539.094	720.48
539.548	741.18
540.001	730.68
540.455	724.68
540.908	737.78
541.362	746.08
541.815	745.08
542.269	764.18
542.722	763.78
543.175	776.88
543.629	772.98
544.082	784.68
544.536	792.88
544.989	787.98
545.442	792.08
545.895	792.58
546.349	788.98
546.802	788.58
547.255	799.78
547.708	797.28
548.161	814.58
548.614	820.28
549.067	831.58
549.52	828.48
549.973	813.28
550.426	810.48
550.879	792.48
551.332	806.48
551.785	789.98
552.238	802.68
552.691	831.48
553.144	837.38
553.596	851.88
554.049	863.98
554.502	902.58
554.955	911.48
555.407	911.18
555.86	897.78
556.313	888.98
556.765	873.58
557.218	876.68
557.67	892.28
558.123	872.88
558.576	872.78
559.028	874.48
559.48	883.98
559.933	876.48
560.385	844.28
560.838	802.78
561.29	794.18
561.742	775.78
562.195	768.08
562.647	757.98
563.099	778.38
563.551	784.08
564.004	779.38
564.456	777.18
564.908	762.88
565.36	743.28
565.812	740.38
566.264	725.98
566.716	730.88
567.168	713.08
567.62	720.68
568.072	704.38
568.524	692.48
568.976	690.78
569.428	681.18
569.88	668.78
570.332	671.68
570.784	680.38
571.235	675.28
571.687	696.08
572.139	701.18
572.59	708.78
573.042	708.38
573.494	705.18
573.945	695.58
574.397	680.48
574.849	694.68
575.3	680.98
575.752	685.68
576.203	676.38
576.655	677.78
577.106	676.78
577.557	661.88
578.009	660.78
578.46	654.08
578.912	657.68
579.363	662.58
579.814	666.98
580.265	664.68
580.717	670.38
581.168	662.98
581.619	673.98
582.07	678.58
582.521	672.78
582.972	666.58
583.423	674.48
583.875	686.58
584.326	689.98
584.777	737.38
585.227	807.78
585.678	892.98
586.129	971.08
586.58	1053.88
587.031	1136.18
587.482	1301.98
587.933	1452.38
588.384	1273.18
588.834	962.38
589.285	799.58
589.736	789.28
590.186	768.18
590.637	759.88
591.088	746.28
591.538	731.18
591.989	723.98
592.439	722.18
592.89	721.58
593.34	696.18
593.791	699.28
594.241	696.58
594.692	703.08
595.142	697.48
595.593	691.38
596.043	703.58
596.493	712.68
596.943	700.98
597.394	718.88
597.844	710.88
598.294	730.48
598.744	748.68
599.195	767.08
599.645	808.28
600.095	839.18
600.545	889.48
600.995	960.48
601.445	1011.58
601.895	1075.98
602.345	1111.58
602.795	1095.08
603.245	1054.18
603.695	990.28
604.145	945.88
604.594	900.38
605.044	848.18
605.494	790.98
605.944	745.28
606.393	735.78
606.843	718.28
607.293	730.88
607.743	715.98
608.192	734.18
608.642	760.08
609.091	757.38
609.541	754.48
609.99	755.58
610.44	756.58
610.889	718.08
611.339	682.28
611.788	681.58
612.238	691.48
612.687	706.88
613.136	700.28
613.586	723.08
614.035	719.28
614.484	744.58
614.933	740.98
615.383	744.48
615.832	724.98
616.281	708.48
616.73	676.28
617.179	654.48
617.628	639.58
618.077	620.88
618.526	606.58
618.975	606.28
619.424	603.38
619.873	599.28
620.322	607.28
620.771	588.48
621.22	595.68
621.669	585.58
622.118	576.18
622.567	569.38
623.015	557.38
623.464	550.88
623.913	545.38
624.361	543.38
624.81	540.48
625.259	535.78
625.707	538.88
626.156	545.58
626.604	556.38
627.053	552.48
627.501	557.48
627.95	544.88
628.398	570.68
628.847	558.38
629.295	560.88
629.744	564.48
630.192	562.68
630.64	551.08
631.089	547.68
631.537	556.58
631.985	567.78
632.433	571.18
632.881	590.98
633.33	638.08
633.778	625.28
634.226	556.58
634.674	558.38
635.122	565.18
635.57	582.28
636.018	601.38
636.466	566.38
636.914	548.98
637.362	554.78
637.81	561.58
638.258	568.98
638.705	561.58
639.153	584.68
639.601	598.48
640.049	618.48
640.497	661.58
640.944	669.38
641.392	625.38
641.84	596.68
642.287	573.68
642.735	557.88
643.182	557.78
643.63	546.48
644.078	559.08
644.525	574.48
644.973	573.38
645.42	593.78
645.867	606.88
646.315	618.58
646.762	646.98
647.21	671.78
647.657	704.08
648.104	727.78
648.551	752.68
648.999	816.68
649.446	886.38
649.893	982.18
650.34	1124.38
650.787	1344.68
651.234	1671.88
651.682	2180.08
652.129	2992.98
652.576	4286.38
653.023	6352.78
653.47	8721.28
653.917	10949.08
654.363	12649.38
654.81	14087.88
655.257	13410.38
655.704	8773.58
656.151	5182.08
656.598	3361.38
657.044	2379.18
657.491	1810.68
657.938	1453.58
658.385	1216.88
658.831	1055.38
659.278	941.68
659.724	831.48
660.171	768.18
660.618	711.28
661.064	669.08
661.511	660.58
661.957	641.88
662.404	625.88
662.85	631.78
663.296	602.78
663.743	543.48
664.189	516.78
664.635	520.08
665.082	510.58
665.528	522.38
665.974	507.88
666.42	505.18
666.867	490.48
667.313	472.98
667.759	468.68
668.205	462.18
668.651	470.18
669.097	462.48
669.543	482.88
669.989	450.78
670.435	442.88
670.881	429.28
671.327	435.98
671.773	455.48
672.219	473.38
672.665	517.78
673.11	558.68
673.556	605.38
674.002	646.28
674.448	635.28
674.893	529.48
675.339	457.08
675.785	418.58
676.23	399.78
676.676	380.38
677.122	362.38
677.567	356.78
678.013	357.48
678.458	337.78
678.904	348.08
679.349	340.78
679.794	339.08
680.24	335.48
680.685	339.28
681.131	336.78
681.576	336.08
682.021	335.28
682.466	336.98
682.912	340.08
683.357	347.98
683.802	360.98
684.247	397.98
684.692	433.48
685.137	476.28
685.583	515.08
686.028	540.28
686.473	503.18
686.918	428.78
687.363	401.08
687.807	379.48
688.252	355.68
688.697	338.48
689.142	326.68
689.587	315.58
690.032	307.28
690.477	323.98
690.921	335.48
691.366	370.28
691.811	385.58
692.255	410.38
692.7	438.68
693.145	485.68
693.589	657.28
694.034	1071.68
694.478	1469.88
694.923	1659.98
695.367	2192.38
695.812	1146.18
696.256	489.18
696.701	351.98
697.145	339.68
697.59	323.78
698.034	307.48
698.478	314.88
698.922	321.58
699.367	314.08
699.811	320.08
700.255	345.88
700.699	359.08
701.143	402.68
701.588	455.98
702.032	492.98
702.476	476.18
702.92	473.28
703.364	469.28
703.808	600.28
704.252	974.78
704.696	1377.98
705.14	1614.48
705.584	2055.98
706.027	1021.78
706.471	506.28
706.915	378.78
707.359	342.78
707.803	307.08
708.246	298.28
708.69	298.38
709.134	298.08
709.577	288.98
710.021	303.48
710.465	288.18
710.908	283.08
711.352	283.68
711.795	299.88
712.239	341.98
712.682	366.48
713.126	401.18
713.569	443.78
714.012	345.28
714.456	304.58
714.899	285.88
715.342	263.58
715.786	251.48
716.229	245.28
716.672	235.68
717.115	246.98
717.558	237.68
718.002	229.98
718.445	252.88
718.888	271.98
719.331	283.88
719.774	287.38
720.217	288.28
720.66	269.88
721.103	254.48
721.546	238.38
721.989	242.98
722.432	226.48
722.874	226.38
723.317	220.28
723.76	228.68
724.203	245.08
724.645	296.68
725.088	424.08
725.531	536.88
725.974	612.98
726.416	527.68
726.859	290.98
727.301	237.48
727.744	230.88
728.187	221.48
728.629	225.88
729.071	236.18
729.514	246.18
729.956	256.88
730.399	270.58
730.841	274.18
731.283	262.58
731.726	249.68
732.168	245.78
732.61	260.98
733.053	267.98
733.495	295.88
733.937	329.98
734.379	375.48
734.821	406.08
735.263	509.98
735.705	774.98
736.148	1481.68
736.59	2436.08
737.032	2934.58
737.474	2397.08
737.916	771.18
738.357	411.18
738.799	317.28
739.241	278.58
739.683	272.58
740.125	283.58
740.567	280.08
741.008	296.98
741.45	298.18
741.892	297.58
742.334	323.88
742.775	342.38
743.217	323.88
743.658	256.78
744.1	236.98
744.542	245.88
744.983	298.68
745.425	334.18
745.866	336.88
746.307	272.68
746.749	268.48
747.19	306.18
747.632	428.08
748.073	820.68
748.514	1740.58
748.956	2718.58
749.397	3393.48
749.838	2818.08
750.279	2840.48
750.72	1430.48
751.162	528.58
751.603	304.68
752.044	235.88
752.485	207.98
752.926	199.68
753.367	187.38
753.808	185.68
754.249	180.08
754.69	179.98
755.131	171.38
755.572	175.48
756.013	170.48
756.453	179.18
756.894	182.38
757.335	176.88
757.776	181.48
758.216	181.28
758.657	186.68
759.098	195.78
759.538	213.98
759.979	252.78
760.42	346.18
760.86	647.08
761.301	1692.88
761.741	4153.78
762.182	6189.18
