Data from 20171114-ORNL-Ar_H_NY_Subt18_08-04-23-081.txt Node
Date: Tue Nov 14 08:04:23 EST 2017
User: Ender
Spectrometer: HR+D1039
Trigger mode: 0
Integration Time (sec): 2.730000E-2
Scans to average: 10
Electric dark correction enabled: true
Nonlinearity correction enabled: false
Boxcar width: 0
XAxis mode: Wavelengths
Number of Pixels in Spectrum: 2048
>>>>>Begin Spectral Data<<<<<
187.836	-4.5
188.309	-4.5
188.782	-4.5
189.255	1.2
189.728	-6
190.201	11.2
190.674	-4
191.147	2.9
191.619	-4.5
192.092	2.9
192.565	5.5
193.038	0.1
193.511	3.4
193.984	-0.7
194.456	-5.8
194.929	2.6
195.402	-3
195.874	-1.3
196.347	-0.5
196.82	-6.5
197.292	6.5
197.765	-3.4
198.237	-4.8
198.71	5.9
199.182	-1.7
199.655	1.2
200.127	4.1
200.6	-1.2
201.072	-4.7
201.544	-5.7
202.017	-3.3
202.489	6.7
202.961	-1.9
203.433	1.6
203.906	-3.6
204.378	-4.1
204.85	0.1
205.322	-7.5
205.794	-2
206.266	0.8
206.739	-1
207.211	1.8
207.683	-5.8
208.155	-1.8
208.627	-4.9
209.099	-4.6
209.57	-6.4
210.042	-7
210.514	-3.9
210.986	-1.9
211.458	-2.8
211.93	-2.1
212.402	0.8
212.873	-0.9
213.345	-3.6
213.817	-5.1
214.288	-8.2
214.76	-14.8
215.232	0.4
215.703	-0
216.175	0.7
216.646	-4.6
217.118	-4.9
217.589	-4.6
218.061	-1.1
218.532	-2.8
219.004	2.9
219.475	-3.4
219.946	1.6
220.418	-5.2
220.889	4.7
221.36	0.9
221.832	-8.3
222.303	-9.8
222.774	1
223.245	-6.3
223.717	-8.4
224.188	2.9
224.659	-0
225.13	-6.6
225.601	-2.8
226.072	9.3
226.543	2.8
227.014	-0.5
227.485	-1.7
227.956	-5.9
228.427	-3.6
228.898	-1.8
229.369	5.5
229.839	-3.9
230.31	-7.2
230.781	-5.5
231.252	-0.7
231.722	-4.9
232.193	0.8
232.664	4.1
233.135	7.8
233.605	2.5
234.076	-4.8
234.546	3.9
235.017	4.6
235.487	2.5
235.958	-2.1
236.428	-0.7
236.899	2
237.369	4.4
237.84	-0.1
238.31	4.6
238.78	6.7
239.251	4.1
239.721	8.7
240.191	4.4
240.662	5.6
241.132	1.4
241.602	1.2
242.072	5.9
242.542	13.1
243.013	-2.9
243.483	3.5
243.953	1.1
244.423	5.7
244.893	5.8
245.363	10
245.833	6.9
246.303	1.1
246.773	9.8
247.243	5.5
247.712	7.7
248.182	12
248.652	9.5
249.122	-6.5
249.592	18.8
250.061	27.6
250.531	38.6
251.001	17.9
251.471	22.8
251.94	16.8
252.41	10.5
252.879	8.3
253.349	16
253.818	11.2
254.288	2.9
254.757	6.2
255.227	0.9
255.696	7.2
256.166	6.2
256.635	12.3
257.105	5.9
257.574	11.7
258.043	10.8
258.513	13.5
258.982	17.8
259.451	13.7
259.92	13.4
260.389	10.7
260.859	18.1
261.328	14.1
261.797	25.5
262.266	10.3
262.735	17.6
263.204	10
263.673	4.1
264.142	12.4
264.611	0.5
265.08	5.4
265.549	5.2
266.018	8.8
266.487	2.1
266.955	0.3
267.424	4.2
267.893	8
268.362	3.4
268.83	2
269.299	13.1
269.768	9.6
270.236	8.1
270.705	9.9
271.174	11.3
271.642	12.8
272.111	10.3
272.579	18.4
273.048	28.4
273.516	31.5
273.985	27.2
274.453	24.6
274.922	20.8
275.39	11.7
275.858	6.5
276.327	11.8
276.795	21
277.263	11.1
277.731	35.8
278.2	56.5
278.668	60.3
279.136	48.5
279.604	17.7
280.072	18.7
280.54	11.2
281.008	15.5
281.477	22.4
281.945	10.3
282.413	15.8
282.881	14.1
283.348	6.7
283.816	15.1
284.284	17.1
284.752	16.7
285.22	17
285.688	21.6
286.156	16.3
286.623	42.7
287.091	53.9
287.559	30.9
288.026	19.5
288.494	20.7
288.962	4.7
289.429	15.1
289.897	12.2
290.364	13.1
290.832	16.3
291.3	10.2
291.767	19.5
292.234	20.5
292.702	18.5
293.169	22.4
293.637	21.5
294.104	25.1
294.571	11.4
295.039	13.9
295.506	11
295.973	22.7
296.44	21.3
296.908	17
297.375	22.2
297.842	17.9
298.309	19.7
298.776	19
299.243	25.7
299.71	19.3
300.177	23.7
300.644	20.6
301.111	23.7
301.578	21.1
302.045	14.5
302.512	28.4
302.979	25.3
303.446	26.8
303.913	23.6
304.379	15.7
304.846	31.4
305.313	21.7
305.78	21.5
306.246	29
306.713	30.2
307.18	27.5
307.646	36
308.113	30.7
308.579	27.3
309.046	30.6
309.512	29.7
309.979	16.8
310.445	30.7
310.912	29.2
311.378	35.1
311.845	23.7
312.311	30.3
312.777	32.7
313.244	30.1
313.71	37
314.176	33.4
314.642	27.7
315.109	24.1
315.575	40.6
316.041	30.5
316.507	33.3
316.973	43.3
317.439	37.5
317.905	37.9
318.371	37.5
318.837	37.7
319.303	38.8
319.769	36.3
320.235	32
320.701	38.5
321.167	35.5
321.633	34.6
322.099	42.5
322.564	48.7
323.03	39.8
323.496	38.8
323.962	41.3
324.427	41.4
324.893	44.4
325.359	36.9
325.824	38.1
326.29	39.4
326.755	43.1
327.221	46.7
327.686	40.3
328.152	44.8
328.617	37.8
329.083	50.9
329.548	51.2
330.014	49.8
330.479	39.9
330.944	45.7
331.41	43.1
331.875	40.2
332.34	44.7
332.805	44.4
333.271	41.3
333.736	45
334.201	56.2
334.666	50.8
335.131	53.7
335.596	52.9
336.061	50.2
336.526	48.5
336.991	49.7
337.456	54.5
337.921	47.2
338.386	42.6
338.851	42.3
339.316	50.4
339.781	47.9
340.246	53.3
340.711	43.5
341.175	50.5
341.64	44.1
342.105	49
342.569	50.9
343.034	57.3
343.499	53.4
343.963	50.7
344.428	62.1
344.893	58.1
345.357	57.3
345.822	62.5
346.286	68.4
346.751	66.9
347.215	58.4
347.679	67.2
348.144	90.5
348.608	74.5
349.073	68.7
349.537	69.3
350.001	71.1
350.465	89.3
350.93	76
351.394	76.4
351.858	67.6
352.322	81.9
352.786	79.1
353.25	96.3
353.715	96.6
354.179	90.6
354.643	120.7
355.107	119.1
355.571	102
356.035	93.2
356.498	105.2
356.962	111.1
357.426	118.2
357.89	114.3
358.354	84.1
358.818	79.7
359.281	84.4
359.745	74.1
360.209	74
360.673	68.7
361.136	73.1
361.6	85.4
362.064	77
362.527	74.8
362.991	86.7
363.454	72.9
363.918	74.1
364.381	76.7
364.845	75.5
365.308	81.4
365.772	84.5
366.235	77.4
366.698	78.7
367.162	84.2
367.625	82.2
368.088	86.6
368.552	90.6
369.015	84.9
369.478	89.8
369.941	99.3
370.404	88.4
370.867	97.4
371.331	98.4
371.794	108.6
372.257	112
372.72	111
373.183	98.7
373.646	94.5
374.109	94.8
374.572	98.6
375.035	94.7
375.497	99.8
375.96	97.3
376.423	93.2
376.886	90.9
377.349	102.6
377.811	96.3
378.274	100.7
378.737	98.4
379.199	100
379.662	102.1
380.125	108.9
380.587	107.8
381.05	113.3
381.512	113.8
381.975	118.1
382.437	116.7
382.9	122.1
383.362	122.5
383.825	130.2
384.287	134.8
384.75	136.4
385.212	133.6
385.674	129.9
386.136	123.3
386.599	114.4
387.061	117.2
387.523	120.3
387.985	123.9
388.447	133.2
388.91	129.4
389.372	140.8
389.834	136.8
390.296	138.4
390.758	145.3
391.22	155.9
391.682	186.8
392.144	269.3
392.606	213.7
393.068	152.6
393.529	161.4
393.991	140.2
394.453	137.2
394.915	140.4
395.377	185.5
395.838	197.4
396.3	143.1
396.762	127.8
397.224	120.7
397.685	123
398.147	126.9
398.608	119.6
399.07	116.7
399.531	121.2
399.993	131.2
400.454	140.9
400.916	134.9
401.377	136.3
401.839	142.9
402.3	132
402.762	154.5
403.223	154.7
403.684	156.2
404.145	146.6
404.607	148.3
405.068	154.1
405.529	161.6
405.99	170
406.451	157.1
406.913	156.9
407.374	152.3
407.835	151.8
408.296	151.3
408.757	157.2
409.218	173.1
409.679	164
410.14	160
410.601	167.5
411.062	167.4
411.522	174.9
411.983	175
412.444	163.6
412.905	162.9
413.366	164.4
413.826	176.5
414.287	197.2
414.748	240.4
415.208	231.6
415.669	198.6
416.13	189.5
416.59	189.9
417.051	200.8
417.511	201.4
417.972	222
418.432	228.9
418.893	263.4
419.353	230.8
419.814	187.6
420.274	164
420.734	164.3
421.195	178.6
421.655	181.4
422.115	175.4
422.576	178.3
423.036	180.3
423.496	189.4
423.956	197.9
424.416	205.2
424.876	237
425.336	232.3
425.797	243.2
426.257	233
426.717	215
427.177	210.6
427.637	201.3
428.097	217.2
428.556	226
429.016	251.9
429.476	238.1
429.936	247.9
430.396	255.7
430.856	259.3
431.315	291.9
431.775	314.6
432.235	343.9
432.694	313.8
433.154	322.6
433.614	345.4
434.073	304.4
434.533	262.9
434.993	249.4
435.452	255.7
435.912	269.5
436.371	258.1
436.83	254.6
437.29	241.1
437.749	229.8
438.209	220.2
438.668	244.1
439.127	256.4
439.587	237.9
440.046	227.9
440.505	235.9
440.964	249.7
441.424	286.3
441.883	271.8
442.342	229.4
442.801	210
443.26	195.1
443.719	205.9
444.178	198.3
444.637	191.9
445.096	197.7
445.555	205.3
446.014	200.1
446.473	197.7
446.932	201.9
447.391	203.6
447.849	209.7
448.308	202.1
448.767	198.4
449.226	210.6
449.685	212.4
450.143	219.3
450.602	214.4
451.061	209.9
451.519	209.4
451.978	213.9
452.436	211.9
452.895	218.2
453.353	226.7
453.812	213.7
454.27	213.8
454.729	215.5
455.187	215
455.646	221.4
456.104	231.1
456.562	226.9
457.021	236.8
457.479	234.5
457.937	247
458.395	239.9
458.854	229.7
459.312	224.5
459.77	251.2
460.228	233.7
460.686	221.6
461.144	226.6
461.602	218.4
462.06	216
462.518	223.8
462.976	234.1
463.434	232.1
463.892	235.8
464.35	248.2
464.808	257.5
465.266	243.2
465.724	249.5
466.181	250.2
466.639	248.7
467.097	269.1
467.555	284.1
468.012	275.3
468.47	284.7
468.928	296.4
469.385	309.9
469.843	313.5
470.3	309.5
470.758	322.1
471.215	341.8
471.673	362.4
472.13	358.3
472.588	377.3
473.045	331
473.503	339.4
473.96	358
474.417	362.5
474.875	392.6
475.332	428.6
475.789	411.8
476.246	425.1
476.704	435.2
477.161	453.9
477.618	476.8
478.075	503.7
478.532	548.1
478.989	620
479.446	715.1
479.903	698.1
480.36	735.6
480.817	788.5
481.274	884.8
481.731	972.6
482.188	1061.5
482.645	1188.5
483.102	1280.7
483.558	1413
484.015	1457.8
484.472	1450.3
484.929	1394.3
485.385	1355.5
485.842	1305.7
486.299	1251.8
486.755	1173.9
487.212	1000.6
487.668	839.7
488.125	780.7
488.582	707.3
489.038	681.7
489.494	645.6
489.951	626.6
490.407	607
490.864	587.6
491.32	583.7
491.776	571.6
492.233	584.9
492.689	550.8
493.145	542.4
493.602	536.9
494.058	554.8
494.514	560.5
494.97	578.7
495.426	586.8
495.882	559.3
496.338	557.1
496.794	567.2
497.251	564.8
497.707	580
498.163	576.3
498.618	581.8
499.074	589.6
499.53	610.4
499.986	618.6
500.442	585.1
500.898	573.1
501.354	558
501.809	569.5
502.265	579.6
502.721	595.6
503.177	613.7
503.632	592.6
504.088	608.7
504.543	642
504.999	638.7
505.455	602.2
505.91	581.9
506.366	578.1
506.821	562.9
507.277	567.4
507.732	558.9
508.187	568.3
508.643	575.9
509.098	570.3
509.553	594.7
510.009	596.7
510.464	603.2
510.919	621.1
511.375	634.1
511.83	632.4
512.285	657.4
512.74	682.5
513.195	712.4
513.65	699.1
514.105	694.8
514.56	689.5
515.015	717.5
515.47	734.4
515.925	725.5
516.38	718.3
516.835	719.2
517.29	720.7
517.745	709.6
518.2	698.7
518.655	680.9
519.109	677.5
519.564	678.8
520.019	650.7
520.474	657.8
520.928	654.7
521.383	646.1
521.838	641
522.292	639.2
522.747	639.4
523.201	629.9
523.656	620.4
524.11	618.2
524.565	620.7
525.019	622.4
525.474	629.9
525.928	630.8
526.382	624.3
526.837	625.1
527.291	629.9
527.745	633.6
528.2	625.1
528.654	619
529.108	619.5
529.562	612
530.016	616.5
530.47	614.5
530.925	627.2
531.379	620.1
531.833	634.1
532.287	632
532.741	632.7
533.195	631
533.649	636.4
534.103	645.8
534.556	628.1
535.01	637.4
535.464	636
535.918	650.2
536.372	650.8
536.826	642.9
537.279	630.7
537.733	636.3
538.187	637.7
538.64	639.3
539.094	649
539.548	659.2
540.001	639.9
540.455	641.4
540.908	647.8
541.362	658
541.815	664.5
542.269	668.8
542.722	664.7
543.175	683
543.629	683.1
544.082	703.9
544.536	698.4
544.989	697
545.442	700.1
545.895	693.4
546.349	700.6
546.802	710.3
547.255	704.8
547.708	704.5
548.161	719.5
548.614	722.2
549.067	736.6
549.52	735.8
549.973	721.5
550.426	718.2
550.879	704.3
551.332	718.4
551.785	723.9
552.238	720.7
552.691	723.6
553.144	739.5
553.596	727.7
554.049	760.6
554.502	784.4
554.955	801.4
555.407	818.8
555.86	796.1
556.313	792.2
556.765	779.9
557.218	780
557.67	776.6
558.123	782.8
558.576	766.5
559.028	774
559.48	777.6
559.933	757.1
560.385	741.7
560.838	711.2
561.29	686.2
561.742	688.5
562.195	672.5
562.647	681.3
563.099	693
563.551	684.8
564.004	687.7
564.456	674.1
564.908	672.9
565.36	658.6
565.812	651.8
566.264	635.2
566.716	638.7
567.168	629.8
567.62	632.1
568.072	609.7
568.524	612.6
568.976	603.6
569.428	583.4
569.88	577.2
570.332	588.4
570.784	590.1
571.235	596.6
571.687	609.3
572.139	611.1
572.59	618.1
573.042	617.9
573.494	630.8
573.945	617.4
574.397	590.6
574.849	601.2
575.3	597.7
575.752	596.2
576.203	595.2
576.655	604.3
577.106	585.9
577.557	576.5
578.009	579.2
578.46	575.1
578.912	571.1
579.363	566.3
579.814	577.9
580.265	572.6
580.717	568.3
581.168	566.7
581.619	581.5
582.07	586.7
582.521	577.1
582.972	578.5
583.423	586
583.875	592.2
584.326	601.5
584.777	635.7
585.227	702.5
585.678	783.7
586.129	858.1
586.58	937.9
587.031	1010.8
587.482	1159.2
587.933	1322.5
588.384	1154.4
588.834	839.8
589.285	685.8
589.736	676.5
590.186	663.8
590.637	657.8
591.088	643.2
591.538	642.9
591.989	632.3
592.439	625.6
592.89	618.3
593.34	607.7
593.791	601.8
594.241	603.7
594.692	599.4
595.142	592.7
595.593	597.2
596.043	605.2
596.493	612.9
596.943	612
597.394	610.2
597.844	612.3
598.294	627.4
598.744	637.4
599.195	654
599.645	709.3
600.095	719
600.545	776.6
600.995	827.3
601.445	876.1
601.895	930.6
602.345	969.1
602.795	944.9
603.245	910.4
603.695	862.4
604.145	820.9
604.594	775.2
605.044	730.3
605.494	676.9
605.944	640.7
606.393	617.7
606.843	615
607.293	617.8
607.743	614.6
608.192	633.1
608.642	641
609.091	644.5
609.541	650.2
609.99	650
610.44	649.3
610.889	615.4
611.339	587.6
611.788	575.7
612.238	596
612.687	607.9
613.136	605.4
613.586	618.1
614.035	630.4
614.484	643.7
614.933	645.5
615.383	637.8
615.832	626.2
616.281	611.8
616.73	589.9
617.179	568.6
617.628	544.2
618.077	532
618.526	519.1
618.975	516
619.424	519.2
619.873	517.6
620.322	518.9
620.771	507.1
621.22	504.8
621.669	497.8
622.118	491.5
622.567	488.3
623.015	483.2
623.464	472.3
623.913	474.1
624.361	467.7
624.81	462
625.259	460.1
625.707	469.9
626.156	472
626.604	473.5
627.053	472.1
627.501	476.9
627.95	471.3
628.398	492.3
628.847	472.4
629.295	475.4
629.744	483.5
630.192	473.5
630.64	471
631.089	473.5
631.537	486.1
631.985	479.4
632.433	499.3
632.881	504.4
633.33	544.5
633.778	524.4
634.226	461.2
634.674	472
635.122	482
635.57	501.3
636.018	510.2
636.466	479.7
636.914	460.6
637.362	482.2
637.81	482.2
638.258	479.9
638.705	475.6
639.153	505.3
639.601	509
640.049	523.6
640.497	561.1
640.944	575.2
641.392	531.5
641.84	502.1
642.287	483.4
642.735	466.9
643.182	477.5
643.63	476
644.078	475.4
644.525	486.5
644.973	491.6
645.42	494.5
645.867	512.4
646.315	525.7
646.762	545.6
647.21	574.5
647.657	589.4
648.104	622.2
648.551	640.8
648.999	685.7
649.446	745.7
649.893	824.2
650.34	953.6
650.787	1133.3
651.234	1405.3
651.682	1824.2
652.129	2489.2
652.576	3588.2
653.023	5336.8
653.47	7335.5
653.917	9301.6
654.363	10888.1
654.81	12284.1
655.257	11734.3
655.704	7573.6
656.151	4441.2
656.598	2861.7
657.044	2019.7
657.491	1555.9
657.938	1232.8
658.385	1026.3
658.831	891.1
659.278	798.5
659.724	706.8
660.171	652.1
660.618	591.7
661.064	560.3
661.511	546.5
661.957	530.9
662.404	516.3
662.85	528.8
663.296	508.8
663.743	466.7
664.189	442.6
664.635	440.9
665.082	437.3
665.528	435.2
665.974	422.5
666.42	418
666.867	418.6
667.313	403.3
667.759	392.9
668.205	393.4
668.651	410.7
669.097	399.8
669.543	405.6
669.989	386.6
670.435	369.4
670.881	358.4
671.327	377.2
671.773	379
672.219	397
672.665	438.8
673.11	471.3
673.556	506.3
674.002	546
674.448	529.3
674.893	455.5
675.339	391.3
675.785	364.4
676.23	348
676.676	320.7
677.122	311
677.567	301.3
678.013	299.6
678.458	289.3
678.904	289.7
679.349	280.2
679.794	289
680.24	284.5
680.685	279.4
681.131	282.3
681.576	275.8
682.021	290.6
682.466	284.3
682.912	274.1
683.357	281.9
683.802	313.1
684.247	325.3
684.692	363.7
685.137	397.8
685.583	437.8
686.028	464.2
686.473	427.2
686.918	362.2
687.363	338.8
687.807	318
688.252	296.1
688.697	283.5
689.142	268.2
689.587	262.4
690.032	261.2
690.477	265.7
690.921	280.1
691.366	308
691.811	326.7
692.255	356.7
692.7	366.9
693.145	403.4
693.589	546.1
694.034	889.8
694.478	1237.9
694.923	1432.2
695.367	1889.4
695.812	987
696.256	398.6
696.701	300.1
697.145	278.9
697.59	264.5
698.034	261.6
698.478	267.3
698.922	262.1
699.367	267.2
699.811	277.6
700.255	282.6
700.699	309.1
701.143	334.1
701.588	385.5
702.032	421.6
702.476	414.6
702.92	396.6
703.364	400.1
703.808	496.3
704.252	802.9
704.696	1155.7
705.14	1390
705.584	1772.9
706.027	876.1
706.471	426.9
706.915	313
707.359	279.4
707.803	260.6
708.246	250.2
708.69	258.8
709.134	251.7
709.577	251.5
710.021	257.6
710.465	249
710.908	245.2
711.352	234.4
711.795	257.6
712.239	282.6
712.682	314.6
713.126	337.6
713.569	376.4
714.012	294.6
714.456	260.9
714.899	239.6
715.342	216.7
715.786	207.6
716.229	205.2
716.672	207.4
717.115	193.9
717.558	198.9
718.002	204.6
718.445	211.1
718.888	229.6
719.331	241.4
719.774	246
720.217	246
720.66	224.1
721.103	216.1
721.546	206.9
721.989	201.6
722.432	181
722.874	197.6
723.317	177.9
723.76	185.5
724.203	203.6
724.645	250.8
725.088	355.1
725.531	452.8
725.974	529.2
726.416	449.8
726.859	248.1
727.301	200.2
727.744	191.2
728.187	184
728.629	189.5
729.071	196
729.514	207.6
729.956	215.3
730.399	224.4
730.841	231.4
731.283	224.4
731.726	209.6
732.168	212.2
732.61	213.9
733.053	230.6
733.495	250.3
733.937	272.6
734.379	309.6
734.821	342.7
735.263	420.8
735.705	645.9
736.148	1229.2
736.59	2056.5
737.032	2535.1
737.474	2072.3
737.916	649.3
738.357	337.1
738.799	266.6
739.241	242.7
739.683	230.8
740.125	237.9
740.567	232.2
741.008	257.5
741.45	254.2
741.892	257.4
742.334	272.4
742.775	291.1
743.217	285.3
743.658	219.3
744.1	204.4
744.542	209.8
744.983	246.2
745.425	283.2
745.866	286.1
746.307	232.4
746.749	225.4
747.19	259.1
747.632	361.6
748.073	675.7
748.514	1441.3
748.956	2316.1
749.397	2898.1
749.838	2397.2
750.279	2472.2
750.72	1237.6
751.162	440.5
751.603	258.4
752.044	206.1
752.485	175.8
752.926	166.6
753.367	160
753.808	153.6
754.249	154.9
754.69	141.2
755.131	143.4
755.572	152.1
756.013	151.2
756.453	143.1
756.894	150.4
757.335	147.3
757.776	157
758.216	159.1
758.657	155
759.098	159.9
759.538	177.1
759.979	208.5
760.42	300.6
760.86	538.9
761.301	1394.7
761.741	3531.7
762.182	5436.7
762.622	3830.7
763.063	1077.9
763.503	437.1
763.943	281
764.384	270.6
764.824	330.6
765.264	367.5
765.705	248.7
766.145	169.8
766.585	143.1
767.025	143.7
767.465	145.6
767.906	193.7
768.346	254.6
768.786	280.5
769.226	210
769.666	251.3
770.106	482.9
770.546	1206.5
770.986	2180.9
771.426	1985.9
771.866	643.5
772.306	260.5
772.745	171
773.185	137.4
773.625	138.2
774.065	131.9
774.505	158.3
774.944	244.4
775.384	535.6
775.824	1023.8
776.263	1025.5
776.703	428.2
777.142	177.8
777.582	133.1
778.021	114.3
778.461	119.3
778.9	113.8
779.34	103.9
779.779	90.1
780.219	89.4
780.658	82.5
781.097	87
781.537	95.2
781.976	92
782.415	81.6
782.855	87.3
783.294	89.8
783.733	88.8
784.172	92.1
784.611	83
785.05	86.7
785.489	86.6
785.928	93.2
786.367	97.1
786.806	89.9
787.245	101.2
787.684	107.8
788.123	117.2
788.562	106.9
789.001	107.7
789.44	95
789.879	99.2
790.317	96.7
790.756	101.7
791.195	101.8
791.634	112
792.072	168.9
792.511	285.9
792.95	777.6
793.388	1758.7
793.827	1636.3
794.265	558.8
794.704	225.8
795.142	148.5
795.581	125.6
796.019	116.3
796.458	107.4
796.896	96.1
797.334	107.8
797.773	130
798.211	176
798.649	333.7
799.087	798.1
799.526	1277.5
799.964	1614.6
800.402	1693.7
800.84	625.7
801.278	247.3
801.716	147.5
802.154	118.1
802.592	115.4
803.03	105.4
803.468	106.1
803.906	110.9
804.344	119.7
804.782	115.7
805.22	104.2
805.658	108
806.096	120.5
806.533	127.8
806.971	140.4
807.409	171
807.847	245.1
