Data from 20171114-ORNL-Ar_H_NY_Subt18_08-07-55-730.txt Node
Date: Tue Nov 14 08:07:55 EST 2017
User: Ender
Spectrometer: HR+D1039
Trigger mode: 0
Integration Time (sec): 2.730000E-2
Scans to average: 10
Electric dark correction enabled: true
Nonlinearity correction enabled: false
Boxcar width: 0
XAxis mode: Wavelengths
Number of Pixels in Spectrum: 2048
>>>>>Begin Spectral Data<<<<<
187.836	-5.1
188.309	-5.1
188.782	-5.1
189.255	-0.7
189.728	0.5
190.201	4
190.674	-3.7
191.147	-2.7
191.619	-4.5
192.092	-0.8
192.565	5.6
193.038	1.5
193.511	2.4
193.984	-0.3
194.456	-0.7
194.929	4
195.402	0.3
195.874	0.2
196.347	-0.4
196.82	-5
197.292	7.2
197.765	-4.8
198.237	-3
198.71	-0.7
199.182	-4.2
199.655	2.1
200.127	0.8
200.6	0.4
201.072	1.7
201.544	-0.2
202.017	-3.6
202.489	9
202.961	-4.4
203.433	1.7
203.906	-8.2
204.378	-4.1
204.85	2.2
205.322	-11.5
205.794	3.6
206.266	-0.5
206.739	-10.9
207.211	2.6
207.683	-1.7
208.155	-8.2
208.627	-2.9
209.099	-5.3
209.57	-8
210.042	-0.9
210.514	-11.1
210.986	-1.9
211.458	-13.3
211.93	-4.8
212.402	-0.8
212.873	-5.2
213.345	-3.6
213.817	-11.1
214.288	-8.6
214.76	-16.1
215.232	-2.8
215.703	-1.5
216.175	-3.3
216.646	-7.7
217.118	-8.1
217.589	-10.6
218.061	-0.8
218.532	-4.2
219.004	-4
219.475	-1.3
219.946	-5.4
220.418	-5.9
220.889	-1.9
221.36	4.2
221.832	-1.4
222.303	-3.5
222.774	-0.8
223.245	-6.1
223.717	-5.8
224.188	-0.8
224.659	-9.8
225.13	-4.8
225.601	-1.8
226.072	-3
226.543	-5.6
227.014	1.4
227.485	-3.1
227.956	-9.2
228.427	-6.6
228.898	-1.5
229.369	2.1
229.839	-2.2
230.31	-5.7
230.781	0.2
231.252	-5
231.722	-2.4
232.193	-0.8
232.664	-2.4
233.135	0.1
233.605	-1.5
234.076	-1.2
234.546	3.7
235.017	1.9
235.487	-2.5
235.958	0.4
236.428	-0.6
236.899	3.1
237.369	1.9
237.84	0.1
238.31	12.1
238.78	-1.9
239.251	0.8
239.721	2.9
240.191	2
240.662	-3
241.132	-3.2
241.602	3.9
242.072	0.2
242.542	3.6
243.013	-4.2
243.483	-0.2
243.953	0.1
244.423	-0.8
244.893	-3.9
245.363	2.3
245.833	-0.6
246.303	-5
246.773	5.1
247.243	-0.8
247.712	4.5
248.182	3.1
248.652	6.8
249.122	-2.9
249.592	11.8
250.061	20
250.531	25.4
251.001	13.2
251.471	20.3
251.94	16.3
252.41	7.4
252.879	-0.8
253.349	10
253.818	0.7
254.288	3.1
254.757	4
255.227	4
255.696	-1.5
256.166	5
256.635	1
257.105	3.2
257.574	9.1
258.043	8.3
258.513	4.5
258.982	10.1
259.451	3
259.92	9.2
260.389	12.4
260.859	14.4
261.328	10.8
261.797	15.8
262.266	11.3
262.735	5
263.204	1.6
263.673	2.2
264.142	5.3
264.611	-0.5
265.08	3.1
265.549	-1.2
266.018	3.9
266.487	-4.1
266.955	0.2
267.424	0.7
267.893	8.4
268.362	1.9
268.83	1.6
269.299	9.6
269.768	3
270.236	7.5
270.705	1.7
271.174	4.4
271.642	4.3
272.111	3.5
272.579	13.8
273.048	21.8
273.516	25.5
273.985	25.2
274.453	25
274.922	16.6
275.39	6.7
275.858	-0.8
276.327	11.1
276.795	15.3
277.263	11.1
277.731	26.4
278.2	51.9
278.668	56.9
279.136	43.2
279.604	17.2
280.072	16.1
280.54	4.9
281.008	7.7
281.477	9
281.945	6.6
282.413	13.4
282.881	15
283.348	7
283.816	16.2
284.284	16
284.752	20
285.22	9.2
285.688	14.2
286.156	15.1
286.623	49.1
287.091	50.7
287.559	28.8
288.026	14.8
288.494	16.2
288.962	9.5
289.429	6.3
289.897	24.4
290.364	15.9
290.832	17.3
291.3	14.4
291.767	17.2
292.234	17.2
292.702	11.5
293.169	20.2
293.637	19.7
294.104	16.2
294.571	5.4
295.039	12.2
295.506	12.9
295.973	15.4
296.44	15.7
296.908	10.7
297.375	18.1
297.842	16.9
298.309	10.8
298.776	8
299.243	17.2
299.71	13.2
300.177	20.8
300.644	20
301.111	18.5
301.578	25.4
302.045	13
302.512	24
302.979	22.9
303.446	22.7
303.913	16.9
304.379	15.2
304.846	26.1
305.313	22.4
305.78	21.9
306.246	18.5
306.713	28
307.18	22.4
307.646	21.4
308.113	24.5
308.579	26.8
309.046	29.7
309.512	23.9
309.979	19
310.445	24.9
310.912	28.4
311.378	30.1
311.845	28.7
312.311	26.7
312.777	25
313.244	29
313.71	32.6
314.176	29.1
314.642	29.3
315.109	28.2
315.575	33.5
316.041	35.7
316.507	26.9
316.973	30.6
317.439	35
317.905	35.4
318.371	37.2
318.837	37.6
319.303	34.4
319.769	30.7
320.235	32
320.701	33.6
321.167	34.8
321.633	25
322.099	40.6
322.564	44.3
323.03	36.2
323.496	34
323.962	40.2
324.427	35.2
324.893	38.4
325.359	39.3
325.824	34.8
326.29	35.5
326.755	37.1
327.221	36.7
327.686	34.9
328.152	42.2
328.617	39.4
329.083	44.5
329.548	49.4
330.014	51.7
330.479	40.5
330.944	42.3
331.41	38.9
331.875	43.1
332.34	46.3
332.805	37.6
333.271	43.8
333.736	43.1
334.201	48.6
334.666	46.7
335.131	56.4
335.596	48.3
336.061	48.3
336.526	34.6
336.991	48.9
337.456	56.7
337.921	48
338.386	42
338.851	43.4
339.316	46.3
339.781	47.4
340.246	47.7
340.711	45.7
341.175	46.5
341.64	48.6
342.105	54.2
342.569	53.7
343.034	60.4
343.499	51.7
343.963	45
344.428	62.3
344.893	63.1
345.357	56.6
345.822	59
346.286	67.2
346.751	67.4
347.215	70.7
347.679	75.3
348.144	93.2
348.608	79.4
349.073	69.6
349.537	72.1
350.001	75.3
350.465	87.3
350.93	77.6
351.394	75.8
351.858	70.3
352.322	83.8
352.786	83
353.25	95.8
353.715	118.2
354.179	95.1
354.643	119.9
355.107	120
355.571	108
356.035	104.6
356.498	113.9
356.962	121.6
357.426	121.8
357.89	117.2
358.354	88.8
358.818	86.3
359.281	81.4
359.745	79.7
360.209	82.9
360.673	73.9
361.136	75.5
361.6	88.2
362.064	82.1
362.527	79.1
362.991	85.9
363.454	74.2
363.918	78.5
364.381	82.5
364.845	79.9
365.308	86.8
365.772	86.9
366.235	90.3
366.698	81.1
367.162	81.4
367.625	89
368.088	89
368.552	88.4
369.015	86.6
369.478	96.9
369.941	93.6
370.404	95.7
370.867	108.6
371.331	107
371.794	111.7
372.257	105.5
372.72	113
373.183	109.1
373.646	100.1
374.109	97.2
374.572	105.1
375.035	106.8
375.497	113.1
375.96	105
376.423	102.1
376.886	111
377.349	109.4
377.811	106.3
378.274	102
378.737	103.8
379.199	103
379.662	109.8
380.125	115
380.587	119
381.05	123.6
381.512	129.6
381.975	135.3
382.437	127.5
382.9	127
383.362	131.7
383.825	143.4
384.287	144.7
384.75	139.8
385.212	139.5
385.674	141.2
386.136	130.3
386.599	126.1
387.061	129.1
387.523	131.5
387.985	144.9
388.447	148.7
388.91	148.9
389.372	166.2
389.834	155.4
390.296	147.6
390.758	157.5
391.22	170.1
391.682	208.2
392.144	312
392.606	229
393.068	167.9
393.529	173.9
393.991	156.9
394.453	149.6
394.915	159.3
395.377	185.6
395.838	219.1
396.3	154.1
396.762	137.7
397.224	136.5
397.685	130.6
398.147	136.5
398.608	127.5
399.07	126.1
399.531	138.9
399.993	147.7
400.454	157.7
400.916	144
401.377	146.7
401.839	151.6
402.3	153.1
402.762	161.5
403.223	189.7
403.684	174
404.145	160.2
404.607	163.5
405.068	166.1
405.529	170.2
405.99	192.7
406.451	180.4
406.913	174.4
407.374	165.7
407.835	166.3
408.296	166.6
408.757	179.5
409.218	191.2
409.679	185.1
410.14	171.3
410.601	173.7
411.062	186.7
411.522	198
411.983	194
412.444	189.2
412.905	175
413.366	184
413.826	190.5
414.287	225.3
414.748	268.4
415.208	250.5
415.669	212.3
416.13	208
416.59	202.7
417.051	221.4
417.511	222.8
417.972	238.4
418.432	243.8
418.893	289
419.353	252.7
419.814	204.5
420.274	185.1
420.734	179.1
421.195	195.4
421.655	193.7
422.115	195.7
422.576	194.3
423.036	203.3
423.496	210.4
423.956	211.4
424.416	226
424.876	265
425.336	262.9
425.797	260.4
426.257	255
426.717	237.5
427.177	233.2
427.637	228.9
428.097	244.3
428.556	247.2
429.016	270.3
429.476	267.4
429.936	271.3
430.396	277.1
430.856	293
431.315	323.9
431.775	352.3
432.235	396.3
432.694	360.7
433.154	367
433.614	399.6
434.073	339.7
434.533	292.4
434.993	274.7
435.452	294.5
435.912	297.4
436.371	295.9
436.83	286
437.29	267.8
437.749	250.8
438.209	245.7
438.668	273.1
439.127	286.8
439.587	263.6
440.046	250.1
440.505	261.8
440.964	278.5
441.424	323.1
441.883	314.9
442.342	253.6
442.801	228.5
443.26	218.3
443.719	226.2
444.178	222.9
444.637	212.8
445.096	222.3
445.555	223.1
446.014	223.2
446.473	223
446.932	239
447.391	228.6
447.849	234.9
448.308	225.4
448.767	223.9
449.226	235.2
449.685	237.3
450.143	249.6
450.602	236.7
451.061	227.3
451.519	231
451.978	235.4
452.436	230.6
452.895	242.7
453.353	261.5
453.812	240.7
454.27	240.9
454.729	243.4
455.187	250.6
455.646	249.8
456.104	246.6
456.562	261.1
457.021	270.6
457.479	263.2
457.937	277.2
458.395	262.5
458.854	249.3
459.312	257.7
459.77	283.6
460.228	261
460.686	244.3
461.144	245.3
461.602	245.5
462.06	251.5
462.518	260.2
462.976	256.1
463.434	258.4
463.892	268.4
464.35	286
464.808	295.6
465.266	274.6
465.724	271.4
466.181	268.6
466.639	276.9
467.097	288.3
467.555	303
468.012	304
468.47	313.8
468.928	327
469.385	341.3
469.843	347.7
470.3	354.2
470.758	368
471.215	392.4
471.673	409.7
472.13	411.9
472.588	425.1
473.045	376.7
473.503	385.6
473.96	402
474.417	411.5
474.875	435.1
475.332	474.3
475.789	470.9
476.246	473.4
476.704	493.8
477.161	516.2
477.618	526.7
478.075	560.2
478.532	621.3
478.989	697.5
479.446	823.3
479.903	776.8
480.36	809.9
480.817	876
481.274	971.2
481.731	1077.1
482.188	1174.5
482.645	1311.1
483.102	1414.6
483.558	1550.4
484.015	1599.3
484.472	1576.9
484.929	1531.2
485.385	1484.3
485.842	1436.6
486.299	1366.2
486.755	1295.3
487.212	1102.3
487.668	936.3
488.125	859.1
488.582	784.9
489.038	755.1
489.494	711.3
489.951	693.7
490.407	660.6
490.864	656.7
491.32	653.3
491.776	641.3
492.233	645.8
492.689	608.7
493.145	608.2
493.602	598.6
494.058	613.7
494.514	614.7
494.97	638
495.426	651.7
495.882	623.8
496.338	619.4
496.794	625.8
497.251	619.9
497.707	630.6
498.163	635.6
498.618	642.6
499.074	651.1
499.53	681.8
499.986	681.1
500.442	656.2
500.898	634.6
501.354	634.5
501.809	629.4
502.265	645.2
502.721	663.8
503.177	679
503.632	674.9
504.088	689.4
504.543	712.8
504.999	714.3
505.455	656.1
505.91	632.8
506.366	631
506.821	631.8
507.277	626.5
507.732	630.8
508.187	627.6
508.643	634.4
509.098	635.3
509.553	650.7
510.009	667
510.464	679.4
510.919	699.1
511.375	693.8
511.83	703.9
512.285	731
512.74	759.6
513.195	785.1
513.65	776.8
514.105	758.5
514.56	772.5
515.015	787.9
515.47	800.8
515.925	789.3
516.38	791.5
516.835	786.9
517.29	778.7
517.745	778.5
518.2	768.2
518.655	745.4
519.109	746
519.564	731.4
520.019	724.3
520.474	717.8
520.928	725.1
521.383	714.1
521.838	709.8
522.292	712
522.747	700.3
523.201	704.5
523.656	705.6
524.11	695.8
524.565	697.3
525.019	693.1
525.474	711.6
525.928	696.9
526.382	701.9
526.837	696.8
527.291	690.9
527.745	692.7
528.2	693
528.654	701.3
529.108	698.2
529.562	687.5
530.016	691.2
530.47	688.2
530.925	688.2
531.379	695.7
531.833	701.4
532.287	695.9
532.741	696.5
533.195	695.5
533.649	708.7
534.103	714.1
534.556	704.7
535.01	709.2
535.464	710.7
535.918	717
536.372	722.1
536.826	718.3
537.279	704.2
537.733	709.6
538.187	714
538.64	706.5
539.094	725.2
539.548	718.1
540.001	735.5
540.455	725.2
540.908	725.9
541.362	740.3
541.815	750.5
542.269	758
542.722	753
543.175	770.2
543.629	769
544.082	784.3
544.536	797
544.989	786
545.442	792.7
545.895	784.9
546.349	800.2
546.802	788.9
547.255	795.8
547.708	800.9
548.161	811.4
548.614	822.4
549.067	818.4
549.52	827.7
549.973	815.5
550.426	809.7
550.879	786.6
551.332	809.3
551.785	797.2
552.238	805.1
552.691	826.8
553.144	834.7
553.596	849.8
554.049	858.9
554.502	896.3
554.955	904
555.407	911
555.86	905.3
556.313	895.8
556.765	881.8
557.218	886.7
557.67	882.9
558.123	873.1
558.576	867.5
559.028	865.1
559.48	884.1
559.933	862.2
560.385	837.5
560.838	812.5
561.29	782.6
561.742	798.9
562.195	771.2
562.647	767.3
563.099	778.3
563.551	768.2
564.004	793.5
564.456	767.8
564.908	759.8
565.36	742.1
565.812	742.4
566.264	729.1
566.716	727.8
567.168	722.4
567.62	722.9
568.072	705.9
568.524	705.7
568.976	690.9
569.428	682.5
569.88	675.3
570.332	682.7
570.784	688.8
571.235	688.2
571.687	704.9
572.139	705
572.59	711.8
573.042	701.4
573.494	708.5
573.945	711.9
574.397	681.7
574.849	689.9
575.3	698.7
575.752	676.7
576.203	681.1
576.655	681
577.106	675.5
577.557	666.4
578.009	667.8
578.46	670.6
578.912	673.2
579.363	669.9
579.814	658.4
580.265	671.7
580.717	670.5
581.168	659.4
581.619	679.2
582.07	680
582.521	672.7
582.972	677.5
583.423	683.1
583.875	681.2
584.326	699
584.777	741.5
585.227	834.1
585.678	929.5
586.129	1002.8
586.58	1093.6
587.031	1156.5
587.482	1326.2
587.933	1516.6
588.384	1321.1
588.834	987.5
589.285	818.9
589.736	788.5
590.186	776.3
590.637	774.1
591.088	756.6
591.538	748.3
591.989	738.9
592.439	726.6
592.89	719.9
593.34	721.4
593.791	720.4
594.241	711.1
594.692	714.1
595.142	702.6
595.593	694.1
596.043	723.9
596.493	720.1
596.943	722.3
597.394	721.7
597.844	728.9
598.294	729.8
598.744	757.4
599.195	776.7
599.645	820.1
600.095	857.7
600.545	914.2
600.995	975.7
601.445	1034.4
601.895	1091.8
602.345	1135
602.795	1124.6
603.245	1066.9
603.695	1004.3
604.145	964.3
604.594	916.1
605.044	865.4
605.494	797
605.944	752.1
606.393	745.9
606.843	724.7
607.293	745
607.743	738.4
608.192	754.3
608.642	772.5
609.091	782.9
609.541	768.5
609.99	770.8
610.44	764.9
610.889	729.5
611.339	708.5
611.788	695.6
612.238	707.2
612.687	718.8
613.136	724.4
613.586	735.7
614.035	747.9
614.484	766.6
614.933	762.9
615.383	757
615.832	744
616.281	723.6
616.73	684.6
617.179	678.4
617.628	660.9
618.077	643.7
618.526	623.6
618.975	627.2
619.424	617.8
619.873	621
620.322	627.8
620.771	617.6
621.22	616.7
621.669	590
622.118	595.4
622.567	593.3
623.015	577.6
623.464	566.4
623.913	563.7
624.361	549.8
624.81	546.5
625.259	555.2
625.707	557
626.156	554.9
626.604	567.8
627.053	567.9
627.501	571.9
627.95	573.1
628.398	584.6
628.847	579.5
629.295	567.8
629.744	581.1
630.192	575.9
630.64	571
631.089	566.8
631.537	593.1
631.985	597.8
632.433	601.7
632.881	610.3
633.33	666.2
633.778	644.6
634.226	581
634.674	573.1
635.122	600.3
635.57	601.4
636.018	639.8
636.466	581.6
636.914	562
637.362	573
637.81	588.6
638.258	586.8
638.705	588.7
639.153	615.5
639.601	620.3
640.049	647.8
640.497	680.1
640.944	695.4
641.392	645.7
641.84	610.5
642.287	586
642.735	573.2
643.182	578.6
643.63	576.1
644.078	583
644.525	596.1
644.973	597.1
645.42	611.3
645.867	629.7
646.315	650.1
646.762	671
647.21	698.8
647.657	711.6
648.104	765
648.551	785.3
648.999	842.2
649.446	933.5
649.893	1021.7
650.34	1183
650.787	1419.8
651.234	1759.9
651.682	2307.8
652.129	3159
652.576	4582.5
653.023	6736.7
653.47	9223
653.917	11454.4
654.363	13147.2
654.81	14419.7
655.257	13736.8
655.704	8979.8
656.151	5318.5
656.598	3445.5
657.044	2461.9
657.491	1880.4
657.938	1500.4
658.385	1257.6
658.831	1084.3
659.278	969.5
659.724	863.7
660.171	792.7
660.618	724.3
661.064	703.2
661.511	677.5
661.957	667.5
662.404	651.4
662.85	656.4
663.296	629.8
663.743	560.6
664.189	546.5
664.635	543.2
665.082	534.3
665.528	535.6
665.974	524.7
666.42	518.3
666.867	506.5
667.313	500.6
667.759	484.7
668.205	491.3
668.651	486
669.097	493.5
669.543	506.2
669.989	475.2
670.435	461.3
670.881	445.7
671.327	447.1
671.773	470.4
672.219	505.9
672.665	549.4
673.11	587.4
673.556	635.9
674.002	664.1
674.448	653.8
674.893	547.9
675.339	481.4
675.785	449.8
676.23	417.3
676.676	393.6
677.122	384.7
677.567	381.5
678.013	372.6
678.458	360.9
678.904	366.4
679.349	349.9
679.794	354.4
680.24	355.4
680.685	352.9
681.131	343.3
681.576	354.5
682.021	361.6
682.466	342.6
682.912	360.2
683.357	360
683.802	379.8
684.247	411.9
684.692	460.2
685.137	497.4
685.583	538.3
686.028	564.9
686.473	517.3
686.918	441.1
687.363	417.3
687.807	393.1
688.252	377
688.697	359.4
689.142	346.5
689.587	333
690.032	328.8
690.477	344.8
690.921	353.6
691.366	395.2
691.811	407.3
692.255	436.3
692.7	462.4
693.145	508.1
693.589	714.3
694.034	1155.8
694.478	1565.6
694.923	1728.1
695.367	2247.7
695.812	1187.5
696.256	509.3
696.701	381.3
697.145	354.7
697.59	334.1
698.034	327.7
698.478	331.3
698.922	328.5
699.367	332
699.811	338.5
700.255	355.5
700.699	395.2
701.143	434.5
701.588	486
702.032	521.2
702.476	512.7
702.92	495.2
703.364	496
703.808	653.5
704.252	1059.1
704.696	1464.4
705.14	1671.9
705.584	2107.6
706.027	1071.4
706.471	518.8
706.915	402.7
707.359	353.5
707.803	326.2
708.246	309.8
708.69	308.8
709.134	321.4
709.577	316.3
710.021	320.5
710.465	306.5
710.908	303.1
711.352	302.3
711.795	314.8
712.239	355.7
712.682	381
713.126	417.4
713.569	455.4
714.012	377.1
714.456	322.3
714.899	301.8
715.342	277.4
715.786	262.4
716.229	264.5
716.672	252.2
717.115	262.9
717.558	256.2
718.002	256.9
718.445	267.7
718.888	296.8
719.331	301.7
719.774	307.9
720.217	312.5
720.66	283.4
721.103	269.4
721.546	256.3
721.989	245
722.432	233.5
722.874	241.3
723.317	235.7
723.76	227.8
724.203	262
724.645	326.7
725.088	445.5
725.531	572.3
725.974	648.4
726.416	555.5
726.859	308.3
727.301	245.1
727.744	239.7
728.187	234
728.629	241.3
729.071	242.4
729.514	258.4
729.956	279.6
730.399	281.6
730.841	285.3
731.283	272.7
731.726	272.4
732.168	267.3
732.61	269.6
733.053	286
733.495	321.1
733.937	355.9
734.379	398.5
734.821	448.5
735.263	557
735.705	856.8
736.148	1628
736.59	2620.3
737.032	3035.9
737.474	2464
737.916	809.4
738.357	429.3
738.799	332.6
739.241	303.8
739.683	285.5
740.125	296.8
740.567	305.1
741.008	319.7
741.45	314
741.892	330.2
742.334	350.4
742.775	366.1
743.217	337.9
743.658	270
744.1	256.4
744.542	263.4
744.983	308.8
745.425	337.1
745.866	342.5
746.307	281.7
746.749	291.7
747.19	336
747.632	464.5
748.073	916.7
748.514	1910.2
748.956	2880.2
749.397	3603.3
749.838	2981
750.279	2941
750.72	1487.1
751.162	556.3
751.603	326.4
752.044	257.1
752.485	218.5
752.926	212.7
753.367	207
753.808	201.5
754.249	193
754.69	191.6
755.131	182.4
755.572	183
756.013	186
756.453	191.5
756.894	189.8
757.335	192.1
757.776	199.6
758.216	197.6
758.657	203.4
759.098	202.2
759.538	228.5
759.979	269.3
760.42	386.8
760.86	731.6
761.301	1901.1
761.741	4530.4
762.182	6362.9
762.622	4446.2
763.063	1309
763.503	535.9
763.943	351.4
764.384	349
764.824	413.1
765.264	446.4
765.705	305.8
766.145	208.4
766.585	184.1
767.025	181.9
767.465	190
767.906	250.2
768.346	322
768.786	344.7
769.226	265.1
769.666	330.4
770.106	651.9
770.546	1604.7
770.986	2631.6
771.426	2346.6
771.866	788.6
772.306	328.5
772.745	208.2
773.185	176.7
773.625	168.6
774.065	168.9
774.505	207.4
774.944	311.9
775.384	701.9
775.824	1240
776.263	1191.1
776.703	508.1
777.142	226
777.582	163.8
778.021	142
778.461	142.3
778.9	141.2
779.34	133
779.779	122.2
780.219	114.7
780.658	110.4
781.097	112.6
781.537	121
781.976	110.5
782.415	109
782.855	102.4
783.294	103.4
783.733	109.7
784.172	107.8
784.611	108.8
785.05	118.1
785.489	115.3
785.928	119
786.367	119.8
786.806	116.5
787.245	128.9
787.684	138.4
788.123	147
788.562	136.1
789.001	134.4
789.44	125
789.879	117.3
790.317	127.2
790.756	128.6
791.195	125.6
791.634	149.6
792.072	202.6
792.511	378.1
792.95	1043.1
793.388	2153.8
793.827	1903.1
794.265	683
794.704	282.3
795.142	191.5
795.581	155.3
796.019	137.6
796.458	133
796.896	128.1
797.334	132.6
797.773	155.1
798.211	228.1
798.649	458
799.087	1041
799.526	1610.8
799.964	2042.6
800.402	1977.4
800.84	750.7
801.278	298.7
801.716	188.1
802.154	152.4
802.592	144.5
803.03	139.1
803.468	136.4
803.906	149
804.344	143.9
804.782	142.7
805.22	136.2
805.658	128.4
806.096	145.4
806.533	160.6
806.971	177.4
807.409	223.5
807.847	326.3
808.284	686.3
808.722	1907.1
