Data from 20171114-ORNL-Ar_H_NY_Subt18_08-06-42-299.txt Node
Date: Tue Nov 14 08:06:42 EST 2017
User: Ender
Spectrometer: HR+D1039
Trigger mode: 0
Integration Time (sec): 2.730000E-2
Scans to average: 10
Electric dark correction enabled: true
Nonlinearity correction enabled: false
Boxcar width: 0
XAxis mode: Wavelengths
Number of Pixels in Spectrum: 2048
>>>>>Begin Spectral Data<<<<<
187.836	-5.49
188.309	-5.49
188.782	-5.49
189.255	5.71
189.728	-2.69
190.201	4.41
190.674	5.31
191.147	1.51
191.619	-5.19
192.092	-0.69
192.565	-0.39
193.038	3.91
193.511	-2.59
193.984	0.81
194.456	-4.49
194.929	-1.49
195.402	-2.29
195.874	3.71
196.347	0.61
196.82	-5.69
197.292	3.31
197.765	1.31
198.237	-8.69
198.71	4.41
199.182	-0.29
199.655	3.91
200.127	1.31
200.6	2.51
201.072	0.51
201.544	-3.49
202.017	-2.19
202.489	4.81
202.961	-4.49
203.433	-5.79
203.906	-0.79
204.378	-5.19
204.85	-5.99
205.322	-5.29
205.794	-3.89
206.266	-3.99
206.739	-6.29
207.211	1.61
207.683	-4.19
208.155	-2.69
208.627	-6.19
209.099	-1.39
209.57	-14.29
210.042	-1.59
210.514	0.41
210.986	-1.29
211.458	-14.49
211.93	0.41
212.402	-1.89
212.873	-10.39
213.345	-13.29
213.817	-10.39
214.288	-5.99
214.76	-6.49
215.232	-0.19
215.703	-1.49
216.175	-1.59
216.646	-6.59
217.118	-4.39
217.589	-0.19
218.061	-2.19
218.532	-7.09
219.004	-3.79
219.475	-1.79
219.946	-4.79
220.418	-1.39
220.889	3.71
221.36	2.31
221.832	-4.99
222.303	-3.89
222.774	2.11
223.245	-6.79
223.717	-8.29
224.188	-4.39
224.659	-4.79
225.13	-4.09
225.601	-2.79
226.072	-3.99
226.543	-1.79
227.014	2.71
227.485	1.41
227.956	-8.79
228.427	-4.29
228.898	0.41
229.369	2.11
229.839	-4.49
230.31	-6.69
230.781	2.61
231.252	-4.49
231.722	-5.19
232.193	-0.19
232.664	-4.39
233.135	-2.49
233.605	0.81
234.076	-11.29
234.546	3.31
235.017	2.91
235.487	1.81
235.958	-2.49
236.428	0.51
236.899	2.61
237.369	0.01
237.84	-4.99
238.31	6.71
238.78	3.21
239.251	-7.79
239.721	-5.49
240.191	0.81
240.662	-2.09
241.132	-1.99
241.602	-9.29
242.072	0.91
242.542	4.61
243.013	-3.79
243.483	-2.49
243.953	-1.49
244.423	-1.89
244.893	-4.69
245.363	3.71
245.833	-3.69
246.303	-5.79
246.773	10.41
247.243	3.21
247.712	-1.09
248.182	1.71
248.652	-0.69
249.122	-6.09
249.592	3.61
250.061	4.51
250.531	6.41
251.001	0.31
251.471	5.31
251.94	6.21
252.41	4.91
252.879	-1.89
253.349	7.71
253.818	5.61
254.288	-1.99
254.757	6.11
255.227	-5.49
255.696	4.41
256.166	9.31
256.635	9.31
257.105	3.01
257.574	-1.09
258.043	5.91
258.513	-7.09
258.982	-1.49
259.451	-1.19
259.92	5.21
260.389	3.91
260.859	13.11
261.328	3.11
261.797	4.01
262.266	0.21
262.735	10.41
263.204	6.11
263.673	-0.09
264.142	10.01
264.611	2.31
265.08	4.01
265.549	-0.49
266.018	3.41
266.487	-2.59
266.955	-0.69
267.424	9.31
267.893	5.01
268.362	0.51
268.83	7.41
269.299	7.31
269.768	5.01
270.236	13.01
270.705	6.41
271.174	6.81
271.642	3.81
272.111	2.81
272.579	7.71
273.048	7.31
273.516	3.11
273.985	8.21
274.453	8.81
274.922	15.91
275.39	8.01
275.858	2.41
276.327	9.41
276.795	13.11
277.263	5.61
277.731	17.91
278.2	14.41
278.668	10.01
279.136	17.31
279.604	5.61
280.072	12.51
280.54	9.31
281.008	10.21
281.477	12.31
281.945	12.81
282.413	13.41
282.881	16.71
283.348	8.71
283.816	14.61
284.284	13.41
284.752	20.51
285.22	12.81
285.688	12.71
286.156	9.11
286.623	15.31
287.091	13.91
287.559	13.71
288.026	18.31
288.494	12.91
288.962	4.21
289.429	4.21
289.897	18.21
290.364	17.71
290.832	14.71
291.3	14.41
291.767	21.71
292.234	21.11
292.702	18.01
293.169	16.61
293.637	23.91
294.104	25.31
294.571	9.61
295.039	14.81
295.506	10.91
295.973	13.81
296.44	18.41
296.908	22.71
297.375	16.71
297.842	14.91
298.309	21.21
298.776	18.31
299.243	29.01
299.71	13.91
300.177	23.01
300.644	23.51
301.111	16.71
301.578	17.21
302.045	22.61
302.512	25.61
302.979	29.41
303.446	22.11
303.913	21.71
304.379	20.41
304.846	28.41
305.313	31.41
305.78	18.81
306.246	25.31
306.713	22.41
307.18	23.81
307.646	33.61
308.113	30.61
308.579	24.81
309.046	22.11
309.512	32.91
309.979	19.21
310.445	30.11
310.912	29.71
311.378	32.71
311.845	27.01
312.311	30.61
312.777	29.31
313.244	36.61
313.71	36.01
314.176	34.51
314.642	25.01
315.109	32.91
315.575	34.31
316.041	38.81
316.507	31.81
316.973	35.91
317.439	28.51
317.905	45.51
318.371	37.01
318.837	40.31
319.303	36.31
319.769	34.61
320.235	34.31
320.701	37.41
321.167	40.11
321.633	36.31
322.099	35.51
322.564	40.41
323.03	39.51
323.496	40.31
323.962	38.91
324.427	39.11
324.893	41.11
325.359	39.71
325.824	40.91
326.29	38.41
326.755	35.31
327.221	40.81
327.686	45.61
328.152	52.61
328.617	46.41
329.083	51.61
329.548	52.11
330.014	55.31
330.479	35.51
330.944	45.91
331.41	44.81
331.875	49.91
332.34	42.31
332.805	47.81
333.271	52.91
333.736	47.41
334.201	48.91
334.666	50.41
335.131	52.01
335.596	53.11
336.061	56.31
336.526	47.71
336.991	49.21
337.456	65.71
337.921	49.81
338.386	50.71
338.851	48.91
339.316	51.11
339.781	50.41
340.246	52.41
340.711	55.81
341.175	54.11
341.64	50.71
342.105	53.21
342.569	58.11
343.034	62.11
343.499	57.01
343.963	56.71
344.428	69.41
344.893	68.91
345.357	64.61
345.822	61.31
346.286	71.41
346.751	77.61
347.215	76.81
347.679	81.41
348.144	102.91
348.608	86.51
349.073	73.61
349.537	85.01
350.001	84.81
350.465	94.51
350.93	83.41
351.394	85.41
351.858	75.91
352.322	93.01
352.786	88.51
353.25	101.81
353.715	115.81
354.179	107.31
354.643	129.41
355.107	128.41
355.571	108.31
356.035	98.01
356.498	117.71
356.962	116.21
357.426	132.21
357.89	121.01
358.354	104.11
358.818	96.11
359.281	89.81
359.745	87.11
360.209	78.31
360.673	78.71
361.136	87.91
361.6	92.81
362.064	89.11
362.527	98.01
362.991	102.81
363.454	86.21
363.918	81.51
364.381	90.91
364.845	92.21
365.308	85.81
365.772	94.01
366.235	95.21
366.698	93.81
367.162	88.31
367.625	87.71
368.088	90.21
368.552	100.71
369.015	94.41
369.478	103.11
369.941	98.41
370.404	104.21
370.867	107.11
371.331	112.51
371.794	111.51
372.257	106.41
372.72	109.41
373.183	109.91
373.646	100.61
374.109	104.81
374.572	111.81
375.035	114.81
375.497	107.61
375.96	111.71
376.423	112.51
376.886	123.11
377.349	121.81
377.811	112.41
378.274	118.11
378.737	112.11
379.199	117.11
379.662	117.71
380.125	114.11
380.587	112.41
381.05	111.61
381.512	122.21
381.975	133.81
382.437	133.91
382.9	129.01
383.362	135.61
383.825	137.91
384.287	141.11
384.75	129.31
385.212	131.21
385.674	145.91
386.136	139.01
386.599	135.41
387.061	141.01
387.523	134.71
387.985	129.81
388.447	148.31
388.91	134.31
389.372	143.11
389.834	141.71
390.296	133.71
390.758	142.61
391.22	145.41
391.682	163.31
392.144	165.91
392.606	159.71
393.068	156.31
393.529	158.01
393.991	150.91
394.453	151.21
394.915	145.21
395.377	152.61
395.838	151.11
396.3	144.91
396.762	149.71
397.224	147.21
397.685	149.91
398.147	143.71
398.608	146.11
399.07	149.61
399.531	152.51
399.993	158.91
400.454	168.61
400.916	161.71
401.377	159.21
401.839	169.71
402.3	167.01
402.762	181.41
403.223	194.31
403.684	186.91
404.145	175.81
404.607	182.81
405.068	180.11
405.529	182.71
405.99	195.71
406.451	205.51
406.913	184.61
407.374	182.61
407.835	174.21
408.296	182.01
408.757	194.51
409.218	202.81
409.679	196.01
410.14	200.91
410.601	191.41
411.062	193.91
411.522	203.31
411.983	198.61
412.444	188.81
412.905	194.71
413.366	200.61
413.826	216.41
414.287	247.11
414.748	290.11
415.208	280.81
415.669	246.21
416.13	228.91
416.59	226.51
417.051	240.01
417.511	248.61
417.972	265.01
418.432	278.21
418.893	321.71
419.353	279.21
419.814	227.91
420.274	218.21
420.734	201.01
421.195	219.41
421.655	213.71
422.115	214.71
422.576	216.51
423.036	221.21
423.496	232.01
423.956	242.31
424.416	248.11
424.876	297.11
425.336	294.31
425.797	292.81
426.257	286.21
426.717	271.61
427.177	254.61
427.637	245.41
428.097	256.71
428.556	274.51
429.016	295.81
429.476	290.91
429.936	300.11
430.396	297.41
430.856	310.21
431.315	342.11
431.775	378.41
432.235	404.71
432.694	381.41
433.154	392.81
433.614	418.11
434.073	358.91
434.533	315.61
434.993	299.91
435.452	304.01
435.912	322.71
436.371	307.81
436.83	304.21
437.29	290.71
437.749	271.31
438.209	278.71
438.668	305.81
439.127	315.61
439.587	285.01
440.046	273.31
440.505	285.41
440.964	301.81
441.424	351.01
441.883	350.01
442.342	287.31
442.801	248.61
443.26	249.61
443.719	241.71
444.178	249.81
444.637	239.51
445.096	248.01
445.555	252.71
446.014	253.31
446.473	257.81
446.932	260.81
447.391	254.91
447.849	256.01
448.308	244.91
448.767	249.01
449.226	267.81
449.685	270.41
450.143	282.51
450.602	275.31
451.061	259.11
451.519	258.91
451.978	261.31
452.436	259.21
452.895	264.91
453.353	283.01
453.812	275.91
454.27	270.91
454.729	269.11
455.187	276.71
455.646	275.41
456.104	278.21
456.562	294.41
457.021	297.51
457.479	289.31
457.937	309.71
458.395	298.91
458.854	283.81
459.312	289.71
459.77	313.51
460.228	294.01
460.686	276.51
461.144	282.91
461.602	280.41
462.06	279.81
462.518	288.01
462.976	292.41
463.434	286.41
463.892	298.21
464.35	304.51
464.808	317.51
465.266	298.71
465.724	302.81
466.181	309.91
466.639	305.01
467.097	329.91
467.555	341.91
468.012	348.51
468.47	351.11
468.928	370.11
469.385	388.71
469.843	385.91
470.3	392.61
470.758	403.91
471.215	429.91
471.673	453.61
472.13	459.21
472.588	465.81
473.045	425.91
473.503	424.81
473.96	441.91
474.417	447.91
474.875	478.81
475.332	525.31
475.789	508.11
476.246	521.91
476.704	541.11
477.161	563.21
477.618	574.21
478.075	620.71
478.532	676.01
478.989	745.81
479.446	862.21
479.903	831.71
480.36	867.81
480.817	911.61
481.274	1009.71
481.731	1100.51
482.188	1183.71
482.645	1315.11
483.102	1415.41
483.558	1544.41
484.015	1580.11
484.472	1551.11
484.929	1499.01
485.385	1469.71
485.842	1437.51
486.299	1391.21
486.755	1346.31
487.212	1141.31
487.668	986.51
488.125	905.01
488.582	837.51
489.038	815.61
489.494	777.21
489.951	750.91
490.407	730.61
490.864	716.91
491.32	700.71
491.776	704.61
492.233	715.01
492.689	675.61
493.145	671.01
493.602	663.41
494.058	685.11
494.514	672.21
494.97	696.71
495.426	715.31
495.882	694.11
496.338	676.41
496.794	689.61
497.251	681.31
497.707	694.51
498.163	700.61
498.618	706.31
499.074	710.21
499.53	734.61
499.986	739.51
500.442	715.31
500.898	678.61
501.354	673.81
501.809	690.71
502.265	694.01
502.721	698.71
503.177	701.91
503.632	708.21
504.088	718.31
504.543	742.21
504.999	755.11
505.455	727.91
505.91	710.41
506.366	703.61
506.821	702.81
507.277	707.21
507.732	710.61
508.187	695.91
508.643	716.11
509.098	701.31
509.553	727.41
510.009	731.31
510.464	751.31
510.919	762.81
511.375	754.51
511.83	790.71
512.285	796.11
512.74	850.21
513.195	854.21
513.65	848.91
514.105	843.71
514.56	853.91
515.015	877.21
515.47	889.31
515.925	856.61
516.38	861.21
516.835	881.41
517.29	859.01
517.745	863.81
518.2	848.01
518.655	830.51
519.109	823.61
519.564	824.51
520.019	817.31
520.474	797.41
520.928	796.91
521.383	791.81
521.838	800.31
522.292	787.71
522.747	797.11
523.201	792.31
523.656	779.61
524.11	772.01
524.565	760.81
525.019	770.61
525.474	769.91
525.928	768.71
526.382	768.61
526.837	775.41
527.291	780.11
527.745	773.31
528.2	781.21
528.654	764.61
529.108	765.71
529.562	756.81
530.016	770.11
530.47	764.61
530.925	763.81
531.379	766.11
531.833	779.31
532.287	767.01
532.741	767.11
533.195	772.91
533.649	785.71
534.103	790.61
534.556	775.41
535.01	785.91
535.464	778.61
535.918	791.81
536.372	794.71
536.826	790.01
537.279	779.21
537.733	782.71
538.187	797.71
538.64	792.01
539.094	798.11
539.548	796.51
540.001	790.11
540.455	795.31
540.908	806.61
541.362	804.51
541.815	824.31
542.269	837.91
542.722	832.51
543.175	852.61
543.629	838.71
544.082	866.21
544.536	871.21
544.989	867.31
545.442	878.41
545.895	872.71
546.349	871.01
546.802	876.21
547.255	877.01
547.708	892.71
548.161	905.61
548.614	905.71
549.067	910.31
549.52	906.01
549.973	914.31
550.426	901.31
550.879	876.51
551.332	877.31
551.785	897.51
552.238	886.01
552.691	903.31
553.144	913.61
553.596	935.11
554.049	955.91
554.502	985.51
554.955	1001.71
555.407	1011.41
555.86	987.21
556.313	983.61
556.765	974.01
557.218	966.01
557.67	974.91
558.123	960.91
558.576	963.01
559.028	967.01
559.48	967.21
559.933	956.81
560.385	926.71
560.838	894.71
561.29	862.51
561.742	867.61
562.195	852.91
562.647	854.41
563.099	857.61
563.551	853.31
564.004	863.11
564.456	842.41
564.908	836.11
565.36	819.71
565.812	794.91
566.264	792.01
566.716	791.61
567.168	770.61
567.62	777.21
568.072	756.61
568.524	750.01
568.976	748.91
569.428	745.71
569.88	754.01
570.332	751.31
570.784	761.11
571.235	747.31
571.687	759.01
572.139	776.11
572.59	781.51
573.042	785.61
573.494	778.81
573.945	770.11
574.397	758.51
574.849	772.51
575.3	764.31
575.752	745.71
576.203	744.41
576.655	746.91
577.106	746.51
577.557	734.81
578.009	731.61
578.46	723.31
578.912	724.11
579.363	725.41
579.814	728.21
580.265	729.11
580.717	736.71
581.168	728.21
581.619	734.41
582.07	746.31
582.521	729.81
582.972	736.81
583.423	743.11
583.875	735.11
584.326	746.41
584.777	750.61
585.227	786.21
585.678	796.81
586.129	823.71
586.58	858.71
587.031	883.41
587.482	915.01
587.933	943.41
588.384	915.81
588.834	872.61
589.285	840.41
589.736	840.81
590.186	849.01
590.637	830.81
591.088	818.11
591.538	801.51
591.989	798.91
592.439	782.91
592.89	775.01
593.34	760.41
593.791	767.01
594.241	763.31
594.692	754.51
595.142	759.91
595.593	753.91
596.043	754.91
596.493	761.01
596.943	762.71
597.394	780.71
597.844	779.91
598.294	804.21
598.744	813.01
599.195	845.81
599.645	893.11
600.095	941.31
600.545	1001.01
600.995	1043.21
601.445	1110.31
601.895	1167.81
602.345	1235.81
602.795	1204.61
603.245	1173.31
603.695	1106.71
604.145	1042.81
604.594	993.51
605.044	943.51
605.494	885.21
605.944	819.61
606.393	805.71
606.843	787.61
607.293	793.31
607.743	796.11
608.192	809.81
608.642	819.81
609.091	813.41
609.541	821.51
609.99	822.21
610.44	821.51
610.889	779.61
611.339	755.71
611.788	729.81
612.238	745.71
612.687	755.01
613.136	749.71
613.586	750.31
614.035	755.01
614.484	767.21
614.933	756.81
615.383	760.61
615.832	767.61
616.281	754.31
616.73	720.01
617.179	706.61
617.628	697.31
618.077	663.81
618.526	664.01
618.975	672.21
619.424	668.31
619.873	669.61
620.322	661.01
620.771	663.21
621.22	652.71
621.669	644.51
622.118	634.71
622.567	625.01
623.015	621.71
623.464	619.91
623.913	607.81
624.361	597.81
624.81	600.21
625.259	596.01
625.707	604.81
626.156	589.41
626.604	617.91
627.053	599.51
627.501	612.91
627.95	614.71
628.398	630.01
628.847	617.61
629.295	618.91
629.744	621.91
630.192	618.41
630.64	601.81
631.089	584.31
631.537	574.91
631.985	571.11
632.433	570.81
632.881	566.51
633.33	576.51
633.778	570.61
634.226	563.11
634.674	580.91
635.122	585.71
635.57	593.31
636.018	608.31
636.466	607.01
636.914	597.51
637.362	614.31
637.81	623.11
638.258	637.81
638.705	627.31
639.153	660.71
639.601	670.41
640.049	689.71
640.497	715.41
640.944	737.61
641.392	695.11
641.84	655.91
642.287	633.61
642.735	616.71
643.182	607.71
643.63	603.41
644.078	597.51
644.525	613.61
644.973	626.61
645.42	638.51
645.867	657.41
646.315	670.51
646.762	703.31
647.21	729.21
647.657	755.51
648.104	787.91
648.551	799.81
648.999	869.31
649.446	941.51
649.893	1028.51
650.34	1187.11
650.787	1395.31
651.234	1720.61
651.682	2228.91
652.129	2991.71
652.576	4236.51
653.023	6166.91
653.47	8332.41
653.917	10394.01
654.363	11982.11
654.81	13177.81
655.257	12533.71
655.704	8282.91
656.151	5003.91
656.598	3311.61
657.044	2373.61
657.491	1843.91
657.938	1481.71
658.385	1254.31
658.831	1095.71
659.278	986.31
659.724	889.11
660.171	814.01
660.618	751.81
661.064	732.01
661.511	702.21
661.957	686.51
662.404	675.61
662.85	688.91
663.296	662.61
663.743	597.01
664.189	574.41
664.635	563.31
665.082	563.81
665.528	554.91
665.974	550.21
666.42	544.41
666.867	547.61
667.313	520.91
667.759	498.81
668.205	483.61
668.651	489.11
669.097	482.01
669.543	476.91
669.989	468.51
670.435	481.01
670.881	469.01
671.327	488.21
671.773	499.91
672.219	524.61
672.665	593.61
673.11	636.21
673.556	680.31
674.002	726.21
674.448	710.91
674.893	588.41
675.339	517.21
675.785	474.81
676.23	451.31
676.676	428.61
677.122	412.41
677.567	411.31
678.013	398.61
678.458	396.61
678.904	388.51
679.349	378.81
679.794	378.41
680.24	376.81
680.685	370.71
681.131	380.91
681.576	376.41
682.021	381.11
682.466	371.31
682.912	386.51
683.357	380.61
683.802	409.01
684.247	438.41
684.692	490.21
685.137	531.81
685.583	581.01
686.028	612.51
686.473	561.41
686.918	480.21
687.363	448.71
687.807	425.11
688.252	397.41
688.697	385.11
689.142	364.51
689.587	361.71
690.032	346.71
690.477	376.91
690.921	384.81
691.366	409.91
691.811	429.61
692.255	468.71
692.7	494.61
693.145	548.31
693.589	751.91
694.034	1226.51
694.478	1647.51
694.923	1887.51
695.367	2445.31
695.812	1284.71
696.256	541.41
696.701	408.21
697.145	370.71
697.59	348.51
698.034	342.71
698.478	349.21
698.922	343.71
699.367	346.41
699.811	356.71
700.255	382.51
700.699	410.81
701.143	456.61
701.588	505.51
702.032	548.61
702.476	540.51
702.92	522.91
703.364	527.91
703.808	687.91
704.252	1125.51
704.696	1572.71
705.14	1805.41
705.584	2303.41
706.027	1149.01
706.471	563.71
706.915	435.91
707.359	383.51
707.803	346.21
708.246	336.91
708.69	341.31
709.134	335.71
709.577	330.71
710.021	339.71
710.465	331.61
710.908	318.51
711.352	323.41
711.795	342.31
712.239	377.51
712.682	416.31
713.126	447.51
713.569	487.31
714.012	386.11
714.456	329.31
714.899	309.21
715.342	289.11
715.786	276.21
716.229	276.01
716.672	272.71
717.115	268.91
717.558	269.41
718.002	270.81
718.445	281.81
718.888	304.61
719.331	306.81
719.774	326.11
720.217	330.71
720.66	307.71
721.103	289.51
721.546	277.21
721.989	270.41
722.432	254.51
722.874	258.41
723.317	254.31
723.76	253.71
724.203	275.91
724.645	340.81
725.088	471.01
725.531	621.01
725.974	703.71
726.416	586.61
726.859	333.71
727.301	264.31
727.744	254.51
728.187	246.31
728.629	258.11
729.071	262.81
729.514	281.01
729.956	290.01
730.399	303.31
730.841	311.51
731.283	289.91
731.726	284.31
732.168	289.41
732.61	286.81
733.053	310.91
733.495	337.21
733.937	382.51
734.379	437.11
734.821	472.81
735.263	589.11
735.705	907.51
736.148	1695.01
736.59	2802.31
737.032	3324.31
737.474	2694.81
737.916	878.71
738.357	464.41
738.799	361.01
739.241	322.91
739.683	305.31
740.125	312.21
740.567	321.21
741.008	346.51
741.45	340.91
741.892	341.71
742.334	381.91
742.775	392.21
743.217	368.21
743.658	286.91
744.1	276.71
744.542	291.61
744.983	345.31
745.425	377.91
745.866	376.31
746.307	298.51
746.749	296.01
747.19	355.01
747.632	492.71
748.073	952.31
748.514	2024.11
748.956	3079.91
749.397	3886.81
749.838	3208.41
750.279	3208.11
750.72	1615.21
751.162	603.11
751.603	347.61
752.044	274.01
752.485	233.21
752.926	230.91
753.367	214.11
753.808	210.81
754.249	213.81
754.69	205.51
755.131	197.71
755.572	202.11
756.013	197.51
756.453	198.41
756.894	200.61
757.335	207.21
757.776	211.81
758.216	213.81
758.657	207.61
759.098	221.01
759.538	244.61
759.979	292.51
760.42	413.01
760.86	762.51
761.301	1997.51
761.741	4807.61
762.182	6956.91
762.622	4911.31
