Data from 20171114-ORNL-Ar_H_NY_Subt18_08-08-58-027.txt Node
Date: Tue Nov 14 08:08:58 EST 2017
User: Ender
Spectrometer: HR+D1039
Trigger mode: 0
Integration Time (sec): 2.730000E-2
Scans to average: 10
Electric dark correction enabled: true
Nonlinearity correction enabled: false
Boxcar width: 0
XAxis mode: Wavelengths
Number of Pixels in Spectrum: 2048
>>>>>Begin Spectral Data<<<<<
187.836	-1.44
188.309	-1.44
188.782	-1.44
189.255	0.46
189.728	-6.04
190.201	1.76
190.674	3.26
191.147	5.76
191.619	-7.84
192.092	-1.24
192.565	2.96
193.038	-2.14
193.511	4.36
193.984	3.06
194.456	1.36
194.929	5.06
195.402	-6.84
195.874	-2.44
196.347	-0.24
196.82	-6.24
197.292	7.16
197.765	-4.24
198.237	-8.24
198.71	0.06
199.182	2.16
199.655	0.46
200.127	4.86
200.6	-8.34
201.072	-3.44
201.544	0.76
202.017	-2.54
202.489	0.96
202.961	0.16
203.433	-5.74
203.906	-2.54
204.378	-5.14
204.85	-6.94
205.322	-10.94
205.794	2.16
206.266	-0.74
206.739	-8.24
207.211	0.56
207.683	-10.64
208.155	-8.84
208.627	-5.34
209.099	-2.14
209.57	-8.24
210.042	-6.14
210.514	-7.44
210.986	-7.54
211.458	-5.74
211.93	-5.94
212.402	-0.64
212.873	-10.94
213.345	-4.64
213.817	-11.84
214.288	-9.44
214.76	-12.04
215.232	-6.74
215.703	-3.94
216.175	-5.74
216.646	-5.44
217.118	-7.44
217.589	-7.04
218.061	-5.04
218.532	-10.24
219.004	-5.04
219.475	-2.44
219.946	-2.94
220.418	-7.14
220.889	-2.34
221.36	-0.04
221.832	-1.94
222.303	-7.34
222.774	-5.44
223.245	-7.04
223.717	-10.94
224.188	-6.34
224.659	-5.34
225.13	-9.04
225.601	-4.34
226.072	-1.84
226.543	-2.64
227.014	-2.04
227.485	-12.24
227.956	-11.54
228.427	-4.34
228.898	-0.04
229.369	1.26
229.839	-4.84
230.31	-10.84
230.781	5.16
231.252	-2.54
231.722	-7.04
232.193	-2.04
232.664	-7.14
233.135	-5.44
233.605	-0.04
234.076	-3.54
234.546	1.46
235.017	-0.74
235.487	-1.84
235.958	-5.64
236.428	-6.84
236.899	-2.34
237.369	-9.84
237.84	-10.84
238.31	-0.74
238.78	1.06
239.251	-9.14
239.721	-7.64
240.191	-7.24
240.662	-11.14
241.132	-3.44
241.602	-6.44
242.072	-1.94
242.542	2.16
243.013	-4.24
243.483	5.36
243.953	-2.14
244.423	-7.84
244.893	-6.64
245.363	-1.14
245.833	-4.04
246.303	-10.84
246.773	3.46
247.243	-5.54
247.712	-0.54
248.182	3.66
248.652	-2.34
249.122	-15.04
249.592	-2.44
250.061	7.46
250.531	3.86
251.001	0.46
251.471	5.26
251.94	9.36
252.41	-0.74
252.879	-4.14
253.349	4.76
253.818	-0.74
254.288	-3.04
254.757	-3.54
255.227	-7.84
255.696	-0.34
256.166	1.46
256.635	1.16
257.105	3.96
257.574	0.36
258.043	-3.54
258.513	-4.64
258.982	5.56
259.451	-7.44
259.92	-2.64
260.389	-2.34
260.859	5.06
261.328	-3.44
261.797	4.76
262.266	4.26
262.735	11.36
263.204	4.76
263.673	1.76
264.142	2.06
264.611	-9.44
265.08	-2.44
265.549	-4.84
266.018	1.96
266.487	-2.64
266.955	-4.44
267.424	-6.74
267.893	-1.94
268.362	-4.44
268.83	-2.24
269.299	5.96
269.768	-1.44
270.236	5.26
270.705	-4.34
271.174	4.26
271.642	0.06
272.111	-4.74
272.579	2.86
273.048	3.66
273.516	2.76
273.985	4.86
274.453	2.86
274.922	13.96
275.39	-2.84
275.858	-8.44
276.327	2.36
276.795	9.16
277.263	-1.94
277.731	14.16
278.2	8.16
278.668	11.96
279.136	14.86
279.604	-1.14
280.072	4.46
280.54	-1.54
281.008	2.86
281.477	9.36
281.945	4.86
282.413	12.06
282.881	5.56
283.348	-2.24
283.816	5.56
284.284	6.76
284.752	10.76
285.22	1.06
285.688	4.56
286.156	7.56
286.623	13.76
287.091	12.86
287.559	11.06
288.026	7.46
288.494	7.66
288.962	-3.34
289.429	7.16
289.897	18.56
290.364	13.16
290.832	10.96
291.3	9.66
291.767	12.26
292.234	12.76
292.702	3.06
293.169	11.36
293.637	16.86
294.104	11.96
294.571	3.26
295.039	4.26
295.506	6.56
295.973	9.96
296.44	4.36
296.908	10.16
297.375	7.26
297.842	9.26
298.309	3.16
298.776	5.06
299.243	10.06
299.71	0.76
300.177	12.96
300.644	10.46
301.111	7.96
301.578	15.26
302.045	6.86
302.512	11.96
302.979	18.16
303.446	12.96
303.913	6.66
304.379	7.36
304.846	15.36
305.313	14.16
305.78	18.46
306.246	18.86
306.713	22.46
307.18	14.36
307.646	14.16
308.113	11.86
308.579	8.86
309.046	19.26
309.512	16.66
309.979	8.16
310.445	20.66
310.912	21.96
311.378	14.56
311.845	16.16
312.311	24.16
312.777	24.56
313.244	18.96
313.71	25.26
314.176	20.76
314.642	18.66
315.109	16.86
315.575	19.16
316.041	27.56
316.507	23.96
316.973	24.56
317.439	19.26
317.905	27.26
318.371	25.96
318.837	23.06
319.303	24.86
319.769	23.16
320.235	20.76
320.701	22.56
321.167	25.36
321.633	21.86
322.099	28.26
322.564	28.66
323.03	22.76
323.496	22.26
323.962	24.46
324.427	22.86
324.893	27.06
325.359	19.46
325.824	30.46
326.29	20.96
326.755	23.96
327.221	21.96
327.686	26.76
328.152	34.36
328.617	33.96
329.083	35.56
329.548	40.96
330.014	34.26
330.479	35.46
330.944	37.76
331.41	33.86
331.875	32.06
332.34	33.26
332.805	29.96
333.271	30.66
333.736	35.46
334.201	36.76
334.666	30.56
335.131	37.16
335.596	37.56
336.061	35.36
336.526	26.26
336.991	36.56
337.456	40.06
337.921	32.36
338.386	29.36
338.851	34.16
339.316	31.96
339.781	36.66
340.246	41.76
340.711	35.06
341.175	39.26
341.64	31.36
342.105	40.96
342.569	44.16
343.034	45.56
343.499	41.76
343.963	34.16
344.428	54.46
344.893	44.66
345.357	50.26
345.822	50.86
346.286	57.26
346.751	58.86
347.215	48.66
347.679	61.86
348.144	76.76
348.608	73.06
349.073	53.66
349.537	60.46
350.001	59.56
350.465	69.96
350.93	66.36
351.394	65.16
351.858	53.16
352.322	69.46
352.786	68.26
353.25	84.66
353.715	81.26
354.179	81.96
354.643	95.16
355.107	99.96
355.571	85.06
356.035	75.26
356.498	88.16
356.962	90.16
357.426	94.86
357.89	87.96
358.354	65.06
358.818	65.56
359.281	67.96
359.745	64.26
360.209	61.26
360.673	54.86
361.136	66.46
361.6	73.56
362.064	69.96
362.527	69.56
362.991	71.86
363.454	68.16
363.918	57.26
364.381	65.26
364.845	67.96
365.308	75.76
365.772	80.46
366.235	70.16
366.698	63.76
367.162	67.26
367.625	73.26
368.088	76.16
368.552	80.26
369.015	79.56
369.478	80.86
369.941	80.26
370.404	77.96
370.867	80.46
371.331	84.86
371.794	90.86
372.257	89.36
372.72	86.06
373.183	89.76
373.646	83.66
374.109	85.86
374.572	83.46
375.035	89.86
375.497	87.66
375.96	86.16
376.423	84.76
376.886	89.86
377.349	96.96
377.811	89.86
378.274	89.66
378.737	92.16
379.199	92.86
379.662	94.66
380.125	92.06
380.587	96.66
381.05	98.56
381.512	102.86
381.975	115.56
382.437	97.96
382.9	102.46
383.362	109.86
383.825	119.16
384.287	117.16
384.75	108.96
385.212	110.46
385.674	119.36
386.136	119.76
386.599	110.86
387.061	113.86
387.523	113.86
387.985	112.26
388.447	116.56
388.91	114.46
389.372	115.26
389.834	119.96
390.296	119.36
390.758	124.66
391.22	122.46
391.682	145.26
392.144	161.96
392.606	146.36
393.068	132.26
393.529	139.16
393.991	124.36
394.453	122.36
394.915	121.66
395.377	126.36
395.838	141.86
396.3	130.26
396.762	120.46
397.224	124.86
397.685	117.86
398.147	125.86
398.608	119.26
399.07	121.46
399.531	129.86
399.993	130.16
400.454	146.86
400.916	134.46
401.377	139.16
401.839	141.06
402.3	139.46
402.762	155.46
403.223	163.66
403.684	151.36
404.145	147.36
404.607	149.16
405.068	146.76
405.529	153.76
405.99	169.06
406.451	162.46
406.913	162.86
407.374	153.06
407.835	151.96
408.296	156.86
408.757	162.66
409.218	171.26
409.679	165.46
410.14	166.86
410.601	166.16
411.062	171.56
411.522	170.66
411.983	161.96
412.444	167.26
412.905	169.56
413.366	175.36
413.826	189.26
414.287	208.26
414.748	250.06
415.208	240.06
415.669	210.86
416.13	203.06
416.59	198.26
417.051	213.36
417.511	211.06
417.972	228.66
418.432	240.46
418.893	280.16
419.353	246.16
419.814	188.46
420.274	176.16
420.734	173.16
421.195	190.26
421.655	186.66
422.115	186.56
422.576	184.56
423.036	192.66
423.496	201.06
423.956	212.86
424.416	220.66
424.876	253.26
425.336	250.46
425.797	249.06
426.257	248.36
426.717	231.36
427.177	224.56
427.637	211.36
428.097	227.66
428.556	232.86
429.016	257.96
429.476	246.86
429.936	260.66
430.396	265.86
430.856	277.16
431.315	303.26
431.775	331.16
432.235	361.16
432.694	337.16
433.154	336.26
433.614	367.26
434.073	322.76
434.533	267.86
434.993	262.36
435.452	270.96
435.912	279.36
436.371	282.06
436.83	268.56
437.29	254.26
437.749	242.56
438.209	239.46
438.668	266.46
439.127	276.46
439.587	253.96
440.046	237.36
440.505	258.96
440.964	262.66
441.424	306.76
441.883	301.26
442.342	251.16
442.801	223.76
443.26	217.36
443.719	219.06
444.178	216.86
444.637	212.46
445.096	220.86
445.555	217.16
446.014	219.16
446.473	226.26
446.932	235.66
447.391	225.66
447.849	230.76
448.308	220.26
448.767	221.36
449.226	236.36
449.685	231.86
450.143	246.66
450.602	241.86
451.061	232.56
451.519	232.56
451.978	229.66
452.436	235.56
452.895	237.36
453.353	250.26
453.812	240.56
454.27	242.96
454.729	239.16
455.187	235.06
455.646	249.86
456.104	243.86
456.562	262.26
457.021	268.76
457.479	261.96
457.937	267.26
458.395	262.66
458.854	242.56
459.312	253.06
459.77	266.46
460.228	256.76
460.686	245.76
461.144	249.46
461.602	249.26
462.06	243.86
462.518	257.66
462.976	254.26
463.434	257.06
463.892	267.46
464.35	278.26
464.808	291.36
465.266	261.56
465.724	272.26
466.181	274.26
466.639	276.66
467.097	288.86
467.555	300.16
468.012	301.46
468.47	310.66
468.928	327.06
469.385	333.96
469.843	350.06
470.3	346.96
470.758	365.16
471.215	387.36
471.673	413.26
472.13	400.86
472.588	416.76
473.045	372.76
473.503	378.16
473.96	394.56
474.417	403.36
474.875	431.86
475.332	465.66
475.789	460.16
476.246	459.36
476.704	479.66
477.161	509.36
477.618	527.26
478.075	556.36
478.532	612.76
478.989	674.96
479.446	776.76
479.903	744.76
480.36	776.76
480.817	828.86
481.274	912.06
481.731	1005.46
482.188	1081.26
482.645	1197.96
483.102	1290.76
483.558	1408.76
484.015	1446.36
484.472	1429.86
484.929	1389.66
485.385	1347.56
485.842	1311.36
486.299	1259.36
486.755	1223.66
487.212	1044.46
487.668	888.76
488.125	819.66
488.582	758.96
489.038	731.16
489.494	698.66
489.951	669.76
490.407	664.26
490.864	636.56
491.32	632.86
491.776	640.06
492.233	645.26
492.689	606.86
493.145	610.46
493.602	600.16
494.058	613.86
494.514	615.06
494.97	630.86
495.426	651.46
495.882	621.36
496.338	601.46
496.794	614.46
497.251	615.06
497.707	626.86
498.163	623.26
498.618	632.36
499.074	630.66
499.53	665.36
499.986	658.76
500.442	643.76
500.898	622.46
501.354	620.16
501.809	631.66
502.265	630.66
502.721	631.06
503.177	636.66
503.632	651.96
504.088	663.46
504.543	671.36
504.999	694.86
505.455	656.16
505.91	636.76
506.366	632.66
506.821	633.16
507.277	632.56
507.732	634.56
508.187	620.36
508.643	637.66
509.098	651.76
509.553	664.26
510.009	673.86
510.464	680.46
510.919	691.16
511.375	700.66
511.83	709.96
512.285	728.16
512.74	763.56
513.195	783.56
513.65	766.36
514.105	765.76
514.56	771.56
515.015	791.66
515.47	791.36
515.925	773.56
516.38	794.96
516.835	796.66
517.29	780.86
517.745	781.56
518.2	768.56
518.655	753.96
519.109	751.66
519.564	738.96
520.019	738.76
520.474	731.46
520.928	734.56
521.383	725.76
521.838	701.76
522.292	719.46
522.747	719.06
523.201	711.86
523.656	707.96
524.11	710.26
524.565	710.56
525.019	700.76
525.474	717.76
525.928	713.86
526.382	699.26
526.837	704.76
527.291	705.36
527.745	698.86
528.2	705.96
528.654	702.66
529.108	696.56
529.562	690.96
530.016	691.76
530.47	691.46
530.925	704.06
531.379	706.46
531.833	704.76
532.287	708.86
532.741	712.96
533.195	709.06
533.649	711.76
534.103	724.96
534.556	714.36
535.01	704.36
535.464	707.66
535.918	721.66
536.372	722.86
536.826	713.36
537.279	715.36
537.733	719.16
538.187	712.06
538.64	720.56
539.094	728.86
539.548	732.76
540.001	731.76
540.455	737.76
540.908	741.36
541.362	744.06
541.815	759.56
542.269	771.46
542.722	765.96
543.175	769.46
543.629	785.26
544.082	794.96
544.536	798.56
544.989	805.26
545.442	806.16
545.895	808.46
546.349	808.26
546.802	802.26
547.255	812.76
547.708	812.46
548.161	831.26
548.614	839.26
549.067	846.96
549.52	826.16
549.973	822.06
550.426	814.76
550.879	808.96
551.332	809.36
551.785	816.26
552.238	822.46
552.691	827.86
553.144	857.46
553.596	867.16
554.049	883.46
554.502	903.36
554.955	927.46
555.407	911.56
555.86	909.36
556.313	902.46
556.765	899.46
557.218	900.86
557.67	899.16
558.123	898.66
558.576	890.16
559.028	894.56
559.48	894.86
559.933	892.76
560.385	853.76
560.838	823.86
561.29	808.66
561.742	804.96
562.195	794.46
562.647	789.06
563.099	792.36
563.551	799.86
564.004	797.66
564.456	774.86
564.908	772.66
565.36	746.86
565.812	740.36
566.264	731.06
566.716	737.76
567.168	714.66
567.62	717.36
568.072	714.56
568.524	693.06
568.976	694.36
569.428	694.26
569.88	681.86
570.332	704.66
570.784	699.86
571.235	709.06
571.687	710.56
572.139	721.76
572.59	723.76
573.042	729.76
573.494	727.66
573.945	713.76
574.397	696.96
574.849	700.36
575.3	708.86
575.752	702.26
576.203	687.56
576.655	689.76
577.106	676.86
577.557	673.56
578.009	683.16
578.46	668.46
578.912	678.56
579.363	678.56
579.814	687.76
580.265	682.96
580.717	692.36
581.168	696.06
581.619	696.86
582.07	696.56
582.521	686.96
582.972	683.36
583.423	686.16
583.875	689.06
584.326	704.36
584.777	720.66
585.227	756.76
585.678	776.96
586.129	810.46
586.58	832.16
587.031	867.86
587.482	918.36
587.933	985.46
588.384	932.56
588.834	832.56
589.285	803.56
589.736	790.26
590.186	793.96
590.637	782.86
591.088	763.46
591.538	746.86
591.989	753.36
592.439	731.86
592.89	737.16
593.34	723.86
593.791	723.36
594.241	714.66
594.692	720.56
595.142	717.66
595.593	710.46
596.043	722.06
596.493	728.36
596.943	721.76
597.394	742.46
597.844	733.26
598.294	754.96
598.744	781.96
599.195	804.86
599.645	843.16
600.095	889.26
600.545	937.76
600.995	993.56
601.445	1053.66
601.895	1111.36
602.345	1163.86
602.795	1151.76
603.245	1099.66
603.695	1042.16
604.145	979.96
604.594	936.56
605.044	882.96
605.494	814.26
605.944	769.46
606.393	763.56
606.843	751.06
607.293	743.86
607.743	749.26
608.192	756.56
608.642	780.16
609.091	778.16
609.541	776.86
609.99	776.46
610.44	773.16
610.889	742.86
611.339	717.86
611.788	701.06
612.238	717.66
612.687	725.36
613.136	713.66
613.586	731.96
614.035	725.26
614.484	730.36
614.933	736.86
615.383	726.86
615.832	728.46
616.281	720.76
616.73	690.16
617.179	676.06
617.628	659.66
618.077	656.96
618.526	637.46
618.975	625.16
619.424	632.46
619.873	626.76
620.322	628.66
620.771	629.26
621.22	623.46
621.669	601.76
622.118	606.86
622.567	596.76
623.015	585.86
623.464	577.16
623.913	571.46
624.361	570.26
624.81	568.46
625.259	566.66
625.707	567.86
626.156	571.76
626.604	578.96
627.053	575.46
627.501	583.76
627.95	592.56
628.398	593.06
628.847	597.46
629.295	583.66
629.744	588.56
630.192	584.06
630.64	580.16
631.089	572.06
631.537	558.66
631.985	552.76
632.433	559.56
632.881	555.46
633.33	575.76
633.778	556.86
634.226	536.06
634.674	558.26
635.122	562.96
635.57	563.16
636.018	583.16
636.466	582.76
636.914	568.66
637.362	580.06
637.81	585.56
638.258	600.86
638.705	605.96
639.153	629.56
639.601	645.46
640.049	661.76
640.497	692.66
640.944	712.96
641.392	659.56
641.84	630.96
642.287	604.16
642.735	583.96
643.182	581.26
643.63	581.66
644.078	576.56
644.525	585.76
644.973	605.06
645.42	607.76
645.867	638.46
646.315	653.76
646.762	670.46
647.21	698.56
647.657	722.96
648.104	757.46
648.551	786.26
648.999	827.36
649.446	911.36
649.893	989.56
650.34	1138.06
650.787	1360.86
651.234	1690.96
651.682	2175.36
652.129	2966.66
652.576	4249.66
653.023	6181.16
653.47	8324.86
653.917	10265.46
654.363	11738.26
654.81	12911.26
655.257	12176.26
655.704	8070.66
656.151	4847.36
656.598	3187.26
657.044	2277.76
657.491	1778.46
657.938	1438.96
658.385	1201.26
658.831	1053.96
659.278	952.36
659.724	847.76
660.171	789.36
660.618	731.36
661.064	692.96
661.511	672.26
661.957	667.56
662.404	648.96
662.85	656.96
663.296	635.36
663.743	575.56
664.189	554.66
664.635	542.26
665.082	535.16
665.528	538.56
665.974	530.36
666.42	515.26
666.867	527.66
667.313	501.46
667.759	485.96
668.205	470.96
668.651	466.46
669.097	471.56
669.543	465.96
669.989	456.76
670.435	465.36
670.881	458.86
671.327	468.36
671.773	491.96
672.219	515.46
672.665	567.06
673.11	608.46
673.556	647.46
674.002	691.06
674.448	674.46
674.893	569.46
675.339	498.86
675.785	462.36
676.23	435.36
676.676	414.36
677.122	396.76
677.567	382.46
678.013	388.46
678.458	379.16
678.904	374.76
679.349	368.06
679.794	374.06
680.24	361.96
680.685	365.26
681.131	362.76
681.576	362.16
682.021	368.96
682.466	361.86
682.912	368.06
683.357	373.66
683.802	404.46
684.247	432.06
684.692	476.76
685.137	518.16
685.583	567.66
686.028	578.96
686.473	545.06
686.918	470.36
687.363	428.46
687.807	411.36
688.252	383.56
688.697	371.36
689.142	352.86
689.587	349.26
690.032	339.16
690.477	357.96
690.921	370.96
691.366	407.96
691.811	419.56
692.255	448.26
692.7	483.56
693.145	536.16
693.589	755.96
694.034	1225.66
694.478	1640.26
694.923	1806.86
695.367	2346.76
695.812	1252.66
696.256	525.06
696.701	384.96
697.145	360.16
697.59	338.86
698.034	341.76
698.478	347.06
698.922	340.66
699.367	339.76
699.811	344.86
700.255	371.86
700.699	406.56
701.143	446.26
701.588	493.56
702.032	533.76
702.476	533.06
702.92	508.16
703.364	527.36
703.808	690.56
704.252	1125.26
704.696	1565.76
705.14	1746.46
705.584	2210.16
706.027	1123.46
706.471	550.26
706.915	415.96
707.359	368.16
707.803	333.26
708.246	330.66
708.69	324.26
709.134	324.66
709.577	322.66
710.021	333.76
710.465	326.06
710.908	318.26
711.352	317.16
711.795	330.76
712.239	368.86
712.682	410.76
713.126	438.26
713.569	466.86
714.012	374.66
714.456	321.66
714.899	302.46
715.342	288.76
715.786	275.36
716.229	276.16
716.672	262.66
717.115	264.26
717.558	266.56
718.002	269.86
718.445	269.76
718.888	298.16
719.331	308.16
719.774	322.06
720.217	321.26
720.66	290.46
721.103	275.76
721.546	260.26
721.989	254.46
722.432	251.66
722.874	243.86
723.317	234.06
723.76	241.56
724.203	274.26
724.645	342.96
725.088	477.46
725.531	609.56
725.974	668.96
726.416	566.76
726.859	317.16
727.301	259.56
727.744	243.96
728.187	245.16
728.629	251.86
729.071	261.16
729.514	275.36
729.956	289.56
730.399	298.36
730.841	309.06
731.283	292.16
731.726	279.56
732.168	266.86
732.61	282.66
733.053	297.56
733.495	331.16
733.937	370.06
734.379	420.16
734.821	465.56
735.263	577.96
735.705	923.76
736.148	1734.76
736.59	2766.56
737.032	3152.16
737.474	2603.46
737.916	866.06
738.357	455.06
738.799	347.26
739.241	312.86
739.683	298.66
740.125	313.36
740.567	315.96
741.008	330.86
741.45	333.16
741.892	340.46
742.334	362.56
742.775	379.06
743.217	361.36
743.658	286.86
744.1	271.46
744.542	287.56
744.983	339.16
745.425	366.26
745.866	357.66
746.307	293.26
746.749	291.66
747.19	352.76
747.632	496.56
748.073	984.66
748.514	2053.26
748.956	3022.06
749.397	3840.46
749.838	3160.36
750.279	3083.96
750.72	1580.46
751.162	583.36
751.603	343.46
752.044	272.06
752.485	231.46
752.926	216.56
753.367	214.46
753.808	208.66
754.249	200.56
754.69	196.46
755.131	191.56
755.572	193.86
756.013	190.36
756.453	190.96
756.894	194.06
757.335	199.86
757.776	206.36
758.216	211.66
758.657	205.66
759.098	217.56
759.538	238.36
759.979	288.16
760.42	411.46
760.86	792.36
761.301	2050.36
761.741	4819.76
762.182	6651.76
762.622	4712.16
763.063	1384.46
763.503	563.36
