Data from 20171114-ORNL-Ar_H_NY_Subt18_08-05-05-939.txt Node
Date: Tue Nov 14 08:05:05 EST 2017
User: Ender
Spectrometer: HR+D1039
Trigger mode: 0
Integration Time (sec): 2.730000E-2
Scans to average: 10
Electric dark correction enabled: true
Nonlinearity correction enabled: false
Boxcar width: 0
XAxis mode: Wavelengths
Number of Pixels in Spectrum: 2048
>>>>>Begin Spectral Data<<<<<
187.836	-3.3
188.309	-3.3
188.782	-3.3
189.255	1.6
189.728	8
190.201	5.1
190.674	2.9
191.147	-1.7
191.619	-5.1
192.092	-6.2
192.565	4
193.038	0.4
193.511	-1.7
193.984	2.3
194.456	-1.5
194.929	-0.5
195.402	-1.4
195.874	-2.9
196.347	-1
196.82	-8.8
197.292	3
197.765	-3.1
198.237	-8.2
198.71	3.2
199.182	-4.3
199.655	0.2
200.127	-2.5
200.6	-3.3
201.072	-1.4
201.544	-4.7
202.017	0.2
202.489	2.4
202.961	0.2
203.433	-3.5
203.906	-5.5
204.378	-1
204.85	-6.4
205.322	-4.5
205.794	1.9
206.266	-1.3
206.739	-8.1
207.211	9
207.683	-11.6
208.155	-3.5
208.627	-4
209.099	-7.3
209.57	-5.5
210.042	-5.6
210.514	-6.1
210.986	-1.3
211.458	-2.4
211.93	-7
212.402	1.4
212.873	-5.7
213.345	-10.1
213.817	-12.5
214.288	-9.8
214.76	-11.4
215.232	-0.7
215.703	1.3
216.175	-4.5
216.646	-5.7
217.118	-6.5
217.589	-2.8
218.061	-0
218.532	-3.9
219.004	3.6
219.475	-5.8
219.946	-0.5
220.418	-6.5
220.889	0.5
221.36	-4.8
221.832	-2.5
222.303	-5.1
222.774	-6.8
223.245	-11.5
223.717	-8.5
224.188	-6.5
224.659	-6.4
225.13	-7.8
225.601	-4.6
226.072	-2.1
226.543	-0.4
227.014	3
227.485	2.7
227.956	-16.2
228.427	-4.5
228.898	-1.7
229.369	5.9
229.839	-3.7
230.31	-9.9
230.781	4.7
231.252	-1.5
231.722	0.4
232.193	-2.6
232.664	-0.4
233.135	7
233.605	0.3
234.076	-3.1
234.546	1.2
235.017	9.6
235.487	-1.6
235.958	-2.8
236.428	-2.8
236.899	4.1
237.369	2.6
237.84	-3.2
238.31	4.6
238.78	4.5
239.251	-3.8
239.721	7.7
240.191	3.6
240.662	-1
241.132	8.3
241.602	3.2
242.072	4.3
242.542	6.4
243.013	0.6
243.483	5.9
243.953	7.9
244.423	3.9
244.893	-4
245.363	7.6
245.833	2.3
246.303	2.3
246.773	7.4
247.243	7.9
247.712	3.6
248.182	15.8
248.652	9.9
249.122	-1.3
249.592	13.6
250.061	15.9
250.531	35.4
251.001	17.3
251.471	22.5
251.94	18.8
252.41	10.9
252.879	3.2
253.349	12.1
253.818	11.2
254.288	7
254.757	7.1
255.227	5.3
255.696	9
256.166	3.8
256.635	9.8
257.105	10.1
257.574	4.9
258.043	12.2
258.513	18.2
258.982	21.1
259.451	13
259.92	17.3
260.389	11.9
260.859	18
261.328	18.2
261.797	19.5
262.266	15.1
262.735	12.3
263.204	9.2
263.673	4.5
264.142	10.7
264.611	-1.6
265.08	5.4
265.549	2.3
266.018	7.9
266.487	3.3
266.955	-2.6
267.424	3.9
267.893	6.5
268.362	9.2
268.83	8.6
269.299	15.2
269.768	7.3
270.236	5.4
270.705	3.8
271.174	7.6
271.642	7.4
272.111	11.8
272.579	22.2
273.048	29.3
273.516	25.6
273.985	25.3
274.453	24.1
274.922	22.9
275.39	9.7
275.858	14.6
276.327	16
276.795	27
277.263	18.4
277.731	34.1
278.2	60.3
278.668	68.1
279.136	59.5
279.604	23
280.072	18
280.54	19
281.008	11.7
281.477	20.6
281.945	17.9
282.413	18.4
282.881	19.4
283.348	9.6
283.816	7.9
284.284	16.9
284.752	24.6
285.22	18.9
285.688	14.2
286.156	23.6
286.623	52.8
287.091	63.3
287.559	33.7
288.026	21.9
288.494	23.7
288.962	7.9
289.429	14.2
289.897	18.4
290.364	20.4
290.832	20
291.3	17.6
291.767	15.3
292.234	21.4
292.702	17.4
293.169	14.4
293.637	25
294.104	20.5
294.571	9.1
295.039	16.4
295.506	19.4
295.973	22.7
296.44	16.4
296.908	21.7
297.375	23.1
297.842	24
298.309	18.9
298.776	16.3
299.243	22.7
299.71	14.7
300.177	24.3
300.644	13.7
301.111	23.9
301.578	28.2
302.045	21
302.512	23.5
302.979	33.1
303.446	25.5
303.913	22.7
304.379	21.8
304.846	30
305.313	24.1
305.78	24
306.246	29.6
306.713	30.9
307.18	37.4
307.646	29.3
308.113	32.4
308.579	25.8
309.046	29.2
309.512	32.3
309.979	22.1
310.445	33.9
310.912	33.2
311.378	38.4
311.845	33.5
312.311	37.3
312.777	36.4
313.244	30
313.71	40.7
314.176	40.6
314.642	34.4
315.109	36
315.575	42.6
316.041	41.7
316.507	45.6
316.973	41.1
317.439	33.9
317.905	38.3
318.371	39.6
318.837	42.6
319.303	33.2
319.769	35.3
320.235	40.9
320.701	37.1
321.167	39.1
321.633	44.8
322.099	44.3
322.564	48.3
323.03	37.3
323.496	39.1
323.962	47.1
324.427	38.5
324.893	40.6
325.359	38.8
325.824	45.9
326.29	42.7
326.755	42.2
327.221	43.1
327.686	43
328.152	51.5
328.617	42.2
329.083	53.6
329.548	52.8
330.014	47.4
330.479	43
330.944	48.9
331.41	46.5
331.875	45.4
332.34	48.5
332.805	40.3
333.271	50.7
333.736	45
334.201	57
334.666	49.8
335.131	59.1
335.596	52.5
336.061	51.6
336.526	44.6
336.991	49.5
337.456	54.9
337.921	58.6
338.386	49.5
338.851	48
339.316	54.2
339.781	49.6
340.246	57.8
340.711	52.7
341.175	48.3
341.64	50.8
342.105	55.8
342.569	64.4
343.034	62.4
343.499	56
343.963	52.7
344.428	69.6
344.893	69.8
345.357	64.1
345.822	62.9
346.286	61.6
346.751	77.4
347.215	69.9
347.679	72.8
348.144	100.6
348.608	83.4
349.073	82.4
349.537	77.7
350.001	83.7
350.465	91.3
350.93	83.3
351.394	83.1
351.858	77.7
352.322	93
352.786	85.4
353.25	108.3
353.715	113.5
354.179	98.8
354.643	127.5
355.107	130.4
355.571	114
356.035	109.6
356.498	122.4
356.962	133.7
357.426	135.6
357.89	121.6
358.354	98.5
358.818	88.3
359.281	85.3
359.745	89
360.209	79.7
360.673	76.6
361.136	80.5
361.6	92.4
362.064	85.7
362.527	88
362.991	95.4
363.454	84.9
363.918	80.3
364.381	86.8
364.845	84
365.308	88.5
365.772	90.7
366.235	88.6
366.698	89.4
367.162	88.8
367.625	93.2
368.088	86.2
368.552	96.2
369.015	94.2
369.478	97.6
369.941	103.5
370.404	105.3
370.867	109.7
371.331	107
371.794	115.5
372.257	112.6
372.72	122.2
373.183	111.8
373.646	107.8
374.109	104.1
374.572	108.4
375.035	113
375.497	109
375.96	103.2
376.423	104.4
376.886	113.5
377.349	114.1
377.811	105.3
378.274	113
378.737	114
379.199	116.8
379.662	112.5
380.125	116.8
380.587	116.6
381.05	123.9
381.512	129.1
381.975	132
382.437	133.9
382.9	130.1
383.362	139.4
383.825	140.6
384.287	148.3
384.75	139.8
385.212	138.4
385.674	142.6
386.136	142
386.599	124.4
387.061	136
387.523	134.4
387.985	135.9
388.447	149.3
388.91	146.1
389.372	163
389.834	156.9
390.296	148.9
390.758	155.8
391.22	165
391.682	213.3
392.144	293.9
392.606	234.7
393.068	170.7
393.529	170.1
393.991	156.3
394.453	154.4
394.915	155.2
395.377	193.1
395.838	213.6
396.3	152.4
396.762	141.2
397.224	134.4
397.685	137
398.147	132.2
398.608	129.8
399.07	132.5
399.531	131.2
399.993	144.6
400.454	153.7
400.916	150.8
401.377	142.8
401.839	150.8
402.3	153.4
402.762	165.5
403.223	181.2
403.684	169.2
404.145	158.7
404.607	159.7
405.068	166.1
405.529	175.8
405.99	195.9
406.451	168.6
406.913	174.5
407.374	164.1
407.835	161.8
408.296	168.9
408.757	175.9
409.218	188.6
409.679	183.3
410.14	174.9
410.601	174.4
411.062	183.1
411.522	189.7
411.983	188.4
412.444	172.2
412.905	184.1
413.366	180.2
413.826	190.2
414.287	221.3
414.748	258.5
415.208	250.9
415.669	208.4
416.13	208
416.59	199
417.051	213.2
417.511	221.8
417.972	245.2
418.432	249.4
418.893	286.7
419.353	254.1
419.814	195
420.274	179.2
420.734	181.9
421.195	201.8
421.655	202.2
422.115	197.6
422.576	194
423.036	200.1
423.496	208.6
423.956	217.4
424.416	228.1
424.876	268.8
425.336	259.5
425.797	268.1
426.257	257.9
426.717	238.9
427.177	230.3
427.637	225
428.097	241.8
428.556	250.3
429.016	267.6
429.476	262.1
429.936	267.2
430.396	271.6
430.856	290
431.315	324.3
431.775	351.3
432.235	383.6
432.694	351.6
433.154	362
433.614	398.7
434.073	342.3
434.533	283.7
434.993	271.8
435.452	278.5
435.912	296.3
436.371	289.3
436.83	289.1
437.29	270.7
437.749	252.3
438.209	237.6
438.668	273.2
439.127	288.3
439.587	268.2
440.046	249.5
440.505	264.6
440.964	286
441.424	324.4
441.883	308.2
442.342	260.8
442.801	219.3
443.26	218
443.719	224.3
444.178	213.7
444.637	207.1
445.096	225.2
445.555	227.7
446.014	222.8
446.473	222.8
446.932	226.4
447.391	229.4
447.849	228.8
448.308	214.8
448.767	224
449.226	235
449.685	233.3
450.143	244.1
450.602	237.6
451.061	228.1
451.519	233.4
451.978	229.9
452.436	234.8
452.895	235
453.353	253.7
453.812	235.6
454.27	233.1
454.729	240.6
455.187	236.2
455.646	236.6
456.104	242.8
456.562	261.3
457.021	269.8
457.479	262.9
457.937	263.9
458.395	272.3
458.854	244.3
459.312	252.9
459.77	272
460.228	256.2
460.686	240.4
461.144	249.9
461.602	242.1
462.06	241.2
462.518	251.7
462.976	258.6
463.434	258.7
463.892	264.8
464.35	270.3
464.808	288.4
465.266	264.1
465.724	270.5
466.181	275.3
466.639	269.3
467.097	296.7
467.555	298.4
468.012	300.1
468.47	314.7
468.928	329.3
469.385	344.3
469.843	345.4
470.3	345.2
470.758	366.1
471.215	380.2
471.673	404.8
472.13	404.2
472.588	416.5
473.045	369.8
473.503	380.8
473.96	399.5
474.417	403
474.875	431.4
475.332	467.6
475.789	452.5
476.246	463.4
476.704	479.5
477.161	512.5
477.618	526.1
478.075	552.5
478.532	615.7
478.989	681.6
479.446	792.8
479.903	770.9
480.36	805.7
480.817	857.3
481.274	962.1
481.731	1062.6
482.188	1170.3
482.645	1301.7
483.102	1410.9
483.558	1539
484.015	1598.4
484.472	1572
484.929	1528.3
485.385	1466.1
485.842	1433.4
486.299	1365.6
486.755	1290.5
487.212	1094
487.668	935.2
488.125	855.7
488.582	767.2
489.038	743.8
489.494	706.7
489.951	685.9
490.407	661.5
490.864	644
491.32	635.3
491.776	636
492.233	646.9
492.689	604.9
493.145	608.3
493.602	598.1
494.058	609.7
494.514	618.4
494.97	642.4
495.426	643.4
495.882	615.6
496.338	616.5
496.794	626.4
497.251	623.2
497.707	634.8
498.163	630.8
498.618	644.9
499.074	643.5
499.53	677.8
499.986	673.4
500.442	648.5
500.898	628.7
501.354	630.4
501.809	629.4
502.265	638.9
502.721	651.5
503.177	667.6
503.632	668.5
504.088	670.9
504.543	710.9
504.999	713.5
505.455	655.4
505.91	626.3
506.366	634.3
506.821	615
507.277	612.5
507.732	616.5
508.187	616.5
508.643	630
509.098	623.1
509.553	656.7
510.009	666.6
510.464	657.8
510.919	675.6
511.375	691.7
511.83	704.8
512.285	719.3
512.74	755.4
513.195	770
513.65	775.5
514.105	757.1
514.56	765.9
515.015	787.2
515.47	803.3
515.925	777.7
516.38	779.1
516.835	794.8
517.29	770.8
517.745	772.9
518.2	755.9
518.655	751.2
519.109	740.2
519.564	733.7
520.019	738.4
520.474	713.3
520.928	723.8
521.383	721
521.838	710.7
522.292	700.6
522.747	699.7
523.201	689.5
523.656	687.7
524.11	683.1
524.565	685.8
525.019	676.8
525.474	693.8
525.928	696.3
526.382	691.4
526.837	694.4
527.291	686.7
527.745	688
528.2	686.8
528.654	682.8
529.108	679.5
529.562	672.2
530.016	683.3
530.47	689
530.925	672.6
531.379	689.9
531.833	699.3
532.287	696
532.741	687.1
533.195	695.2
533.649	704.2
534.103	718.6
534.556	698.5
535.01	697.1
535.464	698.9
535.918	710
536.372	710.6
536.826	702.3
537.279	703.9
537.733	700.9
538.187	701.3
538.64	705.8
539.094	706.2
539.548	727.7
540.001	710.1
540.455	713.2
540.908	709.9
541.362	735.1
541.815	721.1
542.269	746.3
542.722	746.3
543.175	756.9
543.629	755.5
544.082	771
544.536	768.9
544.989	769.2
545.442	785.7
545.895	767.1
546.349	774.3
546.802	770
547.255	788.6
547.708	786.8
548.161	803.4
548.614	813.4
549.067	813.5
549.52	805.8
549.973	795.6
550.426	793.2
550.879	771.6
551.332	783.3
551.785	784.2
552.238	789.8
552.691	793.9
553.144	808.3
553.596	837.8
554.049	838.3
554.502	866.8
554.955	892.1
555.407	892.9
555.86	884.4
556.313	880.5
556.765	863.3
557.218	869.8
557.67	857.7
558.123	854.4
558.576	856.7
559.028	863.7
559.48	864.2
559.933	850
560.385	818.4
560.838	789.5
561.29	762.4
561.742	761.9
562.195	748
562.647	743.2
563.099	752.4
563.551	745.6
564.004	757.4
564.456	757.7
564.908	740.2
565.36	736
565.812	712.1
566.264	699.4
566.716	697.3
567.168	694
567.62	699.3
568.072	684.9
568.524	678.8
568.976	672.6
569.428	651.5
569.88	640.9
570.332	665.1
570.784	661.8
571.235	660.2
571.687	671.9
572.139	675.4
572.59	698.4
573.042	688.5
573.494	691.3
573.945	681.6
574.397	660.3
574.849	675
575.3	679
575.752	667.1
576.203	662.1
576.655	669.9
577.106	648.1
577.557	635.3
578.009	639.8
578.46	635.3
578.912	625.8
579.363	637.5
579.814	645.4
580.265	633.6
580.717	646.8
581.168	635.9
581.619	643.8
582.07	659.5
582.521	655.8
582.972	653.1
583.423	650.3
583.875	652.8
584.326	677.6
584.777	715.3
585.227	788.2
585.678	874.4
586.129	957.8
586.58	1035.1
587.031	1128
587.482	1263.5
587.933	1448.5
588.384	1255.8
588.834	932.5
589.285	771.5
589.736	752.9
590.186	742.2
590.637	731.7
591.088	703.8
591.538	711.2
591.989	708.4
592.439	696.7
592.89	699.1
593.34	682.5
593.791	684.6
594.241	673.2
594.692	680.4
595.142	677.3
595.593	666.2
596.043	682.1
596.493	686.8
596.943	684.1
597.394	694.7
597.844	678.7
598.294	691.1
598.744	724.4
599.195	732.4
599.645	769.4
600.095	819.5
600.545	876.9
600.995	915.9
601.445	975.4
601.895	1032.7
602.345	1074.4
602.795	1053.6
603.245	1016.8
603.695	976
604.145	910.9
604.594	862.4
605.044	817.4
605.494	767.3
605.944	719.3
606.393	710.2
606.843	686.8
607.293	700.3
607.743	694
608.192	709.6
608.642	724.1
609.091	735.6
609.541	731.7
609.99	735.2
610.44	735.1
610.889	694.1
611.339	663.1
611.788	655.1
612.238	666.1
612.687	686.9
613.136	685.8
613.586	705.4
614.035	690.3
614.484	719.7
614.933	712.3
615.383	711.4
615.832	706.3
616.281	690.3
616.73	660.8
617.179	636.3
617.628	615.4
618.077	607.1
618.526	594.5
618.975	592
619.424	579.7
619.873	568.6
620.322	573.7
620.771	566
621.22	575.8
621.669	563.8
622.118	553.5
622.567	544
623.015	535.6
623.464	538.1
623.913	528.2
624.361	517.4
624.81	517
625.259	525.6
625.707	525.1
626.156	523.5
626.604	533.3
627.053	525.9
627.501	524.5
627.95	537.1
628.398	549.7
628.847	536
629.295	533.1
629.744	536.2
630.192	544.3
630.64	532.6
631.089	537
631.537	540.3
631.985	545.4
632.433	556.9
632.881	564.1
633.33	619.5
633.778	597.2
634.226	529.3
634.674	532.8
635.122	547.5
635.57	561.2
636.018	588.1
636.466	534.9
636.914	524.6
637.362	535.7
637.81	537.5
638.258	536.3
638.705	543.8
639.153	565.7
639.601	568.4
640.049	596
640.497	630
640.944	646.4
641.392	600.4
641.84	566
642.287	540.7
642.735	521.6
643.182	539.1
643.63	536
644.078	540.5
644.525	556.1
644.973	555.5
645.42	561.4
645.867	578.7
646.315	597.9
646.762	619.2
647.21	643.6
647.657	658
648.104	697.3
648.551	731.3
648.999	772.7
649.446	848.7
649.893	920.1
650.34	1079.7
650.787	1283
651.234	1593.6
651.682	2070
652.129	2810
652.576	4069.6
653.023	6019.1
653.47	8278.7
653.917	10457.6
654.363	12173
654.81	13582.9
655.257	12906.4
655.704	8384.3
656.151	4974.1
656.598	3202.2
657.044	2281.8
657.491	1746.3
657.938	1402.1
658.385	1169.4
658.831	1016.8
659.278	887.9
659.724	795.1
660.171	732.9
660.618	667.6
661.064	636.5
661.511	622.7
661.957	603.6
662.404	595.8
662.85	611.6
663.296	579.3
663.743	516.2
664.189	498.8
664.635	496.4
665.082	486.2
665.528	483.3
665.974	482.2
666.42	472.1
666.867	463.8
667.313	454.7
667.759	442.3
668.205	436.2
668.651	449.4
669.097	444.5
669.543	467.1
669.989	435
670.435	412.6
670.881	407.2
671.327	414.4
671.773	433.6
672.219	456.7
672.665	496.3
673.11	542.5
673.556	582.7
674.002	610.4
674.448	611.5
674.893	506
675.339	444.7
675.785	405.2
676.23	386.5
676.676	362.3
677.122	356.7
677.567	340.7
678.013	332.2
678.458	329.6
678.904	334.4
679.349	320.2
679.794	319.1
680.24	321.4
680.685	320
681.131	315.2
681.576	317.3
682.021	327.3
682.466	319.1
682.912	321.1
683.357	322
683.802	340.6
684.247	378.8
684.692	416
685.137	459.5
685.583	492.1
686.028	517.5
686.473	474.1
686.918	410.9
687.363	384.8
687.807	351.1
688.252	334.7
688.697	330.2
689.142	304.8
689.587	294.2
690.032	302.1
690.477	303.3
690.921	322.1
691.366	354.3
691.811	361
692.255	389.6
692.7	421
693.145	458.7
693.589	623.2
694.034	1004.1
694.478	1390.6
694.923	1603.3
695.367	2112
695.812	1111.4
696.256	450.4
696.701	341.7
697.145	313.7
697.59	294.9
698.034	294.2
698.478	298.6
698.922	298.8
699.367	294.8
699.811	316.3
700.255	323.9
700.699	354.2
701.143	386
701.588	432.7
702.032	472.3
702.476	469.2
702.92	441.5
703.364	441.9
703.808	576.6
704.252	922.7
704.696	1320.4
705.14	1531.9
705.584	1966.7
706.027	980.5
706.471	479.9
706.915	362.7
707.359	324.1
707.803	292.9
708.246	283.6
708.69	282.6
709.134	283.5
709.577	283.3
710.021	284.6
710.465	282.3
710.908	275.1
711.352	270.4
711.795	281.4
712.239	319.4
712.682	353.8
713.126	383.2
713.569	427.9
714.012	351.5
714.456	295.4
714.899	270.8
715.342	247
715.786	232
716.229	233.8
716.672	234
717.115	221.9
717.558	227.9
718.002	236.2
718.445	237.2
718.888	260.1
719.331	267.2
719.774	281.3
720.217	277.3
720.66	264.2
721.103	247.1
721.546	231.1
721.989	225.6
722.432	209
722.874	217.5
723.317	203.5
723.76	212.4
724.203	234.8
724.645	284.5
725.088	403.8
725.531	508
725.974	579.3
726.416	506.4
726.859	279.4
727.301	221.4
727.744	213.4
728.187	214.7
728.629	219.9
729.071	221.4
729.514	235.6
729.956	243.4
730.399	257.6
730.841	267.2
731.283	244.7
731.726	242
732.168	235.9
732.61	230.7
733.053	262.2
733.495	281
733.937	316.6
734.379	357.9
734.821	392.4
735.263	480.9
735.705	740.9
736.148	1393.5
736.59	2319.8
737.032	2829.9
737.474	2316.5
737.916	741.4
738.357	388.3
738.799	290.3
739.241	267.4
739.683	260.6
740.125	274.8
740.567	274.2
741.008	290.5
741.45	293.2
741.892	295.2
742.334	322.3
742.775	326.3
743.217	310
743.658	248.2
744.1	229
744.542	242.8
744.983	284.4
745.425	308.9
745.866	315
746.307	253.7
746.749	262
747.19	298.1
747.632	408.7
748.073	766.5
748.514	1649.2
748.956	2592.3
749.397	3246.3
749.838	2680
750.279	2741.5
750.72	1384.9
751.162	497.6
751.603	285.2
752.044	232.9
752.485	194.8
752.926	191.8
753.367	183.2
753.808	176.8
754.249	170.6
754.69	168.6
755.131	165.7
755.572	170.5
756.013	164
756.453	169.3
756.894	169
757.335	174.7
757.776	180.8
758.216	175.5
758.657	178.2
759.098	180.2
759.538	204.8
759.979	235.2
760.42	333.4
760.86	614.2
761.301	1590.1
761.741	3930.4
762.182	5995.9
762.622	4207.4
763.063	1195.5
763.503	489.9
763.943	313.9
764.384	305.2
764.824	372
765.264	405.6
765.705	280.1
766.145	192
766.585	171.2
767.025	158
767.465	165.4
767.906	220.1
768.346	293.9
768.786	309.5
769.226	236
769.666	277.1
770.106	548.5
770.546	1358.9
770.986	2420.5
771.426	2204.5
771.866	719.6
772.306	292.9
772.745	186.7
773.185	157.1
773.625	151.3
774.065	148.6
774.505	178.8
774.944	266.3
775.384	598.2
775.824	1102.8
776.263	1101.9
776.703	460.2
777.142	206.2
777.582	143.8
778.021	123.3
778.461	130.7
778.9	131.1
779.34	119.5
779.779	106.3
780.219	98.4
780.658	96.8
781.097	103.6
781.537	100
781.976	103.4
782.415	98.1
782.855	92
783.294	94.2
783.733	99.7
784.172	101.7
784.611	89.7
785.05	95.4
785.489	104
785.928	109.9
786.367	111.5
786.806	104.4
787.245	118.1
787.684	122.3
788.123	136
788.562	123.8
789.001	111.5
789.44	118.2
789.879	117
790.317	104.8
790.756	115
791.195	121.7
791.634	130.3
792.072	186.9
792.511	314.3
792.95	882.9
793.388	1946.8
793.827	1787
794.265	612.9
794.704	258.7
795.142	168.6
795.581	138.1
796.019	122.6
796.458	113.2
796.896	112.2
797.334	118.5
797.773	142.9
798.211	191.4
798.649	384.1
799.087	904.6
799.526	1446.6
799.964	1815
800.402	1865.6
800.84	701.1
801.278	274.9
801.716	172.8
802.154	131.8
802.592	134.3
803.03	127
803.468	113.8
803.906	131.7
804.344	135.6
804.782	129.2
805.22	115.8
805.658	120.4
806.096	136.2
806.533	140.9
806.971	164.2
807.409	202.2
