Data from 20171114-ORNL-Ar_H_NY_Subt18_08-07-29-251.txt Node
Date: Tue Nov 14 08:07:29 EST 2017
User: Ender
Spectrometer: HR+D1039
Trigger mode: 0
Integration Time (sec): 2.730000E-2
Scans to average: 10
Electric dark correction enabled: true
Nonlinearity correction enabled: false
Boxcar width: 0
XAxis mode: Wavelengths
Number of Pixels in Spectrum: 2048
>>>>>Begin Spectral Data<<<<<
187.836	-7.08
188.309	-7.08
188.782	-7.08
189.255	-4.08
189.728	-3.58
190.201	11.52
190.674	4.82
191.147	5.42
191.619	-9.38
192.092	-1.18
192.565	1.82
193.038	-2.98
193.511	1.72
193.984	4.52
194.456	1.92
194.929	1.73
195.402	-2.08
195.874	-3.18
196.347	-1.18
196.82	-6.28
197.292	1.22
197.765	0.73
198.237	-1.68
198.71	2.62
199.182	-5.08
199.655	4.72
200.127	-1.98
200.6	-1.98
201.072	2.92
201.544	0.52
202.017	-4.78
202.489	5.32
202.961	-2.38
203.433	1.42
203.906	-5.48
204.378	-9.98
204.85	-8.68
205.322	-6.78
205.794	-1.88
206.266	2.02
206.739	-9.58
207.211	-1.77
207.683	-8.67
208.155	-7.28
208.627	-6.18
209.099	-4.48
209.57	-10.38
210.042	-0.48
210.514	-3.77
210.986	-4.48
211.458	-7.48
211.93	-7.08
212.402	2.72
212.873	-3.68
213.345	-5.98
213.817	-15.28
214.288	-5.28
214.76	-9.98
215.232	-5.08
215.703	0.23
216.175	-9.38
216.646	-11.58
217.118	-11.48
217.589	1.62
218.061	-0.38
218.532	-6.48
219.004	-5.18
219.475	-0.98
219.946	-3.68
220.418	-8.38
220.889	4.72
221.36	-0.17
221.832	-4.68
222.303	-5.18
222.774	-1.08
223.245	-8.08
223.717	-9.58
224.188	-3.38
224.659	-6.38
225.13	-4.17
225.601	-4.68
226.072	5.82
226.543	-1.88
227.014	-1.98
227.485	-7.38
227.956	-10.68
228.427	1.92
228.898	1.52
229.369	2.12
229.839	-6.78
230.31	-6.48
230.781	1.42
231.252	-1.28
231.722	-4.68
232.193	-0.58
232.664	0.02
233.135	-1.28
233.605	2.62
234.076	-4.58
234.546	-3.38
235.017	-0.68
235.487	-0.28
235.958	-5.38
236.428	0.12
236.899	-3.98
237.369	-1.27
237.84	-3.08
238.31	3.12
238.78	2.42
239.251	1.73
239.721	0.82
240.191	-2.77
240.662	-0.38
241.132	-5.78
241.602	-6.38
242.072	-3.58
242.542	4.73
243.013	2.42
243.483	3.32
243.953	1.62
244.423	-0.17
244.893	-0.08
245.363	9.62
245.833	2.12
246.303	-7.48
246.773	-3.08
247.243	2.32
247.712	6.32
248.182	6.02
248.652	-0.08
249.122	-2.38
249.592	5.42
250.061	13.92
250.531	26.12
251.001	13.62
251.471	20.02
251.94	13.32
252.41	5.83
252.879	2.62
253.349	9.22
253.818	9.52
254.288	4.42
254.757	1.83
255.227	-4.17
255.696	1.02
256.166	-1.27
256.635	11.52
257.105	6.52
257.574	5.62
258.043	6.62
258.513	6.82
258.982	11.42
259.451	3.42
259.92	12.02
260.389	5.92
260.859	13.42
261.328	8.23
261.797	16.62
262.266	6.62
262.735	4.02
263.204	1.42
263.673	-3.78
264.142	3.83
264.611	-3.48
265.08	-1.48
265.549	-7.27
266.018	3.92
266.487	-3.18
266.955	-2.88
267.424	-2.77
267.893	1.33
268.362	-2.88
268.83	-0.38
269.299	10.73
269.768	1.22
270.236	4.82
270.705	1.42
271.174	0.02
271.642	2.32
272.111	9.32
272.579	10.82
273.048	15.02
273.516	18.02
273.985	15.32
274.453	18.42
274.922	11.12
275.39	5.52
275.858	-2.68
276.327	7.62
276.795	14.52
277.263	5.32
277.731	18.62
278.2	37.22
278.668	46.42
279.136	38.02
279.604	13.52
280.072	12.62
280.54	5.92
281.008	8.22
281.477	4.12
281.945	6.22
282.413	7.92
282.881	13.32
283.348	-2.77
283.816	17.72
284.284	13.22
284.752	16.82
285.22	4.32
285.688	9.92
286.156	11.32
286.623	31.12
287.091	45.92
287.559	20.12
288.026	10.32
288.494	11.72
288.962	-1.18
289.429	5.52
289.897	10.33
290.364	10.12
290.832	15.42
291.3	8.42
291.767	9.83
292.234	15.22
292.702	10.82
293.169	11.02
293.637	17.12
294.104	11.02
294.571	5.22
295.039	3.02
295.506	12.32
295.973	12.92
296.44	11.12
296.908	15.73
297.375	16.02
297.842	11.82
298.309	5.62
298.776	5.52
299.243	11.62
299.71	5.32
300.177	13.42
300.644	15.12
301.111	12.83
301.578	14.22
302.045	9.62
302.512	19.12
302.979	13.12
303.446	16.72
303.913	11.92
304.379	11.52
304.846	20.12
305.313	14.82
305.78	11.32
306.246	22.72
306.713	18.02
307.18	20.92
307.646	17.42
308.113	23.92
308.579	17.42
309.046	25.23
309.512	20.52
309.979	12.82
310.445	17.32
310.912	20.32
311.378	23.42
311.845	20.83
312.311	24.02
312.777	22.82
313.244	27.02
313.71	32.72
314.176	24.73
314.642	22.32
315.109	22.82
315.575	26.92
316.041	26.52
316.507	28.22
316.973	33.12
317.439	27.02
317.905	24.52
318.371	29.52
318.837	27.62
319.303	26.12
319.769	26.02
320.235	26.12
320.701	25.72
321.167	27.32
321.633	31.23
322.099	22.62
322.564	30.72
323.03	25.62
323.496	30.23
323.962	27.83
324.427	32.22
324.893	32.12
325.359	24.62
325.824	30.72
326.29	26.22
326.755	29.02
327.221	25.12
327.686	33.42
328.152	34.33
328.617	30.02
329.083	34.12
329.548	42.42
330.014	38.52
330.479	23.02
330.944	35.72
331.41	32.52
331.875	34.73
332.34	33.73
332.805	36.52
333.271	36.32
333.736	30.12
334.201	44.42
334.666	42.52
335.131	46.32
335.596	39.72
336.061	42.12
336.526	35.72
336.991	33.83
337.456	46.33
337.921	33.02
338.386	33.62
338.851	35.12
339.316	36.42
339.781	35.42
340.246	39.32
340.711	38.82
341.175	39.12
341.64	25.02
342.105	36.62
342.569	43.32
343.034	44.42
343.499	47.42
343.963	35.12
344.428	47.12
344.893	49.72
345.357	48.82
345.822	53.52
346.286	50.72
346.751	58.92
347.215	51.92
347.679	54.12
348.144	73.82
348.608	65.02
349.073	54.02
349.537	56.12
350.001	63.32
350.465	67.62
350.93	62.32
351.394	67.73
351.858	56.73
352.322	64.62
352.786	70.73
353.25	80.32
353.715	84.62
354.179	79.92
354.643	92.23
355.107	90.82
355.571	82.92
356.035	80.42
356.498	91.52
356.962	93.52
357.426	97.92
357.89	95.23
358.354	62.82
358.818	66.22
359.281	68.73
359.745	61.33
360.209	61.92
360.673	57.12
361.136	68.73
361.6	68.02
362.064	68.62
362.527	66.52
362.991	72.12
363.454	62.02
363.918	63.62
364.381	64.62
364.845	72.52
365.308	68.72
365.772	68.52
366.235	71.92
366.698	60.52
367.162	70.12
367.625	71.62
368.088	70.02
368.552	71.02
369.015	73.32
369.478	81.12
369.941	82.32
370.404	76.22
370.867	87.82
371.331	82.62
371.794	92.22
372.257	85.02
372.72	100.22
373.183	93.52
373.646	85.12
374.109	84.83
374.572	86.92
375.035	94.42
375.497	91.02
375.96	87.92
376.423	88.02
376.886	94.12
377.349	90.82
377.811	90.02
378.274	93.92
378.737	92.82
379.199	90.42
379.662	93.62
380.125	98.92
380.587	101.12
381.05	102.92
381.512	107.12
381.975	118.92
382.437	110.52
382.9	105.82
383.362	117.62
383.825	122.23
384.287	127.72
384.75	122.52
385.212	118.82
385.674	112.22
386.136	115.62
386.599	105.82
387.061	109.92
387.523	111.12
387.985	115.72
388.447	130.42
388.91	118.23
389.372	141.42
389.834	138.82
390.296	124.42
390.758	127.52
391.22	145.82
391.682	185.12
392.144	269.52
392.606	203.22
393.068	149.92
393.529	147.02
393.991	132.42
394.453	132.12
394.915	139.72
395.377	174.82
395.838	194.02
396.3	139.72
396.762	129.02
397.224	116.12
397.685	115.42
398.147	113.62
398.608	114.92
399.07	112.92
399.531	118.23
399.993	120.23
400.454	135.92
400.916	128.92
401.377	125.42
401.839	133.52
402.3	126.62
402.762	151.22
403.223	160.42
403.684	159.82
404.145	134.52
404.607	140.02
405.068	145.62
405.529	147.62
405.99	170.73
406.451	151.92
406.913	154.02
407.374	138.72
407.835	141.23
408.296	147.73
408.757	152.02
409.218	161.22
409.679	155.12
410.14	158.42
410.601	158.42
411.062	172.23
411.522	169.62
411.983	172.72
412.444	153.82
412.905	155.02
413.366	163.12
413.826	169.52
414.287	196.02
414.748	233.02
415.208	227.92
415.669	190.42
416.13	181.92
416.59	176.42
417.051	193.72
417.511	196.52
417.972	209.22
418.432	222.12
418.893	259.93
419.353	233.72
419.814	179.82
420.274	167.32
420.734	165.52
421.195	183.92
421.655	177.33
422.115	167.72
422.576	175.52
423.036	179.52
423.496	184.82
423.956	196.92
424.416	205.72
424.876	245.02
425.336	235.62
425.797	229.12
426.257	223.12
426.717	216.42
427.177	210.73
427.637	202.33
428.097	212.82
428.556	222.62
429.016	243.42
429.476	240.62
429.936	251.42
430.396	255.42
430.856	263.32
431.315	292.12
431.775	321.22
432.235	349.52
432.694	328.42
433.154	325.93
433.614	352.32
434.073	304.12
434.533	264.22
434.993	243.02
435.452	258.73
435.912	269.42
436.371	257.42
436.83	254.92
437.29	243.02
437.749	223.62
438.209	225.52
438.668	240.12
439.127	264.73
439.587	234.33
440.046	226.93
440.505	227.83
440.964	245.22
441.424	290.83
441.883	284.62
442.342	238.53
442.801	211.62
443.26	208.92
443.719	202.32
444.178	199.12
444.637	186.73
445.096	200.72
445.555	210.52
446.014	209.83
446.473	208.12
446.932	221.92
447.391	205.42
447.849	214.33
448.308	202.02
448.767	208.33
449.226	217.42
449.685	215.42
450.143	232.62
450.602	223.32
451.061	205.23
451.519	211.42
451.978	211.42
452.436	225.43
452.895	218.03
453.353	233.42
453.812	224.12
454.27	225.52
454.729	217.12
455.187	219.92
455.646	222.02
456.104	226.12
456.562	246.12
457.021	252.02
457.479	241.92
457.937	248.52
458.395	242.72
458.854	235.12
459.312	233.82
459.77	255.43
460.228	234.22
460.686	222.23
461.144	225.32
461.602	225.33
462.06	225.83
462.518	236.02
462.976	238.42
463.434	240.32
463.892	240.52
464.35	253.52
464.808	267.82
465.266	252.43
465.724	255.72
466.181	252.62
466.639	255.82
467.097	269.62
467.555	272.23
468.012	281.62
468.47	281.62
468.928	307.82
469.385	310.92
469.843	324.23
470.3	317.42
470.758	339.93
471.215	355.52
471.673	385.32
472.13	371.92
472.588	385.82
473.045	347.72
473.503	350.72
473.96	369.02
474.417	381.52
474.875	410.22
475.332	437.93
475.789	431.42
476.246	441.62
476.704	446.52
477.161	480.32
477.618	483.52
478.075	518.72
478.532	579.02
478.989	659.93
479.446	739.33
479.903	724.33
480.36	765.52
480.817	805.32
481.274	913.23
481.731	1004.52
482.188	1094.22
482.645	1222.62
483.102	1311.82
483.558	1447.83
484.015	1485.92
484.472	1473.92
484.929	1445.12
485.385	1389.53
485.842	1344.03
486.299	1277.22
486.755	1211.52
487.212	1019.33
487.668	864.42
488.125	801.02
488.582	727.62
489.038	692.23
489.494	653.22
489.951	635.93
490.407	630.92
490.864	615.42
491.32	602.43
491.776	597.82
492.233	604.42
492.689	566.82
493.145	566.33
493.602	562.42
494.058	568.23
494.514	573.33
494.97	598.72
495.426	612.12
495.882	582.73
496.338	569.93
496.794	584.32
497.251	575.52
497.707	597.92
498.163	583.82
498.618	594.72
499.074	607.93
499.53	635.22
499.986	638.12
500.442	607.22
500.898	583.22
501.354	589.82
501.809	603.52
502.265	615.02
502.721	619.12
503.177	627.12
503.632	625.32
504.088	639.22
504.543	664.33
504.999	666.82
505.455	614.82
505.91	591.82
506.366	590.42
506.821	592.32
507.277	591.62
507.732	583.02
508.187	582.02
508.643	593.52
509.098	588.93
509.553	607.52
510.009	614.22
510.464	629.32
510.919	645.52
511.375	657.42
511.83	666.52
512.285	683.92
512.74	716.02
513.195	733.23
513.65	735.62
514.105	719.52
514.56	732.02
515.015	740.12
515.47	767.02
515.925	743.92
516.38	735.92
516.835	751.12
517.29	740.53
517.745	735.53
518.2	717.82
518.655	710.62
519.109	700.42
519.564	697.02
520.019	698.52
520.474	686.72
520.928	696.33
521.383	677.82
521.838	667.52
522.292	672.93
522.747	662.73
523.201	657.92
523.656	657.93
524.11	660.03
524.565	659.43
525.019	661.42
525.474	669.02
525.928	664.83
526.382	670.62
526.837	662.02
527.291	655.12
527.745	654.72
528.2	658.42
528.654	645.02
529.108	651.62
529.562	658.02
530.016	663.42
530.47	661.73
530.925	660.23
531.379	660.02
531.833	659.33
532.287	662.82
532.741	664.72
533.195	663.92
533.649	663.32
534.103	679.62
534.556	665.82
535.01	677.72
535.464	669.32
535.918	678.83
536.372	685.72
536.826	680.62
537.279	667.42
537.733	677.73
538.187	680.92
538.64	674.92
539.094	687.32
539.548	685.83
540.001	680.12
540.455	691.32
540.908	698.32
541.362	700.82
541.815	697.43
542.269	712.42
542.722	715.23
543.175	726.52
543.629	719.12
544.082	756.12
544.536	749.32
544.989	741.03
545.442	755.73
545.895	754.42
546.349	759.92
546.802	754.22
547.255	759.73
547.708	768.23
548.161	768.22
548.614	788.32
549.067	788.73
549.52	780.52
549.973	776.23
550.426	763.82
550.879	750.12
551.332	756.42
551.785	764.52
552.238	761.73
552.691	770.72
553.144	803.62
553.596	802.92
554.049	823.62
554.502	848.73
554.955	860.92
555.407	858.52
555.86	850.12
556.313	844.82
556.765	839.42
557.218	837.33
557.67	849.22
558.123	824.42
558.576	828.73
559.028	838.62
559.48	850.72
559.933	831.23
560.385	803.52
560.838	776.62
561.29	749.12
561.742	746.33
562.195	723.23
562.647	737.33
563.099	734.42
563.551	733.62
564.004	743.42
564.456	735.52
564.908	735.52
565.36	704.23
565.812	704.02
566.264	683.03
566.716	691.83
567.168	679.02
567.62	688.12
568.072	676.82
568.524	662.42
568.976	659.72
569.428	644.93
569.88	640.52
570.332	651.22
570.784	651.32
571.235	650.52
571.687	657.93
572.139	661.42
572.59	682.52
573.042	673.82
573.494	681.72
573.945	673.12
574.397	653.52
574.849	657.92
575.3	660.32
575.752	662.73
576.203	640.62
576.655	654.92
577.106	641.93
577.557	639.62
578.009	642.42
578.46	624.52
578.912	626.62
579.363	629.82
579.814	636.62
580.265	624.92
580.717	636.62
581.168	638.52
581.619	650.72
582.07	645.72
582.521	644.42
582.972	643.83
583.423	648.52
583.875	645.93
584.326	665.42
584.777	715.62
585.227	781.82
585.678	877.42
586.129	970.12
586.58	1032.62
587.031	1110.22
587.482	1258.12
587.933	1430.93
588.384	1246.42
588.834	934.12
589.285	769.22
589.736	752.82
590.186	743.42
590.637	732.32
591.088	718.53
591.538	709.43
591.989	701.43
592.439	701.22
592.89	687.32
593.34	678.62
593.791	673.82
594.241	676.72
594.692	680.12
595.142	670.82
595.593	668.82
596.043	673.22
596.493	690.12
596.943	689.33
597.394	698.73
597.844	695.73
598.294	703.42
598.744	721.73
599.195	748.23
599.645	778.73
600.095	828.92
600.545	882.83
600.995	923.22
601.445	988.32
601.895	1048.03
602.345	1081.03
602.795	1068.22
603.245	1020.92
603.695	969.52
604.145	912.93
604.594	875.72
605.044	823.12
605.494	768.72
605.944	715.42
606.393	708.52
606.843	694.62
607.293	701.72
607.743	700.02
608.192	718.82
608.642	731.12
609.091	735.92
609.541	736.92
609.99	732.53
610.44	737.83
610.889	686.22
611.339	670.12
611.788	667.33
612.238	681.83
612.687	698.32
613.136	700.52
613.586	717.92
614.035	708.03
614.484	728.32
614.933	734.82
615.383	718.12
615.832	708.03
616.281	696.72
616.73	655.12
617.179	640.52
617.628	624.82
618.077	611.62
618.526	600.72
618.975	589.42
619.424	582.32
619.873	588.42
620.322	599.32
620.771	581.82
621.22	573.02
621.669	574.62
622.118	561.72
622.567	553.83
623.015	549.92
623.464	549.23
623.913	542.42
624.361	528.72
624.81	533.73
625.259	539.12
625.707	524.42
626.156	543.23
626.604	552.02
627.053	532.52
627.501	535.72
627.95	550.62
628.398	547.72
628.847	547.53
629.295	553.93
629.744	554.02
630.192	551.33
630.64	540.32
631.089	538.42
631.537	562.43
631.985	563.02
632.433	575.73
632.881	592.12
633.33	635.22
633.778	625.02
634.226	546.92
634.674	545.83
635.122	555.92
635.57	576.32
636.018	602.12
636.466	568.12
636.914	534.73
637.362	549.83
637.81	557.92
638.258	552.92
638.705	558.02
639.153	587.92
639.601	595.32
640.049	618.22
640.497	647.62
640.944	670.42
641.392	619.32
641.84	587.22
642.287	566.62
642.735	547.22
643.182	558.33
643.63	557.02
644.078	556.22
644.525	569.12
644.973	566.32
645.42	585.33
645.867	598.43
646.315	618.33
646.762	629.62
647.21	665.83
647.657	699.12
648.104	719.12
648.551	745.32
648.999	802.82
649.446	884.02
649.893	968.02
650.34	1126.12
650.787	1332.53
651.234	1681.42
651.682	2197.52
652.129	3027.12
652.576	4381.12
653.023	6473.52
653.47	8830.23
653.917	11010.93
654.363	12684.73
654.81	13988.03
655.257	13293.93
655.704	8639.92
656.151	5100.72
656.598	3305.43
657.044	2342.82
657.491	1787.02
657.938	1428.23
658.385	1202.83
658.831	1045.03
659.278	925.23
659.724	830.12
660.171	758.72
660.618	692.92
661.064	660.62
661.511	647.62
661.957	627.92
662.404	623.12
662.85	625.33
663.296	602.12
663.743	542.72
664.189	520.72
664.635	513.23
665.082	513.62
665.528	507.02
665.974	495.62
666.42	489.22
666.867	488.62
667.313	477.52
667.759	458.92
668.205	462.42
668.651	472.92
669.097	471.62
669.543	483.22
669.989	459.92
670.435	438.12
670.881	419.53
671.327	429.23
671.773	457.22
672.219	478.22
672.665	534.72
673.11	563.72
673.556	609.42
674.002	639.73
674.448	639.52
674.893	537.02
675.339	458.02
675.785	420.52
676.23	400.52
676.676	378.43
677.122	380.72
677.567	357.12
678.013	355.73
678.458	347.23
678.904	347.12
679.349	334.02
679.794	333.82
680.24	341.33
680.685	333.92
681.131	337.82
681.576	335.62
682.021	343.23
682.466	337.62
682.912	333.82
683.357	348.02
683.802	363.33
684.247	394.62
684.692	443.22
685.137	479.82
685.583	516.23
686.028	538.02
686.473	495.83
686.918	422.62
687.363	402.62
687.807	382.52
688.252	349.33
688.697	339.02
689.142	330.62
689.587	318.72
690.032	311.32
690.477	329.33
690.921	345.92
691.366	374.92
691.811	386.33
692.255	420.82
692.7	453.62
693.145	485.03
693.589	690.02
694.034	1101.42
694.478	1496.93
694.923	1673.52
695.367	2174.93
695.812	1140.83
696.256	477.42
696.701	357.62
697.145	328.32
697.59	320.32
698.034	313.12
698.478	317.03
698.922	315.33
699.367	316.43
699.811	325.32
700.255	346.42
700.699	372.43
701.143	413.03
701.588	463.02
702.032	507.62
702.476	491.92
702.92	468.83
703.364	474.82
703.808	624.12
704.252	1009.52
704.696	1424.03
705.14	1618.83
705.584	2040.62
706.027	1022.22
706.471	496.32
706.915	381.33
707.359	337.73
707.803	306.82
708.246	300.33
708.69	304.83
709.134	307.52
709.577	303.73
710.021	307.83
710.465	297.22
710.908	284.02
711.352	291.62
711.795	299.92
712.239	345.43
712.682	366.52
713.126	400.82
713.569	450.62
714.012	359.12
714.456	312.12
714.899	286.93
715.342	261.12
715.786	249.62
716.229	251.83
716.672	246.92
717.115	243.43
717.558	240.72
718.002	242.83
718.445	255.73
718.888	272.33
719.331	284.72
719.774	293.02
720.217	289.82
720.66	269.42
721.103	261.72
721.546	246.22
721.989	234.72
722.432	218.93
722.874	225.92
723.317	228.82
723.76	228.32
724.203	255.12
724.645	307.43
725.088	441.02
725.531	545.62
725.974	615.42
726.416	527.52
726.859	297.92
727.301	239.12
727.744	223.72
728.187	219.62
728.629	232.92
729.071	238.52
729.514	252.12
729.956	266.92
730.399	269.82
730.841	276.02
731.283	262.53
731.726	250.92
732.168	245.42
732.61	264.32
733.053	279.72
733.495	308.22
733.937	351.53
734.379	384.82
734.821	419.62
735.263	529.52
735.705	812.02
736.148	1534.62
736.59	2516.22
737.032	2944.32
737.474	2364.92
737.916	773.32
738.357	412.02
738.799	307.42
739.241	285.02
739.683	267.12
740.125	284.92
740.567	293.73
741.008	305.52
741.45	308.23
741.892	311.32
742.334	330.03
742.775	342.12
743.217	330.42
743.658	258.42
744.1	246.42
744.542	254.02
744.983	305.62
745.425	329.33
745.866	335.42
746.307	272.43
746.749	274.62
747.19	320.62
747.632	450.92
748.073	878.83
748.514	1834.53
748.956	2757.53
749.397	3470.62
749.838	2872.12
750.279	2853.03
750.72	1436.72
751.162	526.93
751.603	307.72
752.044	249.62
752.485	211.32
752.926	205.83
753.367	190.02
753.808	191.72
754.249	178.42
754.69	186.02
755.131	176.12
755.572	176.82
756.013	178.72
756.453	170.92
756.894	181.62
757.335	184.62
757.776	192.12
758.216	191.32
758.657	194.33
759.098	196.32
759.538	217.82
759.979	266.02
760.42	367.02
760.86	699.62
761.301	1810.93
761.741	4334.72
762.182	6197.02
762.622	4329.22
763.063	1254.83
763.503	526.62
