Data from 20171114-ORNL-Ar_H_NY_Subt18_08-06-16-093.txt Node
Date: Tue Nov 14 08:06:16 EST 2017
User: Ender
Spectrometer: HR+D1039
Trigger mode: 0
Integration Time (sec): 2.730000E-2
Scans to average: 10
Electric dark correction enabled: true
Nonlinearity correction enabled: false
Boxcar width: 0
XAxis mode: Wavelengths
Number of Pixels in Spectrum: 2048
>>>>>Begin Spectral Data<<<<<
187.836	-6.08
188.309	-6.08
188.782	-6.08
189.255	-3.08
189.728	-0.88
190.201	5.72
190.674	0.22
191.147	5.22
191.619	1.12
192.092	0.82
192.565	3.52
193.038	-2.88
193.511	2.02
193.984	-2.28
194.456	1.02
194.929	1.82
195.402	-4.48
195.874	-1.78
196.347	0.02
196.82	-6.88
197.292	7.52
197.765	-3.38
198.237	-5.98
198.71	-1.18
199.182	-5.88
199.655	1.72
200.127	5.32
200.6	-2.88
201.072	-1.98
201.544	-2.98
202.017	-2.48
202.489	4.42
202.961	-4.88
203.433	-3.08
203.906	-8.68
204.378	-2.88
204.85	-0.58
205.322	-6.38
205.794	8.12
206.266	-1.78
206.739	-8.18
207.211	2.02
207.683	-12.18
208.155	-2.88
208.627	-6.68
209.099	0.52
209.57	-9.68
210.042	-3.48
210.514	-1.48
210.986	-0.08
211.458	-8.98
211.93	-3.18
212.402	3.52
212.873	-6.38
213.345	-8.88
213.817	-6.78
214.288	-5.78
214.76	-11.08
215.232	0.62
215.703	-0.48
216.175	-0.98
216.646	-7.68
217.118	-4.08
217.589	-7.38
218.061	-0.08
218.532	-1.58
219.004	-7.18
219.475	-0.58
219.946	-6.18
220.418	-11.48
220.889	5.42
221.36	3.02
221.832	1.42
222.303	-5.58
222.774	1.22
223.245	-7.78
223.717	-4.08
224.188	-8.28
224.659	-1.88
225.13	-9.58
225.601	-3.68
226.072	3.72
226.543	4.52
227.014	4.22
227.485	-0.48
227.956	-2.38
228.427	-1.68
228.898	1.22
229.369	-1.78
229.839	-6.68
230.31	-9.08
230.781	8.82
231.252	-5.78
231.722	-3.48
232.193	2.62
232.664	-2.58
233.135	4.62
233.605	0.62
234.076	-9.28
234.546	4.12
235.017	3.22
235.487	2.82
235.958	-7.28
236.428	-1.88
236.899	8.22
237.369	5.32
237.84	-1.38
238.31	5.22
238.78	6.22
239.251	1.42
239.721	2.72
240.191	-3.28
240.662	-3.28
241.132	3.12
241.602	1.32
242.072	-0.28
242.542	7.42
243.013	1.22
243.483	1.92
243.953	3.82
244.423	-0.98
244.893	-4.58
245.363	-2.98
245.833	-1.18
246.303	2.42
246.773	3.22
247.243	1.92
247.712	0.92
248.182	8.82
248.652	6.82
249.122	2.32
249.592	8.72
250.061	23.82
250.531	33.12
251.001	16.82
251.471	23.62
251.94	16.82
252.41	10.42
252.879	1.72
253.349	13.62
253.818	6.82
254.288	6.32
254.757	6.92
255.227	5.42
255.696	8.82
256.166	-0.78
256.635	5.92
257.105	8.42
257.574	2.42
258.043	8.62
258.513	10.42
258.982	21.22
259.451	6.32
259.92	13.62
260.389	12.22
260.859	15.12
261.328	12.02
261.797	16.92
262.266	4.42
262.735	13.22
263.204	10.02
263.673	2.92
264.142	9.62
264.611	-2.48
265.08	0.02
265.549	2.12
266.018	7.02
266.487	-3.28
266.955	4.72
267.424	1.32
267.893	5.72
268.362	-2.88
268.83	5.62
269.299	9.02
269.768	7.22
270.236	9.92
270.705	5.82
271.174	11.22
271.642	9.62
272.111	1.12
272.579	15.32
273.048	21.82
273.516	35.82
273.985	32.82
274.453	26.22
274.922	23.22
275.39	12.32
275.858	-0.68
276.327	10.42
276.795	17.52
277.263	9.22
277.731	29.82
278.2	57.32
278.668	59.22
279.136	48.22
279.604	22.42
280.072	9.62
280.54	16.42
281.008	10.52
281.477	20.32
281.945	13.32
282.413	8.32
282.881	22.82
283.348	10.92
283.816	16.12
284.284	16.52
284.752	23.42
285.22	12.32
285.688	20.82
286.156	20.12
286.623	46.92
287.091	53.72
287.559	32.52
288.026	17.72
288.494	17.52
288.962	4.22
289.429	13.22
289.897	23.72
290.364	13.72
290.832	19.32
291.3	16.12
291.767	18.02
292.234	15.52
292.702	18.72
293.169	24.92
293.637	22.42
294.104	14.32
294.571	9.62
295.039	19.02
295.506	14.02
295.973	18.32
296.44	14.52
296.908	18.02
297.375	19.62
297.842	17.62
298.309	19.82
298.776	11.52
299.243	21.32
299.71	12.42
300.177	22.12
300.644	19.52
301.111	22.12
301.578	26.32
302.045	14.42
302.512	32.72
302.979	27.62
303.446	21.12
303.913	19.62
304.379	15.02
304.846	18.72
305.313	23.12
305.78	26.92
306.246	25.72
306.713	28.22
307.18	30.02
307.646	27.12
308.113	31.92
308.579	25.92
309.046	28.82
309.512	30.92
309.979	22.82
310.445	26.32
310.912	34.82
311.378	38.52
311.845	35.42
312.311	31.52
312.777	36.32
313.244	31.72
313.71	36.72
314.176	32.02
314.642	35.82
315.109	38.12
315.575	38.12
316.041	38.62
316.507	37.52
316.973	45.42
317.439	36.22
317.905	34.72
318.371	32.12
318.837	33.02
319.303	32.92
319.769	36.32
320.235	33.12
320.701	36.52
321.167	43.12
321.633	32.42
322.099	43.42
322.564	43.12
323.03	46.52
323.496	42.02
323.962	41.12
324.427	39.52
324.893	42.02
325.359	42.42
325.824	38.42
326.29	40.22
326.755	39.52
327.221	40.62
327.686	40.52
328.152	46.82
328.617	44.92
329.083	48.52
329.548	51.82
330.014	51.92
330.479	43.12
330.944	39.52
331.41	42.92
331.875	54.42
332.34	47.32
332.805	45.22
333.271	50.32
333.736	47.82
334.201	54.82
334.666	52.62
335.131	56.22
335.596	54.92
336.061	56.12
336.526	43.32
336.991	48.72
337.456	58.12
337.921	52.42
338.386	49.12
338.851	46.12
339.316	53.82
339.781	48.42
340.246	51.82
340.711	49.72
341.175	50.92
341.64	39.32
342.105	48.92
342.569	55.12
343.034	65.02
343.499	57.82
343.963	54.92
344.428	65.12
344.893	68.12
345.357	57.32
345.822	63.22
346.286	71.32
346.751	81.32
347.215	75.22
347.679	78.02
348.144	102.92
348.608	88.82
349.073	73.32
349.537	76.32
350.001	84.62
350.465	90.22
350.93	79.02
351.394	82.32
351.858	74.82
352.322	85.82
352.786	90.02
353.25	98.92
353.715	113.22
354.179	99.32
354.643	118.12
355.107	129.32
355.571	113.62
356.035	105.52
356.498	124.52
356.962	124.62
357.426	131.82
357.89	116.82
358.354	92.62
358.818	88.32
359.281	78.82
359.745	81.82
360.209	81.62
360.673	81.92
361.136	78.72
361.6	88.62
362.064	86.02
362.527	84.32
362.991	93.02
363.454	80.62
363.918	79.92
364.381	80.42
364.845	86.62
365.308	84.82
365.772	87.52
366.235	88.22
366.698	84.02
367.162	91.22
367.625	95.12
368.088	99.42
368.552	91.02
369.015	89.82
369.478	97.32
369.941	97.92
370.404	97.62
370.867	104.12
371.331	112.12
371.794	120.42
372.257	118.12
372.72	121.02
373.183	113.22
373.646	109.82
374.109	107.82
374.572	108.72
375.035	105.62
375.497	111.32
375.96	111.92
376.423	104.92
376.886	110.22
377.349	115.22
377.811	104.82
378.274	111.52
378.737	106.92
379.199	111.92
379.662	112.42
380.125	121.72
380.587	126.42
381.05	123.02
381.512	132.32
381.975	139.62
382.437	133.62
382.9	138.72
383.362	139.62
383.825	145.82
384.287	151.42
384.75	144.72
385.212	150.12
385.674	151.62
386.136	143.42
386.599	122.52
387.061	141.62
387.523	135.62
387.985	142.32
388.447	150.62
388.91	146.12
389.372	160.42
389.834	159.12
390.296	151.12
390.758	160.82
391.22	179.42
391.682	213.22
392.144	300.82
392.606	232.82
393.068	176.32
393.529	169.52
393.991	156.22
394.453	154.62
394.915	161.02
395.377	207.92
395.838	219.82
396.3	160.02
396.762	151.32
397.224	144.42
397.685	132.32
398.147	134.42
398.608	130.72
399.07	137.42
399.531	137.32
399.993	143.42
400.454	161.22
400.916	154.02
401.377	147.92
401.839	149.22
402.3	151.62
402.762	172.72
403.223	182.32
403.684	170.62
404.145	165.32
404.607	167.92
405.068	164.42
405.529	174.72
405.99	189.52
406.451	182.82
406.913	178.52
407.374	175.92
407.835	169.82
408.296	170.42
408.757	175.92
409.218	192.02
409.679	187.02
410.14	173.62
410.601	184.12
411.062	189.72
411.522	195.72
411.983	191.12
412.444	183.12
412.905	183.72
413.366	181.62
413.826	201.32
414.287	220.72
414.748	266.52
415.208	252.42
415.669	217.12
416.13	209.72
416.59	209.12
417.051	223.42
417.511	227.12
417.972	236.32
418.432	254.72
418.893	290.52
419.353	252.12
419.814	197.52
420.274	184.52
420.734	185.52
421.195	203.32
421.655	202.92
422.115	191.32
422.576	199.62
423.036	205.32
423.496	212.62
423.956	223.02
424.416	238.52
424.876	272.32
425.336	264.92
425.797	269.52
426.257	267.72
426.717	250.72
427.177	239.32
427.637	231.92
428.097	239.02
428.556	246.62
429.016	281.92
429.476	275.72
429.936	278.92
430.396	289.22
430.856	300.22
431.315	326.02
431.775	363.22
432.235	389.12
432.694	366.02
433.154	375.22
433.614	410.02
434.073	357.62
434.533	298.62
434.993	279.22
435.452	294.52
435.912	300.32
436.371	296.62
436.83	295.92
437.29	281.72
437.749	256.62
438.209	254.62
438.668	286.92
439.127	305.02
439.587	273.62
440.046	250.62
440.505	271.22
440.964	286.42
441.424	338.42
441.883	317.92
442.342	274.92
442.801	229.42
443.26	224.72
443.719	221.72
444.178	221.12
444.637	217.42
445.096	220.62
445.555	225.82
446.014	233.62
446.473	230.42
446.932	241.12
447.391	231.62
447.849	228.42
448.308	223.32
448.767	222.02
449.226	246.22
449.685	240.72
450.143	258.02
450.602	244.82
451.061	224.32
451.519	238.02
451.978	239.02
452.436	239.22
452.895	246.12
453.353	258.82
453.812	249.32
454.27	240.52
454.729	240.02
455.187	250.32
455.646	244.72
456.104	253.62
456.562	261.22
457.021	277.32
457.479	266.12
457.937	280.22
458.395	273.32
458.854	252.52
459.312	261.12
459.77	285.22
460.228	259.72
460.686	241.82
461.144	249.52
461.602	255.62
462.06	244.62
462.518	261.62
462.976	259.02
463.434	260.82
463.892	278.22
464.35	283.62
464.808	293.32
465.266	272.42
465.724	276.62
466.181	275.22
466.639	275.02
467.097	289.72
467.555	302.72
468.012	313.22
468.47	317.12
468.928	335.42
469.385	352.02
469.843	351.12
470.3	361.42
470.758	372.92
471.215	404.32
471.673	420.32
472.13	416.32
472.588	429.02
473.045	380.22
473.503	381.52
473.96	399.42
474.417	411.42
474.875	450.82
475.332	485.32
475.789	467.72
476.246	474.52
476.704	497.32
477.161	517.92
477.618	532.62
478.075	567.02
478.532	636.22
478.989	710.62
479.446	833.92
479.903	788.62
480.36	828.22
480.817	893.62
481.274	995.62
481.731	1097.12
482.188	1197.62
482.645	1341.72
483.102	1440.92
483.558	1582.62
484.015	1630.02
484.472	1612.62
484.929	1566.02
485.385	1512.82
485.842	1466.02
486.299	1399.12
486.755	1324.32
487.212	1130.72
487.668	949.92
488.125	869.92
488.582	800.52
489.038	770.52
489.494	736.32
489.951	696.82
490.407	684.42
490.864	656.12
491.32	654.72
491.776	660.92
492.233	653.32
492.689	618.22
493.145	615.62
493.602	613.82
494.058	628.12
494.514	628.22
494.97	650.32
495.426	666.52
495.882	626.72
496.338	629.12
496.794	639.62
497.251	637.22
497.707	642.02
498.163	648.32
498.618	657.12
499.074	662.02
499.53	677.22
499.986	693.62
500.442	657.72
500.898	653.72
501.354	639.32
501.809	654.12
502.265	652.52
502.721	676.22
503.177	675.52
503.632	677.42
504.088	685.82
504.543	727.02
504.999	727.12
505.455	673.32
505.91	641.42
506.366	638.62
506.821	646.52
507.277	636.92
507.732	636.52
508.187	639.12
508.643	643.42
509.098	646.72
509.553	662.72
510.009	677.32
510.464	679.52
510.919	700.12
511.375	703.42
511.83	716.92
512.285	729.32
512.74	779.62
513.195	796.12
513.65	784.82
514.105	781.52
514.56	789.62
515.015	812.82
515.47	816.52
515.925	813.22
516.38	805.32
516.835	805.82
517.29	801.92
517.745	795.62
518.2	776.42
518.655	760.42
519.109	748.52
519.564	744.82
520.019	747.52
520.474	735.62
520.928	737.02
521.383	730.42
521.838	718.92
522.292	721.02
522.747	723.42
523.201	714.52
523.656	722.92
524.11	707.52
524.565	706.42
525.019	709.72
525.474	727.42
525.928	713.42
526.382	696.02
526.837	705.92
527.291	710.82
527.745	708.22
528.2	702.22
528.654	701.82
529.108	696.92
529.562	700.52
530.016	699.82
530.47	709.42
530.925	702.12
531.379	710.42
531.833	712.02
532.287	720.12
532.741	714.02
533.195	722.52
533.649	726.42
534.103	735.42
534.556	721.62
535.01	724.72
535.464	724.82
535.918	736.62
536.372	734.42
536.826	720.52
537.279	724.72
537.733	717.92
538.187	733.22
538.64	722.12
539.094	734.12
539.548	746.42
540.001	744.12
540.455	724.52
540.908	736.42
541.362	747.02
541.815	761.32
542.269	767.12
542.722	775.42
543.175	773.42
543.629	784.52
544.082	806.12
544.536	805.72
544.989	794.12
545.442	808.82
545.895	794.92
546.349	796.22
546.802	802.32
547.255	812.52
547.708	820.52
548.161	815.82
548.614	844.22
549.067	841.72
549.52	831.12
549.973	823.62
550.426	814.02
550.879	802.62
551.332	813.52
551.785	819.92
552.238	823.52
552.691	821.62
553.144	841.92
553.596	860.52
554.049	870.22
554.502	907.72
554.955	925.32
555.407	915.02
555.86	916.42
556.313	904.12
556.765	893.02
557.218	888.52
557.67	888.82
558.123	902.22
558.576	884.62
559.028	889.32
559.48	897.72
559.933	875.02
560.385	852.12
560.838	825.62
561.29	796.62
561.742	788.82
562.195	775.02
562.647	765.82
563.099	775.52
563.551	778.52
564.004	782.52
564.456	792.42
564.908	769.42
565.36	748.02
565.812	756.32
566.264	743.52
566.716	733.02
567.168	720.82
567.62	732.52
568.072	708.62
568.524	706.92
568.976	702.32
569.428	681.82
569.88	680.52
570.332	693.22
570.784	683.62
571.235	689.22
571.687	704.62
572.139	704.72
572.59	716.22
573.042	721.22
573.494	719.62
573.945	704.22
574.397	698.82
574.849	698.22
575.3	702.02
575.752	696.62
576.203	687.02
576.655	691.72
577.106	678.82
577.557	667.52
578.009	669.42
578.46	679.42
578.912	669.02
579.363	665.72
579.814	684.02
580.265	668.82
580.717	676.92
581.168	669.42
581.619	687.12
582.07	687.42
582.521	682.12
582.972	676.72
583.423	675.32
583.875	687.02
584.326	703.72
584.777	753.72
585.227	831.12
585.678	927.32
586.129	1012.82
586.58	1082.92
587.031	1168.42
587.482	1339.92
587.933	1523.02
588.384	1319.42
588.834	987.32
589.285	814.52
589.736	788.92
590.186	785.02
590.637	776.42
591.088	747.72
591.538	747.22
591.989	728.12
592.439	721.72
592.89	735.12
593.34	722.62
593.791	714.72
594.241	705.42
594.692	717.72
595.142	710.82
595.593	717.32
596.043	721.92
596.493	721.82
596.943	724.52
597.394	723.02
597.844	721.22
598.294	745.22
598.744	763.02
599.195	769.12
599.645	819.62
600.095	864.32
600.545	912.12
600.995	966.62
601.445	1023.12
601.895	1101.12
602.345	1134.82
602.795	1115.72
603.245	1070.92
603.695	1014.02
604.145	974.72
604.594	915.32
605.044	858.42
605.494	811.02
605.944	746.32
606.393	746.12
606.843	733.52
607.293	735.52
607.743	740.32
608.192	752.72
608.642	762.42
609.091	770.12
609.541	783.82
609.99	770.52
610.44	770.62
610.889	734.92
611.339	705.82
611.788	695.02
612.238	702.42
612.687	720.52
613.136	720.82
613.586	742.52
614.035	744.12
614.484	765.62
614.933	766.32
615.383	748.82
615.832	744.92
616.281	731.02
616.73	686.82
617.179	660.92
617.628	661.32
618.077	635.62
618.526	629.72
618.975	621.82
619.424	623.02
619.873	610.92
620.322	625.42
620.771	604.12
621.22	609.72
621.669	596.32
622.118	592.12
622.567	579.92
623.015	572.02
623.464	563.22
623.913	563.82
624.361	559.22
624.81	548.02
625.259	567.22
625.707	559.52
626.156	555.22
626.604	569.32
627.053	554.12
627.501	560.72
627.95	568.12
628.398	581.72
628.847	569.02
629.295	576.62
629.744	576.42
630.192	562.72
630.64	568.92
631.089	567.22
631.537	587.62
631.985	588.12
632.433	602.62
632.881	607.72
633.33	661.62
633.778	640.12
634.226	569.52
634.674	583.72
635.122	575.72
635.57	599.32
636.018	632.22
636.466	580.62
636.914	556.12
637.362	578.52
637.81	573.92
638.258	577.72
638.705	587.82
639.153	601.62
639.601	620.72
640.049	629.82
640.497	672.02
640.944	693.52
641.392	649.32
641.84	608.42
642.287	583.82
642.735	581.62
643.182	576.52
643.63	582.52
644.078	572.82
644.525	595.22
644.973	594.02
645.42	600.82
645.867	622.22
646.315	648.92
646.762	660.42
647.21	696.02
647.657	723.02
648.104	742.12
648.551	775.02
648.999	838.02
649.446	915.92
649.893	1013.12
650.34	1168.62
650.787	1400.52
651.234	1741.62
651.682	2261.02
652.129	3123.12
652.576	4478.82
653.023	6636.52
653.47	9059.82
653.917	11363.42
654.363	13135.72
654.81	14498.12
655.257	13803.02
655.704	9039.52
656.151	5347.02
656.598	3457.52
657.044	2456.52
657.491	1870.52
657.938	1504.82
658.385	1251.72
658.831	1087.82
659.278	972.02
659.724	859.72
660.171	790.12
660.618	726.32
661.064	682.72
661.511	664.42
661.957	660.32
662.404	635.12
662.85	646.92
663.296	624.22
663.743	561.52
664.189	533.82
664.635	540.92
665.082	525.62
665.528	529.52
665.974	518.82
666.42	513.22
666.867	500.92
667.313	486.82
667.759	473.62
668.205	481.52
668.651	491.12
669.097	480.22
669.543	499.12
669.989	471.62
670.435	445.52
670.881	444.82
671.327	452.22
671.773	461.92
672.219	489.62
672.665	548.92
673.11	576.52
673.556	624.82
674.002	670.62
674.448	654.72
674.893	545.42
675.339	472.32
675.785	431.02
676.23	416.52
676.676	395.02
677.122	378.52
677.567	371.12
678.013	364.92
678.458	358.22
678.904	354.32
679.349	341.02
679.794	353.92
680.24	351.62
680.685	347.02
681.131	352.82
681.576	345.42
682.021	357.12
682.466	348.72
682.912	347.32
683.357	350.92
683.802	379.92
684.247	398.82
684.692	449.82
685.137	498.72
685.583	527.82
686.028	559.22
686.473	513.72
686.918	439.82
687.363	412.12
687.807	385.32
688.252	366.42
688.697	356.42
689.142	328.92
689.587	331.82
690.032	325.82
690.477	348.42
690.921	350.52
691.366	377.72
691.811	402.52
692.255	429.82
692.7	461.12
693.145	501.82
693.589	689.72
694.034	1116.82
694.478	1517.52
694.923	1708.82
695.367	2251.82
695.812	1179.32
696.256	484.22
696.701	369.82
697.145	341.32
697.59	322.82
698.034	317.12
698.478	322.52
698.922	325.42
699.367	324.02
699.811	335.22
700.255	358.62
700.699	389.42
701.143	421.52
701.588	479.02
702.032	519.02
702.476	510.52
702.92	481.62
703.364	491.32
703.808	630.72
704.252	1007.22
704.696	1429.52
705.14	1645.82
705.584	2089.12
706.027	1047.82
706.471	515.62
706.915	388.52
707.359	348.42
707.803	319.32
708.246	309.52
708.69	315.82
709.134	312.52
709.577	304.92
710.021	310.82
710.465	310.82
710.908	296.92
711.352	295.22
711.795	309.12
712.239	345.92
712.682	380.02
713.126	408.02
713.569	457.12
714.012	369.92
714.456	323.92
714.899	302.42
715.342	276.32
715.786	264.22
716.229	252.82
716.672	246.72
717.115	247.82
717.558	250.72
718.002	248.52
718.445	257.82
718.888	281.82
719.331	290.82
719.774	311.02
720.217	303.22
720.66	278.92
721.103	258.22
721.546	252.52
721.989	251.72
722.432	228.22
722.874	236.72
723.317	230.82
723.76	231.62
724.203	262.92
724.645	311.82
725.088	435.62
725.531	560.02
725.974	642.22
726.416	543.92
726.859	306.42
727.301	244.02
727.744	232.52
728.187	231.22
728.629	229.02
729.071	234.72
729.514	253.42
729.956	264.12
730.399	285.62
730.841	289.22
731.283	265.72
731.726	265.92
732.168	256.42
732.61	266.52
733.053	287.72
733.495	311.02
733.937	349.32
734.379	398.22
734.821	424.42
735.263	534.02
735.705	819.82
736.148	1544.82
736.59	2544.02
737.032	3011.02
737.474	2453.52
737.916	791.82
738.357	425.02
738.799	315.12
739.241	297.52
739.683	277.82
740.125	293.22
740.567	299.02
741.008	314.12
741.45	312.62
741.892	306.52
742.334	343.62
742.775	352.82
743.217	339.22
743.658	267.12
744.1	252.12
744.542	252.72
744.983	306.22
745.425	333.22
745.866	339.12
746.307	278.32
746.749	280.22
747.19	319.42
747.632	448.22
748.073	861.82
748.514	1834.92
748.956	2810.32
749.397	3495.42
749.838	2918.32
750.279	2924.82
750.72	1466.62
751.162	536.82
751.603	319.32
752.044	250.62
752.485	213.22
752.926	209.52
753.367	196.12
753.808	193.82
754.249	185.52
754.69	179.72
755.131	179.02
755.572	182.72
756.013	175.12
756.453	183.42
756.894	182.62
757.335	189.52
757.776	193.22
758.216	193.22
758.657	188.22
759.098	193.92
759.538	223.02
759.979	266.22
760.42	367.62
760.86	689.02
761.301	1759.22
761.741	4298.22
762.182	6365.52
762.622	4450.52
