Data from 20171114-ORNL-Ar_H_NY_Subt18_08-07-47-813.txt Node
Date: Tue Nov 14 08:07:47 EST 2017
User: Ender
Spectrometer: HR+D1039
Trigger mode: 0
Integration Time (sec): 2.730000E-2
Scans to average: 10
Electric dark correction enabled: true
Nonlinearity correction enabled: false
Boxcar width: 0
XAxis mode: Wavelengths
Number of Pixels in Spectrum: 2048
>>>>>Begin Spectral Data<<<<<
187.836	-4.36
188.309	-4.36
188.782	-4.36
189.255	-1.66
189.728	-1.76
190.201	6.24
190.674	3.14
191.147	-0.56
191.619	-1.36
192.092	1.74
192.565	2.44
193.038	1.24
193.511	1.24
193.984	-1.36
194.456	-3.76
194.929	1.84
195.402	-2.06
195.874	-1.06
196.347	10.04
196.82	-10.26
197.292	6.64
197.765	-1.96
198.237	-9.06
198.71	2.64
199.182	-2.26
199.655	0.34
200.127	5.34
200.6	-5.26
201.072	-1.26
201.544	-8.46
202.017	-2.66
202.489	4.74
202.961	-5.16
203.433	-2.36
203.906	-3.46
204.378	-9.06
204.85	-4.56
205.322	-9.66
205.794	-0.96
206.266	-4.86
206.739	-12.36
207.211	-2.06
207.683	-8.56
208.155	-3.66
208.627	-5.56
209.099	-2.86
209.57	-11.06
210.042	-9.36
210.514	-2.86
210.986	-8.66
211.458	-13.36
211.93	-7.46
212.402	4.04
212.873	-4.86
213.345	-11.86
213.817	-11.46
214.288	-6.76
214.76	-9.36
215.232	-3.76
215.703	-2.26
216.175	-6.66
216.646	-1.86
217.118	-0.66
217.589	-0.66
218.061	1.54
218.532	-6.56
219.004	1.54
219.475	0.14
219.946	0.94
220.418	-8.66
220.889	5.64
221.36	0.94
221.832	-3.56
222.303	-4.56
222.774	2.14
223.245	-8.36
223.717	-10.46
224.188	-0.26
224.659	-5.46
225.13	-5.96
225.601	0.54
226.072	5.24
226.543	-3.96
227.014	1.04
227.485	-5.26
227.956	-3.56
228.427	-0.36
228.898	-2.86
229.369	5.34
229.839	-4.46
230.31	-7.56
230.781	5.84
231.252	-2.36
231.722	-4.06
232.193	-4.56
232.664	5.64
233.135	0.84
233.605	3.04
234.076	-4.96
234.546	0.04
235.017	6.94
235.487	1.34
235.958	-1.26
236.428	-5.26
236.899	-0.16
237.369	3.64
237.84	-1.56
238.31	3.24
238.78	6.84
239.251	5.74
239.721	-0.26
240.191	0.24
240.662	-5.16
241.132	5.24
241.602	0.04
242.072	4.94
242.542	1.24
243.013	1.54
243.483	3.14
243.953	0.34
244.423	-0.96
244.893	-5.76
245.363	2.84
245.833	0.74
246.303	-5.46
246.773	7.44
247.243	-1.06
247.712	3.34
248.182	8.04
248.652	2.44
249.122	-4.06
249.592	10.34
250.061	18.54
250.531	30.24
251.001	7.64
251.471	22.24
251.94	15.94
252.41	6.74
252.879	4.34
253.349	9.84
253.818	3.04
254.288	6.74
254.757	2.14
255.227	-3.96
255.696	-2.16
256.166	7.84
256.635	8.34
257.105	4.34
257.574	6.34
258.043	11.34
258.513	16.24
258.982	15.54
259.451	5.84
259.92	13.64
260.389	8.34
260.859	3.14
261.328	12.34
261.797	17.34
262.266	9.34
262.735	13.84
263.204	1.84
263.673	4.64
264.142	8.94
264.611	-1.36
265.08	-0.66
265.549	2.04
266.018	6.34
266.487	-1.56
266.955	-8.66
267.424	-0.76
267.893	11.84
268.362	-2.66
268.83	2.34
269.299	11.64
269.768	7.34
270.236	7.04
270.705	-0.86
271.174	3.74
271.642	7.54
272.111	4.64
272.579	17.24
273.048	25.04
273.516	26.84
273.985	24.24
274.453	17.74
274.922	12.94
275.39	9.64
275.858	3.14
276.327	3.54
276.795	15.44
277.263	9.24
277.731	27.04
278.2	50.34
278.668	56.44
279.136	44.74
279.604	18.14
280.072	20.74
280.54	12.84
281.008	3.74
281.477	8.14
281.945	12.14
282.413	12.84
282.881	15.94
283.348	7.74
283.816	13.04
284.284	13.54
284.752	18.74
285.22	12.54
285.688	13.24
286.156	11.84
286.623	37.84
287.091	42.94
287.559	28.24
288.026	14.34
288.494	12.34
288.962	0.64
289.429	9.84
289.897	13.74
290.364	13.24
290.832	12.74
291.3	11.24
291.767	16.94
292.234	15.94
292.702	10.14
293.169	16.44
293.637	20.84
294.104	17.94
294.571	7.34
295.039	5.64
295.506	10.74
295.973	13.04
296.44	12.94
296.908	18.24
297.375	15.54
297.842	17.54
298.309	9.84
298.776	10.44
299.243	16.34
299.71	11.24
300.177	22.34
300.644	20.74
301.111	25.34
301.578	19.24
302.045	13.14
302.512	18.54
302.979	21.24
303.446	19.84
303.913	15.24
304.379	11.64
304.846	22.14
305.313	28.84
305.78	20.24
306.246	23.24
306.713	21.14
307.18	26.54
307.646	23.94
308.113	26.64
308.579	27.94
309.046	19.34
309.512	25.64
309.979	12.44
310.445	26.04
310.912	30.64
311.378	28.44
311.845	25.74
312.311	26.84
312.777	28.34
313.244	26.04
313.71	32.44
314.176	33.64
314.642	33.84
315.109	26.14
315.575	29.54
316.041	29.34
316.507	29.34
316.973	37.44
317.439	32.64
317.905	33.44
318.371	33.34
318.837	26.64
319.303	33.34
319.769	29.94
320.235	28.54
320.701	39.24
321.167	33.74
321.633	28.14
322.099	39.94
322.564	46.74
323.03	41.94
323.496	33.44
323.962	35.34
324.427	36.64
324.893	39.24
325.359	33.64
325.824	34.14
326.29	33.84
326.755	32.34
327.221	31.54
327.686	36.64
328.152	45.64
328.617	40.34
329.083	46.14
329.548	51.34
330.014	43.24
330.479	33.74
330.944	38.44
331.41	37.84
331.875	44.54
332.34	34.14
332.805	40.64
333.271	47.04
333.736	39.64
334.201	49.54
334.666	52.34
335.131	54.24
335.596	53.24
336.061	51.84
336.526	35.14
336.991	47.94
337.456	57.44
337.921	41.04
338.386	40.84
338.851	42.14
339.316	43.84
339.781	46.04
340.246	50.84
340.711	44.14
341.175	47.34
341.64	40.54
342.105	48.14
342.569	47.64
343.034	54.84
343.499	49.74
343.963	44.94
344.428	59.44
344.893	53.04
345.357	55.04
345.822	59.74
346.286	56.54
346.751	65.44
347.215	65.74
347.679	70.64
348.144	86.44
348.608	75.64
349.073	73.74
349.537	68.84
350.001	75.14
350.465	77.24
350.93	71.34
351.394	76.14
351.858	69.74
352.322	82.44
352.786	80.04
353.25	96.04
353.715	104.14
354.179	92.74
354.643	111.74
355.107	111.94
355.571	100.14
356.035	99.54
356.498	115.44
356.962	116.44
357.426	120.94
357.89	107.64
358.354	85.34
358.818	73.54
359.281	73.54
359.745	75.54
360.209	73.84
360.673	68.64
361.136	75.64
361.6	77.84
362.064	81.44
362.527	82.04
362.991	81.84
363.454	70.24
363.918	72.64
364.381	67.54
364.845	72.54
365.308	80.84
365.772	79.94
366.235	79.24
366.698	81.74
367.162	78.64
367.625	80.64
368.088	81.44
368.552	79.74
369.015	87.44
369.478	92.34
369.941	93.14
370.404	89.34
370.867	101.94
371.331	100.24
371.794	109.74
372.257	109.54
372.72	111.64
373.183	105.74
373.646	96.44
374.109	102.84
374.572	105.64
375.035	105.04
375.497	96.84
375.96	102.64
376.423	103.64
376.886	101.34
377.349	107.84
377.811	101.54
378.274	101.14
378.737	99.74
379.199	111.94
379.662	105.24
380.125	107.64
380.587	114.14
381.05	120.04
381.512	119.84
381.975	124.34
382.437	124.14
382.9	123.44
383.362	124.34
383.825	137.04
384.287	141.24
384.75	131.84
385.212	129.64
385.674	134.94
386.136	127.14
386.599	120.84
387.061	119.94
387.523	129.04
387.985	127.64
388.447	135.44
388.91	138.04
389.372	158.14
389.834	151.24
390.296	137.24
390.758	147.04
391.22	158.44
391.682	204.54
392.144	291.14
392.606	223.14
393.068	164.74
393.529	163.44
393.991	150.04
394.453	143.94
394.915	151.94
395.377	184.64
395.838	210.14
396.3	148.94
396.762	136.04
397.224	125.84
397.685	126.84
398.147	132.14
398.608	128.94
399.07	122.74
399.531	129.64
399.993	132.74
400.454	147.84
400.916	140.64
401.377	143.14
401.839	150.74
402.3	148.44
402.762	158.04
403.223	172.54
403.684	164.24
404.145	152.04
404.607	152.64
405.068	166.14
405.529	161.34
405.99	183.84
406.451	165.44
406.913	164.64
407.374	162.24
407.835	160.44
408.296	159.14
408.757	163.64
409.218	177.84
409.679	176.94
410.14	169.94
410.601	176.04
411.062	178.14
411.522	187.94
411.983	183.54
412.444	171.64
412.905	172.84
413.366	176.74
413.826	189.74
414.287	207.34
414.748	251.44
415.208	239.94
415.669	207.04
416.13	196.74
416.59	198.74
417.051	208.14
417.511	218.44
417.972	233.44
418.432	243.44
418.893	276.84
419.353	240.24
419.814	192.54
420.274	181.14
420.734	170.64
421.195	189.64
421.655	189.24
422.115	189.84
422.576	187.14
423.036	191.04
423.496	200.14
423.956	206.24
424.416	217.14
424.876	252.84
425.336	254.54
425.797	255.24
426.257	245.24
426.717	235.44
427.177	231.94
427.637	222.24
428.097	220.84
428.556	236.24
429.016	266.44
429.476	257.44
429.936	272.64
430.396	269.94
430.856	282.34
431.315	313.24
431.775	339.44
432.235	371.24
432.694	338.54
433.154	349.14
433.614	385.64
434.073	335.64
434.533	288.74
434.993	267.94
435.452	277.54
435.912	284.24
436.371	286.64
436.83	278.94
437.29	261.94
437.749	238.64
438.209	243.94
438.668	264.54
439.127	282.54
439.587	261.24
440.046	237.24
440.505	247.34
440.964	276.34
441.424	311.04
441.883	309.54
442.342	256.34
442.801	215.84
443.26	216.24
443.719	217.64
444.178	212.54
444.637	210.24
445.096	216.14
445.555	213.64
446.014	213.74
446.473	217.54
446.932	223.04
447.391	221.14
447.849	223.04
448.308	218.54
448.767	215.84
449.226	226.94
449.685	223.94
450.143	237.94
450.602	234.34
451.061	224.84
451.519	228.54
451.978	232.14
452.436	221.44
452.895	236.24
453.353	249.64
453.812	233.74
454.27	232.24
454.729	234.94
455.187	238.64
455.646	237.04
456.104	241.54
456.562	257.04
457.021	255.54
457.479	252.14
457.937	265.24
458.395	259.14
458.854	243.54
459.312	253.74
459.77	263.44
460.228	252.84
460.686	237.24
461.144	242.04
461.602	238.04
462.06	233.34
462.518	247.34
462.976	252.34
463.434	257.14
463.892	256.84
464.35	270.34
464.808	286.94
465.266	257.64
465.724	265.04
466.181	267.14
466.639	262.54
467.097	283.04
467.555	294.04
468.012	295.84
468.47	301.24
468.928	315.54
469.385	335.44
469.843	334.54
470.3	338.64
470.758	350.64
471.215	374.44
471.673	394.84
472.13	394.14
472.588	405.04
473.045	361.84
473.503	369.54
473.96	387.24
474.417	397.14
474.875	427.74
475.332	467.84
475.789	456.94
476.246	459.24
476.704	473.64
477.161	497.54
477.618	510.84
478.075	549.74
478.532	600.04
478.989	672.84
479.446	793.14
479.903	758.64
480.36	793.44
480.817	847.34
481.274	952.04
481.731	1061.54
482.188	1132.54
482.645	1275.44
483.102	1385.04
483.558	1510.64
484.015	1545.04
484.472	1526.64
484.929	1478.24
485.385	1433.94
485.842	1401.44
486.299	1342.04
486.755	1277.74
487.212	1069.84
487.668	906.84
488.125	824.14
488.582	763.34
489.038	731.74
489.494	686.34
489.951	657.64
490.407	646.94
490.864	639.54
491.32	623.04
491.776	627.44
492.233	633.14
492.689	595.34
493.145	593.84
493.602	577.54
494.058	600.94
494.514	600.14
494.97	619.64
495.426	630.34
495.882	607.34
496.338	601.14
496.794	608.64
497.251	604.84
497.707	623.54
498.163	616.84
498.618	626.44
499.074	628.94
499.53	667.94
499.986	665.04
500.442	642.14
500.898	613.04
501.354	615.44
501.809	618.34
502.265	629.64
502.721	643.24
503.177	659.24
503.632	649.84
504.088	664.24
504.543	698.14
504.999	694.74
505.455	647.84
505.91	616.04
506.366	617.54
506.821	618.64
507.277	613.74
507.732	614.64
508.187	608.74
508.643	627.94
509.098	620.74
509.553	645.84
510.009	643.54
510.464	649.14
510.919	671.64
511.375	684.74
511.83	699.74
512.285	705.04
512.74	734.84
513.195	765.34
513.65	751.84
514.105	760.54
514.56	750.34
515.015	761.64
515.47	773.64
515.925	771.84
516.38	770.84
516.835	772.94
517.29	761.64
517.745	752.54
518.2	749.14
518.655	738.74
519.109	728.94
519.564	714.64
520.019	711.44
520.474	704.94
520.928	704.24
521.383	702.14
521.838	700.24
522.292	692.04
522.747	692.44
523.201	700.84
523.656	679.54
524.11	688.14
524.565	685.94
525.019	680.64
525.474	699.84
525.928	690.54
526.382	679.84
526.837	676.44
527.291	686.54
527.745	678.24
528.2	687.24
528.654	675.14
529.108	669.14
529.562	673.84
530.016	671.44
530.47	675.44
530.925	683.24
531.379	694.84
531.833	689.74
532.287	689.84
532.741	686.24
533.195	687.54
533.649	688.24
534.103	700.94
534.556	687.54
535.01	689.34
535.464	691.14
535.918	701.14
536.372	704.94
536.826	702.84
537.279	684.94
537.733	696.34
538.187	687.14
538.64	698.94
539.094	709.84
539.548	713.34
540.001	706.24
540.455	710.24
540.908	708.14
541.362	728.74
541.815	751.24
542.269	738.84
542.722	751.64
543.175	754.74
543.629	755.94
544.082	765.94
544.536	772.04
544.989	767.14
545.442	781.24
545.895	778.24
546.349	782.64
546.802	770.94
547.255	779.04
547.708	801.14
548.161	792.94
548.614	798.04
549.067	819.94
549.52	805.64
549.973	789.54
550.426	785.64
550.879	775.54
551.332	782.64
551.785	790.24
552.238	804.34
552.691	799.84
553.144	825.44
553.596	835.14
554.049	846.34
554.502	875.54
554.955	896.14
555.407	898.64
555.86	876.14
556.313	874.74
556.765	864.54
557.218	867.94
557.67	858.04
558.123	854.54
558.576	852.64
559.028	858.54
559.48	867.84
559.933	847.64
560.385	822.04
560.838	794.24
561.29	766.14
561.742	767.74
562.195	749.34
562.647	745.94
563.099	759.14
563.551	761.44
564.004	768.94
564.456	755.54
564.908	754.24
565.36	732.84
565.812	724.74
566.264	714.84
566.716	697.94
567.168	704.24
567.62	702.84
568.072	696.24
568.524	689.54
568.976	684.54
569.428	675.74
569.88	670.54
570.332	667.94
570.784	668.24
571.235	674.94
571.687	680.54
572.139	690.64
572.59	701.24
573.042	697.54
573.494	705.84
573.945	690.04
574.397	672.14
574.849	673.84
575.3	675.84
575.752	676.04
576.203	669.64
576.655	674.24
577.106	660.34
577.557	654.64
578.009	658.84
578.46	659.04
578.912	653.34
579.363	655.24
579.814	657.04
580.265	659.64
580.717	662.54
581.168	661.04
581.619	666.94
582.07	667.54
582.521	660.74
582.972	664.94
583.423	668.94
583.875	675.34
584.326	696.74
584.777	741.24
585.227	825.54
585.678	917.74
586.129	998.04
586.58	1076.84
587.031	1157.64
587.482	1304.54
587.933	1485.84
588.384	1296.44
588.834	968.34
589.285	798.84
589.736	775.54
590.186	772.84
590.637	766.64
591.088	737.84
591.538	727.64
591.989	722.04
592.439	716.34
592.89	716.74
593.34	703.74
593.791	701.94
594.241	692.64
594.692	705.84
595.142	706.44
595.593	693.84
596.043	696.74
596.493	702.54
596.943	714.04
597.394	712.84
597.844	711.24
598.294	721.74
598.744	726.54
599.195	766.24
599.645	810.44
600.095	845.44
600.545	902.24
600.995	945.44
601.445	1009.04
601.895	1075.84
602.345	1124.54
602.795	1097.74
603.245	1046.34
603.695	985.34
604.145	937.34
604.594	900.24
605.044	847.84
605.494	774.14
605.944	736.24
606.393	738.24
606.843	727.74
607.293	726.24
607.743	718.94
608.192	737.54
608.642	750.24
609.091	751.84
609.541	768.54
609.99	758.94
610.44	767.14
610.889	709.74
611.339	693.64
611.788	685.54
612.238	686.24
612.687	700.94
613.136	713.34
613.586	719.54
614.035	734.04
614.484	750.64
614.933	754.24
615.383	747.24
615.832	736.94
616.281	720.84
616.73	682.04
617.179	655.54
617.628	647.54
618.077	624.84
618.526	617.24
618.975	607.04
619.424	600.94
619.873	604.14
620.322	608.14
620.771	602.94
621.22	595.54
621.669	588.24
622.118	577.44
622.567	575.74
623.015	551.04
623.464	562.14
623.913	559.14
624.361	544.04
624.81	541.84
625.259	543.84
625.707	552.44
626.156	548.94
626.604	554.14
627.053	560.44
627.501	564.44
627.95	567.74
628.398	575.24
628.847	557.74
629.295	567.44
629.744	563.34
630.192	568.74
630.64	564.94
631.089	558.54
631.537	577.34
631.985	582.14
632.433	604.64
632.881	604.54
633.33	660.94
633.778	643.44
634.226	571.24
634.674	571.74
635.122	577.64
635.57	600.14
636.018	624.04
636.466	577.54
636.914	550.84
637.362	556.24
637.81	563.84
638.258	571.64
638.705	575.64
639.153	609.14
639.601	613.14
640.049	634.54
640.497	660.24
640.944	684.94
641.392	636.54
641.84	605.34
642.287	578.04
642.735	560.24
643.182	566.04
643.63	564.44
644.078	570.14
644.525	583.74
644.973	596.24
645.42	610.64
645.867	616.44
646.315	633.14
646.762	655.94
647.21	683.14
647.657	703.64
648.104	751.44
648.551	767.54
648.999	830.64
649.446	911.34
649.893	1009.34
650.34	1169.14
650.787	1401.74
651.234	1732.14
651.682	2261.24
652.129	3113.14
652.576	4524.04
653.023	6649.94
653.47	9106.14
653.917	11275.94
654.363	12980.34
654.81	14262.44
655.257	13560.94
655.704	8878.54
656.151	5237.24
656.598	3374.74
657.044	2395.34
657.491	1848.54
657.938	1481.44
658.385	1233.64
658.831	1072.34
659.278	953.24
659.724	844.04
660.171	778.44
660.618	721.94
661.064	685.54
661.511	660.54
661.957	654.24
662.404	643.04
662.85	649.94
663.296	627.24
663.743	559.54
664.189	533.44
664.635	538.24
665.082	530.74
665.528	519.04
665.974	517.64
666.42	501.54
666.867	499.24
667.313	489.14
667.759	477.64
668.205	465.84
668.651	483.54
669.097	480.44
669.543	497.74
669.989	468.34
670.435	441.84
670.881	434.54
671.327	444.64
671.773	465.54
672.219	485.54
672.665	535.44
673.11	577.94
673.556	622.54
674.002	658.84
674.448	641.54
674.893	542.54
675.339	467.94
675.785	433.94
676.23	418.64
676.676	387.24
677.122	376.54
677.567	368.64
678.013	361.74
678.458	347.24
678.904	354.24
679.349	344.04
679.794	349.74
680.24	342.44
680.685	342.54
681.131	343.24
681.576	337.74
682.021	348.94
682.466	344.24
682.912	344.34
683.357	341.34
683.802	372.74
684.247	409.54
684.692	456.14
685.137	489.04
685.583	524.64
686.028	559.84
686.473	513.94
686.918	439.04
687.363	413.14
687.807	378.44
688.252	356.04
688.697	349.94
689.142	329.64
689.587	331.64
690.032	325.54
690.477	334.44
690.921	344.54
691.366	379.44
691.811	396.64
692.255	427.54
692.7	459.84
693.145	498.74
693.589	692.34
694.034	1129.14
694.478	1531.44
694.923	1704.24
695.367	2211.34
695.812	1167.24
696.256	494.24
696.701	371.34
697.145	333.14
697.59	334.24
698.034	313.14
698.478	328.74
698.922	324.34
699.367	329.24
699.811	338.94
700.255	347.14
700.699	387.64
701.143	426.94
701.588	465.34
702.032	509.04
702.476	504.74
702.92	483.44
703.364	490.04
703.808	632.54
704.252	1043.04
704.696	1445.74
705.14	1640.54
705.584	2100.24
706.027	1047.64
706.471	511.74
706.915	390.64
707.359	352.94
707.803	319.54
708.246	305.24
708.69	312.54
709.134	310.64
709.577	308.94
710.021	311.14
710.465	305.54
710.908	297.94
711.352	288.44
711.795	310.64
712.239	354.84
712.682	377.04
713.126	406.64
713.569	457.74
714.012	363.94
714.456	310.94
714.899	294.74
715.342	267.34
715.786	256.24
716.229	259.04
716.672	252.84
717.115	242.34
717.558	250.34
718.002	251.64
718.445	259.74
718.888	272.04
719.331	288.54
719.774	303.44
720.217	309.94
720.66	286.94
721.103	259.44
721.546	257.84
721.989	250.54
722.432	226.64
722.874	236.14
723.317	228.14
723.76	234.24
724.203	253.44
724.645	323.84
725.088	445.64
725.531	573.44
725.974	633.84
726.416	541.44
726.859	296.44
727.301	250.54
727.744	232.64
728.187	231.14
728.629	239.44
729.071	243.14
729.514	264.84
729.956	274.04
730.399	281.94
730.841	285.94
731.283	265.94
731.726	261.54
732.168	260.54
732.61	266.14
733.053	288.54
733.495	311.94
733.937	349.34
734.379	396.24
734.821	431.04
735.263	546.84
735.705	852.34
736.148	1589.84
736.59	2542.34
737.032	2986.54
737.474	2424.64
737.916	802.84
738.357	428.44
738.799	316.14
739.241	289.14
739.683	284.74
740.125	290.74
740.567	300.84
741.008	310.34
741.45	319.44
741.892	311.04
742.334	345.84
742.775	350.04
743.217	337.54
743.658	269.94
744.1	249.44
744.542	262.34
744.983	307.34
745.425	343.24
745.866	337.94
746.307	284.84
746.749	280.44
747.19	319.04
747.632	463.24
748.073	898.84
748.514	1880.24
748.956	2811.94
749.397	3537.64
749.838	2935.74
750.279	2889.54
750.72	1457.34
751.162	550.34
751.603	325.64
752.044	253.94
752.485	217.94
752.926	211.64
753.367	199.64
753.808	188.84
754.249	181.14
754.69	180.74
755.131	179.34
755.572	180.34
756.013	184.94
756.453	183.14
756.894	186.04
757.335	186.44
757.776	194.74
758.216	189.24
758.657	197.14
759.098	209.24
759.538	229.04
759.979	269.34
760.42	375.54
760.86	707.44
761.301	1859.64
761.741	4429.34
762.182	6269.04
762.622	4388.84
