Data from 20171114-ORNL-Ar_H_NY_Subt18_08-06-34-383.txt Node
Date: Tue Nov 14 08:06:34 EST 2017
User: Ender
Spectrometer: HR+D1039
Trigger mode: 0
Integration Time (sec): 2.730000E-2
Scans to average: 10
Electric dark correction enabled: true
Nonlinearity correction enabled: false
Boxcar width: 0
XAxis mode: Wavelengths
Number of Pixels in Spectrum: 2048
>>>>>Begin Spectral Data<<<<<
187.836	-3.57
188.309	-3.57
188.782	-3.57
189.255	2.33
189.728	-6.37
190.201	8.43
190.674	-1.67
191.147	7.03
191.619	-6.87
192.092	-0.47
192.565	4.53
193.038	-0.17
193.511	-3.07
193.984	-1.37
194.456	-1.37
194.929	2.43
195.402	0.63
195.874	-0.47
196.347	-1.57
196.82	-3.17
197.292	1.73
197.765	1.13
198.237	-5.47
198.71	-1.67
199.182	-0.27
199.655	0.73
200.127	-0.57
200.6	-6.57
201.072	0.53
201.544	-1.67
202.017	2.33
202.489	3.23
202.961	4.33
203.433	-3.67
203.906	-9.17
204.378	-3.67
204.85	-2.27
205.322	-12.07
205.794	-2.07
206.266	-2.17
206.739	-8.57
207.211	1.93
207.683	-5.87
208.155	-5.77
208.627	-9.27
209.099	-5.27
209.57	-10.07
210.042	-0.97
210.514	0.13
210.986	-0.57
211.458	-9.67
211.93	-3.97
212.402	-4.97
212.873	0.23
213.345	-2.77
213.817	-11.87
214.288	-2.07
214.76	-10.37
215.232	-4.57
215.703	-2.67
216.175	-7.87
216.646	-7.57
217.118	-0.27
217.589	-7.07
218.061	0.43
218.532	-9.77
219.004	2.33
219.475	-4.47
219.946	-4.17
220.418	-4.87
220.889	0.53
221.36	-1.87
221.832	-4.37
222.303	-2.17
222.774	-1.57
223.245	-7.07
223.717	-8.37
224.188	-1.07
224.659	-7.97
225.13	-5.67
225.601	-3.27
226.072	1.13
226.543	-6.87
227.014	-0.57
227.485	2.23
227.956	-5.07
228.427	-2.27
228.898	-0.07
229.369	8.23
229.839	-1.97
230.31	-7.07
230.781	1.23
231.252	-7.47
231.722	-2.17
232.193	-1.67
232.664	0.33
233.135	-4.47
233.605	-5.77
234.076	-6.07
234.546	-1.57
235.017	6.03
235.487	-0.07
235.958	3.43
236.428	-6.17
236.899	6.73
237.369	-0.37
237.84	-3.87
238.31	5.03
238.78	-4.87
239.251	7.23
239.721	0.13
240.191	1.53
240.662	-2.37
241.132	1.73
241.602	1.53
242.072	-1.77
242.542	8.63
243.013	1.43
243.483	0.43
243.953	1.33
244.423	-0.27
244.893	-3.17
245.363	6.43
245.833	3.93
246.303	1.43
246.773	4.93
247.243	1.73
247.712	5.83
248.182	13.73
248.652	9.33
249.122	-3.67
249.592	8.63
250.061	15.63
250.531	35.63
251.001	15.43
251.471	21.13
251.94	15.33
252.41	8.53
252.879	6.93
253.349	9.33
253.818	12.93
254.288	7.93
254.757	4.23
255.227	-0.77
255.696	-1.77
256.166	5.53
256.635	7.53
257.105	10.03
257.574	4.43
258.043	6.73
258.513	16.53
258.982	17.93
259.451	7.93
259.92	12.13
260.389	16.53
260.859	11.43
261.328	12.13
261.797	17.33
262.266	7.73
262.735	16.13
263.204	6.73
263.673	3.33
264.142	9.03
264.611	-0.47
265.08	-2.57
265.549	2.53
266.018	1.53
266.487	0.73
266.955	-1.67
267.424	0.33
267.893	8.53
268.362	0.43
268.83	4.93
269.299	8.43
269.768	8.23
270.236	6.93
270.705	6.53
271.174	7.13
271.642	5.03
272.111	6.93
272.579	15.13
273.048	26.43
273.516	28.13
273.985	28.53
274.453	26.93
274.922	19.83
275.39	10.43
275.858	6.63
276.327	13.93
276.795	16.53
277.263	10.33
277.731	35.13
278.2	51.83
278.668	63.23
279.136	44.53
279.604	24.53
280.072	22.23
280.54	10.53
281.008	11.53
281.477	16.33
281.945	15.03
282.413	15.83
282.881	15.13
283.348	9.03
283.816	16.93
284.284	16.23
284.752	20.93
285.22	17.13
285.688	16.33
286.156	23.53
286.623	41.13
287.091	54.33
287.559	36.73
288.026	16.73
288.494	13.43
288.962	10.63
289.429	11.73
289.897	18.43
290.364	11.33
290.832	15.53
291.3	10.93
291.767	15.23
292.234	17.23
292.702	21.43
293.169	24.33
293.637	21.23
294.104	25.33
294.571	11.93
295.039	14.23
295.506	18.83
295.973	17.03
296.44	17.73
296.908	16.73
297.375	24.13
297.842	18.73
298.309	20.33
298.776	16.43
299.243	21.53
299.71	13.83
300.177	24.03
300.644	26.43
301.111	22.53
301.578	26.13
302.045	18.33
302.512	21.13
302.979	18.83
303.446	25.83
303.913	13.33
304.379	20.63
304.846	27.53
305.313	24.63
305.78	22.63
306.246	29.33
306.713	23.13
307.18	23.63
307.646	28.53
308.113	31.63
308.579	29.63
309.046	26.83
309.512	27.93
309.979	12.53
310.445	31.13
310.912	26.53
311.378	32.93
311.845	26.43
312.311	26.43
312.777	34.23
313.244	27.43
313.71	38.53
314.176	28.73
314.642	33.93
315.109	35.53
315.575	37.43
316.041	38.33
316.507	33.93
316.973	38.13
317.439	36.63
317.905	37.53
318.371	29.13
318.837	37.83
319.303	26.43
319.769	32.33
320.235	34.73
320.701	38.83
321.167	46.03
321.633	33.63
322.099	40.73
322.564	44.33
323.03	40.33
323.496	38.93
323.962	43.63
324.427	34.73
324.893	39.83
325.359	36.13
325.824	34.53
326.29	35.43
326.755	34.03
327.221	45.03
327.686	42.73
328.152	48.63
328.617	45.03
329.083	44.03
329.548	49.83
330.014	48.73
330.479	44.23
330.944	42.43
331.41	46.53
331.875	45.63
332.34	42.73
332.805	41.23
333.271	48.43
333.736	45.63
334.201	52.63
334.666	50.43
335.131	56.03
335.596	57.33
336.061	53.33
336.526	43.83
336.991	46.93
337.456	61.23
337.921	51.33
338.386	35.63
338.851	51.03
339.316	51.03
339.781	45.03
340.246	47.13
340.711	51.43
341.175	54.93
341.64	48.83
342.105	54.83
342.569	57.43
343.034	56.93
343.499	57.03
343.963	49.43
344.428	65.03
344.893	63.93
345.357	64.23
345.822	63.83
346.286	75.03
346.751	75.73
347.215	63.03
347.679	71.03
348.144	95.83
348.608	79.33
349.073	70.13
349.537	67.03
350.001	79.93
350.465	87.73
350.93	74.23
351.394	75.93
351.858	72.83
352.322	89.43
352.786	85.73
353.25	99.63
353.715	112.33
354.179	99.73
354.643	123.33
355.107	129.23
355.571	111.23
356.035	103.03
356.498	116.93
356.962	126.33
357.426	133.33
357.89	117.33
358.354	90.33
358.818	84.03
359.281	82.53
359.745	81.93
360.209	74.83
360.673	74.73
361.136	78.83
361.6	86.33
362.064	83.53
362.527	81.83
362.991	93.73
363.454	83.93
363.918	80.43
364.381	76.73
364.845	79.43
365.308	88.13
365.772	90.03
366.235	88.23
366.698	85.13
367.162	96.53
367.625	94.93
368.088	89.13
368.552	92.73
369.015	92.43
369.478	96.73
369.941	104.93
370.404	96.13
370.867	107.33
371.331	111.83
371.794	112.03
372.257	115.93
372.72	113.33
373.183	112.13
373.646	107.43
374.109	107.53
374.572	109.73
375.035	109.63
375.497	107.93
375.96	110.23
376.423	99.03
376.886	110.33
377.349	112.13
377.811	105.93
378.274	113.13
378.737	111.23
379.199	115.53
379.662	108.53
380.125	120.33
380.587	120.33
381.05	126.53
381.512	132.43
381.975	134.63
382.437	136.33
382.9	132.73
383.362	138.73
383.825	139.63
384.287	148.43
384.75	143.93
385.212	147.63
385.674	139.43
386.136	142.13
386.599	127.43
387.061	129.23
387.523	134.13
387.985	140.13
388.447	152.83
388.91	147.53
389.372	161.03
389.834	156.43
390.296	149.33
390.758	162.53
391.22	174.43
391.682	217.13
392.144	308.63
392.606	239.03
393.068	167.13
393.529	176.53
393.991	163.13
394.453	157.43
394.915	154.13
395.377	205.63
395.838	227.03
396.3	164.73
396.762	143.43
397.224	139.83
397.685	129.63
398.147	129.03
398.608	135.93
399.07	132.93
399.531	136.93
399.993	142.33
400.454	151.13
400.916	146.33
401.377	147.73
401.839	154.23
402.3	154.83
402.762	174.53
403.223	189.43
403.684	167.63
404.145	168.73
404.607	160.03
405.068	160.63
405.529	174.83
405.99	196.23
406.451	180.43
406.913	175.83
407.374	166.33
407.835	163.53
408.296	176.13
408.757	171.43
409.218	183.53
409.679	184.73
410.14	179.73
410.601	178.73
411.062	185.03
411.522	193.23
411.983	194.83
412.444	182.23
412.905	186.83
413.366	181.33
413.826	200.93
414.287	220.63
414.748	264.03
415.208	256.63
415.669	212.83
416.13	209.93
416.59	203.73
417.051	213.83
417.511	225.03
417.972	235.33
418.432	252.43
418.893	286.03
419.353	249.53
419.814	197.63
420.274	181.43
420.734	185.23
421.195	204.63
421.655	201.33
422.115	197.83
422.576	196.03
423.036	198.43
423.496	213.73
423.956	219.03
424.416	232.63
424.876	267.13
425.336	265.73
425.797	266.73
426.257	262.63
426.717	251.03
427.177	241.33
427.637	228.13
428.097	235.63
428.556	254.13
429.016	275.73
429.476	271.33
429.936	278.63
430.396	287.23
430.856	301.43
431.315	322.43
431.775	356.33
432.235	387.73
432.694	367.43
433.154	375.33
433.614	402.33
434.073	352.03
434.533	288.73
434.993	277.13
435.452	288.93
435.912	306.53
436.371	286.33
436.83	284.23
437.29	277.93
437.749	255.63
438.209	254.13
438.668	273.53
439.127	290.03
439.587	268.23
440.046	246.63
440.505	262.43
440.964	289.13
441.424	331.33
441.883	314.33
442.342	271.13
442.801	226.83
443.26	225.43
443.719	220.63
444.178	225.03
444.637	216.23
445.096	227.73
445.555	228.73
446.014	220.03
446.473	226.13
446.932	236.93
447.391	235.13
447.849	227.63
448.308	223.93
448.767	222.93
449.226	239.63
449.685	235.93
450.143	256.53
450.602	239.53
451.061	233.43
451.519	237.83
451.978	244.73
452.436	244.33
452.895	242.83
453.353	264.33
453.812	242.33
454.27	247.73
454.729	245.43
455.187	240.33
455.646	250.53
456.104	254.93
456.562	270.53
457.021	267.63
457.479	263.73
457.937	273.83
458.395	272.43
458.854	252.33
459.312	257.53
459.77	285.33
460.228	255.93
460.686	243.13
461.144	255.63
461.602	242.43
462.06	243.13
462.518	262.73
462.976	262.13
463.434	260.03
463.892	270.13
464.35	281.63
464.808	289.23
465.266	272.93
465.724	269.43
466.181	272.53
466.639	265.93
467.097	290.33
467.555	306.23
468.012	309.53
468.47	310.43
468.928	335.83
469.385	350.43
469.843	353.93
470.3	355.13
470.758	368.13
471.215	386.13
471.673	410.93
472.13	415.53
472.588	417.83
473.045	384.23
473.503	390.63
473.96	403.83
474.417	410.93
474.875	440.83
475.332	487.93
475.789	466.83
476.246	478.93
476.704	497.23
477.161	515.03
477.618	536.43
478.075	571.33
478.532	627.03
478.989	707.53
479.446	815.23
479.903	786.53
480.36	823.33
480.817	893.63
481.274	993.63
481.731	1092.73
482.188	1195.43
482.645	1326.33
483.102	1442.13
483.558	1582.23
484.015	1642.73
484.472	1621.23
484.929	1552.73
485.385	1508.63
485.842	1468.93
486.299	1397.73
486.755	1336.23
487.212	1119.23
487.668	942.73
488.125	863.63
488.582	788.33
489.038	756.63
489.494	722.03
489.951	699.83
490.407	674.03
490.864	653.53
491.32	655.33
491.776	651.73
492.233	649.13
492.689	620.93
493.145	617.43
493.602	611.13
494.058	620.33
494.514	635.63
494.97	646.73
495.426	663.83
495.882	626.23
496.338	620.23
496.794	641.43
497.251	634.33
497.707	649.03
498.163	642.43
498.618	652.23
499.074	650.83
499.53	681.13
499.986	695.03
500.442	664.13
500.898	644.33
501.354	636.53
501.809	644.83
502.265	660.43
502.721	671.23
503.177	689.23
503.632	673.43
504.088	680.93
504.543	725.23
504.999	712.63
505.455	666.43
505.91	629.93
506.366	648.03
506.821	633.63
507.277	627.73
507.732	635.03
508.187	640.53
508.643	631.63
509.098	635.63
509.553	660.73
510.009	678.03
510.464	682.43
510.919	700.93
511.375	703.13
511.83	720.53
512.285	736.73
512.74	775.83
513.195	801.53
513.65	780.83
514.105	778.43
514.56	786.43
515.015	801.93
515.47	815.33
515.925	804.43
516.38	800.43
516.835	805.63
517.29	791.23
517.745	782.03
518.2	777.23
518.655	760.43
519.109	755.03
519.564	753.53
520.019	742.03
520.474	731.53
520.928	739.63
521.383	732.13
521.838	721.13
522.292	727.73
522.747	717.83
523.201	708.43
523.656	706.83
524.11	702.63
524.565	699.73
525.019	700.03
525.474	709.23
525.928	708.33
526.382	710.13
526.837	706.83
527.291	707.93
527.745	701.23
528.2	710.83
528.654	704.03
529.108	699.13
529.562	704.23
530.016	694.73
530.47	697.63
530.925	698.93
531.379	708.53
531.833	716.83
532.287	724.13
532.741	725.43
533.195	718.03
533.649	716.13
534.103	726.23
534.556	721.63
535.01	724.23
535.464	720.93
535.918	728.23
536.372	727.43
536.826	727.63
537.279	714.33
537.733	718.03
538.187	723.33
538.64	724.03
539.094	734.93
539.548	739.03
540.001	736.43
540.455	735.43
540.908	739.93
541.362	744.63
541.815	760.43
542.269	769.43
542.722	763.63
543.175	784.63
543.629	788.93
544.082	802.13
544.536	798.93
544.989	804.73
545.442	804.43
545.895	799.13
546.349	802.13
546.802	804.53
547.255	817.73
547.708	821.63
548.161	826.13
548.614	837.83
549.067	836.93
549.52	834.43
549.973	813.93
550.426	818.33
550.879	806.03
551.332	807.53
551.785	820.93
552.238	810.13
552.691	835.43
553.144	838.23
553.596	856.73
554.049	876.73
554.502	912.23
554.955	926.83
555.407	915.23
555.86	911.23
556.313	908.03
556.765	899.43
557.218	898.13
557.67	894.33
558.123	887.63
558.576	876.53
559.028	891.23
559.48	898.93
559.933	884.53
560.385	855.83
560.838	820.13
561.29	797.03
561.742	795.73
562.195	774.03
562.647	779.93
563.099	788.93
563.551	783.53
564.004	797.23
564.456	781.33
564.908	774.23
565.36	754.63
565.812	749.23
566.264	733.63
566.716	733.93
567.168	731.93
567.62	737.33
568.072	721.63
568.524	713.03
568.976	698.33
569.428	684.53
569.88	682.93
570.332	693.23
570.784	694.83
571.235	698.63
571.687	698.53
572.139	718.33
572.59	725.23
573.042	716.83
573.494	716.63
573.945	725.43
574.397	688.43
574.849	702.03
575.3	701.13
575.752	688.23
576.203	688.43
576.655	691.23
577.106	670.83
577.557	682.33
578.009	684.03
578.46	678.23
578.912	670.63
579.363	666.93
579.814	674.43
580.265	672.43
580.717	677.03
581.168	675.33
581.619	685.83
582.07	690.73
582.521	684.93
582.972	684.23
583.423	695.73
583.875	694.53
584.326	713.43
584.777	767.43
585.227	837.23
585.678	931.93
586.129	1025.13
586.58	1100.63
587.031	1194.73
587.482	1356.63
587.933	1544.43
588.384	1350.23
588.834	996.73
589.285	831.93
589.736	801.53
590.186	796.93
590.637	765.43
591.088	755.63
591.538	747.03
591.989	739.23
592.439	729.73
592.89	724.43
593.34	712.73
593.791	708.23
594.241	714.93
594.692	730.63
595.142	710.43
595.593	712.93
596.043	712.13
596.493	721.73
596.943	732.23
597.394	725.83
597.844	732.23
598.294	735.83
598.744	757.53
599.195	782.23
599.645	840.13
600.095	872.63
600.545	931.03
600.995	980.43
601.445	1041.83
601.895	1112.03
602.345	1158.63
602.795	1127.93
603.245	1071.63
603.695	1013.63
604.145	964.73
604.594	916.63
605.044	879.13
605.494	799.03
605.944	767.03
606.393	746.93
606.843	733.23
607.293	742.53
607.743	748.03
608.192	753.83
608.642	773.43
609.091	765.83
609.541	781.73
609.99	779.73
610.44	783.63
610.889	739.23
611.339	705.53
611.788	697.73
612.238	712.23
612.687	728.73
613.136	733.33
613.586	748.53
614.035	754.13
614.484	768.43
614.933	775.23
615.383	755.73
615.832	755.73
616.281	737.73
616.73	700.93
617.179	671.03
617.628	661.03
618.077	640.33
618.526	623.83
618.975	619.83
619.424	629.33
619.873	624.33
620.322	631.33
620.771	604.73
621.22	618.53
621.669	599.43
622.118	592.13
622.567	586.43
623.015	581.93
623.464	579.23
623.913	566.53
624.361	566.23
624.81	563.43
625.259	566.13
625.707	565.33
626.156	567.33
626.604	578.63
627.053	558.53
627.501	567.83
627.95	576.23
628.398	582.03
628.847	581.53
629.295	578.73
629.744	571.43
630.192	573.43
630.64	568.23
631.089	575.23
631.537	587.23
631.985	589.63
632.433	604.83
632.881	614.43
633.33	666.93
633.778	650.53
634.226	575.43
634.674	579.63
635.122	580.73
635.57	604.33
636.018	634.63
636.466	586.73
636.914	561.83
637.362	581.83
637.81	574.73
638.258	584.83
638.705	587.43
639.153	615.33
639.601	628.93
640.049	646.53
640.497	679.23
640.944	703.73
641.392	652.63
641.84	614.43
642.287	585.93
642.735	562.83
643.182	579.63
643.63	582.33
644.078	580.03
644.525	599.63
644.973	599.13
645.42	612.43
645.867	626.63
646.315	655.13
646.762	668.73
647.21	709.63
647.657	727.03
648.104	757.13
648.551	797.43
648.999	854.13
649.446	929.43
649.893	1023.63
650.34	1182.03
650.787	1414.93
651.234	1756.53
651.682	2308.63
652.129	3179.63
652.576	4577.83
653.023	6744.23
653.47	9298.93
653.917	11570.73
654.363	13386.63
654.81	14770.33
655.257	14036.53
655.704	9210.93
656.151	5400.53
656.598	3522.03
657.044	2476.83
657.491	1897.03
657.938	1514.93
658.385	1260.63
658.831	1095.13
659.278	959.43
659.724	868.23
660.171	802.93
660.618	732.23
661.064	709.03
661.511	679.73
661.957	668.33
662.404	649.03
662.85	658.03
663.296	628.43
663.743	569.03
664.189	543.43
664.635	532.13
665.082	536.93
665.528	534.63
665.974	518.03
666.42	517.33
666.867	515.43
667.313	494.73
667.759	491.13
668.205	487.33
668.651	488.63
669.097	499.73
669.543	514.63
669.989	477.43
670.435	461.53
670.881	453.83
671.327	460.93
671.773	470.03
672.219	490.03
672.665	538.43
673.11	589.73
673.556	639.53
674.002	683.53
674.448	655.83
674.893	550.43
675.339	472.53
675.785	443.43
676.23	415.93
676.676	395.23
677.122	385.03
677.567	370.83
678.013	372.13
678.458	366.93
678.904	358.43
679.349	353.93
679.794	352.73
680.24	358.43
680.685	346.33
681.131	353.13
681.576	345.13
682.021	354.23
682.466	350.23
682.912	345.43
683.357	355.53
683.802	384.53
684.247	417.93
684.692	452.33
685.137	502.93
685.583	536.53
686.028	560.23
686.473	517.93
686.918	449.43
687.363	413.53
687.807	399.03
688.252	375.53
688.697	365.73
689.142	328.83
689.587	325.53
690.032	325.83
690.477	341.03
690.921	346.33
691.366	382.33
691.811	397.03
692.255	428.73
692.7	464.83
693.145	511.43
693.589	706.03
694.034	1145.33
694.478	1542.33
694.923	1731.73
695.367	2276.63
695.812	1204.43
696.256	499.73
696.701	372.13
697.145	350.43
697.59	336.73
698.034	316.53
698.478	332.63
698.922	338.03
699.367	328.33
699.811	336.83
700.255	353.13
700.699	382.23
701.143	431.63
701.588	482.63
702.032	526.13
702.476	523.93
702.92	493.03
703.364	495.43
703.808	634.83
704.252	1031.23
704.696	1463.03
705.14	1665.03
705.584	2134.43
706.027	1049.43
706.471	528.93
706.915	394.43
707.359	341.73
707.803	328.73
708.246	314.83
708.69	310.13
709.134	310.63
709.577	312.13
710.021	315.23
710.465	308.43
710.908	307.13
711.352	304.23
711.795	314.03
712.239	351.83
712.682	391.03
713.126	421.83
713.569	469.53
714.012	379.33
714.456	328.53
714.899	296.63
715.342	280.93
715.786	261.33
716.229	267.73
716.672	261.43
717.115	256.73
717.558	251.73
718.002	248.83
718.445	263.43
718.888	286.83
719.331	297.73
719.774	302.63
720.217	301.13
720.66	282.23
721.103	270.13
721.546	258.13
721.989	249.23
722.432	239.03
722.874	243.23
723.317	241.33
723.76	236.43
724.203	257.53
724.645	320.63
725.088	451.53
725.531	565.73
725.974	645.83
726.416	544.13
726.859	310.03
727.301	245.13
727.744	236.93
728.187	230.33
728.629	247.13
729.071	248.53
729.514	259.43
729.956	274.63
730.399	284.53
730.841	289.83
731.283	278.53
731.726	265.93
732.168	255.03
732.61	262.63
733.053	289.13
733.495	315.83
733.937	354.93
734.379	396.83
734.821	438.13
735.263	537.73
735.705	831.43
736.148	1578.53
736.59	2570.53
737.032	3070.23
737.474	2469.93
737.916	809.33
738.357	431.83
738.799	330.33
739.241	296.83
739.683	289.03
740.125	290.33
740.567	291.63
741.008	313.73
741.45	319.43
741.892	323.23
742.334	343.13
742.775	356.73
743.217	342.23
743.658	265.03
744.1	246.23
744.542	263.63
744.983	311.83
745.425	345.53
745.866	341.73
746.307	285.13
746.749	282.83
747.19	333.23
747.632	457.53
748.073	883.93
748.514	1877.43
748.956	2847.73
749.397	3562.13
749.838	2971.83
750.279	2957.83
750.72	1489.63
751.162	538.63
751.603	316.43
752.044	255.13
752.485	212.23
752.926	209.93
753.367	201.23
753.808	195.43
754.249	189.23
754.69	192.33
755.131	182.93
755.572	185.83
756.013	184.73
756.453	185.23
756.894	180.33
757.335	191.03
757.776	202.13
758.216	193.23
758.657	200.43
759.098	202.43
759.538	225.13
759.979	266.73
760.42	378.23
760.86	701.93
761.301	1815.23
761.741	4412.33
762.182	6443.73
