Data from 20171114-ORNL-Ar_H_NY_Subt18_08-04-34-819.txt Node
Date: Tue Nov 14 08:04:34 EST 2017
User: Ender
Spectrometer: HR+D1039
Trigger mode: 0
Integration Time (sec): 2.730000E-2
Scans to average: 10
Electric dark correction enabled: true
Nonlinearity correction enabled: false
Boxcar width: 0
XAxis mode: Wavelengths
Number of Pixels in Spectrum: 2048
>>>>>Begin Spectral Data<<<<<
187.836	-6.86
188.309	-6.86
188.782	-6.86
189.255	1.34
189.728	-2.06
190.201	2.34
190.674	-0.86
191.147	9.04
191.619	-8.56
192.092	-2.56
192.565	5.04
193.038	0.94
193.511	0.84
193.984	1.74
194.456	-1.16
194.929	5.44
195.402	-4.26
195.874	-0.36
196.347	-1.26
196.82	-3.96
197.292	7.74
197.765	-0.76
198.237	-7.26
198.71	-0.46
199.182	-3.06
199.655	-0.66
200.127	2.54
200.6	-2.36
201.072	-1.56
201.544	-3.06
202.017	-4.86
202.489	1.64
202.961	-9.66
203.433	-2.26
203.906	-5.66
204.378	-2.16
204.85	-2.36
205.322	-8.16
205.794	3.24
206.266	-5.26
206.739	-6.06
207.211	3.34
207.683	-5.96
208.155	-3.26
208.627	-6.86
209.099	-9.06
209.57	-9.96
210.042	-4.86
210.514	-4.06
210.986	-1.26
211.458	-9.46
211.93	-0.86
212.402	-1.66
212.873	2.44
213.345	-2.26
213.817	-11.16
214.288	-6.36
214.76	-14.66
215.232	-1.16
215.703	-3.76
216.175	-2.56
216.646	-11.56
217.118	-5.86
217.589	-7.56
218.061	1.04
218.532	-8.06
219.004	-1.26
219.475	-2.46
219.946	-2.76
220.418	-2.46
220.889	1.04
221.36	1.84
221.832	-3.66
222.303	-7.16
222.774	-1.36
223.245	-11.16
223.717	-8.06
224.188	-6.96
224.659	-7.16
225.13	-7.46
225.601	-1.56
226.072	-3.06
226.543	2.84
227.014	0.54
227.485	-4.96
227.956	1.54
228.427	-2.26
228.898	-1.56
229.369	4.34
229.839	1.54
230.31	-7.86
230.781	1.54
231.252	-7.36
231.722	-9.66
232.193	-6.96
232.664	-2.16
233.135	4.54
233.605	-0.86
234.076	-11.76
234.546	1.54
235.017	2.84
235.487	5.14
235.958	-0.26
236.428	0.44
236.899	3.84
237.369	0.14
237.84	5.04
238.31	7.94
238.78	3.44
239.251	-3.26
239.721	0.94
240.191	-1.56
240.662	1.04
241.132	6.24
241.602	-1.26
242.072	4.24
242.542	9.94
243.013	-1.56
243.483	8.64
243.953	5.04
244.423	0.14
244.893	-7.46
245.363	2.44
245.833	0.34
246.303	-2.86
246.773	8.44
247.243	4.94
247.712	8.74
248.182	7.74
248.652	7.34
249.122	-1.36
249.592	13.54
250.061	21.24
250.531	37.94
251.001	18.94
251.471	30.54
251.94	22.14
252.41	9.54
252.879	5.54
253.349	16.14
253.818	12.84
254.288	8.04
254.757	2.84
255.227	2.04
255.696	2.44
256.166	8.44
256.635	6.94
257.105	9.94
257.574	8.14
258.043	12.74
258.513	9.94
258.982	17.94
259.451	12.24
259.92	25.34
260.389	13.34
260.859	19.74
261.328	11.14
261.797	18.34
262.266	10.34
262.735	14.84
263.204	3.54
263.673	1.44
264.142	2.14
264.611	2.44
265.08	8.04
265.549	4.54
266.018	7.04
266.487	-3.76
266.955	0.04
267.424	4.34
267.893	1.64
268.362	3.34
268.83	7.34
269.299	14.04
269.768	9.34
270.236	12.04
270.705	7.14
271.174	14.14
271.642	10.54
272.111	5.74
272.579	12.54
273.048	26.54
273.516	32.44
273.985	30.24
274.453	26.84
274.922	22.44
275.39	11.64
275.858	8.24
276.327	12.84
276.795	19.24
277.263	12.94
277.731	36.44
278.2	58.24
278.668	63.54
279.136	55.74
279.604	26.84
280.072	18.44
280.54	12.94
281.008	11.24
281.477	20.64
281.945	15.04
282.413	12.84
282.881	13.34
283.348	12.04
283.816	15.24
284.284	11.44
284.752	20.24
285.22	12.94
285.688	17.94
286.156	21.04
286.623	47.24
287.091	52.84
287.559	33.44
288.026	15.94
288.494	20.54
288.962	5.64
289.429	7.54
289.897	20.64
290.364	14.24
290.832	21.84
291.3	12.04
291.767	19.54
292.234	22.24
292.702	13.94
293.169	19.14
293.637	16.84
294.104	19.54
294.571	11.64
295.039	15.94
295.506	17.64
295.973	24.84
296.44	21.34
296.908	25.74
297.375	16.24
297.842	14.64
298.309	16.84
298.776	19.14
299.243	25.94
299.71	19.34
300.177	27.24
300.644	17.84
301.111	27.94
301.578	25.74
302.045	15.84
302.512	28.64
302.979	25.84
303.446	25.74
303.913	17.24
304.379	22.84
304.846	28.64
305.313	25.04
305.78	22.44
306.246	28.44
306.713	27.54
307.18	31.54
307.646	30.74
308.113	30.54
308.579	30.34
309.046	28.24
309.512	30.74
309.979	20.24
310.445	28.74
310.912	26.94
311.378	37.04
311.845	35.84
312.311	31.14
312.777	34.54
313.244	32.54
313.71	39.14
314.176	34.04
314.642	35.64
315.109	32.54
315.575	39.74
316.041	40.44
316.507	35.54
316.973	41.44
317.439	37.44
317.905	37.14
318.371	31.84
318.837	39.94
319.303	31.94
319.769	41.84
320.235	37.84
320.701	35.34
321.167	39.04
321.633	30.54
322.099	40.64
322.564	41.94
323.03	41.04
323.496	37.64
323.962	47.64
324.427	40.64
324.893	43.94
325.359	43.44
325.824	39.74
326.29	37.24
326.755	36.74
327.221	44.84
327.686	37.04
328.152	44.94
328.617	41.84
329.083	47.84
329.548	55.04
330.014	44.24
330.479	42.14
330.944	44.44
331.41	42.14
331.875	45.94
332.34	43.24
332.805	44.34
333.271	51.04
333.736	49.84
334.201	54.24
334.666	57.74
335.131	55.24
335.596	50.44
336.061	47.64
336.526	43.34
336.991	48.94
337.456	57.24
337.921	52.84
338.386	48.14
338.851	43.24
339.316	40.84
339.781	46.54
340.246	47.84
340.711	49.14
341.175	46.64
341.64	48.74
342.105	52.14
342.569	59.94
343.034	56.44
343.499	54.74
343.963	44.94
344.428	67.04
344.893	63.24
345.357	59.84
345.822	64.14
346.286	68.44
346.751	68.64
347.215	68.54
347.679	75.54
348.144	95.74
348.608	77.74
349.073	78.44
349.537	72.14
350.001	82.24
350.465	88.74
350.93	81.34
351.394	80.34
351.858	72.94
352.322	86.74
352.786	85.44
353.25	101.34
353.715	110.84
354.179	98.04
354.643	115.64
355.107	117.34
355.571	106.04
356.035	97.34
356.498	118.34
356.962	121.54
357.426	129.44
357.89	112.84
358.354	93.84
358.818	79.14
359.281	76.84
359.745	73.64
360.209	76.64
360.673	71.64
361.136	81.54
361.6	81.84
362.064	79.64
362.527	76.94
362.991	83.44
363.454	79.44
363.918	72.64
364.381	72.44
364.845	79.04
365.308	86.64
365.772	82.54
366.235	79.44
366.698	73.24
367.162	91.14
367.625	85.74
368.088	85.74
368.552	87.14
369.015	80.54
369.478	92.54
369.941	98.64
370.404	95.04
370.867	103.84
371.331	101.74
371.794	106.44
372.257	106.94
372.72	115.64
373.183	107.64
373.646	103.74
374.109	101.64
374.572	100.54
375.035	112.54
375.497	103.54
375.96	102.44
376.423	101.54
376.886	112.44
377.349	103.54
377.811	96.94
378.274	96.54
378.737	100.24
379.199	105.94
379.662	107.34
380.125	115.54
380.587	112.34
381.05	119.24
381.512	123.44
381.975	129.64
382.437	122.74
382.9	114.04
383.362	121.84
383.825	139.44
384.287	139.44
384.75	132.74
385.212	132.44
385.674	133.94
386.136	128.34
386.599	110.44
387.061	122.44
387.523	125.94
387.985	126.64
388.447	132.34
388.91	138.94
389.372	148.94
389.834	146.94
390.296	134.04
390.758	142.94
391.22	153.14
391.682	196.14
392.144	273.24
392.606	219.24
393.068	155.24
393.529	158.84
393.991	149.54
394.453	143.94
394.915	148.94
395.377	179.74
395.838	202.94
396.3	149.94
396.762	136.24
397.224	125.24
397.685	123.54
398.147	121.64
398.608	120.24
399.07	124.14
399.531	122.74
399.993	133.74
400.454	145.04
400.916	134.24
401.377	141.64
401.839	145.94
402.3	141.94
402.762	162.34
403.223	172.44
403.684	159.24
404.145	154.44
404.607	151.24
405.068	160.44
405.529	162.84
405.99	173.74
406.451	164.64
406.913	163.14
407.374	153.54
407.835	150.74
408.296	157.94
408.757	163.84
409.218	178.74
409.679	173.34
410.14	169.34
410.601	169.64
411.062	169.94
411.522	179.44
411.983	187.34
412.444	161.64
412.905	176.64
413.366	170.84
413.826	183.84
414.287	207.84
414.748	251.94
415.208	227.64
415.669	200.84
416.13	194.54
416.59	194.14
417.051	200.74
417.511	202.94
417.972	221.64
418.432	231.04
418.893	269.44
419.353	239.34
419.814	182.44
420.274	166.14
420.734	170.04
421.195	180.24
421.655	183.94
422.115	180.24
422.576	178.64
423.036	178.14
423.496	192.64
423.956	204.64
424.416	220.54
424.876	242.64
425.336	243.54
425.797	250.14
426.257	239.14
426.717	218.24
427.177	219.64
427.637	213.04
428.097	225.64
428.556	232.34
429.016	258.34
429.476	247.94
429.936	257.94
430.396	262.04
430.856	277.04
431.315	299.44
431.775	325.34
432.235	354.34
432.694	325.54
433.154	334.64
433.614	361.04
434.073	303.44
434.533	259.54
434.993	253.24
435.452	264.74
435.912	285.84
436.371	268.14
436.83	265.34
437.29	259.74
437.749	234.64
438.209	222.74
438.668	243.44
439.127	267.24
439.587	240.24
440.046	230.64
440.505	240.94
440.964	255.74
441.424	294.44
441.883	290.14
442.342	244.74
442.801	210.14
443.26	210.24
443.719	203.14
444.178	204.84
444.637	187.94
445.096	204.64
445.555	204.24
446.014	206.84
446.473	215.14
446.932	205.14
447.391	210.14
447.849	210.24
448.308	211.94
448.767	203.94
449.226	214.74
449.685	216.54
450.143	230.34
450.602	214.54
451.061	211.74
451.519	222.94
451.978	210.84
452.436	215.34
452.895	223.74
453.353	234.84
453.812	220.54
454.27	223.14
454.729	225.14
455.187	222.14
455.646	229.94
456.104	225.34
456.562	240.94
457.021	239.34
457.479	238.84
457.937	250.74
458.395	249.84
458.854	226.34
459.312	236.44
459.77	256.44
460.228	241.54
460.686	224.34
461.144	229.04
461.602	224.84
462.06	224.44
462.518	234.24
462.976	232.44
463.434	240.64
463.892	244.64
464.35	263.54
464.808	270.74
465.266	252.34
465.724	254.64
466.181	253.04
466.639	261.24
467.097	273.84
467.555	280.34
468.012	280.64
468.47	289.24
468.928	300.74
469.385	316.24
469.843	326.94
470.3	318.84
470.758	330.14
471.215	353.94
471.673	380.44
472.13	375.64
472.588	383.54
473.045	335.04
473.503	342.04
473.96	364.54
474.417	369.24
474.875	406.94
475.332	438.24
475.789	433.04
476.246	433.84
476.704	459.14
477.161	473.54
477.618	494.34
478.075	526.04
478.532	575.54
478.989	641.04
479.446	744.94
479.903	729.14
480.36	763.74
480.817	806.44
481.274	892.74
481.731	1016.34
482.188	1102.94
482.645	1216.44
483.102	1313.64
483.558	1448.04
484.015	1497.94
484.472	1485.34
484.929	1420.14
485.385	1397.34
485.842	1352.84
486.299	1280.44
486.755	1202.44
487.212	1030.24
487.668	872.64
488.125	800.74
488.582	730.84
489.038	712.24
489.494	664.34
489.951	643.94
490.407	622.74
490.864	608.84
491.32	607.64
491.776	598.54
492.233	604.54
492.689	564.74
493.145	567.94
493.602	555.54
494.058	567.94
494.514	569.94
494.97	591.24
495.426	600.14
495.882	581.44
496.338	585.14
496.794	587.54
497.251	578.44
497.707	597.94
498.163	594.94
498.618	605.74
499.074	607.74
499.53	628.94
499.986	626.84
500.442	604.44
500.898	589.74
501.354	583.94
501.809	589.84
502.265	602.04
502.721	613.44
503.177	623.74
503.632	621.34
504.088	627.64
504.543	658.84
504.999	653.84
505.455	613.04
505.91	590.44
506.366	590.64
506.821	576.14
507.277	577.14
507.732	580.74
508.187	585.14
508.643	591.74
509.098	590.84
509.553	608.84
510.009	617.84
510.464	608.44
510.919	641.14
511.375	647.64
511.83	650.94
512.285	671.74
512.74	717.34
513.195	729.34
513.65	711.24
514.105	714.34
514.56	725.44
515.015	738.34
515.47	755.34
515.925	741.04
516.38	739.24
516.835	731.34
517.29	728.94
517.745	723.94
518.2	710.04
518.655	697.24
519.109	701.04
519.564	695.84
520.019	690.54
520.474	681.54
520.928	674.24
521.383	665.84
521.838	661.54
522.292	660.24
522.747	666.14
523.201	653.44
523.656	649.54
524.11	638.84
524.565	652.44
525.019	644.84
525.474	652.94
525.928	652.34
526.382	651.04
526.837	634.94
527.291	650.54
527.745	651.84
528.2	645.14
528.654	638.54
529.108	635.24
529.562	633.94
530.016	641.04
530.47	629.54
530.925	633.34
531.379	643.44
531.833	647.64
532.287	653.84
532.741	642.84
533.195	656.44
533.649	655.44
534.103	670.54
534.556	662.84
535.01	665.74
535.464	659.34
535.918	680.04
536.372	673.34
536.826	664.14
537.279	654.54
537.733	655.24
538.187	665.44
538.64	664.04
539.094	673.14
539.548	676.04
540.001	665.64
540.455	673.94
540.908	667.64
541.362	685.74
541.815	675.44
542.269	700.14
542.722	694.64
543.175	706.04
543.629	710.84
544.082	712.64
544.536	730.04
544.989	718.04
545.442	724.94
545.895	722.74
546.349	720.34
546.802	730.74
547.255	726.44
547.708	733.04
548.161	754.44
548.614	748.94
549.067	758.14
549.52	742.84
549.973	744.44
550.426	740.24
550.879	729.54
551.332	728.94
551.785	742.34
552.238	738.14
552.691	750.54
553.144	758.54
553.596	773.24
554.049	788.94
554.502	826.74
554.955	833.54
555.407	829.54
555.86	829.64
556.313	824.84
556.765	812.34
557.218	800.44
557.67	804.04
558.123	814.54
558.576	812.94
559.028	804.84
559.48	805.64
559.933	795.94
560.385	765.24
560.838	734.14
561.29	713.34
561.742	704.94
562.195	702.64
562.647	692.44
563.099	708.94
563.551	701.54
564.004	712.34
564.456	700.04
564.908	691.64
565.36	680.24
565.812	667.04
566.264	656.64
566.716	662.14
567.168	646.94
567.62	653.84
568.072	643.84
568.524	625.94
568.976	626.04
569.428	605.84
569.88	616.94
570.332	616.44
570.784	612.34
571.235	617.44
571.687	637.34
572.139	636.34
572.59	650.44
573.042	646.44
573.494	644.24
573.945	638.74
574.397	619.04
574.849	627.94
575.3	615.64
575.752	618.54
576.203	606.24
576.655	623.44
577.106	597.54
577.557	600.24
578.009	597.94
578.46	590.64
578.912	592.84
579.363	599.14
579.814	610.34
580.265	585.04
580.717	601.74
581.168	597.94
581.619	615.84
582.07	609.84
582.521	612.14
582.972	600.84
583.423	611.04
583.875	607.84
584.326	634.44
584.777	678.04
585.227	729.24
585.678	815.74
586.129	894.94
586.58	967.74
587.031	1040.94
587.482	1188.44
587.933	1348.14
588.384	1165.34
588.834	870.54
589.285	718.54
589.736	704.14
590.186	690.84
590.637	675.64
591.088	655.04
591.538	656.64
591.989	652.44
592.439	654.44
592.89	635.14
593.34	628.44
593.791	635.44
594.241	631.64
594.692	632.04
595.142	627.14
595.593	617.34
596.043	634.64
596.493	623.74
596.943	633.04
597.394	645.54
597.844	622.34
598.294	644.44
598.744	671.94
599.195	687.54
599.645	726.64
600.095	765.14
600.545	808.84
600.995	854.84
601.445	914.74
601.895	962.14
602.345	1004.44
602.795	991.94
603.245	943.74
603.695	902.04
604.145	848.44
604.594	825.04
605.044	767.04
605.494	706.54
605.944	662.34
606.393	658.44
606.843	633.44
607.293	650.14
607.743	638.74
608.192	648.84
608.642	661.84
609.091	668.04
609.541	674.34
609.99	674.34
610.44	660.04
610.889	639.24
611.339	614.24
611.788	603.54
612.238	615.44
612.687	629.34
613.136	628.94
613.586	655.24
614.035	647.14
614.484	666.14
614.933	668.74
615.383	649.24
615.832	642.94
616.281	636.24
616.73	603.24
617.179	580.14
617.628	570.54
618.077	559.04
618.526	537.14
618.975	551.94
619.424	545.74
619.873	536.84
620.322	547.64
620.771	533.64
621.22	524.14
621.669	515.04
622.118	502.74
622.567	501.24
623.015	497.44
623.464	489.44
623.913	496.64
624.361	477.74
624.81	478.14
625.259	478.14
625.707	489.74
626.156	485.64
626.604	491.44
627.053	489.64
627.501	494.34
627.95	498.74
628.398	493.54
628.847	488.64
629.295	499.14
629.744	492.74
630.192	495.74
630.64	487.24
631.089	487.64
631.537	501.04
631.985	504.94
632.433	515.64
632.881	527.04
633.33	569.74
633.778	547.44
634.226	484.44
634.674	498.34
635.122	499.24
635.57	515.24
636.018	543.34
636.466	504.74
636.914	485.84
637.362	494.94
637.81	494.84
638.258	500.14
638.705	499.74
639.153	521.14
639.601	525.74
640.049	550.74
640.497	585.04
640.944	598.94
641.392	550.24
641.84	525.84
642.287	502.84
642.735	488.14
643.182	489.44
643.63	501.64
644.078	496.74
644.525	512.34
644.973	515.14
645.42	521.24
645.867	537.14
646.315	559.54
646.762	569.84
647.21	597.14
647.657	605.74
648.104	648.84
648.551	665.84
648.999	717.84
649.446	775.74
649.893	855.24
650.34	994.94
650.787	1179.24
651.234	1462.24
651.682	1900.84
652.129	2600.24
652.576	3728.64
653.023	5512.44
653.47	7652.34
653.917	9677.64
654.363	11297.04
654.81	12709.04
655.257	12070.44
655.704	7817.24
656.151	4598.44
656.598	2978.34
657.044	2103.34
657.491	1614.24
657.938	1290.44
658.385	1075.34
658.831	941.24
659.278	830.94
659.724	733.24
660.171	669.44
660.618	615.54
661.064	588.54
661.511	565.54
661.957	557.04
662.404	536.24
662.85	543.44
663.296	518.64
663.743	468.54
664.189	464.64
664.635	461.44
665.082	457.34
665.528	443.64
665.974	441.24
666.42	438.24
666.867	428.04
667.313	415.84
667.759	408.94
668.205	406.64
668.651	406.14
669.097	409.54
669.543	421.64
669.989	402.04
670.435	383.14
670.881	373.34
671.327	383.24
671.773	395.84
672.219	416.64
672.665	465.14
673.11	494.24
673.556	531.14
674.002	563.54
674.448	561.94
674.893	462.64
675.339	406.64
675.785	371.64
676.23	350.14
676.676	333.84
677.122	325.44
677.567	309.44
678.013	313.74
678.458	304.34
678.904	301.84
679.349	297.94
679.794	298.04
680.24	298.64
680.685	294.54
681.131	290.34
681.576	300.14
682.021	305.14
682.466	291.54
682.912	296.64
683.357	292.74
683.802	319.24
684.247	345.24
684.692	382.84
685.137	415.04
685.583	451.04
686.028	484.24
686.473	432.84
686.918	370.74
687.363	344.84
687.807	337.44
688.252	307.14
688.697	298.64
689.142	291.94
689.587	280.24
690.032	273.04
690.477	285.14
690.921	297.74
691.366	315.84
691.811	340.04
692.255	359.84
692.7	388.74
693.145	422.84
693.589	570.34
694.034	915.84
694.478	1285.24
694.923	1485.64
695.367	1967.44
695.812	1019.04
696.256	422.74
696.701	312.14
697.145	292.94
697.59	274.44
698.034	266.44
698.478	273.94
698.922	268.74
699.367	272.24
699.811	273.94
700.255	288.04
700.699	320.04
701.143	354.84
701.588	401.94
702.032	443.64
702.476	432.64
702.92	414.14
703.364	407.14
703.808	530.14
704.252	856.14
704.696	1204.24
705.14	1429.34
705.584	1832.04
706.027	902.24
706.471	441.44
706.915	332.44
707.359	286.54
707.803	267.84
708.246	257.34
708.69	262.64
709.134	267.34
709.577	259.14
710.021	264.64
710.465	259.44
710.908	250.94
711.352	251.04
711.795	263.44
712.239	294.24
712.682	322.04
713.126	346.74
713.569	396.04
714.012	311.74
714.456	262.44
714.899	255.84
715.342	231.34
715.786	218.64
716.229	219.74
716.672	220.84
717.115	210.94
717.558	211.74
718.002	216.24
718.445	211.24
718.888	238.74
719.331	243.04
719.774	257.84
720.217	258.84
720.66	237.54
721.103	219.74
721.546	209.84
721.989	206.34
722.432	189.34
722.874	204.24
723.317	190.24
723.76	197.24
724.203	218.74
724.645	262.34
725.088	358.94
725.531	474.94
725.974	548.84
726.416	463.34
726.859	254.04
727.301	208.14
727.744	192.64
728.187	190.74
728.629	207.94
729.071	200.94
729.514	218.34
729.956	234.34
730.399	232.94
730.841	240.84
731.283	225.04
731.726	221.64
732.168	218.64
732.61	221.64
733.053	238.74
733.495	255.14
733.937	294.54
734.379	338.14
734.821	358.44
735.263	446.64
735.705	682.34
736.148	1272.34
736.59	2138.24
737.032	2628.14
737.474	2125.74
737.916	674.34
738.357	364.14
738.799	275.44
739.241	249.84
739.683	231.44
740.125	235.94
740.567	245.14
741.008	260.24
741.45	261.84
741.892	262.04
742.334	298.34
742.775	306.44
743.217	290.24
743.658	236.64
744.1	211.14
744.542	213.24
744.983	256.14
745.425	303.54
745.866	294.44
746.307	240.14
746.749	232.24
747.19	267.04
747.632	376.74
748.073	700.04
748.514	1526.34
748.956	2404.94
749.397	2997.54
749.838	2494.74
750.279	2549.04
750.72	1265.44
751.162	457.54
751.603	265.54
752.044	207.34
752.485	178.64
752.926	169.14
753.367	169.84
753.808	162.24
754.249	157.04
754.69	152.14
755.131	150.24
755.572	151.84
756.013	145.44
756.453	153.64
756.894	151.94
757.335	165.54
757.776	159.04
758.216	170.84
758.657	164.04
759.098	169.24
759.538	188.64
759.979	216.24
760.42	302.24
760.86	566.34
761.301	1464.54
761.741	3658.14
762.182	5597.34
762.622	3950.04
