Data from 20171114-ORNL-Ar_H_NY_Subt18_08-09-14-133.txt Node
Date: Tue Nov 14 08:09:14 EST 2017
User: Ender
Spectrometer: HR+D1039
Trigger mode: 0
Integration Time (sec): 2.730000E-2
Scans to average: 10
Electric dark correction enabled: true
Nonlinearity correction enabled: false
Boxcar width: 0
XAxis mode: Wavelengths
Number of Pixels in Spectrum: 2048
>>>>>Begin Spectral Data<<<<<
187.836	-2.13
188.309	-2.13
188.782	-2.13
189.255	-3.33
189.728	3.27
190.201	5.77
190.674	-1.23
191.147	-1.73
191.619	-9.73
192.092	-1.83
192.565	4.27
193.038	-1.83
193.511	-0.73
193.984	6.97
194.456	-2.23
194.929	4.97
195.402	-1.03
195.874	0.57
196.347	1.57
196.82	-6.23
197.292	6.87
197.765	-1.13
198.237	-4.53
198.71	1.57
199.182	1.27
199.655	1.07
200.127	2.87
200.6	-4.43
201.072	-0.93
201.544	0.07
202.017	-0.43
202.489	4.97
202.961	-3.13
203.433	-6.03
203.906	-4.93
204.378	-9.33
204.85	-4.53
205.322	-7.73
205.794	-1.73
206.266	-1.43
206.739	-6.03
207.211	2.67
207.683	-7.23
208.155	-8.43
208.627	-3.73
209.099	-2.73
209.57	-6.73
210.042	-3.43
210.514	-10.83
210.986	-2.13
211.458	-12.63
211.93	-2.53
212.402	4.57
212.873	-6.13
213.345	-13.23
213.817	-14.93
214.288	-5.13
214.76	-7.73
215.232	-6.73
215.703	-4.13
216.175	1.97
216.646	-5.23
217.118	-7.83
217.589	-4.03
218.061	-2.63
218.532	-8.83
219.004	-5.13
219.475	-3.43
219.946	-7.63
220.418	-5.73
220.889	3.87
221.36	3.27
221.832	-10.03
222.303	-9.83
222.774	0.17
223.245	-7.93
223.717	-10.73
224.188	-6.83
224.659	-4.93
225.13	-7.23
225.601	-6.33
226.072	-1.23
226.543	-2.33
227.014	-3.73
227.485	-3.53
227.956	-8.53
228.427	-6.03
228.898	2.17
229.369	5.07
229.839	-5.63
230.31	-7.53
230.781	3.97
231.252	-0.83
231.722	-6.73
232.193	-5.73
232.664	-2.83
233.135	1.17
233.605	-2.23
234.076	-4.13
234.546	2.67
235.017	1.57
235.487	0.07
235.958	-4.13
236.428	-8.33
236.899	-5.33
237.369	-0.43
237.84	-9.43
238.31	-1.93
238.78	-9.23
239.251	-4.83
239.721	-9.03
240.191	-3.53
240.662	-5.83
241.132	-5.83
241.602	-3.93
242.072	-0.03
242.542	-2.63
243.013	-7.43
243.483	-3.13
243.953	0.27
244.423	2.37
244.893	-4.43
245.363	6.57
245.833	0.17
246.303	-10.53
246.773	4.97
247.243	-3.73
247.712	0.57
248.182	0.47
248.652	0.97
249.122	-9.83
249.592	-7.13
250.061	0.77
250.531	8.07
251.001	-4.73
251.471	2.27
251.94	9.77
252.41	-2.23
252.879	-1.53
253.349	5.77
253.818	-1.33
254.288	-3.63
254.757	-3.73
255.227	-1.53
255.696	-4.43
256.166	-2.93
256.635	2.57
257.105	1.67
257.574	-1.43
258.043	-1.33
258.513	-5.53
258.982	-2.33
259.451	-1.73
259.92	0.57
260.389	-3.63
260.859	5.07
261.328	-0.53
261.797	5.17
262.266	-3.73
262.735	6.57
263.204	1.47
263.673	-1.43
264.142	-4.23
264.611	-10.43
265.08	-5.63
265.549	-4.03
266.018	6.07
266.487	-6.23
266.955	-7.13
267.424	-4.13
267.893	1.37
268.362	-5.43
268.83	-1.33
269.299	8.87
269.768	4.47
270.236	3.07
270.705	-4.03
271.174	-2.03
271.642	-2.73
272.111	1.77
272.579	-4.33
273.048	-0.23
273.516	-0.33
273.985	1.97
274.453	2.17
274.922	5.87
275.39	7.17
275.858	-3.73
276.327	7.17
276.795	11.97
277.263	1.67
277.731	7.17
278.2	3.47
278.668	4.47
279.136	13.37
279.604	-0.23
280.072	10.07
280.54	6.97
281.008	0.87
281.477	12.07
281.945	9.47
282.413	6.67
282.881	12.17
283.348	-1.73
283.816	4.47
284.284	9.47
284.752	8.97
285.22	1.77
285.688	9.87
286.156	7.07
286.623	10.27
287.091	4.77
287.559	5.37
288.026	6.47
288.494	5.37
288.962	2.57
289.429	4.67
289.897	13.07
290.364	1.57
290.832	6.67
291.3	2.07
291.767	8.27
292.234	6.27
292.702	6.27
293.169	5.27
293.637	13.77
294.104	12.67
294.571	2.87
295.039	3.47
295.506	4.87
295.973	13.07
296.44	4.07
296.908	7.27
297.375	8.37
297.842	13.57
298.309	8.37
298.776	4.47
299.243	10.57
299.71	5.27
300.177	10.47
300.644	9.27
301.111	13.17
301.578	9.77
302.045	9.77
302.512	13.57
302.979	11.47
303.446	8.47
303.913	6.17
304.379	12.77
304.846	18.17
305.313	8.07
305.78	11.87
306.246	13.57
306.713	19.97
307.18	13.47
307.646	19.27
308.113	19.57
308.579	19.47
309.046	20.37
309.512	13.97
309.979	13.87
310.445	22.67
310.912	25.87
311.378	23.97
311.845	15.57
312.311	23.47
312.777	19.67
313.244	23.27
313.71	28.17
314.176	28.47
314.642	13.17
315.109	22.07
315.575	21.77
316.041	20.67
316.507	21.57
316.973	24.27
317.439	26.37
317.905	21.57
318.371	27.67
318.837	27.27
319.303	25.77
319.769	18.97
320.235	19.47
320.701	27.17
321.167	25.77
321.633	20.47
322.099	21.47
322.564	29.07
323.03	26.17
323.496	28.87
323.962	26.57
324.427	28.37
324.893	31.57
325.359	30.57
325.824	33.07
326.29	26.57
326.755	31.17
327.221	25.77
327.686	30.17
328.152	33.17
328.617	37.07
329.083	36.37
329.548	43.67
330.014	36.87
330.479	29.67
330.944	36.07
331.41	31.37
331.875	41.17
332.34	30.87
332.805	35.57
333.271	33.97
333.736	31.47
334.201	39.37
334.666	40.27
335.131	40.17
335.596	40.87
336.061	37.77
336.526	28.07
336.991	31.17
337.456	40.17
337.921	37.97
338.386	34.87
338.851	34.17
339.316	33.87
339.781	38.17
340.246	34.27
340.711	36.37
341.175	43.77
341.64	36.07
342.105	37.77
342.569	41.97
343.034	48.87
343.499	37.57
343.963	33.87
344.428	55.77
344.893	51.77
345.357	48.77
345.822	53.77
346.286	54.77
346.751	59.87
347.215	51.87
347.679	56.47
348.144	76.47
348.608	66.97
349.073	54.27
349.537	62.27
350.001	62.07
350.465	69.27
350.93	63.17
351.394	65.27
351.858	55.47
352.322	69.17
352.786	66.17
353.25	78.17
353.715	84.27
354.179	79.17
354.643	90.17
355.107	98.37
355.571	78.27
356.035	83.27
356.498	86.97
356.962	82.97
357.426	95.47
357.89	88.07
358.354	77.77
358.818	69.17
359.281	67.87
359.745	57.57
360.209	59.47
360.673	61.77
361.136	69.97
361.6	74.27
362.064	73.97
362.527	73.97
362.991	80.67
363.454	65.07
363.918	64.37
364.381	69.17
364.845	70.07
365.308	78.17
365.772	72.37
366.235	76.97
366.698	64.97
367.162	76.77
367.625	74.07
368.088	74.97
368.552	79.67
369.015	78.47
369.478	77.27
369.941	79.47
370.404	78.87
370.867	86.67
371.331	95.07
371.794	89.87
372.257	88.07
372.72	90.77
373.183	78.77
373.646	80.37
374.109	87.97
374.572	87.77
375.035	85.97
375.497	90.97
375.96	91.47
376.423	92.17
376.886	100.17
377.349	97.77
377.811	86.77
378.274	92.97
378.737	95.37
379.199	94.97
379.662	100.17
380.125	96.17
380.587	94.67
381.05	93.77
381.512	97.47
381.975	113.77
382.437	111.67
382.9	104.97
383.362	111.57
383.825	110.67
384.287	111.57
384.75	102.97
385.212	113.07
385.674	123.77
386.136	121.87
386.599	111.07
387.061	115.87
387.523	112.47
387.985	119.17
388.447	124.47
388.91	115.07
389.372	121.77
389.834	114.87
390.296	122.97
390.758	115.37
391.22	126.97
391.682	134.87
392.144	141.17
392.606	136.07
393.068	126.77
393.529	134.17
393.991	126.97
394.453	122.77
394.915	117.57
395.377	120.07
395.838	124.97
396.3	125.57
396.762	135.27
397.224	123.57
397.685	120.17
398.147	123.17
398.608	126.77
399.07	124.17
399.531	131.87
399.993	139.27
400.454	145.07
400.916	143.87
401.377	139.17
401.839	140.97
402.3	137.87
402.762	153.17
403.223	163.87
403.684	164.67
404.145	156.17
404.607	153.37
405.068	151.27
405.529	163.17
405.99	177.07
406.451	162.37
406.913	159.67
407.374	149.47
407.835	156.47
408.296	156.97
408.757	160.27
409.218	178.07
409.679	177.77
410.14	171.37
410.601	168.97
411.062	169.97
411.522	173.07
411.983	166.57
412.444	168.07
412.905	179.17
413.366	181.27
413.826	192.87
414.287	215.67
414.748	256.37
415.208	248.97
415.669	205.77
416.13	209.27
416.59	201.77
417.051	217.07
417.511	219.37
417.972	242.97
418.432	248.77
418.893	281.97
419.353	251.87
419.814	198.37
420.274	182.87
420.734	174.37
421.195	192.67
421.655	188.67
422.115	190.17
422.576	191.67
423.036	196.67
423.496	206.07
423.956	225.37
424.416	224.77
424.876	267.27
425.336	249.07
425.797	255.87
426.257	252.07
426.717	233.37
427.177	226.77
427.637	219.67
428.097	229.77
428.556	235.67
429.016	259.47
429.476	258.97
429.936	268.57
430.396	267.37
430.856	285.07
431.315	301.07
431.775	330.47
432.235	364.27
432.694	340.87
433.154	347.87
433.614	367.17
434.073	319.27
434.533	275.07
434.993	262.97
435.452	270.17
435.912	282.07
436.371	276.57
436.83	277.57
437.29	259.17
437.749	247.07
438.209	243.27
438.668	266.97
439.127	274.17
439.587	251.77
440.046	239.47
440.505	257.47
440.964	268.37
441.424	310.07
441.883	302.77
442.342	259.67
442.801	230.17
443.26	224.97
443.719	230.87
444.178	228.77
444.637	213.57
445.096	222.47
445.555	221.07
446.014	228.77
446.473	227.17
446.932	230.87
447.391	232.07
447.849	229.57
448.308	223.67
448.767	222.97
449.226	236.77
449.685	239.37
450.143	249.47
450.602	248.17
451.061	234.27
451.519	238.07
451.978	234.87
452.436	235.07
452.895	241.27
453.353	260.57
453.812	235.17
454.27	241.87
454.729	243.37
455.187	241.87
455.646	249.87
456.104	250.47
456.562	265.17
457.021	261.17
457.479	264.97
457.937	276.47
458.395	272.97
458.854	258.17
459.312	257.07
459.77	282.47
460.228	260.07
460.686	255.47
461.144	262.17
461.602	249.87
462.06	252.47
462.518	258.57
462.976	252.37
463.434	259.57
463.892	265.47
464.35	273.27
464.808	295.97
465.266	275.27
465.724	275.37
466.181	279.67
466.639	273.67
467.097	296.47
467.555	307.27
468.012	306.77
468.47	313.67
468.928	332.47
469.385	347.27
469.843	349.97
470.3	352.67
470.758	374.77
471.215	388.37
471.673	409.37
472.13	403.77
472.588	424.07
473.045	374.47
473.503	385.87
473.96	406.57
474.417	412.67
474.875	439.77
475.332	483.27
475.789	460.77
476.246	467.57
476.704	487.97
477.161	511.57
477.618	522.07
478.075	563.07
478.532	611.97
478.989	683.57
479.446	777.57
479.903	740.97
480.36	790.87
480.817	825.27
481.274	924.77
481.731	1012.67
482.188	1092.07
482.645	1211.87
483.102	1279.57
483.558	1405.57
484.015	1442.97
484.472	1421.57
484.929	1383.27
485.385	1334.37
485.842	1301.47
486.299	1248.27
486.755	1219.77
487.212	1038.97
487.668	904.57
488.125	831.57
488.582	763.17
489.038	733.97
489.494	703.67
489.951	679.57
490.407	664.67
490.864	643.77
491.32	639.17
491.776	640.87
492.233	648.47
492.689	614.27
493.145	616.57
493.602	608.97
494.058	617.07
494.514	615.77
494.97	633.37
495.426	651.27
495.882	627.87
496.338	620.17
496.794	629.37
497.251	621.97
497.707	637.57
498.163	635.27
498.618	643.97
499.074	647.07
499.53	664.17
499.986	665.57
500.442	649.87
500.898	636.57
501.354	622.17
501.809	632.77
502.265	633.67
502.721	642.47
503.177	649.27
503.632	661.17
504.088	648.47
504.543	677.27
504.999	698.27
505.455	666.07
505.91	650.97
506.366	646.97
506.821	647.57
507.277	639.57
507.732	643.97
508.187	635.67
508.643	654.87
509.098	654.67
509.553	681.57
510.009	683.97
510.464	694.47
510.919	712.27
511.375	716.97
511.83	730.27
512.285	736.67
512.74	766.37
513.195	793.17
513.65	780.57
514.105	779.07
514.56	787.67
515.015	802.87
515.47	803.37
515.925	796.17
516.38	797.77
516.835	809.67
517.29	804.47
517.745	789.07
518.2	779.77
518.655	766.77
519.109	760.07
519.564	759.47
520.019	744.87
520.474	736.87
520.928	741.17
521.383	737.77
521.838	733.97
522.292	730.97
522.747	724.87
523.201	732.47
523.656	721.87
524.11	716.47
524.565	706.37
525.019	704.87
525.474	714.57
525.928	717.07
526.382	713.17
526.837	723.77
527.291	719.97
527.745	713.57
528.2	724.67
528.654	705.57
529.108	708.67
529.562	712.47
530.016	711.77
530.47	698.47
530.925	700.87
531.379	708.97
531.833	713.77
532.287	706.27
532.741	714.27
533.195	715.97
533.649	726.27
534.103	734.47
534.556	719.37
535.01	720.67
535.464	720.07
535.918	730.17
536.372	725.37
536.826	731.47
537.279	719.17
537.733	735.97
538.187	733.87
538.64	723.27
539.094	744.27
539.548	744.87
540.001	743.67
540.455	741.97
540.908	746.37
541.362	758.97
541.815	769.57
542.269	771.17
542.722	775.87
543.175	794.27
543.629	792.27
544.082	807.67
544.536	812.37
544.989	813.57
545.442	826.37
545.895	817.87
546.349	827.47
546.802	822.17
547.255	819.17
547.708	836.77
548.161	847.97
548.614	853.57
549.067	856.07
549.52	849.57
549.973	830.57
550.426	835.77
550.879	825.47
551.332	823.77
551.785	835.07
552.238	842.47
552.691	845.77
553.144	850.17
553.596	878.27
554.049	896.57
554.502	922.67
554.955	939.57
555.407	942.37
555.86	929.07
556.313	917.07
556.765	911.07
557.218	907.57
557.67	900.57
558.123	896.27
558.576	901.17
559.028	902.27
559.48	921.57
559.933	897.87
560.385	868.37
560.838	842.27
561.29	817.57
561.742	813.87
562.195	796.27
562.647	788.67
563.099	798.97
563.551	802.07
564.004	814.97
564.456	795.67
564.908	785.17
565.36	770.57
565.812	745.47
566.264	737.87
566.716	743.87
567.168	728.17
567.62	736.77
568.072	720.67
568.524	718.67
568.976	713.57
569.428	700.47
569.88	698.17
570.332	713.57
570.784	708.57
571.235	709.27
571.687	725.37
572.139	729.67
572.59	732.57
573.042	741.87
573.494	738.07
573.945	737.77
574.397	702.47
574.849	720.87
575.3	715.57
575.752	705.47
576.203	702.47
576.655	708.67
577.106	691.57
577.557	696.57
578.009	687.57
578.46	693.37
578.912	693.87
579.363	685.57
579.814	697.97
580.265	688.47
580.717	690.07
581.168	688.97
581.619	707.37
582.07	706.27
582.521	702.77
582.972	702.97
583.423	694.97
583.875	696.27
584.326	711.37
584.777	720.47
585.227	732.67
585.678	746.97
586.129	765.87
586.58	785.97
587.031	805.97
587.482	835.57
587.933	863.27
588.384	843.67
588.834	801.67
589.285	801.97
589.736	806.67
590.186	805.77
590.637	789.87
591.088	771.47
591.538	764.17
591.989	760.57
592.439	752.17
592.89	741.27
593.34	717.17
593.791	727.57
594.241	727.77
594.692	725.77
595.142	728.27
595.593	723.67
596.043	729.27
596.493	734.07
596.943	731.17
597.394	748.97
597.844	754.27
598.294	756.57
598.744	792.07
599.195	820.67
599.645	858.87
600.095	899.67
600.545	952.97
600.995	1016.27
601.445	1055.37
601.895	1132.97
602.345	1184.97
602.795	1162.17
603.245	1118.97
603.695	1056.27
604.145	1000.37
604.594	957.17
605.044	898.47
605.494	843.27
605.944	785.67
606.393	774.47
606.843	759.47
607.293	759.37
607.743	754.77
608.192	765.17
608.642	786.57
609.091	772.07
609.541	787.27
609.99	785.97
610.44	787.37
610.889	738.77
611.339	723.57
611.788	696.87
612.238	710.47
612.687	720.57
613.136	717.77
613.586	730.17
614.035	730.37
614.484	742.77
614.933	734.87
615.383	736.97
615.832	740.67
616.281	729.97
616.73	694.77
617.179	672.97
617.628	661.27
618.077	651.37
618.526	650.07
618.975	642.67
619.424	645.17
619.873	637.07
620.322	633.77
620.771	632.87
621.22	632.97
621.669	609.17
622.118	609.57
622.567	597.47
623.015	596.27
623.464	585.37
623.913	586.17
624.361	574.87
624.81	575.07
625.259	565.47
625.707	576.67
626.156	573.57
626.604	601.07
627.053	577.67
627.501	590.27
627.95	586.17
628.398	606.27
628.847	580.97
629.295	591.07
629.744	590.57
630.192	590.27
630.64	585.37
631.089	569.47
631.537	567.27
631.985	544.57
632.433	554.77
632.881	547.87
633.33	549.97
633.778	543.07
634.226	543.67
634.674	557.67
635.122	567.57
635.57	578.97
636.018	594.67
636.466	587.77
636.914	578.37
637.362	587.57
637.81	603.77
638.258	602.57
638.705	602.27
639.153	637.37
639.601	648.27
640.049	670.87
640.497	705.77
640.944	722.27
641.392	671.87
641.84	639.47
642.287	602.47
642.735	585.57
643.182	589.67
643.63	581.47
644.078	580.87
644.525	588.27
644.973	602.57
645.42	615.67
645.867	636.27
646.315	652.67
646.762	670.27
647.21	700.87
647.657	733.67
648.104	756.17
648.551	774.47
648.999	839.37
649.446	912.47
649.893	1004.07
650.34	1155.97
650.787	1368.27
651.234	1669.67
651.682	2181.27
652.129	2958.17
652.576	4227.17
653.023	6166.67
653.47	8292.67
653.917	10226.57
654.363	11638.67
654.81	12787.37
655.257	12108.87
655.704	8042.87
656.151	4813.47
656.598	3163.07
657.044	2279.67
657.491	1772.97
657.938	1438.97
658.385	1200.47
658.831	1065.97
659.278	952.37
659.724	850.17
660.171	789.67
660.618	728.07
661.064	698.77
661.511	679.17
661.957	659.37
662.404	652.17
662.85	663.17
663.296	631.97
663.743	560.97
664.189	553.57
664.635	551.97
665.082	545.67
665.528	542.97
665.974	533.37
666.42	534.47
666.867	525.37
667.313	508.77
667.759	482.67
668.205	472.37
668.651	470.27
669.097	462.07
669.543	457.67
669.989	462.87
670.435	464.87
670.881	467.47
671.327	471.67
671.773	489.87
672.219	510.07
672.665	579.37
673.11	613.17
673.556	664.47
674.002	696.77
674.448	695.97
674.893	582.77
675.339	502.27
675.785	469.97
676.23	448.87
676.676	421.07
677.122	398.97
677.567	390.57
678.013	382.37
678.458	382.87
678.904	375.27
679.349	365.97
679.794	373.77
680.24	366.37
680.685	367.27
681.131	373.77
681.576	366.97
682.021	367.37
682.466	369.67
682.912	375.27
683.357	376.47
683.802	414.37
684.247	431.57
684.692	488.27
685.137	518.87
685.583	569.57
686.028	596.87
686.473	553.07
686.918	471.27
687.363	438.27
687.807	409.47
688.252	385.27
688.697	375.27
689.142	357.17
689.587	354.57
690.032	345.37
690.477	361.37
690.921	369.77
691.366	407.97
691.811	426.87
692.255	457.27
692.7	491.97
693.145	548.37
693.589	773.27
694.034	1248.37
694.478	1671.17
694.923	1840.27
695.367	2384.17
695.812	1268.77
696.256	528.57
696.701	393.17
697.145	359.17
697.59	354.47
698.034	337.17
698.478	339.47
698.922	327.47
699.367	342.67
699.811	348.77
700.255	367.17
700.699	406.07
701.143	443.97
701.588	510.97
702.032	542.37
702.476	544.97
702.92	522.17
703.364	539.57
703.808	704.97
704.252	1145.97
704.696	1579.47
705.14	1755.57
705.584	2254.07
706.027	1141.47
706.471	563.87
706.915	418.67
707.359	372.37
707.803	344.97
708.246	341.27
708.69	333.07
709.134	332.87
709.577	328.77
710.021	331.67
710.465	322.07
710.908	317.17
711.352	314.67
711.795	330.87
712.239	370.47
712.682	411.87
713.126	426.67
713.569	481.87
714.012	378.67
714.456	327.37
714.899	307.17
715.342	284.47
715.786	278.17
716.229	270.97
716.672	271.57
717.115	262.57
717.558	259.27
718.002	262.27
718.445	280.67
718.888	300.67
719.331	311.97
719.774	322.27
720.217	320.27
720.66	299.57
721.103	280.37
721.546	270.17
721.989	266.37
722.432	242.17
722.874	243.97
723.317	238.57
723.76	243.77
724.203	277.17
724.645	340.27
725.088	487.17
725.531	608.67
725.974	671.37
726.416	575.97
726.859	325.87
727.301	258.57
727.744	245.37
728.187	248.67
728.629	252.17
729.071	259.97
729.514	279.57
729.956	290.77
730.399	308.47
730.841	302.97
731.283	289.47
731.726	283.07
732.168	280.77
732.61	288.17
733.053	297.77
733.495	346.87
733.937	378.57
734.379	427.27
734.821	469.87
735.263	603.07
735.705	942.87
736.148	1764.77
736.59	2833.07
737.032	3216.97
737.474	2632.57
737.916	873.67
738.357	466.97
738.799	354.47
739.241	323.87
739.683	304.87
740.125	316.77
740.567	325.57
741.008	332.97
741.45	338.77
741.892	339.77
742.334	378.27
742.775	386.97
743.217	365.47
743.658	284.67
744.1	270.17
744.542	289.27
744.983	332.67
745.425	368.27
745.866	365.07
746.307	296.57
746.749	298.27
747.19	351.27
747.632	509.77
748.073	1009.77
748.514	2093.17
748.956	3089.47
749.397	3883.17
749.838	3199.77
750.279	3120.57
750.72	1600.67
751.162	596.97
751.603	346.37
752.044	265.47
752.485	228.17
752.926	223.27
753.367	220.27
753.808	209.47
754.249	200.07
754.69	198.07
755.131	196.17
755.572	194.57
756.013	189.97
756.453	194.37
756.894	204.27
757.335	202.67
757.776	201.37
758.216	213.27
758.657	206.37
759.098	215.87
759.538	237.37
759.979	289.57
760.42	420.67
760.86	797.57
761.301	2113.57
761.741	4951.07
762.182	6789.67
762.622	4803.47
763.063	1414.17
763.503	585.07
