Data from 20171114-ORNL-Ar_H_NY_Subt18_08-07-43-173.txt Node
Date: Tue Nov 14 08:07:43 EST 2017
User: Ender
Spectrometer: HR+D1039
Trigger mode: 0
Integration Time (sec): 2.730000E-2
Scans to average: 10
Electric dark correction enabled: true
Nonlinearity correction enabled: false
Boxcar width: 0
XAxis mode: Wavelengths
Number of Pixels in Spectrum: 2048
>>>>>Begin Spectral Data<<<<<
187.836	-4.24
188.309	-4.24
188.782	-4.24
189.255	4.76
189.728	5.46
190.201	2.16
190.674	2.86
191.147	3.56
191.619	-9.54
192.092	0.66
192.565	3.86
193.038	-0.94
193.511	-0.24
193.984	-0.54
194.456	-5.84
194.929	3.46
195.402	-1.14
195.874	-4.34
196.347	-1.84
196.82	-0.04
197.292	3.96
197.765	0.06
198.237	-10.04
198.71	-0.04
199.182	-1.94
199.655	-0.24
200.127	-1.54
200.6	0.06
201.072	-6.44
201.544	-3.94
202.017	0.46
202.489	-0.24
202.961	-1.84
203.433	0.46
203.906	-4.24
204.378	-1.14
204.85	0.26
205.322	-8.04
205.794	2.46
206.266	-0.34
206.739	-7.94
207.211	1.96
207.683	-7.84
208.155	-3.74
208.627	-7.14
209.099	-4.74
209.57	-5.44
210.042	-2.84
210.514	-0.84
210.986	-2.94
211.458	-10.74
211.93	2.86
212.402	1.36
212.873	-10.44
213.345	-10.44
213.817	-10.34
214.288	-1.14
214.76	-8.24
215.232	-1.34
215.703	1.26
216.175	-5.74
216.646	-8.64
217.118	-4.94
217.589	-1.54
218.061	-2.54
218.532	-4.04
219.004	-1.84
219.475	0.66
219.946	1.46
220.418	-3.84
220.889	4.16
221.36	3.16
221.832	-5.44
222.303	-7.94
222.774	-1.84
223.245	-10.84
223.717	-4.04
224.188	-2.84
224.659	-8.44
225.13	-4.04
225.601	-4.54
226.072	4.76
226.543	1.16
227.014	0.36
227.485	-1.84
227.956	-4.44
228.427	-0.54
228.898	3.26
229.369	4.26
229.839	-9.44
230.31	-5.94
230.781	4.06
231.252	0.86
231.722	-5.04
232.193	-2.44
232.664	2.96
233.135	-2.24
233.605	5.16
234.076	-3.74
234.546	0.36
235.017	5.86
235.487	3.66
235.958	2.46
236.428	7.36
236.899	2.66
237.369	7.66
237.84	-1.64
238.31	5.96
238.78	6.06
239.251	1.56
239.721	4.86
240.191	2.96
240.662	-2.04
241.132	1.96
241.602	-2.24
242.072	3.06
242.542	1.46
243.013	-2.04
243.483	0.76
243.953	3.36
244.423	3.16
244.893	-3.34
245.363	4.86
245.833	-1.34
246.303	-4.24
246.773	9.06
247.243	4.66
247.712	1.36
248.182	6.86
248.652	4.76
249.122	0.16
249.592	12.26
250.061	20.26
250.531	32.26
251.001	13.46
251.471	18.36
251.94	17.76
252.41	4.96
252.879	2.26
253.349	11.56
253.818	12.36
254.288	7.26
254.757	-1.04
255.227	-1.44
255.696	4.96
256.166	9.76
256.635	4.86
257.105	8.26
257.574	13.16
258.043	9.46
258.513	8.96
258.982	18.26
259.451	11.96
259.92	10.06
260.389	10.26
260.859	16.56
261.328	21.66
261.797	11.76
262.266	8.46
262.735	9.66
263.204	8.16
263.673	-0.94
264.142	5.76
264.611	0.56
265.08	-3.54
265.549	-0.24
266.018	9.96
266.487	-1.34
266.955	0.26
267.424	6.76
267.893	6.86
268.362	2.76
268.83	6.06
269.299	13.86
269.768	4.66
270.236	5.76
270.705	6.56
271.174	4.06
271.642	12.46
272.111	3.46
272.579	13.96
273.048	22.46
273.516	24.96
273.985	26.46
274.453	21.36
274.922	22.36
275.39	5.76
275.858	2.06
276.327	10.76
276.795	13.76
277.263	8.06
277.731	29.56
278.2	51.36
278.668	53.36
279.136	45.76
279.604	19.86
280.072	19.86
280.54	9.16
281.008	11.96
281.477	17.26
281.945	10.76
282.413	15.66
282.881	16.76
283.348	9.26
283.816	15.36
284.284	10.96
284.752	24.46
285.22	15.36
285.688	14.06
286.156	19.86
286.623	42.46
287.091	46.16
287.559	29.66
288.026	13.36
288.494	20.26
288.962	9.06
289.429	7.46
289.897	19.76
290.364	13.46
290.832	13.36
291.3	11.36
291.767	20.16
292.234	17.36
292.702	12.56
293.169	15.36
293.637	19.66
294.104	16.86
294.571	11.46
295.039	14.56
295.506	12.66
295.973	20.26
296.44	11.96
296.908	19.06
297.375	16.86
297.842	19.56
298.309	17.16
298.776	14.56
299.243	22.46
299.71	14.66
300.177	21.76
300.644	23.86
301.111	19.06
301.578	23.06
302.045	13.66
302.512	20.26
302.979	19.86
303.446	21.76
303.913	17.66
304.379	13.06
304.846	27.56
305.313	26.96
305.78	29.56
306.246	21.26
306.713	25.06
307.18	18.96
307.646	23.16
308.113	28.76
308.579	19.86
309.046	27.26
309.512	28.26
309.979	20.76
310.445	22.16
310.912	28.56
311.378	26.96
311.845	28.56
312.311	21.96
312.777	32.06
313.244	34.56
313.71	38.26
314.176	32.86
314.642	33.36
315.109	33.06
315.575	39.66
316.041	33.06
316.507	27.96
316.973	39.86
317.439	34.86
317.905	33.96
318.371	33.96
318.837	40.56
319.303	32.66
319.769	27.16
320.235	32.66
320.701	29.96
321.167	35.86
321.633	35.36
322.099	38.16
322.564	42.46
323.03	39.36
323.496	41.76
323.962	35.06
324.427	33.56
324.893	38.56
325.359	34.16
325.824	36.66
326.29	35.86
326.755	35.66
327.221	30.06
327.686	32.86
328.152	46.26
328.617	37.76
329.083	45.66
329.548	44.66
330.014	42.46
330.479	38.36
330.944	40.76
331.41	34.46
331.875	43.76
332.34	42.06
332.805	44.16
333.271	42.66
333.736	39.26
334.201	48.76
334.666	46.06
335.131	48.56
335.596	53.36
336.061	48.16
336.526	41.76
336.991	45.36
337.456	52.56
337.921	45.76
338.386	41.76
338.851	46.66
339.316	48.66
339.781	42.26
340.246	47.26
340.711	42.66
341.175	45.56
341.64	44.16
342.105	47.16
342.569	55.96
343.034	56.86
343.499	50.16
343.963	53.36
344.428	60.36
344.893	55.46
345.357	58.26
345.822	57.96
346.286	62.86
346.751	66.36
347.215	56.96
347.679	71.06
348.144	86.56
348.608	73.36
349.073	65.36
349.537	74.06
350.001	80.26
350.465	87.96
350.93	75.86
351.394	78.66
351.858	68.56
352.322	84.26
352.786	77.86
353.25	97.56
353.715	111.76
354.179	97.16
354.643	112.36
355.107	114.76
355.571	92.86
356.035	95.96
356.498	103.36
356.962	114.16
357.426	120.36
357.89	105.86
358.354	84.46
358.818	75.86
359.281	75.66
359.745	79.36
360.209	72.66
360.673	64.86
361.136	73.46
361.6	76.46
362.064	82.46
362.527	76.76
362.991	90.96
363.454	73.36
363.918	70.06
364.381	76.96
364.845	79.86
365.308	80.66
365.772	78.76
366.235	83.46
366.698	79.56
367.162	84.36
367.625	81.76
368.088	83.76
368.552	79.46
369.015	82.96
369.478	92.76
369.941	98.16
370.404	91.06
370.867	102.26
371.331	107.66
371.794	114.86
372.257	109.56
372.72	115.26
373.183	110.36
373.646	101.06
374.109	101.96
374.572	109.06
375.035	106.06
375.497	107.76
375.96	103.56
376.423	93.46
376.886	112.16
377.349	102.76
377.811	93.86
378.274	95.26
378.737	107.76
379.199	111.26
379.662	110.46
380.125	115.56
380.587	110.76
381.05	114.86
381.512	130.66
381.975	126.56
382.437	121.46
382.9	123.16
383.362	126.66
383.825	132.36
384.287	149.06
384.75	134.26
385.212	138.96
385.674	140.66
386.136	137.56
386.599	120.26
387.061	125.46
387.523	127.06
387.985	138.06
388.447	142.36
388.91	152.46
389.372	159.26
389.834	154.16
390.296	144.26
390.758	157.36
391.22	168.76
391.682	208.86
392.144	301.96
392.606	235.96
393.068	170.36
393.529	160.16
393.991	151.66
394.453	142.46
394.915	155.36
395.377	194.46
395.838	214.16
396.3	152.66
396.762	137.06
397.224	126.26
397.685	123.26
398.147	127.66
398.608	125.96
399.07	119.56
399.531	139.96
399.993	144.76
400.454	143.46
400.916	147.16
401.377	138.26
401.839	142.76
402.3	145.86
402.762	162.26
403.223	175.06
403.684	163.06
404.145	161.36
404.607	167.76
405.068	168.06
405.529	166.36
405.99	182.86
406.451	169.26
406.913	166.86
407.374	158.26
407.835	163.76
408.296	163.36
408.757	176.76
409.218	188.96
409.679	175.56
410.14	175.26
410.601	176.86
411.062	189.86
411.522	194.46
411.983	194.06
412.444	177.46
412.905	179.96
413.366	182.76
413.826	190.06
414.287	215.36
414.748	257.06
415.208	239.26
415.669	216.66
416.13	206.06
416.59	199.86
417.051	210.66
417.511	219.46
417.972	235.16
418.432	245.96
418.893	285.96
419.353	251.26
419.814	193.56
420.274	181.66
420.734	184.36
421.195	199.46
421.655	188.96
422.115	190.76
422.576	190.36
423.036	194.66
423.496	199.76
423.956	216.16
424.416	230.86
424.876	263.46
425.336	254.16
425.797	258.06
426.257	256.96
426.717	243.76
427.177	230.56
427.637	223.56
428.097	236.66
428.556	247.46
429.016	275.66
429.476	266.26
429.936	269.66
430.396	272.16
430.856	295.76
431.315	316.36
431.775	350.76
432.235	381.66
432.694	354.16
433.154	365.96
433.614	388.36
434.073	338.96
434.533	285.16
434.993	271.16
435.452	274.46
435.912	284.16
436.371	282.56
436.83	281.36
437.29	268.56
437.749	243.26
438.209	248.56
438.668	273.36
439.127	287.56
439.587	257.46
440.046	244.36
440.505	253.26
440.964	271.66
441.424	328.96
441.883	308.06
442.342	257.76
442.801	214.96
443.26	220.16
443.719	216.66
444.178	226.56
444.637	206.56
445.096	222.86
445.555	223.66
446.014	218.26
446.473	232.86
446.932	232.26
447.391	218.76
447.849	216.46
448.308	216.36
448.767	219.86
449.226	235.56
449.685	231.76
450.143	247.16
450.602	236.76
451.061	227.36
451.519	235.56
451.978	232.16
452.436	235.06
452.895	234.86
453.353	251.06
453.812	240.16
454.27	238.26
454.729	242.16
455.187	240.56
455.646	245.86
456.104	248.96
456.562	256.36
457.021	264.66
457.479	266.76
457.937	269.96
458.395	263.36
458.854	255.56
459.312	255.36
459.77	271.66
460.228	249.06
460.686	238.86
461.144	251.36
461.602	243.56
462.06	248.36
462.518	254.46
462.976	254.46
463.434	257.56
463.892	267.96
464.35	274.46
464.808	292.26
465.266	269.96
465.724	268.06
466.181	272.26
466.639	267.66
467.097	289.26
467.555	294.36
468.012	305.46
468.47	304.06
468.928	328.56
469.385	338.46
469.843	351.26
470.3	348.56
470.758	360.76
471.215	381.26
471.673	412.36
472.13	401.16
472.588	415.86
473.045	371.96
473.503	381.96
473.96	389.46
474.417	401.66
474.875	428.56
475.332	473.16
475.789	454.66
476.246	465.06
476.704	482.46
477.161	500.96
477.618	515.46
478.075	554.36
478.532	613.66
478.989	687.46
479.446	798.16
479.903	764.66
480.36	808.56
480.817	861.76
481.274	960.96
481.731	1064.96
482.188	1161.86
482.645	1281.26
483.102	1398.26
483.558	1521.06
484.015	1583.16
484.472	1565.56
484.929	1510.46
485.385	1466.86
485.842	1417.26
486.299	1353.36
486.755	1281.56
487.212	1093.96
487.668	928.16
488.125	849.86
488.582	763.36
489.038	743.56
489.494	710.36
489.951	682.76
490.407	659.56
490.864	648.36
491.32	630.46
491.776	638.76
492.233	648.66
492.689	607.56
493.145	610.96
493.602	599.96
494.058	616.46
494.514	605.06
494.97	631.96
495.426	649.66
495.882	619.56
496.338	602.06
496.794	622.06
497.251	613.66
497.707	620.66
498.163	631.86
498.618	630.06
499.074	633.96
499.53	674.26
499.986	672.76
500.442	643.56
500.898	633.96
501.354	626.06
501.809	635.26
502.265	639.96
502.721	658.16
503.177	678.06
503.632	664.86
504.088	669.46
504.543	707.76
504.999	712.66
505.455	659.66
505.91	627.46
506.366	629.26
506.821	623.96
507.277	618.36
507.732	619.56
508.187	616.86
508.643	626.56
509.098	636.86
509.553	652.66
510.009	673.16
510.464	670.66
510.919	680.86
511.375	690.26
511.83	708.56
512.285	717.76
512.74	757.86
513.195	772.86
513.65	758.16
514.105	764.06
514.56	764.26
515.015	785.56
515.47	808.06
515.925	780.56
516.38	779.16
516.835	790.56
517.29	773.86
517.745	780.76
518.2	766.76
518.655	744.76
519.109	734.66
519.564	738.66
520.019	724.46
520.474	712.76
520.928	714.96
521.383	722.46
521.838	705.36
522.292	706.06
522.747	702.76
523.201	703.86
523.656	698.06
524.11	697.76
524.565	698.06
525.019	699.46
525.474	700.16
525.928	697.46
526.382	695.26
526.837	698.16
527.291	695.46
527.745	698.66
528.2	694.06
528.654	682.96
529.108	679.66
529.562	685.86
530.016	691.56
530.47	690.36
530.925	688.26
531.379	688.46
531.833	698.06
532.287	699.56
532.741	701.66
533.195	704.26
533.649	706.46
534.103	721.36
534.556	699.66
535.01	705.76
535.464	701.36
535.918	717.46
536.372	714.66
536.826	718.06
537.279	705.56
537.733	712.76
538.187	719.56
538.64	707.56
539.094	715.46
539.548	727.76
540.001	728.36
540.455	724.06
540.908	725.16
541.362	732.76
541.815	750.56
542.269	746.56
542.722	757.26
543.175	756.06
543.629	774.16
544.082	787.76
544.536	773.66
544.989	777.36
545.442	787.06
545.895	780.66
546.349	799.46
546.802	792.36
547.255	792.96
547.708	798.56
548.161	814.86
548.614	814.86
549.067	824.06
549.52	822.66
549.973	807.36
550.426	807.56
550.879	796.56
551.332	792.36
551.785	810.96
552.238	808.96
552.691	815.36
553.144	822.46
553.596	846.56
554.049	861.66
554.502	885.26
554.955	907.36
555.407	902.56
555.86	903.86
556.313	887.26
556.765	876.86
557.218	885.46
557.67	874.96
558.123	872.26
558.576	867.66
559.028	869.56
559.48	882.16
559.933	866.16
560.385	841.26
560.838	799.46
561.29	783.06
561.742	788.06
562.195	766.96
562.647	777.76
563.099	769.66
563.551	771.86
564.004	784.16
564.456	772.36
564.908	757.36
565.36	741.86
565.812	735.46
566.264	723.46
566.716	720.36
567.168	718.96
567.62	721.26
568.072	701.66
568.524	691.56
568.976	686.86
569.428	677.66
569.88	684.86
570.332	677.36
570.784	679.06
571.235	679.86
571.687	687.96
572.139	703.56
572.59	707.46
573.042	709.46
573.494	716.56
573.945	709.56
574.397	685.06
574.849	681.36
575.3	674.36
575.752	684.56
576.203	678.66
576.655	679.56
577.106	667.46
577.557	668.46
578.009	668.56
578.46	668.76
578.912	667.76
579.363	662.16
579.814	670.96
580.265	658.36
580.717	664.66
581.168	666.86
581.619	671.06
582.07	682.46
582.521	673.26
582.972	670.56
583.423	673.56
583.875	684.16
584.326	704.46
584.777	748.76
585.227	822.56
585.678	922.36
586.129	1015.46
586.58	1089.96
587.031	1169.16
587.482	1322.76
587.933	1501.76
588.384	1314.56
588.834	983.76
589.285	811.86
589.736	784.86
590.186	775.36
590.637	758.16
591.088	745.16
591.538	736.16
591.989	740.66
592.439	742.36
592.89	722.46
593.34	715.36
593.791	713.46
594.241	703.76
594.692	707.26
595.142	698.16
595.593	705.16
596.043	705.06
596.493	711.56
596.943	712.66
597.394	726.56
597.844	717.56
598.294	732.36
598.744	752.06
599.195	774.46
599.645	818.26
600.095	866.96
600.545	911.36
600.995	974.76
601.445	1035.26
601.895	1086.06
602.345	1134.26
602.795	1117.36
603.245	1065.26
603.695	1008.66
604.145	956.86
604.594	912.46
605.044	859.06
605.494	803.46
605.944	752.16
606.393	745.06
606.843	735.46
607.293	733.66
607.743	736.56
608.192	739.76
608.642	755.16
609.091	760.36
609.541	779.06
609.99	776.36
610.44	771.46
610.889	729.66
611.339	710.06
611.788	692.86
612.238	711.96
612.687	715.16
613.136	715.06
613.586	745.96
614.035	755.16
614.484	763.86
614.933	755.26
615.383	750.96
615.832	738.16
616.281	734.66
616.73	678.36
617.179	671.26
617.628	659.06
618.077	634.76
618.526	620.36
618.975	625.26
619.424	619.96
619.873	615.56
620.322	620.16
620.771	614.06
621.22	606.76
621.669	596.26
622.118	591.46
622.567	585.26
623.015	571.16
623.464	568.16
623.913	558.96
624.361	551.76
624.81	559.36
625.259	563.26
625.707	556.66
626.156	553.46
626.604	564.06
627.053	568.26
627.501	567.96
627.95	572.16
628.398	579.86
628.847	567.86
629.295	567.06
629.744	582.56
630.192	565.16
630.64	569.86
631.089	568.16
631.537	590.76
631.985	592.06
632.433	603.86
632.881	611.46
633.33	675.96
633.778	650.26
634.226	572.86
634.674	567.16
635.122	575.76
635.57	599.06
636.018	633.66
636.466	587.56
636.914	561.36
637.362	565.56
637.81	580.56
638.258	583.56
638.705	586.76
639.153	605.96
639.601	628.66
640.049	644.86
640.497	676.46
640.944	690.76
641.392	652.76
641.84	611.46
642.287	583.76
642.735	571.26
643.182	580.46
643.63	579.96
644.078	585.56
644.525	590.16
644.973	594.66
645.42	609.76
645.867	633.46
646.315	639.06
646.762	667.66
647.21	691.76
647.657	718.46
648.104	751.56
648.551	780.26
648.999	839.66
649.446	932.96
649.893	1013.66
650.34	1168.26
650.787	1414.76
651.234	1754.06
651.682	2277.96
652.129	3150.76
652.576	4546.96
653.023	6724.46
653.47	9183.76
653.917	11409.96
654.363	13106.36
654.81	14380.86
655.257	13687.86
655.704	8966.16
656.151	5284.76
656.598	3403.06
657.044	2419.96
657.491	1858.56
657.938	1498.36
658.385	1245.46
658.831	1083.76
659.278	973.36
659.724	857.86
660.171	788.46
660.618	727.06
661.064	688.46
661.511	674.76
661.957	653.86
662.404	644.86
662.85	650.76
663.296	627.36
663.743	559.96
664.189	541.86
664.635	534.66
665.082	540.16
665.528	530.86
665.974	518.56
666.42	519.46
666.867	516.86
667.313	493.56
667.759	488.76
668.205	480.76
668.651	487.86
669.097	488.76
669.543	506.76
669.989	472.96
670.435	454.56
670.881	449.56
671.327	449.46
671.773	476.26
672.219	495.06
672.665	554.46
673.11	590.26
673.556	634.76
674.002	665.36
674.448	660.26
674.893	549.86
675.339	474.56
675.785	438.86
676.23	420.86
676.676	395.96
677.122	385.76
677.567	374.76
678.013	368.86
678.458	365.46
678.904	355.16
679.349	344.16
679.794	347.66
680.24	355.36
680.685	348.86
681.131	350.86
681.576	349.36
682.021	355.56
682.466	356.56
682.912	349.96
683.357	354.86
683.802	390.76
684.247	415.96
684.692	456.16
685.137	493.86
685.583	534.86
686.028	563.16
686.473	513.86
686.918	442.66
687.363	415.26
687.807	395.16
688.252	364.56
688.697	355.46
689.142	334.46
689.587	329.66
690.032	321.86
690.477	346.46
690.921	354.26
691.366	388.36
691.811	406.16
692.255	443.36
692.7	467.86
693.145	512.66
693.589	714.26
694.034	1149.46
694.478	1547.36
694.923	1726.26
695.367	2253.46
695.812	1193.86
696.256	504.06
696.701	378.46
697.145	351.96
697.59	327.06
698.034	323.56
698.478	334.56
698.922	323.96
699.367	327.86
699.811	340.16
700.255	360.46
700.699	391.26
701.143	434.56
701.588	481.06
702.032	515.36
702.476	512.86
702.92	488.86
703.364	496.56
703.808	648.16
704.252	1049.86
704.696	1470.46
705.14	1676.36
705.584	2108.96
706.027	1059.66
706.471	526.26
706.915	399.36
707.359	352.26
707.803	321.06
708.246	318.36
708.69	312.76
709.134	309.06
709.577	320.06
710.021	322.36
710.465	316.96
710.908	297.06
711.352	298.36
711.795	319.86
712.239	353.36
712.682	382.46
713.126	420.26
713.569	467.06
714.012	373.96
714.456	324.66
714.899	295.66
715.342	280.46
715.786	262.06
716.229	258.36
716.672	258.56
717.115	251.36
717.558	256.56
718.002	258.16
718.445	271.76
718.888	289.76
719.331	298.26
719.774	304.16
720.217	309.16
720.66	292.76
721.103	262.26
721.546	245.26
721.989	250.26
722.432	227.96
722.874	238.26
723.317	227.26
723.76	237.36
724.203	260.46
724.645	332.76
725.088	452.76
725.531	570.86
725.974	643.56
726.416	542.66
726.859	314.76
727.301	244.56
727.744	243.66
728.187	235.96
728.629	240.66
729.071	251.56
729.514	260.56
729.956	277.36
730.399	289.96
730.841	287.56
731.283	277.46
731.726	267.76
732.168	267.26
732.61	269.86
733.053	286.06
733.495	323.96
733.937	359.46
734.379	401.06
734.821	442.06
735.263	554.26
735.705	856.26
736.148	1609.36
736.59	2604.66
737.032	3025.36
737.474	2473.46
737.916	815.46
738.357	435.76
738.799	332.26
739.241	308.56
739.683	283.76
740.125	294.06
740.567	303.36
741.008	315.66
741.45	315.16
741.892	324.76
742.334	348.86
742.775	352.76
743.217	338.66
743.658	270.56
744.1	256.76
744.542	266.46
744.983	311.86
745.425	341.36
745.866	342.56
746.307	293.36
746.749	290.26
747.19	331.56
747.632	468.16
748.073	920.36
748.514	1901.16
748.956	2874.76
749.397	3571.36
749.838	2959.96
750.279	2938.96
750.72	1492.56
751.162	548.56
751.603	327.46
752.044	249.36
752.485	220.06
752.926	214.76
753.367	208.76
753.808	194.36
754.249	192.26
754.69	187.56
755.131	182.96
755.572	181.66
756.013	181.16
756.453	185.16
756.894	189.86
757.335	199.76
757.776	200.06
758.216	201.76
758.657	200.86
759.098	206.46
759.538	225.06
759.979	268.56
760.42	385.76
760.86	730.96
761.301	1877.16
761.741	4490.86
762.182	6369.76
762.622	4474.06
