Data from 20171114-ORNL-Ar_H_NY_Subt18_08-04-11-071.txt Node
Date: Tue Nov 14 08:04:11 EST 2017
User: Ender
Spectrometer: HR+D1039
Trigger mode: 0
Integration Time (sec): 2.730000E-2
Scans to average: 10
Electric dark correction enabled: true
Nonlinearity correction enabled: false
Boxcar width: 0
XAxis mode: Wavelengths
Number of Pixels in Spectrum: 2048
>>>>>Begin Spectral Data<<<<<
187.836	-6.46
188.309	-6.46
188.782	-6.46
189.255	4.84
189.728	-3.86
190.201	5.44
190.674	1.34
191.147	8.14
191.619	-4.16
192.092	0.64
192.565	2.44
193.038	-0.66
193.511	2.34
193.984	0.24
194.456	-8.36
194.929	0.54
195.402	-1.66
195.874	-0.76
196.347	-6.86
196.82	-10.46
197.292	4.74
197.765	-0.26
198.237	-9.36
198.71	0.14
199.182	-1.26
199.655	5.14
200.127	0.94
200.6	-2.56
201.072	3.04
201.544	-9.96
202.017	-2.66
202.489	1.64
202.961	-4.06
203.433	-9.76
203.906	-8.36
204.378	-8.06
204.85	-4.56
205.322	-9.86
205.794	-6.06
206.266	-7.16
206.739	-9.06
207.211	5.14
207.683	-15.46
208.155	-10.66
208.627	-7.86
209.099	-1.26
209.57	-5.66
210.042	-4.46
210.514	2.84
210.986	-1.86
211.458	-7.76
211.93	-1.16
212.402	3.94
212.873	-4.36
213.345	-9.66
213.817	-14.96
214.288	-3.26
214.76	-8.96
215.232	-5.06
215.703	-3.46
216.175	-7.16
216.646	-7.56
217.118	-6.16
217.589	3.84
218.061	-7.26
218.532	-5.76
219.004	-0.76
219.475	-9.36
219.946	-1.16
220.418	-10.26
220.889	0.34
221.36	-1.56
221.832	-2.76
222.303	-9.16
222.774	-4.36
223.245	-9.76
223.717	-7.26
224.188	-6.76
224.659	-6.36
225.13	-7.46
225.601	-3.56
226.072	0.14
226.543	2.04
227.014	2.14
227.485	-0.46
227.956	-5.76
228.427	-6.56
228.898	2.64
229.369	5.14
229.839	-3.06
230.31	-5.96
230.781	1.44
231.252	-3.26
231.722	-7.66
232.193	0.84
232.664	2.34
233.135	2.14
233.605	-4.26
234.076	-4.96
234.546	4.04
235.017	0.74
235.487	2.04
235.958	-0.46
236.428	-1.26
236.899	9.14
237.369	-2.16
237.84	-1.86
238.31	0.64
238.78	3.64
239.251	-1.06
239.721	2.24
240.191	-3.16
240.662	-7.86
241.132	-0.76
241.602	0.44
242.072	2.84
242.542	2.04
243.013	1.84
243.483	2.64
243.953	1.84
244.423	-2.66
244.893	-2.46
245.363	2.24
245.833	4.04
246.303	-2.76
246.773	7.14
247.243	5.64
247.712	-0.36
248.182	6.44
248.652	4.74
249.122	-1.26
249.592	14.04
250.061	16.94
250.531	28.84
251.001	10.74
251.471	21.04
251.94	18.54
252.41	5.54
252.879	0.04
253.349	15.74
253.818	9.84
254.288	4.14
254.757	7.94
255.227	-3.76
255.696	2.44
256.166	2.74
256.635	8.24
257.105	6.94
257.574	0.94
258.043	6.94
258.513	4.74
258.982	10.54
259.451	-2.76
259.92	13.74
260.389	15.44
260.859	6.74
261.328	6.54
261.797	14.44
262.266	5.64
262.735	7.74
263.204	4.04
263.673	-3.16
264.142	10.34
264.611	-2.86
265.08	0.64
265.549	2.34
266.018	3.34
266.487	-2.26
266.955	-2.06
267.424	-1.16
267.893	1.34
268.362	-4.06
268.83	1.24
269.299	10.74
269.768	5.24
270.236	9.84
270.705	2.34
271.174	10.64
271.642	9.64
272.111	6.94
272.579	10.24
273.048	18.44
273.516	25.94
273.985	21.54
274.453	18.74
274.922	16.44
275.39	4.64
275.858	-1.76
276.327	9.54
276.795	14.24
277.263	3.04
277.731	27.04
278.2	42.24
278.668	47.54
279.136	36.74
279.604	19.94
280.072	13.74
280.54	8.24
281.008	11.14
281.477	15.14
281.945	8.24
282.413	9.04
282.881	10.64
283.348	7.54
283.816	12.04
284.284	12.34
284.752	14.44
285.22	9.14
285.688	11.14
286.156	17.54
286.623	37.04
287.091	36.44
287.559	21.94
288.026	13.94
288.494	11.94
288.962	4.24
289.429	4.04
289.897	13.14
290.364	13.94
290.832	18.44
291.3	9.34
291.767	11.64
292.234	16.84
292.702	7.54
293.169	16.24
293.637	19.24
294.104	16.84
294.571	10.24
295.039	7.84
295.506	9.74
295.973	9.84
296.44	13.44
296.908	15.54
297.375	13.24
297.842	16.94
298.309	9.54
298.776	12.24
299.243	17.54
299.71	9.94
300.177	13.54
300.644	15.84
301.111	14.04
301.578	18.84
302.045	9.04
302.512	19.14
302.979	18.04
303.446	19.64
303.913	14.64
304.379	10.74
304.846	22.24
305.313	19.94
305.78	16.34
306.246	22.44
306.713	19.84
307.18	24.54
307.646	27.64
308.113	21.44
308.579	22.34
309.046	24.24
309.512	21.24
309.979	12.64
310.445	23.24
310.912	27.44
311.378	26.54
311.845	22.44
312.311	24.04
312.777	32.04
313.244	25.84
313.71	30.44
314.176	23.44
314.642	23.44
315.109	27.54
315.575	27.14
316.041	25.64
316.507	21.34
316.973	26.14
317.439	28.04
317.905	33.64
318.371	29.74
318.837	27.44
319.303	24.24
319.769	25.14
320.235	20.94
320.701	25.94
321.167	33.34
321.633	27.74
322.099	30.64
322.564	36.94
323.03	30.84
323.496	31.64
323.962	34.44
324.427	28.74
324.893	32.64
325.359	31.44
325.824	32.74
326.29	29.54
326.755	34.44
327.221	32.64
327.686	29.74
328.152	39.64
328.617	33.94
329.083	37.64
329.548	42.54
330.014	43.14
330.479	32.04
330.944	39.24
331.41	34.64
331.875	39.44
332.34	34.34
332.805	31.94
333.271	33.14
333.736	36.14
334.201	48.54
334.666	42.54
335.131	47.64
335.596	43.14
336.061	46.04
336.526	30.34
336.991	41.44
337.456	51.54
337.921	32.84
338.386	37.24
338.851	40.64
339.316	40.94
339.781	46.84
340.246	40.34
340.711	33.94
341.175	38.04
341.64	38.64
342.105	41.64
342.569	47.54
343.034	48.64
343.499	44.44
343.963	38.84
344.428	55.04
344.893	54.34
345.357	51.34
345.822	45.74
346.286	50.14
346.751	55.64
347.215	56.64
347.679	58.34
348.144	74.94
348.608	67.94
349.073	51.54
349.537	60.84
350.001	64.64
350.465	72.64
350.93	68.64
351.394	68.14
351.858	59.74
352.322	72.04
352.786	69.84
353.25	77.34
353.715	91.04
354.179	83.14
354.643	99.24
355.107	89.94
355.571	87.04
356.035	88.14
356.498	93.94
356.962	94.44
357.426	105.14
357.89	91.44
358.354	77.04
358.818	67.64
359.281	64.64
359.745	60.94
360.209	66.24
360.673	61.94
361.136	70.24
361.6	74.44
362.064	80.94
362.527	72.34
362.991	75.74
363.454	66.64
363.918	61.44
364.381	67.14
364.845	64.04
365.308	74.94
365.772	73.54
366.235	76.14
366.698	74.04
367.162	73.64
367.625	76.84
368.088	78.64
368.552	73.74
369.015	73.14
369.478	77.54
369.941	86.44
370.404	81.14
370.867	89.64
371.331	85.34
371.794	95.94
372.257	95.34
372.72	106.14
373.183	98.04
373.646	94.64
374.109	85.14
374.572	96.54
375.035	97.34
375.497	89.64
375.96	86.44
376.423	86.14
376.886	96.74
377.349	97.84
377.811	88.14
378.274	86.74
378.737	85.34
379.199	92.44
379.662	93.44
380.125	95.74
380.587	102.24
381.05	105.24
381.512	110.64
381.975	115.34
382.437	110.04
382.9	107.14
383.362	113.44
383.825	118.34
384.287	123.34
384.75	112.74
385.212	121.64
385.674	115.14
386.136	114.54
386.599	103.94
387.061	110.74
387.523	117.14
387.985	118.94
388.447	127.74
388.91	120.74
389.372	128.14
389.834	132.24
390.296	124.04
390.758	131.54
391.22	141.34
391.682	172.74
392.144	251.84
392.606	191.94
393.068	143.64
393.529	141.94
393.991	138.94
394.453	128.34
394.915	133.34
395.377	167.94
395.838	182.54
396.3	133.64
396.762	122.54
397.224	113.64
397.685	116.94
398.147	108.74
398.608	116.14
399.07	113.04
399.531	114.04
399.993	130.04
400.454	133.64
400.916	133.94
401.377	126.44
401.839	131.54
402.3	124.54
402.762	142.64
403.223	159.14
403.684	148.84
404.145	135.84
404.607	145.64
405.068	140.44
405.529	145.94
405.99	157.04
406.451	142.24
406.913	147.14
407.374	143.54
407.835	138.64
408.296	139.74
408.757	155.44
409.218	157.94
409.679	156.94
410.14	152.14
410.601	151.24
411.062	158.54
411.522	161.44
411.983	160.14
412.444	154.14
412.905	155.84
413.366	153.54
413.826	168.44
414.287	190.44
414.748	226.14
415.208	211.14
415.669	182.24
416.13	179.24
416.59	174.84
417.051	189.64
417.511	191.34
417.972	211.74
418.432	218.54
418.893	257.74
419.353	215.14
419.814	172.94
420.274	161.24
420.734	157.44
421.195	166.14
421.655	170.94
422.115	167.44
422.576	168.64
423.036	168.94
423.496	177.24
423.956	191.04
424.416	201.44
424.876	233.34
425.336	223.14
425.797	229.04
426.257	217.84
426.717	209.54
427.177	203.64
427.637	190.04
428.097	201.04
428.556	217.74
429.016	231.34
429.476	224.54
429.936	228.94
430.396	241.04
430.856	252.14
431.315	269.44
431.775	301.24
432.235	333.04
432.694	296.24
433.154	303.34
433.614	321.54
434.073	282.54
434.533	243.94
434.993	236.14
435.452	244.64
435.912	245.44
436.371	238.94
436.83	237.04
437.29	231.24
437.749	210.94
438.209	210.94
438.668	232.44
439.127	240.74
439.587	229.54
440.046	213.54
440.505	223.74
440.964	224.14
441.424	258.94
441.883	261.54
442.342	218.14
442.801	193.44
443.26	186.94
443.719	193.24
444.178	187.84
444.637	182.74
445.096	190.64
445.555	194.04
446.014	194.04
446.473	192.14
446.932	199.24
447.391	191.84
447.849	199.64
448.308	195.44
448.767	196.74
449.226	204.64
449.685	204.74
450.143	218.64
450.602	205.54
451.061	199.74
451.519	199.34
451.978	202.04
452.436	207.24
452.895	208.34
453.353	214.84
453.812	211.94
454.27	211.04
454.729	210.44
455.187	202.54
455.646	202.94
456.104	205.64
456.562	217.64
457.021	227.84
457.479	224.54
457.937	225.94
458.395	226.54
458.854	211.74
459.312	214.34
459.77	237.54
460.228	219.04
460.686	210.74
461.144	217.14
461.602	213.54
462.06	211.54
462.518	215.24
462.976	214.24
463.434	215.24
463.892	231.04
464.35	236.34
464.808	249.64
465.266	233.24
465.724	235.54
466.181	238.84
466.639	238.14
467.097	254.64
467.555	259.24
468.012	264.84
468.47	275.34
468.928	281.34
469.385	294.64
469.843	296.84
470.3	301.64
470.758	311.84
471.215	322.34
471.673	330.84
472.13	333.64
472.588	347.54
473.045	315.14
473.503	334.34
473.96	334.84
474.417	348.44
474.875	377.44
475.332	403.24
475.789	385.44
476.246	406.74
476.704	409.44
477.161	429.54
477.618	447.64
478.075	471.94
478.532	519.84
478.989	587.84
479.446	673.34
479.903	665.84
480.36	709.14
480.817	758.24
481.274	846.34
481.731	943.64
482.188	1019.74
482.645	1144.84
483.102	1236.14
483.558	1353.34
484.015	1417.14
484.472	1393.34
484.929	1342.04
485.385	1311.44
485.842	1262.44
486.299	1199.54
486.755	1123.04
487.212	956.74
487.668	812.74
488.125	743.84
488.582	687.94
489.038	647.74
489.494	621.04
489.951	598.44
490.407	588.94
490.864	570.14
491.32	559.34
491.776	559.44
492.233	549.94
492.689	525.54
493.145	522.24
493.602	517.64
494.058	530.94
494.514	533.54
494.97	545.64
495.426	552.34
495.882	535.54
496.338	531.34
496.794	535.74
497.251	534.24
497.707	547.84
498.163	538.24
498.618	553.54
499.074	560.84
499.53	568.14
499.986	571.54
500.442	554.34
500.898	543.34
501.354	540.04
501.809	550.04
502.265	548.64
502.721	565.84
503.177	577.74
503.632	573.54
504.088	594.64
504.543	605.94
504.999	607.24
505.455	563.24
505.91	554.94
506.366	542.84
506.821	542.64
507.277	539.34
507.732	546.44
508.187	539.94
508.643	551.14
509.098	545.34
509.553	559.94
510.009	570.94
510.464	566.74
510.919	589.04
511.375	602.64
511.83	598.84
512.285	616.74
512.74	639.74
513.195	657.24
513.65	654.74
514.105	657.64
514.56	658.74
515.015	674.84
515.47	689.54
515.925	684.34
516.38	676.34
516.835	679.84
517.29	677.54
517.745	675.24
518.2	654.74
518.655	638.94
519.109	635.14
519.564	631.24
520.019	618.74
520.474	640.24
520.928	617.74
521.383	608.44
521.838	605.44
522.292	608.34
522.747	607.14
523.201	597.04
523.656	592.34
524.11	590.54
524.565	589.34
525.019	593.34
525.474	603.84
525.928	597.14
526.382	584.34
526.837	592.74
527.291	597.34
527.745	589.34
528.2	598.54
528.654	588.64
529.108	575.74
529.562	589.74
530.016	588.14
530.47	587.64
530.925	596.64
531.379	592.84
531.833	594.84
532.287	599.14
532.741	599.44
533.195	602.14
533.649	601.04
534.103	615.14
534.556	604.94
535.01	603.64
535.464	600.84
535.918	608.74
536.372	602.54
536.826	606.24
537.279	592.74
537.733	597.74
538.187	606.74
538.64	600.24
539.094	618.74
539.548	608.64
540.001	606.24
540.455	606.04
540.908	615.24
541.362	611.54
541.815	632.74
542.269	644.54
542.722	632.34
543.175	648.04
543.629	643.94
544.082	657.04
544.536	670.84
544.989	655.74
545.442	665.54
545.895	670.94
546.349	660.74
546.802	657.94
547.255	673.14
547.708	674.64
548.161	681.04
548.614	685.34
549.067	689.54
549.52	688.04
549.973	682.54
550.426	668.84
550.879	667.04
551.332	668.74
551.785	676.14
552.238	679.74
552.691	676.84
553.144	687.04
553.596	704.44
554.049	718.74
554.502	747.04
554.955	763.64
555.407	771.44
555.86	746.04
556.313	742.74
556.765	729.14
557.218	732.44
557.67	730.94
558.123	730.94
558.576	727.84
559.028	729.74
559.48	732.54
559.933	722.24
560.385	696.84
560.838	670.54
561.29	647.84
561.742	649.34
562.195	634.04
562.647	630.44
563.099	653.74
563.551	638.54
564.004	659.94
564.456	651.44
564.908	626.34
565.36	617.54
565.812	609.34
566.264	601.44
566.716	597.14
567.168	594.24
567.62	599.84
568.072	570.64
568.524	569.14
568.976	567.04
569.428	562.14
569.88	559.44
570.332	552.44
570.784	556.64
571.235	560.54
571.687	567.04
572.139	574.74
572.59	587.04
573.042	581.54
573.494	582.14
573.945	576.84
574.397	561.64
574.849	564.74
575.3	554.04
575.752	564.64
576.203	555.24
576.655	559.74
577.106	554.74
577.557	539.44
578.009	546.84
578.46	545.34
578.912	540.54
579.363	533.74
579.814	545.84
580.265	535.14
580.717	542.94
581.168	541.24
581.619	552.04
582.07	552.24
582.521	544.74
582.972	537.74
583.423	550.14
583.875	549.64
584.326	566.04
584.777	602.44
585.227	680.54
585.678	758.64
586.129	831.34
586.58	905.64
587.031	978.14
587.482	1121.84
587.933	1298.44
588.384	1121.14
588.834	817.84
589.285	649.84
589.736	647.74
590.186	630.14
590.637	622.34
591.088	612.74
591.538	597.74
591.989	583.54
592.439	591.94
592.89	587.84
593.34	563.54
593.791	573.24
594.241	564.84
594.692	560.24
595.142	560.34
595.593	558.24
596.043	567.34
596.493	580.94
596.943	575.44
597.394	584.94
597.844	569.14
598.294	578.24
598.744	597.04
599.195	616.14
599.645	647.24
600.095	679.64
600.545	722.04
600.995	765.64
601.445	815.44
601.895	866.84
602.345	906.94
602.795	882.34
603.245	856.84
603.695	813.24
604.145	762.64
604.594	730.64
605.044	681.84
605.494	640.94
605.944	600.84
606.393	599.64
606.843	578.64
607.293	585.64
607.743	581.54
608.192	582.54
608.642	603.94
609.091	591.44
609.541	605.74
609.99	607.24
610.44	598.04
610.889	565.04
611.339	550.34
611.788	554.14
612.238	555.34
612.687	568.44
613.136	576.64
613.586	583.14
614.035	590.94
614.484	599.94
614.933	602.14
615.383	589.84
615.832	590.04
616.281	572.74
616.73	539.04
617.179	523.44
617.628	510.14
618.077	496.44
618.526	492.64
618.975	484.64
619.424	486.54
619.873	484.54
620.322	478.64
620.771	478.64
621.22	477.54
621.669	473.94
622.118	463.74
622.567	453.64
623.015	445.24
623.464	450.64
623.913	433.94
624.361	435.74
624.81	434.94
625.259	435.14
625.707	435.04
626.156	435.44
626.604	447.14
627.053	436.44
627.501	435.34
627.95	449.74
628.398	451.64
628.847	448.74
629.295	448.44
629.744	453.14
630.192	441.24
630.64	444.44
631.089	440.84
631.537	449.44
631.985	451.74
632.433	466.24
632.881	471.84
633.33	514.34
633.778	485.14
634.226	431.74
634.674	434.74
635.122	438.84
635.57	457.04
636.018	483.94
636.466	457.64
636.914	429.14
637.362	445.54
637.81	449.54
638.258	453.54
638.705	449.44
639.153	470.44
639.601	477.44
640.049	489.64
640.497	530.84
640.944	542.54
641.392	498.84
641.84	474.74
642.287	458.94
642.735	442.84
643.182	444.74
643.63	445.54
644.078	447.34
644.525	461.64
644.973	465.04
645.42	463.14
645.867	476.14
646.315	488.74
646.762	512.24
647.21	531.24
647.657	544.54
648.104	577.04
648.551	600.94
648.999	645.04
649.446	713.14
649.893	781.74
650.34	885.74
650.787	1060.04
651.234	1316.74
651.682	1702.04
652.129	2342.84
652.576	3342.94
653.023	4976.64
653.47	6942.14
653.917	8792.14
654.363	10375.14
654.81	11672.84
655.257	11134.44
655.704	7182.64
656.151	4178.84
656.598	2707.04
657.044	1910.44
657.491	1468.04
657.938	1164.74
658.385	966.54
658.831	844.74
659.278	750.44
659.724	662.34
660.171	605.64
660.618	545.94
661.064	530.24
661.511	510.94
661.957	492.34
662.404	478.84
662.85	486.54
663.296	472.04
663.743	424.44
664.189	416.84
664.635	413.34
665.082	405.64
665.528	399.64
665.974	396.84
666.42	390.64
666.867	374.14
667.313	364.04
667.759	367.44
668.205	364.84
668.651	381.24
669.097	373.14
669.543	392.94
669.989	358.94
670.435	339.84
670.881	340.54
671.327	337.24
671.773	363.24
672.219	378.44
672.665	412.64
673.11	437.44
673.556	478.34
674.002	514.04
674.448	507.64
674.893	420.44
675.339	369.84
675.785	337.54
676.23	319.84
676.676	296.34
677.122	291.54
677.567	279.74
678.013	278.74
678.458	275.84
678.904	276.84
679.349	255.94
679.794	269.14
680.24	264.34
680.685	268.74
681.131	262.44
681.576	264.34
682.021	270.14
682.466	259.64
682.912	259.64
683.357	259.54
683.802	287.04
684.247	299.64
684.692	338.94
685.137	367.24
685.583	409.34
686.028	439.04
686.473	393.94
686.918	329.44
687.363	315.74
687.807	305.14
688.252	276.24
688.697	271.94
689.142	252.84
689.587	253.34
690.032	237.04
690.477	261.64
690.921	264.44
691.366	292.84
691.811	295.84
692.255	321.94
692.7	346.04
693.145	369.84
693.589	510.04
694.034	827.44
694.478	1145.34
694.923	1335.54
695.367	1777.04
695.812	923.04
696.256	388.24
696.701	279.34
697.145	266.94
697.59	251.94
698.034	237.54
698.478	244.64
698.922	245.74
699.367	245.64
699.811	258.84
700.255	267.24
700.699	292.64
701.143	321.34
701.588	367.14
702.032	395.74
702.476	392.24
702.92	371.14
703.364	367.14
703.808	467.24
704.252	739.94
704.696	1073.94
705.14	1299.94
705.584	1672.74
706.027	825.44
706.471	405.44
706.915	295.44
707.359	260.54
707.803	239.04
708.246	224.64
708.69	235.94
709.134	238.74
709.577	240.44
710.021	241.54
710.465	230.64
710.908	233.74
711.352	217.94
711.795	230.84
712.239	263.84
712.682	273.44
713.126	312.84
713.569	355.24
714.012	282.34
714.456	243.04
714.899	224.34
715.342	209.44
715.786	190.54
716.229	199.14
716.672	193.24
717.115	185.94
717.558	183.54
718.002	184.44
718.445	198.24
718.888	216.64
719.331	218.64
719.774	226.74
720.217	229.44
720.66	214.34
721.103	197.34
721.546	191.14
721.989	190.74
722.432	171.84
722.874	173.64
723.317	165.64
723.76	179.44
724.203	188.34
724.645	237.74
725.088	324.74
725.531	429.54
725.974	495.54
726.416	423.24
726.859	229.54
727.301	182.84
727.744	178.84
728.187	170.04
728.629	178.14
729.071	177.54
729.514	198.14
729.956	205.74
730.399	215.04
730.841	209.64
731.283	209.84
731.726	201.14
732.168	195.94
732.61	196.44
733.053	216.54
733.495	227.24
733.937	263.64
734.379	297.44
734.821	323.44
735.263	402.44
735.705	600.14
736.148	1138.14
736.59	1920.44
737.032	2388.84
737.474	1937.64
737.916	613.54
738.357	318.24
738.799	236.64
739.241	218.74
739.683	213.84
740.125	211.64
740.567	223.54
741.008	246.74
741.45	238.34
741.892	231.34
742.334	250.94
742.775	270.04
743.217	259.14
743.658	204.14
744.1	190.84
744.542	193.64
744.983	236.54
745.425	266.94
745.866	267.44
746.307	210.24
746.749	208.24
747.19	241.94
747.632	323.44
748.073	621.74
748.514	1354.24
748.956	2155.04
749.397	2703.64
749.838	2243.14
750.279	2321.54
750.72	1160.24
751.162	412.44
751.603	239.74
752.044	189.24
752.485	158.44
752.926	157.74
753.367	149.34
753.808	148.14
754.249	146.64
754.69	138.24
755.131	139.14
755.572	132.84
756.013	135.44
756.453	142.04
756.894	143.44
757.335	135.04
757.776	138.34
758.216	149.74
758.657	148.04
759.098	146.44
759.538	164.34
759.979	198.54
760.42	267.14
760.86	495.54
761.301	1317.24
761.741	3286.44
762.182	5121.54
762.622	3620.04
763.063	1014.54
763.503	413.94
763.943	258.44
