Data from 20171114-ORNL-Ar_H_NY_Subt18_08-07-37-168.txt Node
Date: Tue Nov 14 08:07:37 EST 2017
User: Ender
Spectrometer: HR+D1039
Trigger mode: 0
Integration Time (sec): 2.730000E-2
Scans to average: 10
Electric dark correction enabled: true
Nonlinearity correction enabled: false
Boxcar width: 0
XAxis mode: Wavelengths
Number of Pixels in Spectrum: 2048
>>>>>Begin Spectral Data<<<<<
187.836	-7.35
188.309	-7.35
188.782	-7.35
189.255	-2.75
189.728	0.35
190.201	7.05
190.674	1.05
191.147	4.25
191.619	-8.65
192.092	2.55
192.565	7.05
193.038	1.65
193.511	-1.65
193.984	-1.75
194.456	-3.95
194.929	4.75
195.402	-2.25
195.874	-0.35
196.347	-6.35
196.82	-9.05
197.292	11.85
197.765	-0.95
198.237	-8.55
198.71	1.65
199.182	-1.15
199.655	4.75
200.127	5.35
200.6	1.35
201.072	-5.25
201.544	-0.35
202.017	1.65
202.489	7.45
202.961	-1.35
203.433	-8.05
203.906	-8.75
204.378	-3.05
204.85	-4.35
205.322	-10.95
205.794	-5.25
206.266	0.55
206.739	-12.65
207.211	-1.95
207.683	-8.95
208.155	-7.55
208.627	-9.95
209.099	-3.35
209.57	-6.15
210.042	0.55
210.514	-5.75
210.986	-0.75
211.458	-2.15
211.93	-4.75
212.402	-1.25
212.873	-7.65
213.345	-3.75
213.817	-6.35
214.288	-7.85
214.76	-10.25
215.232	-4.15
215.703	-5.25
216.175	-5.85
216.646	-3.15
217.118	-6.15
217.589	0.05
218.061	-1.05
218.532	-5.95
219.004	-1.65
219.475	-5.85
219.946	-4.65
220.418	-6.15
220.889	-2.45
221.36	-0.55
221.832	-5.85
222.303	-14.15
222.774	-1.05
223.245	-9.55
223.717	-3.15
224.188	-5.45
224.659	-6.25
225.13	-5.65
225.601	-9.15
226.072	0.05
226.543	-0.75
227.014	-7.55
227.485	-2.65
227.956	-5.15
228.427	0.45
228.898	3.15
229.369	4.05
229.839	-2.05
230.31	-5.95
230.781	-2.45
231.252	-3.05
231.722	-5.35
232.193	-2.05
232.664	-5.45
233.135	0.55
233.605	0.65
234.076	-8.95
234.546	1.65
235.017	-2.05
235.487	-0.85
235.958	-3.75
236.428	-1.65
236.899	1.85
237.369	1.35
237.84	1.95
238.31	1.95
238.78	3.95
239.251	-1.35
239.721	1.65
240.191	-1.15
240.662	1.15
241.132	-1.45
241.602	-0.65
242.072	-2.15
242.542	5.95
243.013	-4.65
243.483	-1.15
243.953	6.25
244.423	-0.45
244.893	-5.15
245.363	6.75
245.833	3.45
246.303	-5.95
246.773	7.45
247.243	0.35
247.712	-0.05
248.182	5.85
248.652	6.25
249.122	-4.75
249.592	7.65
250.061	13.05
250.531	24.85
251.001	12.25
251.471	22.05
251.94	17.25
252.41	2.15
252.879	-3.35
253.349	10.45
253.818	1.95
254.288	3.25
254.757	4.25
255.227	-0.25
255.696	3.85
256.166	5.05
256.635	7.35
257.105	5.55
257.574	3.15
258.043	4.35
258.513	6.55
258.982	9.15
259.451	4.95
259.92	10.35
260.389	9.05
260.859	13.15
261.328	5.05
261.797	15.55
262.266	5.85
262.735	10.55
263.204	2.25
263.673	2.25
264.142	1.75
264.611	-2.95
265.08	-3.35
265.549	1.35
266.018	0.75
266.487	-5.95
266.955	0.75
267.424	-1.55
267.893	4.25
268.362	-3.65
268.83	-1.75
269.299	5.95
269.768	5.05
270.236	1.65
270.705	2.85
271.174	5.05
271.642	8.75
272.111	7.55
272.579	13.85
273.048	21.75
273.516	19.45
273.985	20.05
274.453	15.85
274.922	10.95
275.39	6.15
275.858	-2.35
276.327	9.65
276.795	11.25
277.263	3.15
277.731	23.15
278.2	48.55
278.668	54.15
279.136	42.15
279.604	17.35
280.072	16.05
280.54	12.85
281.008	10.85
281.477	12.85
281.945	1.55
282.413	6.55
282.881	11.75
283.348	3.75
283.816	11.85
284.284	14.65
284.752	17.65
285.22	8.45
285.688	12.15
286.156	17.15
286.623	37.05
287.091	49.25
287.559	20.35
288.026	13.95
288.494	14.55
288.962	-2.35
289.429	8.15
289.897	15.95
290.364	11.85
290.832	18.25
291.3	13.45
291.767	12.35
292.234	12.55
292.702	14.05
293.169	15.55
293.637	20.85
294.104	9.35
294.571	8.65
295.039	8.75
295.506	4.55
295.973	13.65
296.44	5.25
296.908	13.25
297.375	16.75
297.842	17.05
298.309	13.35
298.776	11.95
299.243	17.25
299.71	9.95
300.177	22.05
300.644	17.15
301.111	12.75
301.578	13.45
302.045	5.25
302.512	23.95
302.979	23.55
303.446	18.25
303.913	14.15
304.379	16.45
304.846	24.25
305.313	24.25
305.78	13.95
306.246	22.25
306.713	18.85
307.18	17.75
307.646	18.75
308.113	14.65
308.579	15.95
309.046	20.75
309.512	26.35
309.979	12.55
310.445	19.65
310.912	22.45
311.378	24.75
311.845	26.95
312.311	22.15
312.777	25.55
313.244	23.95
313.71	32.45
314.176	25.85
314.642	23.55
315.109	22.65
315.575	30.35
316.041	33.35
316.507	28.45
316.973	36.85
317.439	28.65
317.905	25.95
318.371	28.45
318.837	27.25
319.303	27.95
319.769	30.75
320.235	28.95
320.701	30.95
321.167	29.95
321.633	25.35
322.099	32.55
322.564	38.25
323.03	32.95
323.496	31.35
323.962	34.05
324.427	27.15
324.893	35.05
325.359	27.65
325.824	33.15
326.29	25.15
326.755	32.25
327.221	32.15
327.686	33.75
328.152	38.75
328.617	37.45
329.083	35.45
329.548	43.45
330.014	30.35
330.479	30.95
330.944	38.05
331.41	31.65
331.875	38.65
332.34	31.45
332.805	35.55
333.271	32.75
333.736	35.35
334.201	45.55
334.666	43.85
335.131	47.15
335.596	46.85
336.061	45.35
336.526	31.05
336.991	45.75
337.456	49.65
337.921	43.65
338.386	39.05
338.851	39.55
339.316	38.55
339.781	36.15
340.246	44.05
340.711	40.35
341.175	44.55
341.64	46.25
342.105	50.15
342.569	46.35
343.034	49.35
343.499	45.85
343.963	37.75
344.428	54.95
344.893	55.35
345.357	57.05
345.822	49.55
346.286	54.45
346.751	64.75
347.215	57.85
347.679	64.05
348.144	85.05
348.608	71.55
349.073	62.15
349.537	63.35
350.001	68.55
350.465	80.75
350.93	63.75
351.394	71.05
351.858	60.85
352.322	72.75
352.786	69.85
353.25	88.85
353.715	97.75
354.179	82.45
354.643	108.35
355.107	109.35
355.571	91.25
356.035	92.55
356.498	101.55
356.962	111.85
357.426	117.55
357.89	102.35
358.354	77.95
358.818	74.55
359.281	74.65
359.745	66.15
360.209	67.85
360.673	69.45
361.136	69.55
361.6	72.25
362.064	76.55
362.527	72.75
362.991	82.65
363.454	71.05
363.918	69.65
364.381	66.05
364.845	71.15
365.308	75.55
365.772	73.85
366.235	78.85
366.698	71.55
367.162	78.65
367.625	80.05
368.088	76.95
368.552	80.55
369.015	82.35
369.478	91.75
369.941	90.65
370.404	84.95
370.867	91.75
371.331	95.95
371.794	102.75
372.257	98.85
372.72	105.05
373.183	104.05
373.646	99.05
374.109	95.25
374.572	98.85
375.035	96.45
375.497	103.15
375.96	95.25
376.423	87.45
376.886	100.15
377.349	98.95
377.811	89.75
378.274	95.85
378.737	90.65
379.199	102.25
379.662	101.05
380.125	106.75
380.587	108.45
381.05	113.65
381.512	116.55
381.975	124.85
382.437	118.15
382.9	117.75
383.362	122.35
383.825	129.55
384.287	128.45
384.75	129.75
385.212	122.25
385.674	129.55
386.136	128.85
386.599	111.05
387.061	118.35
387.523	121.55
387.985	122.95
388.447	136.15
388.91	134.25
389.372	146.25
389.834	140.55
390.296	132.85
390.758	148.35
391.22	159.05
391.682	201.65
392.144	284.65
392.606	218.45
393.068	154.55
393.529	155.45
393.991	146.35
394.453	137.75
394.915	147.75
395.377	185.15
395.838	207.05
396.3	143.35
396.762	123.95
397.224	127.75
397.685	123.45
398.147	119.65
398.608	127.95
399.07	112.75
399.531	123.95
399.993	137.75
400.454	142.35
400.916	136.85
401.377	134.35
401.839	140.85
402.3	141.75
402.762	158.65
403.223	173.55
403.684	159.05
404.145	154.75
404.607	152.05
405.068	159.45
405.529	156.85
405.99	174.45
406.451	162.65
406.913	164.15
407.374	157.05
407.835	146.65
408.296	159.05
408.757	162.95
409.218	172.15
409.679	167.55
410.14	167.15
410.601	167.55
411.062	176.35
411.522	187.75
411.983	173.05
412.444	164.85
412.905	168.25
413.366	169.05
413.826	188.05
414.287	212.25
414.748	244.85
415.208	235.45
415.669	201.45
416.13	195.45
416.59	184.05
417.051	196.85
417.511	212.05
417.972	221.65
418.432	233.45
418.893	267.35
419.353	239.05
419.814	190.65
420.274	169.55
420.734	174.65
421.195	188.55
421.655	183.05
422.115	186.75
422.576	181.85
423.036	185.05
423.496	187.95
423.956	201.85
424.416	216.15
424.876	245.05
425.336	245.65
425.797	246.95
426.257	241.85
426.717	233.15
427.177	217.75
427.637	209.35
428.097	223.95
428.556	233.35
429.016	255.65
429.476	252.15
429.936	262.75
430.396	267.25
430.856	285.35
431.315	300.15
431.775	332.55
432.235	364.45
432.694	336.45
433.154	349.65
433.614	372.55
434.073	322.35
434.533	269.45
434.993	258.45
435.452	269.65
435.912	284.45
436.371	274.05
436.83	276.25
437.29	255.05
437.749	234.95
438.209	235.25
438.668	264.65
439.127	269.05
439.587	256.05
440.046	232.25
440.505	244.85
440.964	262.15
441.424	302.95
441.883	293.15
442.342	246.65
442.801	216.55
443.26	214.25
443.719	211.65
444.178	206.05
444.637	201.65
445.096	206.85
445.555	209.85
446.014	213.45
446.473	210.85
446.932	220.95
447.391	211.65
447.849	222.35
448.308	207.65
448.767	211.65
449.226	226.85
449.685	223.65
450.143	238.65
450.602	225.85
451.061	217.55
451.519	223.05
451.978	228.25
452.436	223.45
452.895	227.95
453.353	248.25
453.812	228.55
454.27	225.25
454.729	224.75
455.187	230.55
455.646	233.35
456.104	244.55
456.562	252.05
457.021	259.15
457.479	255.35
457.937	269.45
458.395	256.75
458.854	234.85
459.312	237.65
459.77	262.35
460.228	251.65
460.686	238.85
461.144	239.55
461.602	237.25
462.06	234.75
462.518	247.95
462.976	244.55
463.434	253.65
463.892	249.95
464.35	262.75
464.808	279.05
465.266	258.95
465.724	257.95
466.181	258.75
466.639	266.05
467.097	283.15
467.555	295.25
468.012	294.25
468.47	302.65
468.928	309.05
469.385	331.45
469.843	334.45
470.3	333.55
470.758	341.45
471.215	370.05
471.673	400.15
472.13	392.95
472.588	403.45
473.045	366.65
473.503	370.35
473.96	381.25
474.417	388.05
474.875	424.55
475.332	451.95
475.789	448.35
476.246	449.15
476.704	474.15
477.161	487.95
477.618	508.25
478.075	541.25
478.532	597.15
478.989	663.65
479.446	777.35
479.903	745.15
480.36	784.55
480.817	838.95
481.274	942.95
481.731	1040.45
482.188	1122.25
482.645	1264.55
483.102	1373.85
483.558	1484.55
484.015	1547.55
484.472	1532.55
484.929	1487.45
485.385	1424.15
485.842	1392.85
486.299	1320.35
486.755	1258.75
487.212	1057.25
487.668	904.45
488.125	824.95
488.582	749.15
489.038	731.05
489.494	693.95
489.951	662.65
490.407	642.45
490.864	622.95
491.32	624.15
491.776	626.35
492.233	628.55
492.689	581.65
493.145	592.35
493.602	572.65
494.058	591.65
494.514	599.85
494.97	613.15
495.426	629.45
495.882	599.85
496.338	588.25
496.794	602.85
497.251	597.95
497.707	610.65
498.163	611.05
498.618	621.85
499.074	612.25
499.53	658.35
499.986	655.95
500.442	629.55
500.898	619.95
501.354	608.95
501.809	617.35
502.265	628.35
502.721	646.65
503.177	657.85
503.632	639.55
504.088	664.55
504.543	688.05
504.999	685.25
505.455	639.05
505.91	610.35
506.366	613.55
506.821	607.95
507.277	607.45
507.732	601.95
508.187	608.05
508.643	620.55
509.098	622.45
509.553	644.85
510.009	647.35
510.464	651.85
510.919	669.75
511.375	658.15
511.83	683.25
512.285	705.75
512.74	730.65
513.195	750.45
513.65	746.65
514.105	744.05
514.56	741.75
515.015	770.85
515.47	784.95
515.925	772.65
516.38	770.95
516.835	772.55
517.29	761.75
517.745	751.25
518.2	747.25
518.655	722.05
519.109	723.35
519.564	723.95
520.019	712.85
520.474	701.15
520.928	703.45
521.383	699.65
521.838	692.55
522.292	686.55
522.747	696.65
523.201	680.65
523.656	678.75
524.11	668.65
524.565	674.75
525.019	658.45
525.474	685.85
525.928	693.55
526.382	677.15
526.837	677.35
527.291	673.45
527.745	682.55
528.2	680.75
528.654	674.15
529.108	664.65
529.562	667.55
530.016	676.45
530.47	673.85
530.925	666.55
531.379	670.85
531.833	688.55
532.287	689.25
532.741	687.95
533.195	681.35
533.649	684.15
534.103	700.85
534.556	689.45
535.01	691.85
535.464	684.35
535.918	693.85
536.372	699.15
536.826	697.95
537.279	685.75
537.733	688.35
538.187	686.15
538.64	690.45
539.094	711.35
539.548	709.65
540.001	709.85
540.455	715.25
540.908	712.55
541.362	723.05
541.815	726.15
542.269	740.15
542.722	740.35
543.175	754.45
543.629	755.45
544.082	757.45
544.536	763.15
544.989	770.35
545.442	777.55
545.895	760.35
546.349	765.85
546.802	771.25
547.255	778.15
547.708	787.55
548.161	792.25
548.614	799.65
549.067	805.65
549.52	811.55
549.973	793.75
550.426	785.05
550.879	777.75
551.332	779.35
551.785	786.15
552.238	785.95
552.691	802.95
553.144	832.45
553.596	835.65
554.049	842.15
554.502	870.15
554.955	886.95
555.407	881.15
555.86	880.45
556.313	875.95
556.765	861.85
557.218	850.35
557.67	859.85
558.123	859.05
558.576	844.95
559.028	858.35
559.48	865.95
559.933	854.95
560.385	821.45
560.838	787.35
561.29	759.55
561.742	765.05
562.195	756.25
562.647	750.15
563.099	751.35
563.551	755.95
564.004	768.15
564.456	749.55
564.908	741.15
565.36	727.55
565.812	729.05
566.264	706.35
566.716	708.55
567.168	701.55
567.62	711.25
568.072	695.75
568.524	695.35
568.976	676.65
569.428	667.85
569.88	663.95
570.332	662.65
570.784	666.15
571.235	659.25
571.687	683.55
572.139	689.65
572.59	689.85
573.042	682.85
573.494	699.25
573.945	690.65
574.397	677.45
574.849	683.65
575.3	678.25
575.752	673.75
576.203	662.25
576.655	674.45
577.106	658.45
577.557	642.35
578.009	654.65
578.46	650.95
578.912	646.65
579.363	652.55
579.814	651.95
580.265	650.95
580.717	652.35
581.168	659.05
581.619	663.75
582.07	664.15
582.521	666.75
582.972	659.75
583.423	662.65
583.875	672.05
584.326	692.25
584.777	745.95
585.227	818.05
585.678	905.45
586.129	996.55
586.58	1060.85
587.031	1149.25
587.482	1297.55
587.933	1468.05
588.384	1276.45
588.834	959.85
589.285	782.15
589.736	774.65
590.186	757.15
590.637	751.75
591.088	730.45
591.538	718.85
591.989	719.95
592.439	712.95
592.89	707.85
593.34	704.05
593.791	701.05
594.241	696.45
594.692	704.15
595.142	685.45
595.593	696.45
596.043	699.05
596.493	701.45
596.943	710.05
597.394	714.15
597.844	695.65
598.294	711.05
598.744	739.65
599.195	767.05
599.645	797.25
600.095	837.85
600.545	893.05
600.995	946.85
601.445	1009.65
601.895	1056.15
602.345	1110.95
602.795	1091.55
603.245	1044.65
603.695	982.25
604.145	939.65
604.594	891.35
605.044	844.35
605.494	774.05
605.944	748.35
606.393	727.25
606.843	715.05
607.293	724.85
607.743	715.85
608.192	724.35
608.642	738.55
609.091	752.35
609.541	755.85
609.99	755.85
610.44	746.75
610.889	720.15
611.339	686.95
611.788	667.85
612.238	680.55
612.687	712.85
613.136	706.55
613.586	718.75
614.035	724.05
614.484	761.65
614.933	758.95
615.383	738.55
615.832	726.55
616.281	707.55
616.73	683.55
617.179	662.95
617.628	639.45
618.077	616.25
618.526	619.15
618.975	613.45
619.424	597.95
619.873	596.55
620.322	609.45
620.771	596.05
621.22	588.35
621.669	583.35
622.118	574.05
622.567	566.75
623.015	561.35
623.464	557.45
623.913	556.15
624.361	545.95
624.81	533.05
625.259	546.25
625.707	549.65
626.156	550.95
626.604	549.25
627.053	550.15
627.501	555.25
627.95	555.15
628.398	569.25
628.847	552.95
629.295	559.45
629.744	561.15
630.192	558.35
630.64	556.85
631.089	559.35
631.537	563.15
631.985	581.35
632.433	599.35
632.881	600.15
633.33	647.55
633.778	649.05
634.226	563.05
634.674	568.05
635.122	576.25
635.57	588.25
636.018	616.35
636.466	565.95
636.914	554.95
637.362	564.65
637.81	565.45
638.258	565.95
638.705	573.95
639.153	603.45
639.601	613.05
640.049	620.95
640.497	662.65
640.944	689.85
641.392	638.45
641.84	604.15
642.287	573.55
642.735	560.95
643.182	569.65
643.63	568.85
644.078	571.75
644.525	591.05
644.973	595.05
645.42	594.15
645.867	616.75
646.315	633.45
646.762	649.55
647.21	678.55
647.657	706.65
648.104	750.65
648.551	765.75
648.999	835.35
649.446	912.05
649.893	1005.45
650.34	1157.75
650.787	1396.35
651.234	1722.45
651.682	2256.85
652.129	3105.25
652.576	4509.25
653.023	6616.75
653.47	9065.05
653.917	11252.35
654.363	12926.85
654.81	14259.25
655.257	13567.45
655.704	8849.75
656.151	5236.25
656.598	3361.25
657.044	2397.65
657.491	1842.15
657.938	1471.75
658.385	1228.85
658.831	1069.05
659.278	950.65
659.724	843.95
660.171	774.05
660.618	705.75
661.064	684.45
661.511	664.25
661.957	642.35
662.404	633.25
662.85	647.15
663.296	613.85
663.743	557.05
664.189	535.35
664.635	524.95
665.082	516.75
665.528	523.25
665.974	519.05
666.42	511.65
666.867	490.55
667.313	485.25
667.759	475.55
668.205	468.15
668.651	482.55
669.097	476.35
669.543	488.15
669.989	452.55
670.435	444.65
670.881	446.35
671.327	448.05
671.773	461.95
672.219	479.85
672.665	542.15
673.11	577.05
673.556	617.05
674.002	654.95
674.448	640.75
674.893	545.25
675.339	472.35
675.785	430.15
676.23	411.15
676.676	389.75
677.122	381.55
677.567	374.95
678.013	360.75
678.458	351.15
678.904	350.75
679.349	349.85
679.794	350.95
680.24	350.75
680.685	340.85
681.131	339.55
681.576	344.45
682.021	349.35
682.466	342.65
682.912	345.75
683.357	354.65
683.802	373.35
684.247	404.95
684.692	450.15
685.137	493.15
685.583	526.45
686.028	547.35
686.473	512.75
686.918	438.05
687.363	406.75
687.807	384.05
688.252	358.45
688.697	347.75
689.142	329.35
689.587	328.25
690.032	326.45
690.477	337.05
690.921	344.05
691.366	368.25
691.811	396.05
692.255	420.95
692.7	456.45
693.145	499.25
693.589	698.95
694.034	1121.85
694.478	1524.65
694.923	1698.35
695.367	2210.25
695.812	1171.95
696.256	490.75
696.701	367.15
697.145	340.45
697.59	329.85
698.034	314.85
698.478	321.25
698.922	319.55
699.367	323.45
699.811	333.55
700.255	356.75
700.699	392.55
701.143	422.25
701.588	469.95
702.032	519.95
702.476	503.85
702.92	479.15
703.364	492.25
703.808	636.35
704.252	1029.55
704.696	1429.35
705.14	1635.85
705.584	2080.55
706.027	1038.85
706.471	507.75
706.915	392.95
707.359	346.55
707.803	316.55
708.246	311.85
708.69	308.55
709.134	308.55
709.577	306.65
710.021	305.35
710.465	303.55
710.908	295.15
711.352	281.95
711.795	313.05
712.239	353.75
712.682	379.95
713.126	412.55
713.569	461.75
714.012	363.75
714.456	319.45
714.899	299.15
715.342	273.85
715.786	255.25
716.229	247.15
716.672	248.25
717.115	245.25
717.558	247.15
718.002	243.15
718.445	264.85
718.888	282.45
719.331	291.25
719.774	307.95
720.217	301.15
720.66	275.45
721.103	261.05
721.546	252.05
721.989	252.05
722.432	228.55
722.874	237.75
723.317	227.65
723.76	236.55
724.203	258.35
724.645	310.75
725.088	442.85
725.531	557.35
725.974	632.25
726.416	539.05
726.859	300.75
727.301	243.45
727.744	233.25
728.187	232.85
728.629	237.15
729.071	242.95
729.514	253.35
729.956	264.85
730.399	281.35
730.841	280.55
731.283	269.65
731.726	259.15
732.168	253.75
732.61	258.15
733.053	277.35
733.495	309.15
733.937	342.05
734.379	391.85
734.821	430.65
735.263	535.95
735.705	834.35
736.148	1583.55
736.59	2540.45
737.032	2967.05
737.474	2404.65
737.916	794.75
738.357	416.35
738.799	324.95
739.241	294.85
739.683	278.05
740.125	289.25
740.567	290.15
741.008	312.95
741.45	312.95
741.892	315.55
742.334	337.85
742.775	354.75
743.217	337.95
743.658	257.85
744.1	249.85
744.542	257.15
744.983	311.45
745.425	340.25
745.866	336.45
746.307	281.55
746.749	275.25
747.19	322.85
747.632	451.15
748.073	890.65
748.514	1857.35
748.956	2799.75
749.397	3510.85
749.838	2902.65
750.279	2897.75
750.72	1458.55
751.162	534.15
751.603	319.95
752.044	249.85
752.485	215.55
752.926	208.35
753.367	204.05
753.808	196.05
754.249	185.35
754.69	186.05
755.131	180.45
755.572	179.15
756.013	176.85
756.453	181.95
756.894	187.95
757.335	183.85
757.776	193.25
758.216	191.55
758.657	195.55
759.098	201.85
759.538	222.45
759.979	261.25
760.42	368.25
760.86	707.45
761.301	1850.55
761.741	4395.95
762.182	6247.95
762.622	4373.75
763.063	1279.45
