Data from 20171114-ORNL-Ar_H_NY_Subt18_08-05-44-974.txt Node
Date: Tue Nov 14 08:05:44 EST 2017
User: Ender
Spectrometer: HR+D1039
Trigger mode: 0
Integration Time (sec): 2.730000E-2
Scans to average: 10
Electric dark correction enabled: true
Nonlinearity correction enabled: false
Boxcar width: 0
XAxis mode: Wavelengths
Number of Pixels in Spectrum: 2048
>>>>>Begin Spectral Data<<<<<
187.836	-4.51
188.309	-4.51
188.782	-4.51
189.255	3.89
189.728	-3.61
190.201	6.39
190.674	2.99
191.147	2.19
191.619	-11.31
192.092	4.79
192.565	1.29
193.038	3.29
193.511	-0.31
193.984	-2.41
194.456	-0.91
194.929	-2.61
195.402	1.29
195.874	-0.41
196.347	-2.71
196.82	-6.11
197.292	4.79
197.765	-4.11
198.237	-7.51
198.71	0.69
199.182	-1.31
199.655	3.19
200.127	1.79
200.6	-3.51
201.072	-8.11
201.544	-4.81
202.017	-0.71
202.489	1.09
202.961	0.79
203.433	-1.31
203.906	-4.61
204.378	-10.41
204.85	-5.31
205.322	-9.51
205.794	-6.41
206.266	-4.41
206.739	-9.71
207.211	-0.71
207.683	-6.01
208.155	-5.31
208.627	-4.81
209.099	-6.11
209.57	-6.81
210.042	-4.41
210.514	-3.71
210.986	-2.91
211.458	-7.41
211.93	-2.31
212.402	2.89
212.873	-9.11
213.345	-9.61
213.817	-14.81
214.288	-6.81
214.76	-11.91
215.232	-3.51
215.703	-2.51
216.175	-7.11
216.646	-7.81
217.118	-8.81
217.589	-4.91
218.061	-7.61
218.532	-2.31
219.004	-3.61
219.475	-7.21
219.946	-4.11
220.418	-5.21
220.889	2.99
221.36	-4.71
221.832	-1.61
222.303	-12.31
222.774	0.19
223.245	-4.61
223.717	-4.81
224.188	-5.81
224.659	-9.81
225.13	-7.21
225.601	-3.11
226.072	-2.31
226.543	-3.81
227.014	1.09
227.485	-2.11
227.956	-9.41
228.427	-2.81
228.898	3.79
229.369	3.89
229.839	-2.61
230.31	-6.11
230.781	1.29
231.252	-3.81
231.722	-3.41
232.193	-3.81
232.664	-4.51
233.135	1.09
233.605	1.09
234.076	-10.71
234.546	1.29
235.017	2.79
235.487	6.39
235.958	-7.81
236.428	-1.71
236.899	5.79
237.369	0.39
237.84	-10.21
238.31	-1.31
238.78	-3.11
239.251	-4.21
239.721	2.49
240.191	4.39
240.662	0.19
241.132	0.09
241.602	-7.51
242.072	-1.71
242.542	6.19
243.013	0.39
243.483	2.59
243.953	4.99
244.423	-6.31
244.893	-2.41
245.363	3.99
245.833	6.19
246.303	-3.01
246.773	5.99
247.243	2.59
247.712	-2.71
248.182	5.99
248.652	3.79
249.122	-1.61
249.592	9.59
250.061	21.39
250.531	35.79
251.001	18.69
251.471	25.19
251.94	23.39
252.41	7.49
252.879	-1.11
253.349	10.99
253.818	10.09
254.288	5.49
254.757	-0.31
255.227	1.69
255.696	-1.91
256.166	6.69
256.635	7.09
257.105	6.49
257.574	5.99
258.043	6.39
258.513	4.29
258.982	23.69
259.451	9.79
259.92	13.39
260.389	9.29
260.859	17.19
261.328	17.49
261.797	17.49
262.266	7.99
262.735	10.69
263.204	2.09
263.673	0.89
264.142	6.19
264.611	-4.71
265.08	3.79
265.549	2.09
266.018	9.19
266.487	3.79
266.955	-1.31
267.424	-1.61
267.893	7.89
268.362	-0.31
268.83	1.29
269.299	12.29
269.768	4.79
270.236	11.39
270.705	0.19
271.174	5.49
271.642	9.49
272.111	6.69
272.579	17.09
273.048	20.29
273.516	33.69
273.985	30.79
274.453	22.59
274.922	18.99
275.39	12.29
275.858	6.89
276.327	10.09
276.795	21.09
277.263	6.39
277.731	24.69
278.2	56.09
278.668	60.39
279.136	45.09
279.604	14.29
280.072	13.59
280.54	13.19
281.008	5.99
281.477	14.79
281.945	9.69
282.413	11.09
282.881	16.89
283.348	9.39
283.816	19.59
284.284	14.09
284.752	20.79
285.22	14.69
285.688	19.89
286.156	18.09
286.623	43.49
287.091	51.59
287.559	27.49
288.026	13.99
288.494	17.99
288.962	9.29
289.429	13.59
289.897	19.09
290.364	18.29
290.832	16.69
291.3	17.19
291.767	21.89
292.234	21.79
292.702	15.49
293.169	19.89
293.637	27.79
294.104	18.99
294.571	9.89
295.039	10.19
295.506	15.79
295.973	25.19
296.44	17.49
296.908	20.19
297.375	25.79
297.842	18.69
298.309	19.19
298.776	19.19
299.243	17.79
299.71	11.49
300.177	22.89
300.644	12.89
301.111	18.29
301.578	25.69
302.045	23.19
302.512	18.49
302.979	23.19
303.446	23.69
303.913	23.29
304.379	22.39
304.846	36.19
305.313	25.19
305.78	22.09
306.246	23.39
306.713	24.19
307.18	35.19
307.646	28.79
308.113	25.09
308.579	27.99
309.046	27.79
309.512	25.99
309.979	19.49
310.445	26.89
310.912	29.09
311.378	34.09
311.845	30.59
312.311	41.09
312.777	38.99
313.244	36.49
313.71	43.89
314.176	32.99
314.642	34.39
315.109	37.39
315.575	40.49
316.041	40.29
316.507	36.69
316.973	38.19
317.439	35.29
317.905	39.29
318.371	37.99
318.837	35.09
319.303	38.09
319.769	37.49
320.235	38.09
320.701	32.09
321.167	36.49
321.633	38.89
322.099	42.79
322.564	45.49
323.03	41.39
323.496	39.79
323.962	40.09
324.427	42.09
324.893	40.79
325.359	38.19
325.824	33.39
326.29	30.29
326.755	42.19
327.221	39.99
327.686	43.89
328.152	51.49
328.617	46.09
329.083	56.79
329.548	51.49
330.014	51.39
330.479	38.49
330.944	46.39
331.41	47.39
331.875	51.59
332.34	47.39
332.805	47.19
333.271	56.29
333.736	39.99
334.201	53.79
334.666	53.99
335.131	57.59
335.596	55.99
336.061	55.19
336.526	48.79
336.991	52.69
337.456	52.49
337.921	50.09
338.386	50.79
338.851	49.09
339.316	42.49
339.781	45.39
340.246	57.79
340.711	46.59
341.175	50.39
341.64	43.29
342.105	49.39
342.569	57.69
343.034	61.09
343.499	58.49
343.963	55.29
344.428	70.39
344.893	63.69
345.357	62.69
345.822	61.69
346.286	68.99
346.751	73.69
347.215	72.59
347.679	80.59
348.144	97.29
348.608	80.39
349.073	70.39
349.537	74.39
350.001	84.29
350.465	93.69
350.93	85.99
351.394	86.49
351.858	74.69
352.322	93.19
352.786	87.19
353.25	101.09
353.715	121.39
354.179	102.29
354.643	121.79
355.107	130.29
355.571	111.59
356.035	104.19
356.498	125.49
356.962	124.79
357.426	125.59
357.89	121.89
358.354	88.49
358.818	88.99
359.281	81.59
359.745	76.49
360.209	79.59
360.673	72.79
361.136	82.89
361.6	81.79
362.064	89.79
362.527	83.69
362.991	92.29
363.454	85.89
363.918	80.09
364.381	81.49
364.845	87.39
365.308	92.69
365.772	90.69
366.235	91.29
366.698	88.59
367.162	90.89
367.625	88.89
368.088	97.49
368.552	90.69
369.015	91.89
369.478	97.19
369.941	101.19
370.404	101.29
370.867	108.89
371.331	109.39
371.794	119.49
372.257	108.79
372.72	110.99
373.183	111.79
373.646	99.89
374.109	98.69
374.572	107.49
375.035	105.39
375.497	112.99
375.96	111.89
376.423	107.49
376.886	111.99
377.349	111.89
377.811	98.59
378.274	103.89
378.737	111.09
379.199	116.69
379.662	109.99
380.125	124.69
380.587	121.39
381.05	128.19
381.512	133.49
381.975	138.19
382.437	132.09
382.9	127.89
383.362	135.39
383.825	150.39
384.287	149.29
384.75	146.69
385.212	144.39
385.674	144.99
386.136	136.69
386.599	119.39
387.061	135.89
387.523	129.49
387.985	136.99
388.447	144.19
388.91	144.79
389.372	157.09
389.834	148.19
390.296	143.99
390.758	161.59
391.22	164.69
391.682	214.89
392.144	293.49
392.606	226.29
393.068	166.99
393.529	172.89
393.991	154.69
394.453	151.49
394.915	155.29
395.377	194.59
395.838	219.19
396.3	162.09
396.762	144.59
397.224	136.09
397.685	132.29
398.147	128.49
398.608	128.49
399.07	128.69
399.531	140.09
399.993	144.89
400.454	160.49
400.916	148.19
401.377	149.59
401.839	153.09
402.3	147.69
402.762	169.89
403.223	185.29
403.684	171.69
404.145	162.39
404.607	163.09
405.068	163.49
405.529	173.19
405.99	196.09
406.451	187.69
406.913	182.19
407.374	163.99
407.835	161.69
408.296	170.19
408.757	172.39
409.218	187.79
409.679	178.79
410.14	177.39
410.601	178.19
411.062	187.79
411.522	193.99
411.983	192.09
412.444	174.69
412.905	186.39
413.366	191.89
413.826	200.29
414.287	222.59
414.748	263.29
415.208	249.09
415.669	214.79
416.13	212.19
416.59	205.79
417.051	216.89
417.511	224.19
417.972	240.29
418.432	257.49
418.893	293.69
419.353	256.09
419.814	197.59
420.274	181.39
420.734	178.59
421.195	200.69
421.655	194.39
422.115	198.49
422.576	198.99
423.036	197.29
423.496	213.99
423.956	216.79
424.416	238.59
424.876	273.09
425.336	268.69
425.797	263.89
426.257	257.69
426.717	253.29
427.177	238.49
427.637	231.79
428.097	237.69
428.556	249.39
429.016	264.39
429.476	270.49
429.936	283.99
430.396	284.39
430.856	300.19
431.315	324.39
431.775	355.89
432.235	389.59
432.694	361.69
433.154	373.09
433.614	398.89
434.073	346.29
434.533	293.09
434.993	276.69
435.452	291.69
435.912	301.89
436.371	291.59
436.83	296.29
437.29	272.89
437.749	254.09
438.209	256.59
438.668	278.59
439.127	293.39
439.587	268.89
440.046	247.89
440.505	262.79
440.964	286.39
441.424	327.19
441.883	316.09
442.342	266.39
442.801	233.49
443.26	225.59
443.719	228.99
444.178	232.29
444.637	215.39
445.096	224.79
445.555	231.39
446.014	229.99
446.473	226.89
446.932	235.89
447.391	226.09
447.849	230.29
448.308	220.89
448.767	227.59
449.226	238.69
449.685	246.49
450.143	256.99
450.602	239.09
451.061	232.59
451.519	243.49
451.978	236.99
452.436	237.59
452.895	246.19
453.353	263.59
453.812	243.69
454.27	246.99
454.729	242.49
455.187	248.69
455.646	246.79
456.104	252.69
456.562	259.19
457.021	275.59
457.479	267.29
457.937	273.19
458.395	266.49
458.854	247.39
459.312	258.19
459.77	277.79
460.228	269.19
460.686	241.89
461.144	255.19
461.602	245.19
462.06	243.79
462.518	264.79
462.976	259.39
463.434	265.99
463.892	267.59
464.35	278.29
464.808	290.09
465.266	265.49
465.724	270.79
466.181	275.59
466.639	276.19
467.097	298.59
467.555	305.09
468.012	308.29
468.47	312.99
468.928	337.29
469.385	344.89
469.843	351.49
470.3	361.19
470.758	372.29
471.215	386.29
471.673	413.99
472.13	415.09
472.588	426.49
473.045	373.39
473.503	377.29
473.96	404.69
474.417	410.29
474.875	447.89
475.332	482.59
475.789	467.79
476.246	476.99
476.704	496.79
477.161	519.39
477.618	535.89
478.075	570.89
478.532	630.29
478.989	700.79
479.446	823.19
479.903	809.69
480.36	820.59
480.817	886.29
481.274	996.89
481.731	1112.99
482.188	1189.79
482.645	1320.89
483.102	1430.59
483.558	1579.89
484.015	1630.99
484.472	1595.69
484.929	1565.09
485.385	1501.59
485.842	1469.79
486.299	1400.49
486.755	1322.39
487.212	1124.59
487.668	956.49
488.125	870.99
488.582	797.99
489.038	768.09
489.494	734.79
489.951	706.39
490.407	688.39
490.864	666.69
491.32	662.29
491.776	656.29
492.233	659.99
492.689	631.59
493.145	620.49
493.602	618.09
494.058	632.69
494.514	631.49
494.97	658.39
495.426	657.39
495.882	635.59
496.338	627.89
496.794	634.89
497.251	636.29
497.707	653.19
498.163	654.49
498.618	659.39
499.074	663.69
499.53	696.09
499.986	693.49
500.442	669.49
500.898	634.79
501.354	632.79
501.809	650.59
502.265	654.29
502.721	675.69
503.177	684.89
503.632	675.99
504.088	687.79
504.543	721.59
504.999	726.89
505.455	669.39
505.91	639.89
506.366	655.39
506.821	628.99
507.277	632.19
507.732	640.09
508.187	642.09
508.643	646.39
509.098	650.39
509.553	662.89
510.009	689.69
510.464	687.89
510.919	698.79
511.375	714.49
511.83	728.79
512.285	743.29
512.74	782.89
513.195	793.19
513.65	783.89
514.105	782.39
514.56	797.99
515.015	807.79
515.47	824.89
515.925	803.79
516.38	801.29
516.835	795.09
517.29	798.19
517.745	793.69
518.2	781.49
518.655	770.49
519.109	759.89
519.564	755.79
520.019	739.39
520.474	743.19
520.928	750.39
521.383	737.49
521.838	726.19
522.292	724.19
522.747	719.79
523.201	717.29
523.656	705.19
524.11	705.69
524.565	709.19
525.019	710.29
525.474	726.49
525.928	712.59
526.382	705.09
526.837	708.49
527.291	708.79
527.745	717.89
528.2	708.29
528.654	704.89
529.108	696.29
529.562	702.39
530.016	707.99
530.47	702.69
530.925	704.09
531.379	711.99
531.833	716.39
532.287	716.29
532.741	715.89
533.195	726.19
533.649	723.29
534.103	731.79
534.556	725.99
535.01	726.79
535.464	726.59
535.918	733.49
536.372	733.89
536.826	726.89
537.279	711.59
537.733	728.79
538.187	729.99
538.64	727.09
539.094	728.99
539.548	737.09
540.001	735.09
540.455	742.19
540.908	748.59
541.362	755.19
541.815	761.29
542.269	781.99
542.722	786.39
543.175	777.99
543.629	778.79
544.082	813.49
544.536	802.59
544.989	798.59
545.442	805.59
545.895	797.79
546.349	793.39
546.802	806.59
547.255	812.89
547.708	817.79
548.161	829.99
548.614	831.09
549.067	843.59
549.52	829.99
549.973	822.09
550.426	816.29
550.879	800.89
551.332	812.59
551.785	814.79
552.238	817.79
552.691	820.89
553.144	846.69
553.596	868.19
554.049	880.59
554.502	914.19
554.955	928.59
555.407	934.19
555.86	925.89
556.313	912.89
556.765	896.09
557.218	898.19
557.67	892.69
558.123	897.59
558.576	885.19
559.028	884.29
559.48	901.49
559.933	873.39
560.385	845.89
560.838	823.09
561.29	789.19
561.742	784.69
562.195	784.89
562.647	771.49
563.099	776.09
563.551	780.29
564.004	788.39
564.456	785.29
564.908	774.39
565.36	760.89
565.812	742.59
566.264	741.19
566.716	734.79
567.168	724.09
567.62	731.99
568.072	711.59
568.524	712.89
568.976	697.99
569.428	685.89
569.88	675.99
570.332	686.89
570.784	685.19
571.235	690.99
571.687	695.99
572.139	715.79
572.59	719.29
573.042	714.69
573.494	715.19
573.945	717.49
574.397	694.69
574.849	690.39
575.3	700.09
575.752	689.89
576.203	680.59
576.655	692.79
577.106	673.69
577.557	679.49
578.009	677.29
578.46	665.79
578.912	673.19
579.363	678.09
579.814	670.09
580.265	667.99
580.717	675.29
581.168	664.49
581.619	688.29
582.07	682.09
582.521	685.49
582.972	675.29
583.423	687.69
583.875	682.19
584.326	706.19
584.777	740.19
585.227	818.79
585.678	907.59
586.129	991.99
586.58	1064.99
587.031	1135.89
587.482	1299.79
587.933	1479.99
588.384	1290.79
588.834	970.29
589.285	808.69
589.736	784.79
590.186	777.29
590.637	764.89
591.088	740.99
591.538	734.99
591.989	731.19
592.439	730.79
592.89	720.69
593.34	714.79
593.791	721.59
594.241	705.09
594.692	699.89
595.142	698.79
595.593	702.39
596.043	708.09
596.493	713.59
596.943	716.19
597.394	722.99
597.844	733.09
598.294	735.69
598.744	750.59
599.195	776.09
599.645	815.59
600.095	852.19
600.545	915.49
600.995	964.79
601.445	1025.19
601.895	1084.69
602.345	1133.19
602.795	1110.39
603.245	1060.19
603.695	1009.69
604.145	954.39
604.594	898.19
605.044	857.69
605.494	807.09
605.944	756.09
606.393	740.29
606.843	729.39
607.293	731.19
607.743	724.69
608.192	743.59
608.642	756.29
609.091	767.99
609.541	773.19
609.99	770.99
610.44	764.69
610.889	716.99
611.339	701.59
611.788	688.09
612.238	710.19
612.687	723.69
613.136	718.69
613.586	735.69
614.035	735.89
614.484	753.79
614.933	758.59
615.383	748.39
615.832	737.19
616.281	721.19
616.73	687.89
617.179	664.09
617.628	648.59
618.077	628.79
618.526	619.59
618.975	616.29
619.424	616.49
619.873	611.99
620.322	613.89
620.771	605.59
621.22	605.49
621.669	595.49
622.118	584.89
622.567	580.19
623.015	562.19
623.464	572.79
623.913	548.59
624.361	552.39
624.81	552.79
625.259	552.19
625.707	550.29
626.156	558.89
626.604	567.49
627.053	557.09
627.501	564.99
627.95	571.19
628.398	573.99
628.847	555.09
629.295	558.69
629.744	571.19
630.192	564.19
630.64	560.69
631.089	564.79
631.537	565.39
631.985	570.49
632.433	599.49
632.881	601.09
633.33	644.99
633.778	631.19
634.226	554.99
634.674	562.59
635.122	569.89
635.57	581.19
636.018	611.99
636.466	584.79
636.914	550.79
637.362	569.99
637.81	574.19
638.258	568.49
638.705	576.69
639.153	596.79
639.601	614.19
640.049	641.19
640.497	666.39
640.944	680.19
641.392	641.59
641.84	599.89
642.287	578.19
642.735	557.69
643.182	567.79
643.63	573.49
644.078	561.19
644.525	584.89
644.973	595.99
645.42	596.39
645.867	615.19
646.315	636.39
646.762	653.49
647.21	681.49
647.657	699.69
648.104	733.79
648.551	766.39
648.999	821.29
649.446	901.49
649.893	994.49
650.34	1152.89
650.787	1385.09
651.234	1708.19
651.682	2211.69
652.129	3043.39
652.576	4374.59
653.023	6423.89
653.47	8843.79
653.917	11108.59
654.363	12862.29
654.81	14244.39
655.257	13594.59
655.704	8907.49
656.151	5257.39
656.598	3387.39
657.044	2406.69
657.491	1857.59
657.938	1474.19
658.385	1229.49
658.831	1057.59
659.278	949.69
659.724	847.19
660.171	784.29
660.618	712.39
661.064	692.79
661.511	653.99
661.957	645.89
662.404	634.79
662.85	645.09
663.296	620.29
663.743	542.59
664.189	541.19
664.635	530.29
665.082	517.79
665.528	520.49
665.974	512.49
666.42	502.49
666.867	506.79
667.313	489.49
667.759	474.79
668.205	474.69
668.651	475.09
669.097	470.99
669.543	494.39
669.989	462.39
670.435	439.29
670.881	432.19
671.327	446.69
671.773	463.99
672.219	479.69
672.665	530.69
673.11	572.89
673.556	619.49
674.002	652.19
674.448	646.29
674.893	544.09
675.339	466.39
675.785	430.39
676.23	403.39
676.676	383.99
677.122	378.49
677.567	362.89
678.013	356.89
678.458	350.69
678.904	356.29
679.349	343.59
679.794	343.39
680.24	336.39
680.685	343.49
681.131	342.59
681.576	341.19
682.021	351.59
682.466	337.89
682.912	336.49
683.357	354.99
683.802	370.69
684.247	399.59
684.692	446.69
685.137	483.49
685.583	522.39
686.028	554.39
686.473	511.29
686.918	440.19
687.363	406.79
687.807	384.39
688.252	356.69
688.697	345.19
689.142	337.59
689.587	319.29
690.032	317.19
690.477	342.39
690.921	343.79
691.366	367.49
691.811	400.59
692.255	422.99
692.7	447.39
693.145	488.19
693.589	672.69
694.034	1083.79
694.478	1482.09
694.923	1707.09
695.367	2233.29
695.812	1167.59
696.256	480.09
696.701	355.59
697.145	334.19
697.59	317.49
698.034	316.69
698.478	320.19
698.922	318.09
699.367	311.19
699.811	322.99
700.255	347.59
700.699	375.89
701.143	414.39
701.588	465.59
702.032	510.89
702.476	502.59
702.92	483.89
703.364	480.69
703.808	612.09
704.252	995.29
704.696	1395.99
705.14	1632.79
705.584	2085.79
706.027	1035.69
706.471	508.59
706.915	383.39
707.359	339.79
707.803	311.79
708.246	304.89
708.69	294.79
709.134	308.39
709.577	300.19
710.021	308.29
710.465	298.09
710.908	294.79
711.352	290.89
711.795	303.79
712.239	337.69
712.682	367.19
713.126	407.69
713.569	453.19
714.012	366.49
714.456	309.39
714.899	294.99
715.342	271.29
715.786	251.59
716.229	252.99
716.672	247.09
717.115	240.59
717.558	242.39
718.002	247.09
718.445	263.19
718.888	280.49
719.331	286.79
719.774	298.19
720.217	283.29
720.66	270.29
721.103	257.29
721.546	248.09
721.989	242.29
722.432	220.59
722.874	229.19
723.317	223.69
723.76	231.39
724.203	251.09
724.645	308.59
725.088	432.99
725.531	552.19
725.974	628.89
726.416	534.89
726.859	300.39
727.301	238.39
727.744	227.49
728.187	223.89
728.629	226.39
729.071	235.99
729.514	251.19
729.956	264.59
730.399	271.49
730.841	281.79
731.283	257.49
731.726	256.69
732.168	251.69
732.61	260.89
733.053	275.89
733.495	303.89
733.937	334.19
734.379	384.49
734.821	420.59
735.263	524.99
735.705	794.19
736.148	1500.29
736.59	2475.19
737.032	2980.99
737.474	2446.29
737.916	790.79
738.357	417.09
738.799	321.59
739.241	287.39
739.683	279.39
740.125	284.69
740.567	287.29
741.008	306.59
741.45	308.59
741.892	307.79
742.334	329.19
742.775	348.59
743.217	335.29
743.658	264.79
744.1	247.99
744.542	252.69
744.983	298.69
745.425	338.29
745.866	329.89
746.307	278.59
746.749	269.29
747.19	313.79
747.632	433.59
748.073	827.99
748.514	1773.39
748.956	2756.69
749.397	3455.99
749.838	2867.79
750.279	2893.09
750.72	1458.29
751.162	529.19
751.603	313.59
752.044	239.09
752.485	205.49
752.926	199.09
753.367	198.69
753.808	188.09
754.249	184.79
754.69	175.09
755.131	170.19
755.572	182.39
756.013	176.89
756.453	174.89
756.894	181.19
757.335	181.79
757.776	186.89
758.216	180.69
758.657	185.99
759.098	191.39
759.538	219.59
759.979	257.39
760.42	359.39
760.86	659.39
761.301	1717.29
761.741	4207.39
762.182	6287.19
