Data from 20171114-ORNL-Ar_H_NY_Subt18_08-05-51-253.txt Node
Date: Tue Nov 14 08:05:51 EST 2017
User: Ender
Spectrometer: HR+D1039
Trigger mode: 0
Integration Time (sec): 2.730000E-2
Scans to average: 10
Electric dark correction enabled: true
Nonlinearity correction enabled: false
Boxcar width: 0
XAxis mode: Wavelengths
Number of Pixels in Spectrum: 2048
>>>>>Begin Spectral Data<<<<<
187.836	-0.19
188.309	-0.19
188.782	-0.19
189.255	0.21
189.728	-1.19
190.201	0.51
190.674	1.01
191.147	2.81
191.619	-5.69
192.092	-0.49
192.565	3.11
193.038	0.21
193.511	-2.19
193.984	3.01
194.456	-3.89
194.929	2.51
195.402	-0.59
195.874	0.91
196.347	-3.89
196.82	-5.89
197.292	4.41
197.765	2.81
198.237	-2.79
198.71	-1.49
199.182	-1.39
199.655	0.31
200.127	1.91
200.6	-2.49
201.072	-4.89
201.544	-6.59
202.017	3.21
202.489	3.71
202.961	-0.79
203.433	-1.49
203.906	-5.99
204.378	-7.89
204.85	-2.69
205.322	-9.19
205.794	2.51
206.266	-1.79
206.739	-7.89
207.211	3.51
207.683	-9.79
208.155	-6.69
208.627	-4.39
209.099	-7.29
209.57	-9.99
210.042	-5.29
210.514	1.31
210.986	-0.79
211.458	-10.49
211.93	-4.69
212.402	0.21
212.873	-0.99
213.345	-12.39
213.817	-9.39
214.288	-6.39
214.76	-12.19
215.232	-4.89
215.703	1.01
216.175	-1.79
216.646	-6.99
217.118	-4.49
217.589	-2.49
218.061	0.61
218.532	-7.69
219.004	-7.29
219.475	-1.79
219.946	0.41
220.418	-6.49
220.889	-1.29
221.36	3.11
221.832	-3.99
222.303	-6.99
222.774	1.61
223.245	-2.59
223.717	-2.89
224.188	-5.09
224.659	-4.89
225.13	-9.69
225.601	-2.89
226.072	0.21
226.543	5.41
227.014	0.21
227.485	-1.19
227.956	-5.49
228.427	-4.79
228.898	-1.49
229.369	9.11
229.839	-4.39
230.31	-5.39
230.781	5.01
231.252	-0.49
231.722	-3.79
232.193	2.91
232.664	4.41
233.135	2.31
233.605	2.01
234.076	0.51
234.546	-0.69
235.017	0.71
235.487	3.11
235.958	-1.79
236.428	-0.89
236.899	4.31
237.369	6.11
237.84	-7.19
238.31	2.81
238.78	-2.19
239.251	2.01
239.721	4.11
240.191	0.91
240.662	0.91
241.132	-2.19
241.602	-5.39
242.072	1.01
242.542	2.31
243.013	0.11
243.483	4.51
243.953	6.31
244.423	2.81
244.893	-0.59
245.363	8.61
245.833	3.71
246.303	-0.79
246.773	7.71
247.243	2.51
247.712	3.71
248.182	8.01
248.652	10.81
249.122	-1.19
249.592	12.31
250.061	18.91
250.531	30.31
251.001	19.81
251.471	22.31
251.94	24.61
252.41	5.51
252.879	-0.49
253.349	10.11
253.818	6.81
254.288	3.11
254.757	6.91
255.227	5.41
255.696	7.51
256.166	12.61
256.635	6.81
257.105	13.41
257.574	10.91
258.043	12.61
258.513	13.91
258.982	18.91
259.451	12.81
259.92	15.91
260.389	14.11
260.859	18.11
261.328	19.71
261.797	18.51
262.266	10.51
262.735	10.71
263.204	5.81
263.673	6.91
264.142	7.61
264.611	-2.49
265.08	-2.09
265.549	1.51
266.018	8.21
266.487	-0.19
266.955	-4.19
267.424	2.61
267.893	7.71
268.362	2.81
268.83	3.91
269.299	9.31
269.768	3.51
270.236	10.71
270.705	8.51
271.174	7.31
271.642	15.41
272.111	13.21
272.579	14.31
273.048	26.21
273.516	31.71
273.985	28.51
274.453	27.21
274.922	18.11
275.39	11.11
275.858	8.01
276.327	14.41
276.795	18.11
277.263	12.91
277.731	31.91
278.2	66.01
278.668	57.21
279.136	54.21
279.604	18.91
280.072	13.51
280.54	14.91
281.008	13.41
281.477	7.01
281.945	14.51
282.413	15.11
282.881	18.61
283.348	13.91
283.816	13.71
284.284	21.01
284.752	20.41
285.22	11.81
285.688	19.31
286.156	17.61
286.623	48.41
287.091	51.81
287.559	30.61
288.026	21.71
288.494	26.31
288.962	10.51
289.429	13.41
289.897	21.01
290.364	11.81
290.832	21.41
291.3	16.11
291.767	24.31
292.234	17.81
292.702	12.21
293.169	19.81
293.637	22.41
294.104	25.31
294.571	9.61
295.039	14.41
295.506	20.61
295.973	20.51
296.44	18.51
296.908	27.01
297.375	21.81
297.842	26.21
298.309	19.81
298.776	9.71
299.243	24.01
299.71	16.81
300.177	22.41
300.644	17.31
301.111	21.51
301.578	24.51
302.045	18.01
302.512	23.51
302.979	27.81
303.446	27.71
303.913	24.61
304.379	22.71
304.846	28.21
305.313	29.41
305.78	22.41
306.246	27.11
306.713	30.71
307.18	26.81
307.646	29.91
308.113	21.01
308.579	24.71
309.046	26.41
309.512	31.91
309.979	21.21
310.445	30.31
310.912	32.11
311.378	36.41
311.845	28.91
312.311	32.41
312.777	37.71
313.244	34.31
313.71	40.71
314.176	32.51
314.642	33.01
315.109	34.31
315.575	38.21
316.041	47.81
316.507	36.11
316.973	42.61
317.439	33.41
317.905	42.11
318.371	31.71
318.837	33.81
319.303	33.21
319.769	38.71
320.235	36.91
320.701	31.61
321.167	44.81
321.633	37.31
322.099	41.91
322.564	45.81
323.03	42.31
323.496	38.01
323.962	43.81
324.427	37.31
324.893	50.61
325.359	45.61
325.824	34.11
326.29	38.41
326.755	40.41
327.221	47.01
327.686	41.21
328.152	44.31
328.617	38.81
329.083	43.11
329.548	53.21
330.014	49.61
330.479	41.71
330.944	48.61
331.41	46.41
331.875	45.11
332.34	42.31
332.805	48.61
333.271	49.81
333.736	47.71
334.201	54.61
334.666	56.71
335.131	59.81
335.596	52.61
336.061	51.61
336.526	44.41
336.991	55.31
337.456	61.51
337.921	54.81
338.386	48.81
338.851	51.51
339.316	55.11
339.781	47.91
340.246	52.81
340.711	52.31
341.175	55.41
341.64	45.91
342.105	48.41
342.569	56.61
343.034	65.31
343.499	56.11
343.963	52.61
344.428	70.41
344.893	65.91
345.357	65.81
345.822	61.51
346.286	73.31
346.751	78.61
347.215	76.21
347.679	83.31
348.144	102.81
348.608	86.21
349.073	78.51
349.537	83.41
350.001	90.61
350.465	92.11
350.93	88.41
351.394	89.71
351.858	76.61
352.322	91.51
352.786	86.41
353.25	104.71
353.715	116.11
354.179	98.51
354.643	125.51
355.107	133.61
355.571	112.71
356.035	115.61
356.498	122.91
356.962	134.51
357.426	132.11
357.89	124.51
358.354	92.01
358.818	84.71
359.281	77.31
359.745	82.01
360.209	81.51
360.673	81.91
361.136	88.01
361.6	93.51
362.064	84.21
362.527	91.31
362.991	89.61
363.454	84.41
363.918	79.21
364.381	83.71
364.845	87.91
365.308	85.11
365.772	93.61
366.235	86.31
366.698	89.91
367.162	94.21
367.625	92.61
368.088	94.61
368.552	91.81
369.015	97.81
369.478	103.21
369.941	109.51
370.404	97.01
370.867	110.51
371.331	112.51
371.794	124.91
372.257	113.61
372.72	120.81
373.183	112.11
373.646	106.81
374.109	107.71
374.572	109.11
375.035	114.31
375.497	115.61
375.96	108.41
376.423	102.11
376.886	111.61
377.349	117.01
377.811	104.51
378.274	115.41
378.737	109.51
379.199	112.61
379.662	116.71
380.125	123.41
380.587	123.21
381.05	123.51
381.512	129.01
381.975	133.21
382.437	138.31
382.9	125.41
383.362	133.81
383.825	146.71
384.287	156.81
384.75	145.01
385.212	146.31
385.674	145.61
386.136	140.21
386.599	130.81
387.061	133.71
387.523	133.91
387.985	140.01
388.447	144.71
388.91	149.11
389.372	167.31
389.834	159.91
390.296	151.51
390.758	158.81
391.22	166.81
391.682	214.41
392.144	295.01
392.606	238.81
393.068	176.41
393.529	173.41
393.991	156.71
394.453	157.11
394.915	161.61
395.377	198.41
395.838	217.31
396.3	156.51
396.762	148.01
397.224	138.81
397.685	136.81
398.147	137.51
398.608	132.71
399.07	137.81
399.531	141.91
399.993	155.71
400.454	157.21
400.916	149.91
401.377	151.31
401.839	154.71
402.3	146.81
402.762	167.21
403.223	185.61
403.684	179.01
404.145	171.91
404.607	166.91
405.068	172.11
405.529	177.41
405.99	198.11
406.451	181.21
406.913	172.31
407.374	169.11
407.835	169.71
408.296	175.91
408.757	176.71
409.218	192.01
409.679	181.81
410.14	179.21
410.601	182.61
411.062	188.41
411.522	201.61
411.983	194.51
412.444	180.31
412.905	186.91
413.366	190.51
413.826	195.51
414.287	229.21
414.748	270.11
415.208	250.41
415.669	217.11
416.13	216.71
416.59	206.11
417.051	214.91
417.511	220.91
417.972	240.41
418.432	259.71
418.893	305.11
419.353	261.51
419.814	202.41
420.274	187.91
420.734	189.61
421.195	202.41
421.655	202.91
422.115	202.21
422.576	200.31
423.036	204.71
423.496	214.61
423.956	219.41
424.416	236.81
424.876	281.91
425.336	272.01
425.797	271.21
426.257	260.21
426.717	253.61
427.177	236.21
427.637	235.41
428.097	245.01
428.556	252.91
429.016	280.01
429.476	270.31
429.936	285.91
430.396	290.41
430.856	297.81
431.315	332.01
431.775	361.41
432.235	397.81
432.694	373.21
433.154	373.01
433.614	406.01
434.073	348.01
434.533	292.81
434.993	277.81
435.452	293.01
435.912	303.91
436.371	300.11
436.83	289.41
437.29	279.61
437.749	259.31
438.209	260.31
438.668	283.01
439.127	298.41
439.587	267.41
440.046	256.21
440.505	267.71
440.964	282.71
441.424	334.01
441.883	328.21
442.342	272.01
442.801	236.21
443.26	219.21
443.719	229.11
444.178	230.41
444.637	217.71
445.096	226.01
445.555	227.61
446.014	227.81
446.473	233.51
446.932	237.91
447.391	231.71
447.849	237.71
448.308	228.61
448.767	229.01
449.226	244.61
449.685	243.91
450.143	251.91
450.602	251.31
451.061	236.01
451.519	241.61
451.978	234.71
452.436	245.21
452.895	244.91
453.353	266.81
453.812	252.51
454.27	246.31
454.729	247.31
455.187	238.61
455.646	252.81
456.104	246.61
456.562	257.61
457.021	279.01
457.479	273.71
457.937	281.21
458.395	273.91
458.854	256.51
459.312	270.41
459.77	285.91
460.228	266.41
460.686	246.11
461.144	256.01
461.602	256.41
462.06	250.61
462.518	256.81
462.976	265.51
463.434	262.41
463.892	273.91
464.35	283.21
464.808	298.81
465.266	275.91
465.724	279.11
466.181	281.31
466.639	280.21
467.097	303.91
467.555	301.81
468.012	309.21
468.47	316.61
468.928	341.61
469.385	357.01
469.843	366.81
470.3	358.81
470.758	380.51
471.215	394.51
471.673	426.91
472.13	415.81
472.588	430.91
473.045	388.41
473.503	387.41
473.96	405.91
474.417	411.71
474.875	449.21
475.332	484.41
475.789	476.61
476.246	480.11
476.704	493.41
477.161	524.61
477.618	540.41
478.075	588.41
478.532	634.11
478.989	714.41
479.446	828.91
479.903	800.41
480.36	843.11
480.817	888.91
481.274	982.11
481.731	1105.81
482.188	1192.71
482.645	1332.91
483.102	1455.21
483.558	1590.51
484.015	1631.91
484.472	1621.91
484.929	1572.21
485.385	1510.31
485.842	1462.81
486.299	1405.11
486.755	1343.81
487.212	1129.01
487.668	957.21
488.125	884.71
488.582	807.21
489.038	768.81
489.494	730.21
489.951	707.81
490.407	695.01
490.864	672.41
491.32	667.01
491.776	663.71
492.233	671.61
492.689	623.11
493.145	617.91
493.602	614.41
494.058	627.71
494.514	631.61
494.97	656.11
495.426	667.01
495.882	654.01
496.338	629.41
496.794	637.81
497.251	633.91
497.707	660.61
498.163	666.21
498.618	670.41
499.074	670.01
499.53	703.71
499.986	699.01
500.442	671.71
500.898	650.31
501.354	641.81
501.809	652.11
502.265	658.01
502.721	680.61
503.177	691.51
503.632	686.21
504.088	682.31
504.543	726.41
504.999	736.71
505.455	674.41
505.91	648.51
506.366	659.81
506.821	645.61
507.277	644.51
507.732	638.71
508.187	642.71
508.643	653.31
509.098	652.51
509.553	676.91
510.009	690.01
510.464	690.61
510.919	694.81
511.375	710.61
511.83	725.91
512.285	740.21
512.74	777.91
513.195	808.41
513.65	788.21
514.105	784.81
514.56	788.61
515.015	819.01
515.47	824.91
515.925	807.91
516.38	821.91
516.835	814.71
517.29	803.61
517.745	790.61
518.2	789.71
518.655	767.41
519.109	769.71
519.564	763.11
520.019	750.01
520.474	751.71
520.928	740.91
521.383	741.31
521.838	731.01
522.292	731.01
522.747	726.91
523.201	719.61
523.656	724.41
524.11	718.21
524.565	715.31
525.019	703.41
525.474	720.71
525.928	722.01
526.382	716.81
526.837	715.81
527.291	725.91
527.745	719.71
528.2	720.81
528.654	711.31
529.108	711.41
529.562	714.31
530.016	714.71
530.47	702.71
530.925	709.11
531.379	714.21
531.833	720.21
532.287	728.01
532.741	722.81
533.195	716.71
533.649	730.61
534.103	736.91
534.556	730.61
535.01	731.11
535.464	729.31
535.918	732.31
536.372	734.51
536.826	734.11
537.279	721.11
537.733	735.01
538.187	734.31
538.64	728.91
539.094	734.01
539.548	750.61
540.001	740.11
540.455	745.21
540.908	745.61
541.362	755.81
541.815	759.61
542.269	771.21
542.722	763.31
543.175	781.31
543.629	787.81
544.082	803.51
544.536	810.31
544.989	794.11
545.442	814.41
545.895	801.41
546.349	808.41
546.802	807.91
547.255	815.71
547.708	834.41
548.161	839.01
548.614	833.71
549.067	857.01
549.52	837.41
549.973	836.71
550.426	823.31
550.879	815.21
551.332	814.71
551.785	832.71
552.238	830.11
552.691	836.21
553.144	842.41
553.596	872.31
554.049	895.51
554.502	918.21
554.955	936.21
555.407	922.01
555.86	911.31
556.313	907.61
556.765	905.51
557.218	903.41
557.67	899.01
558.123	891.81
558.576	897.71
559.028	894.21
559.48	905.81
559.933	887.91
560.385	853.61
560.838	824.91
561.29	803.11
561.742	792.91
562.195	781.31
562.647	776.01
563.099	794.61
563.551	793.41
564.004	810.21
564.456	788.71
564.908	772.91
565.36	759.31
565.812	752.91
566.264	733.21
566.716	734.71
567.168	721.81
567.62	733.71
568.072	706.11
568.524	701.01
568.976	702.81
569.428	687.71
569.88	687.41
570.332	688.81
570.784	690.61
571.235	699.51
571.687	713.21
572.139	714.21
572.59	724.11
573.042	716.51
573.494	721.71
573.945	727.91
574.397	699.21
574.849	704.91
575.3	706.31
575.752	700.31
576.203	689.71
576.655	699.21
577.106	682.81
577.557	674.01
578.009	678.91
578.46	664.11
578.912	679.31
579.363	678.21
579.814	681.61
580.265	671.61
580.717	676.61
581.168	688.31
581.619	685.11
582.07	689.01
582.521	682.81
582.972	685.41
583.423	684.71
583.875	692.91
584.326	708.21
584.777	759.51
585.227	821.01
585.678	914.41
586.129	998.01
586.58	1074.41
587.031	1154.71
587.482	1317.51
587.933	1482.71
588.384	1307.01
588.834	989.21
589.285	808.21
589.736	796.01
590.186	791.31
590.637	770.31
591.088	753.41
591.538	747.31
591.989	740.21
592.439	742.21
592.89	718.71
593.34	718.61
593.791	714.71
594.241	709.21
594.692	721.01
595.142	707.61
595.593	703.51
596.043	717.71
596.493	719.81
596.943	721.01
597.394	724.71
597.844	715.91
598.294	736.01
598.744	745.41
599.195	784.91
599.645	826.21
600.095	860.41
600.545	931.51
600.995	981.81
601.445	1018.61
601.895	1096.91
602.345	1139.51
602.795	1118.71
603.245	1079.51
603.695	1021.11
604.145	967.11
604.594	929.31
605.044	872.21
605.494	810.01
605.944	762.51
606.393	738.91
606.843	727.21
607.293	736.31
607.743	733.61
608.192	749.61
608.642	765.01
609.091	763.31
609.541	774.51
609.99	776.21
610.44	767.41
610.889	720.41
611.339	712.21
611.788	687.81
612.238	702.11
612.687	722.41
613.136	726.21
613.586	740.31
614.035	743.01
614.484	754.11
614.933	754.31
615.383	754.71
615.832	738.01
616.281	730.51
616.73	684.71
617.179	676.91
617.628	653.41
618.077	633.31
618.526	625.81
618.975	621.11
619.424	624.71
619.873	616.61
620.322	618.21
620.771	610.11
621.22	605.71
621.669	595.31
622.118	589.91
622.567	587.81
623.015	566.51
623.464	579.21
623.913	558.31
624.361	551.61
624.81	558.41
625.259	561.51
625.707	550.81
626.156	553.21
626.604	569.81
627.053	566.31
627.501	565.91
627.95	568.41
628.398	579.81
628.847	564.41
629.295	569.91
629.744	575.71
630.192	565.71
630.64	567.81
631.089	571.91
631.537	576.81
631.985	575.01
632.433	601.61
632.881	604.21
633.33	661.71
633.778	643.61
634.226	562.41
634.674	579.51
635.122	588.71
635.57	599.41
636.018	622.81
636.466	579.61
636.914	555.11
637.362	572.71
637.81	569.51
638.258	580.41
638.705	577.41
639.153	600.51
639.601	614.61
640.049	646.11
640.497	669.31
640.944	697.41
641.392	650.61
641.84	617.61
642.287	595.01
642.735	570.01
643.182	567.51
643.63	573.01
644.078	570.71
644.525	597.11
644.973	588.31
645.42	593.41
645.867	621.61
646.315	642.81
646.762	661.31
647.21	698.91
647.657	715.01
648.104	742.51
648.551	764.21
648.999	830.21
649.446	909.61
649.893	1003.11
650.34	1141.31
650.787	1374.71
651.234	1717.11
651.682	2236.11
652.129	3049.51
652.576	4396.21
653.023	6486.21
653.47	8855.71
653.917	11132.71
654.363	12887.31
654.81	14288.81
655.257	13582.41
655.704	8882.81
656.151	5248.01
656.598	3408.71
657.044	2405.91
657.491	1868.01
657.938	1480.21
658.385	1241.11
658.831	1074.21
659.278	948.01
659.724	853.61
660.171	790.61
660.618	720.51
661.064	689.31
661.511	664.11
661.957	658.71
662.404	640.41
662.85	643.21
663.296	627.21
663.743	562.41
664.189	526.61
664.635	529.71
665.082	522.61
665.528	531.41
665.974	519.31
666.42	506.41
666.867	494.81
667.313	490.21
667.759	473.81
668.205	480.61
668.651	483.01
669.097	480.41
669.543	493.71
669.989	471.81
670.435	454.11
670.881	442.11
671.327	453.41
671.773	461.81
672.219	480.01
672.665	549.41
673.11	578.71
673.556	623.61
674.002	661.61
674.448	655.41
674.893	542.61
675.339	469.81
675.785	443.51
676.23	418.31
676.676	387.91
677.122	378.51
677.567	368.31
678.013	370.71
678.458	362.81
678.904	361.11
679.349	338.21
679.794	349.91
680.24	348.31
680.685	348.91
681.131	347.31
681.576	343.11
682.021	347.51
682.466	341.01
682.912	341.71
683.357	346.51
683.802	381.01
684.247	407.01
684.692	440.91
685.137	486.11
685.583	517.91
686.028	554.81
686.473	510.01
686.918	447.41
687.363	412.01
687.807	390.71
688.252	359.31
688.697	351.51
689.142	333.01
689.587	337.51
690.032	333.21
690.477	337.61
690.921	346.71
691.366	385.11
691.811	403.61
692.255	426.61
692.7	448.41
693.145	487.11
693.589	664.41
694.034	1099.41
694.478	1512.91
694.923	1717.81
695.367	2245.41
695.812	1175.61
696.256	488.41
696.701	373.41
697.145	335.51
697.59	326.91
698.034	322.31
698.478	327.01
698.922	320.21
699.367	325.81
699.811	331.61
700.255	351.21
700.699	381.01
701.143	417.01
701.588	470.51
702.032	510.51
702.476	512.11
702.92	485.11
703.364	491.71
703.808	612.01
704.252	1000.01
704.696	1420.41
705.14	1633.71
705.584	2103.41
706.027	1044.51
706.471	521.21
706.915	390.51
707.359	344.81
707.803	322.41
708.246	308.71
708.69	303.21
709.134	312.71
709.577	310.51
710.021	313.51
710.465	305.11
710.908	297.31
711.352	299.51
711.795	306.61
712.239	342.01
712.682	379.51
713.126	415.41
713.569	470.71
714.012	359.91
714.456	317.01
714.899	295.21
715.342	271.81
715.786	255.51
716.229	259.41
716.672	261.51
717.115	245.61
717.558	246.21
718.002	246.31
718.445	263.71
718.888	285.41
719.331	287.91
719.774	308.51
720.217	292.71
720.66	286.41
721.103	262.01
721.546	252.11
721.989	247.11
722.432	230.41
722.874	232.51
723.317	227.61
723.76	230.51
724.203	252.51
724.645	308.41
725.088	437.41
725.531	554.21
725.974	640.41
726.416	538.11
726.859	298.41
727.301	240.61
727.744	240.91
728.187	230.51
728.629	237.11
729.071	238.71
729.514	258.31
729.956	268.11
730.399	277.41
730.841	279.71
731.283	266.81
731.726	257.81
732.168	260.11
732.61	251.91
733.053	277.51
733.495	303.11
733.937	343.41
734.379	395.11
734.821	422.51
735.263	525.71
735.705	800.61
736.148	1514.91
736.59	2514.41
737.032	3004.31
737.474	2453.31
737.916	793.81
738.357	423.91
738.799	320.21
739.241	293.21
739.683	278.71
740.125	284.41
740.567	296.21
741.008	314.41
741.45	305.51
741.892	305.11
742.334	342.31
742.775	349.71
743.217	340.61
743.658	261.01
744.1	248.51
744.542	253.21
744.983	304.51
745.425	343.11
745.866	338.21
746.307	274.21
746.749	271.01
747.19	314.21
747.632	436.71
748.073	838.11
748.514	1792.61
748.956	2773.71
749.397	3467.31
749.838	2915.01
750.279	2919.71
750.72	1477.01
751.162	527.51
751.603	312.21
752.044	242.01
752.485	214.11
752.926	207.41
753.367	203.41
753.808	183.71
754.249	187.11
754.69	183.31
755.131	181.61
755.572	171.61
756.013	175.41
756.453	177.81
756.894	184.71
757.335	190.81
757.776	196.21
758.216	199.11
758.657	200.01
759.098	200.11
759.538	223.91
759.979	264.51
760.42	353.71
760.86	678.61
761.301	1730.11
761.741	4267.91
762.182	6358.81
