Data from 20171114-ORNL-Ar_H_NY_Subt18_08-07-36-894.txt Node
Date: Tue Nov 14 08:07:36 EST 2017
User: Ender
Spectrometer: HR+D1039
Trigger mode: 0
Integration Time (sec): 2.730000E-2
Scans to average: 10
Electric dark correction enabled: true
Nonlinearity correction enabled: false
Boxcar width: 0
XAxis mode: Wavelengths
Number of Pixels in Spectrum: 2048
>>>>>Begin Spectral Data<<<<<
187.836	-0.16
188.309	-0.16
188.782	-0.16
189.255	-2.16
189.728	-1.16
190.201	5.94
190.674	-0.56
191.147	1.94
191.619	-3.96
192.092	-2.06
192.565	3.04
193.038	3.24
193.511	-4.46
193.984	-0.26
194.456	-4.56
194.929	-1.86
195.402	5.14
195.874	1.94
196.347	-3.96
196.82	-5.56
197.292	5.34
197.765	-3.86
198.237	-2.56
198.71	-4.06
199.182	-2.76
199.655	2.14
200.127	-0.76
200.6	-4.76
201.072	1.04
201.544	-7.56
202.017	-4.66
202.489	0.34
202.961	5.34
203.433	-3.66
203.906	-4.86
204.378	-13.76
204.85	-6.26
205.322	-9.36
205.794	-3.46
206.266	-3.96
206.739	-7.26
207.211	1.54
207.683	-9.66
208.155	-5.86
208.627	-7.26
209.099	-3.36
209.57	-8.56
210.042	-4.36
210.514	-2.76
210.986	-0.16
211.458	-7.16
211.93	-3.06
212.402	0.94
212.873	-5.86
213.345	-4.36
213.817	-11.16
214.288	-8.96
214.76	-12.26
215.232	-0.06
215.703	-1.56
216.175	-7.36
216.646	-1.96
217.118	-7.06
217.589	-6.76
218.061	-0.26
218.532	-5.86
219.004	-4.76
219.475	-2.36
219.946	-0.86
220.418	-9.06
220.889	1.54
221.36	-1.96
221.832	-1.06
222.303	-9.46
222.774	-0.86
223.245	-11.86
223.717	-8.16
224.188	-5.46
224.659	-8.06
225.13	-7.46
225.601	-5.76
226.072	3.44
226.543	-3.36
227.014	-2.46
227.485	-6.66
227.956	-9.36
228.427	-6.46
228.898	2.34
229.369	4.24
229.839	-2.06
230.31	-4.66
230.781	-1.86
231.252	4.14
231.722	-5.16
232.193	0.04
232.664	-3.86
233.135	2.44
233.605	-2.26
234.076	-10.16
234.546	-0.96
235.017	4.94
235.487	2.64
235.958	7.24
236.428	-0.26
236.899	1.64
237.369	-5.46
237.84	-6.36
238.31	4.24
238.78	3.54
239.251	-5.56
239.721	2.04
240.191	-5.66
240.662	-1.56
241.132	-1.86
241.602	-6.16
242.072	-0.06
242.542	3.74
243.013	-1.86
243.483	1.34
243.953	7.54
244.423	0.04
244.893	-11.56
245.363	6.34
245.833	3.14
246.303	-0.86
246.773	8.04
247.243	4.34
247.712	5.14
248.182	7.74
248.652	1.84
249.122	-4.56
249.592	2.74
250.061	12.24
250.531	33.64
251.001	9.64
251.471	16.54
251.94	16.94
252.41	8.84
252.879	-1.56
253.349	15.04
253.818	7.94
254.288	4.64
254.757	5.54
255.227	-2.86
255.696	-1.36
256.166	0.44
256.635	1.04
257.105	4.64
257.574	3.14
258.043	3.84
258.513	9.64
258.982	8.14
259.451	6.94
259.92	11.94
260.389	4.84
260.859	11.54
261.328	0.74
261.797	17.44
262.266	7.74
262.735	6.54
263.204	4.84
263.673	2.14
264.142	3.64
264.611	-8.86
265.08	0.14
265.549	1.54
266.018	2.84
266.487	-7.86
266.955	-4.56
267.424	-3.66
267.893	6.94
268.362	2.54
268.83	6.34
269.299	10.04
269.768	4.14
270.236	7.34
270.705	-5.06
271.174	0.94
271.642	1.34
272.111	8.04
272.579	12.84
273.048	12.74
273.516	23.54
273.985	24.24
274.453	21.84
274.922	18.24
275.39	12.04
275.858	4.64
276.327	9.94
276.795	18.34
277.263	4.24
277.731	27.94
278.2	47.94
278.668	49.94
279.136	37.94
279.604	16.64
280.072	10.84
280.54	7.04
281.008	8.94
281.477	10.54
281.945	9.04
282.413	11.94
282.881	16.64
283.348	3.44
283.816	17.94
284.284	10.24
284.752	18.44
285.22	4.14
285.688	13.84
286.156	19.34
286.623	42.04
287.091	46.74
287.559	23.54
288.026	12.64
288.494	10.94
288.962	0.04
289.429	10.34
289.897	10.74
290.364	14.44
290.832	13.64
291.3	16.44
291.767	10.34
292.234	12.44
292.702	0.94
293.169	11.84
293.637	20.44
294.104	16.24
294.571	8.94
295.039	7.34
295.506	9.24
295.973	13.04
296.44	11.54
296.908	13.74
297.375	13.54
297.842	14.34
298.309	9.74
298.776	7.54
299.243	19.44
299.71	13.94
300.177	13.54
300.644	17.24
301.111	14.24
301.578	20.04
302.045	13.14
302.512	21.04
302.979	24.14
303.446	18.44
303.913	12.04
304.379	14.94
304.846	20.14
305.313	21.04
305.78	9.94
306.246	20.24
306.713	16.04
307.18	16.54
307.646	23.74
308.113	25.54
308.579	17.94
309.046	21.84
309.512	15.94
309.979	18.94
310.445	17.44
310.912	17.94
311.378	26.04
311.845	24.84
312.311	31.54
312.777	28.84
313.244	26.44
313.71	33.94
314.176	22.34
314.642	25.44
315.109	27.84
315.575	31.44
316.041	31.84
316.507	24.34
316.973	28.04
317.439	33.44
317.905	33.74
318.371	29.84
318.837	21.54
319.303	28.64
319.769	28.44
320.235	26.94
320.701	28.34
321.167	30.04
321.633	32.24
322.099	28.94
322.564	40.24
323.03	35.04
323.496	35.04
323.962	33.64
324.427	29.74
324.893	38.14
325.359	34.44
325.824	30.84
326.29	23.14
326.755	33.44
327.221	32.34
327.686	31.64
328.152	42.14
328.617	34.24
329.083	40.94
329.548	43.44
330.014	37.94
330.479	28.74
330.944	34.54
331.41	37.34
331.875	39.44
332.34	37.44
332.805	34.94
333.271	36.94
333.736	32.14
334.201	47.14
334.666	47.94
335.131	49.54
335.596	38.64
336.061	38.44
336.526	37.94
336.991	39.54
337.456	47.44
337.921	42.24
338.386	38.04
338.851	35.04
339.316	43.24
339.781	40.94
340.246	45.04
340.711	42.94
341.175	46.04
341.64	41.34
342.105	42.84
342.569	55.04
343.034	53.44
343.499	48.54
343.963	45.44
344.428	51.94
344.893	45.04
345.357	52.94
345.822	49.84
346.286	60.04
346.751	63.64
347.215	58.54
347.679	65.14
348.144	85.44
348.608	71.54
349.073	53.44
349.537	66.64
350.001	68.34
350.465	81.84
350.93	70.64
351.394	74.44
351.858	70.34
352.322	68.24
352.786	71.34
353.25	86.14
353.715	96.74
354.179	84.14
354.643	102.24
355.107	108.34
355.571	94.14
356.035	93.44
356.498	100.44
356.962	102.04
357.426	110.64
357.89	104.94
358.354	82.24
358.818	75.64
359.281	75.94
359.745	72.74
360.209	63.24
360.673	66.04
361.136	68.24
361.6	73.74
362.064	76.04
362.527	73.24
362.991	78.64
363.454	70.94
363.918	71.84
364.381	70.34
364.845	68.44
365.308	81.74
365.772	71.64
366.235	74.64
366.698	71.74
367.162	75.94
367.625	77.84
368.088	75.84
368.552	76.44
369.015	81.04
369.478	93.04
369.941	91.74
370.404	88.14
370.867	100.14
371.331	96.44
371.794	100.14
372.257	97.54
372.72	108.34
373.183	94.34
373.646	94.04
374.109	91.64
374.572	100.74
375.035	96.74
375.497	100.34
375.96	92.94
376.423	94.14
376.886	100.84
377.349	97.24
377.811	94.44
378.274	97.34
378.737	92.24
379.199	103.34
379.662	99.34
380.125	111.84
380.587	107.54
381.05	118.84
381.512	114.44
381.975	125.44
382.437	115.84
382.9	121.84
383.362	119.04
383.825	129.34
384.287	134.54
384.75	131.04
385.212	131.64
385.674	133.94
386.136	131.14
386.599	116.04
387.061	121.14
387.523	118.14
387.985	125.44
388.447	135.34
388.91	134.34
389.372	150.34
389.834	136.04
390.296	136.14
390.758	148.54
391.22	162.44
391.682	191.74
392.144	279.24
392.606	213.14
393.068	153.64
393.529	156.34
393.991	142.04
394.453	146.34
394.915	147.74
395.377	182.74
395.838	205.54
396.3	146.24
396.762	132.64
397.224	126.54
397.685	120.74
398.147	113.94
398.608	124.34
399.07	119.84
399.531	129.14
399.993	136.34
400.454	138.54
400.916	136.24
401.377	133.54
401.839	142.14
402.3	141.64
402.762	161.44
403.223	170.74
403.684	158.34
404.145	148.44
404.607	153.74
405.068	150.64
405.529	158.84
405.99	176.14
406.451	159.44
406.913	160.24
407.374	147.34
407.835	156.14
408.296	158.84
408.757	167.04
409.218	174.54
409.679	167.94
410.14	166.74
410.601	173.24
411.062	184.94
411.522	180.94
411.983	182.74
412.444	167.34
412.905	178.64
413.366	175.14
413.826	184.44
414.287	211.24
414.748	247.84
415.208	237.74
415.669	199.94
416.13	194.54
416.59	193.24
417.051	206.94
417.511	207.84
417.972	226.04
418.432	233.94
418.893	265.04
419.353	240.74
419.814	186.64
420.274	174.84
420.734	171.84
421.195	187.84
421.655	183.74
422.115	183.84
422.576	182.64
423.036	188.94
423.496	195.84
423.956	200.54
424.416	221.24
424.876	252.24
425.336	249.34
425.797	244.34
426.257	240.44
426.717	228.14
427.177	219.54
427.637	217.54
428.097	218.94
428.556	238.34
429.016	265.44
429.476	257.44
429.936	261.24
430.396	266.54
430.856	274.94
431.315	302.24
431.775	338.84
432.235	362.74
432.694	333.54
433.154	349.54
433.614	384.04
434.073	329.34
434.533	275.54
434.993	266.24
435.452	275.04
435.912	280.14
436.371	270.94
436.83	269.44
437.29	263.44
437.749	239.24
438.209	229.94
438.668	262.84
439.127	269.14
439.587	254.64
440.046	232.74
440.505	245.84
440.964	260.54
441.424	300.34
441.883	300.24
442.342	252.14
442.801	217.24
443.26	210.94
443.719	213.04
444.178	210.74
444.637	196.74
445.096	209.24
445.555	207.24
446.014	216.14
446.473	218.14
446.932	224.14
447.391	222.94
447.849	223.24
448.308	211.34
448.767	216.94
449.226	229.24
449.685	229.34
450.143	238.94
450.602	231.74
451.061	222.64
451.519	222.54
451.978	218.24
452.436	230.74
452.895	233.34
453.353	245.54
453.812	239.84
454.27	228.74
454.729	232.24
455.187	234.24
455.646	235.84
456.104	231.84
456.562	247.24
457.021	257.94
457.479	257.34
457.937	261.54
458.395	255.54
458.854	242.94
459.312	248.34
459.77	262.94
460.228	251.54
460.686	233.74
461.144	242.64
461.602	239.34
462.06	235.94
462.518	245.44
462.976	249.04
463.434	256.44
463.892	254.74
464.35	262.24
464.808	279.04
465.266	256.44
465.724	260.74
466.181	250.64
466.639	261.74
467.097	282.94
467.555	292.34
468.012	290.84
468.47	303.74
468.928	321.54
469.385	324.64
469.843	330.94
470.3	335.44
470.758	349.94
471.215	369.94
471.673	392.24
472.13	394.94
472.588	408.64
473.045	357.14
473.503	362.54
473.96	378.34
474.417	388.94
474.875	417.74
475.332	454.24
475.789	447.54
476.246	457.04
476.704	472.24
477.161	487.34
477.618	510.64
478.075	547.14
478.532	595.54
478.989	676.74
479.446	776.84
479.903	755.44
480.36	789.64
480.817	837.54
481.274	939.54
481.731	1042.64
482.188	1128.24
482.645	1262.04
483.102	1351.64
483.558	1492.54
484.015	1540.24
484.472	1523.44
484.929	1474.54
485.385	1410.44
485.842	1388.54
486.299	1311.54
486.755	1261.74
487.212	1063.94
487.668	902.84
488.125	825.34
488.582	752.94
489.038	727.14
489.494	692.34
489.951	666.44
490.407	645.74
490.864	626.74
491.32	616.94
491.776	625.64
492.233	634.34
492.689	591.74
493.145	593.64
493.602	588.84
494.058	589.74
494.514	596.34
494.97	614.94
495.426	634.44
495.882	602.94
496.338	599.24
496.794	601.84
497.251	604.24
497.707	610.44
498.163	605.24
498.618	620.24
499.074	619.54
499.53	658.34
499.986	647.74
500.442	638.44
500.898	609.94
501.354	610.84
501.809	613.24
502.265	624.84
502.721	639.74
503.177	663.24
503.632	648.44
504.088	655.74
504.543	693.34
504.999	690.24
505.455	642.34
505.91	608.74
506.366	615.64
506.821	612.94
507.277	609.64
507.732	611.84
508.187	609.74
508.643	617.24
509.098	611.34
509.553	635.84
510.009	645.44
510.464	659.04
510.919	675.34
511.375	681.84
511.83	696.54
512.285	693.24
512.74	739.94
513.195	753.94
513.65	752.54
514.105	743.64
514.56	751.34
515.015	778.34
515.47	774.44
515.925	768.94
516.38	762.44
516.835	769.64
517.29	758.24
517.745	755.34
518.2	743.24
518.655	729.44
519.109	719.14
519.564	712.94
520.019	701.74
520.474	705.44
520.928	707.64
521.383	704.24
521.838	693.74
522.292	691.44
522.747	692.74
523.201	678.04
523.656	686.64
524.11	675.94
524.565	675.44
525.019	671.84
525.474	683.54
525.928	682.14
526.382	678.54
526.837	679.54
527.291	683.74
527.745	679.04
528.2	687.94
528.654	672.34
529.108	674.04
529.562	678.54
530.016	670.64
530.47	672.04
530.925	677.74
531.379	676.54
531.833	689.94
532.287	677.04
532.741	683.44
533.195	678.54
533.649	689.94
534.103	710.64
534.556	688.14
535.01	689.14
535.464	689.84
535.918	699.34
536.372	696.14
536.826	685.64
537.279	679.44
537.733	689.04
538.187	701.04
538.64	693.74
539.094	700.64
539.548	711.24
540.001	705.74
540.455	701.64
540.908	711.24
541.362	715.74
541.815	735.84
542.269	740.54
542.722	743.84
543.175	753.04
543.629	756.64
544.082	767.04
544.536	769.04
544.989	771.84
545.442	775.84
545.895	763.14
546.349	773.44
546.802	779.44
547.255	776.84
547.708	782.04
548.161	795.74
548.614	798.34
549.067	817.14
549.52	807.74
549.973	791.24
550.426	792.64
550.879	776.54
551.332	782.54
551.785	788.14
552.238	790.54
552.691	805.34
553.144	812.44
553.596	822.94
554.049	841.44
554.502	870.24
554.955	888.44
555.407	890.84
555.86	880.84
556.313	858.34
556.765	864.14
557.218	859.14
557.67	860.54
558.123	850.84
558.576	850.34
559.028	858.24
559.48	853.94
559.933	856.34
560.385	813.24
560.838	790.34
561.29	762.74
561.742	775.54
562.195	755.64
562.647	751.54
563.099	757.44
563.551	750.84
564.004	765.04
564.456	758.44
564.908	743.54
565.36	731.54
565.812	717.64
566.264	699.44
566.716	717.14
567.168	706.44
567.62	710.44
568.072	683.54
568.524	679.94
568.976	675.54
569.428	665.04
569.88	661.74
570.332	671.04
570.784	670.24
571.235	672.34
571.687	671.24
572.139	686.74
572.59	697.14
573.042	695.04
573.494	693.34
573.945	691.04
574.397	673.64
574.849	680.74
575.3	674.44
575.752	666.94
576.203	661.44
576.655	667.64
577.106	659.94
577.557	649.04
578.009	654.64
578.46	650.44
578.912	642.44
579.363	649.44
579.814	665.54
580.265	648.14
580.717	649.34
581.168	661.64
581.619	659.74
582.07	668.84
582.521	668.54
582.972	645.64
583.423	667.44
583.875	672.64
584.326	685.04
584.777	738.24
585.227	810.94
585.678	902.54
586.129	981.54
586.58	1065.44
587.031	1135.84
587.482	1279.74
587.933	1465.34
588.384	1280.54
588.834	959.14
589.285	794.74
589.736	767.34
590.186	774.54
590.637	749.84
591.088	734.74
591.538	724.84
591.989	724.74
592.439	712.64
592.89	705.44
593.34	694.64
593.791	703.64
594.241	688.84
594.692	701.24
595.142	692.54
595.593	680.24
596.043	706.74
596.493	695.64
596.943	699.34
597.394	706.94
597.844	701.64
598.294	726.74
598.744	738.94
599.195	764.94
599.645	798.24
600.095	841.04
600.545	898.64
600.995	956.14
601.445	1011.54
601.895	1063.24
602.345	1106.54
602.795	1098.74
603.245	1049.04
603.695	985.24
604.145	936.14
604.594	884.14
605.044	833.44
605.494	783.34
605.944	741.44
606.393	722.64
606.843	711.84
607.293	719.34
607.743	720.04
608.192	727.54
608.642	734.04
609.091	752.54
609.541	749.34
609.99	754.44
610.44	748.54
610.889	706.34
611.339	689.04
611.788	675.74
612.238	688.84
612.687	719.54
613.136	715.74
613.586	724.44
614.035	723.94
614.484	748.44
614.933	745.84
615.383	737.74
615.832	725.74
616.281	720.34
616.73	674.44
617.179	662.94
617.628	630.54
618.077	619.44
618.526	611.84
618.975	612.84
619.424	601.24
619.873	607.14
620.322	609.44
620.771	595.14
621.22	601.84
621.669	578.64
622.118	580.64
622.567	563.44
623.015	565.54
623.464	551.64
623.913	553.44
624.361	541.94
624.81	539.44
625.259	541.74
625.707	550.04
626.156	545.64
626.604	552.04
627.053	546.74
627.501	545.64
627.95	558.04
628.398	569.24
628.847	566.94
629.295	552.34
629.744	570.24
630.192	555.24
630.64	559.54
631.089	559.64
631.537	572.94
631.985	584.04
632.433	590.64
632.881	595.24
633.33	655.74
633.778	638.44
634.226	561.54
634.674	560.84
635.122	565.84
635.57	587.04
636.018	618.74
636.466	570.54
636.914	548.04
637.362	563.24
637.81	565.54
638.258	565.24
638.705	566.54
639.153	605.74
639.601	603.44
640.049	638.64
640.497	658.84
640.944	683.14
641.392	642.74
641.84	597.24
642.287	571.84
642.735	568.34
643.182	571.94
643.63	564.64
644.078	567.54
644.525	573.74
644.973	583.64
645.42	603.44
645.867	614.94
646.315	624.64
646.762	651.74
647.21	690.54
647.657	704.64
648.104	743.24
648.551	764.24
648.999	818.64
649.446	900.14
649.893	1003.34
650.34	1145.64
650.787	1374.84
651.234	1713.04
651.682	2251.14
652.129	3087.84
652.576	4446.04
653.023	6598.34
653.47	8990.54
653.917	11154.74
654.363	12872.34
654.81	14155.54
655.257	13441.24
655.704	8793.54
656.151	5187.44
656.598	3371.54
657.044	2383.24
657.491	1824.84
657.938	1466.04
658.385	1228.74
658.831	1074.04
659.278	940.74
659.724	838.04
660.171	779.54
660.618	721.84
661.064	680.64
661.511	656.04
661.957	640.04
662.404	636.74
662.85	645.74
663.296	617.24
663.743	546.24
664.189	530.64
664.635	514.74
665.082	518.84
665.528	520.14
665.974	512.74
666.42	497.74
666.867	496.54
667.313	491.44
667.759	481.04
668.205	476.04
668.651	478.44
669.097	478.64
669.543	490.64
669.989	461.54
670.435	441.44
670.881	442.34
671.327	442.74
671.773	464.64
672.219	491.94
672.665	530.44
673.11	569.14
673.556	620.74
674.002	659.04
674.448	646.24
674.893	545.44
675.339	468.54
675.785	436.14
676.23	413.14
676.676	387.24
677.122	373.74
677.567	370.64
678.013	362.14
678.458	360.74
678.904	354.04
679.349	336.14
679.794	355.34
680.24	349.34
680.685	349.84
681.131	334.84
681.576	348.54
682.021	349.54
682.466	350.14
682.912	341.44
683.357	343.14
683.802	375.64
684.247	405.54
684.692	450.74
685.137	491.34
685.583	530.74
686.028	551.74
686.473	505.94
686.918	440.74
687.363	410.14
687.807	387.74
688.252	365.44
688.697	347.54
689.142	333.24
689.587	332.84
690.032	323.94
690.477	335.64
690.921	350.94
691.366	381.94
691.811	385.84
692.255	424.14
692.7	456.84
693.145	496.84
693.589	695.04
694.034	1124.14
694.478	1508.44
694.923	1700.64
695.367	2214.54
695.812	1167.64
696.256	487.44
696.701	365.84
697.145	338.74
697.59	328.84
698.034	314.94
698.478	323.94
698.922	320.64
699.367	322.84
699.811	329.04
700.255	359.54
700.699	379.04
701.143	420.14
701.588	472.04
702.032	508.94
702.476	498.84
702.92	483.64
703.364	481.94
703.808	632.34
704.252	1033.54
704.696	1430.44
705.14	1639.04
705.584	2087.64
706.027	1052.04
706.471	512.04
706.915	387.34
707.359	349.04
707.803	315.14
708.246	308.14
708.69	313.14
709.134	311.54
709.577	305.24
710.021	308.24
710.465	296.94
710.908	293.04
711.352	293.74
711.795	304.34
712.239	347.84
712.682	381.54
713.126	411.44
713.569	448.14
714.012	369.14
714.456	319.74
714.899	296.74
715.342	273.84
715.786	257.44
716.229	251.84
716.672	253.04
717.115	245.44
717.558	247.24
718.002	249.44
718.445	259.14
718.888	277.74
719.331	288.74
719.774	303.14
720.217	300.74
720.66	278.44
721.103	264.74
721.546	257.94
721.989	246.04
722.432	231.24
722.874	238.24
723.317	227.64
723.76	244.14
724.203	252.54
724.645	317.14
725.088	446.74
725.531	558.34
725.974	623.24
726.416	534.34
726.859	301.64
727.301	240.04
727.744	235.84
728.187	227.54
728.629	227.54
729.071	245.74
729.514	252.44
729.956	267.14
730.399	272.54
730.841	276.94
731.283	266.04
731.726	262.94
732.168	253.54
732.61	256.34
733.053	284.04
733.495	322.04
733.937	348.34
734.379	396.04
734.821	436.64
735.263	539.64
735.705	831.64
736.148	1577.44
736.59	2541.14
737.032	2980.24
737.474	2406.14
737.916	796.04
738.357	422.34
738.799	319.24
739.241	294.64
739.683	283.34
740.125	278.34
740.567	288.24
741.008	318.74
741.45	307.74
741.892	309.84
742.334	338.54
742.775	358.34
743.217	328.84
743.658	269.34
744.1	252.34
744.542	252.84
744.983	308.14
745.425	326.24
745.866	344.94
746.307	284.44
746.749	280.94
747.19	326.64
747.632	449.94
748.073	887.34
748.514	1863.24
748.956	2799.64
749.397	3543.64
749.838	2926.64
750.279	2899.14
750.72	1466.34
751.162	536.34
751.603	312.24
752.044	249.34
752.485	213.14
752.926	206.94
753.367	197.34
753.808	191.34
754.249	191.04
754.69	183.04
755.131	183.24
755.572	174.54
756.013	170.44
756.453	183.04
756.894	188.14
757.335	189.44
757.776	199.34
758.216	196.04
758.657	190.14
759.098	198.04
759.538	211.34
759.979	259.74
760.42	371.74
760.86	712.34
761.301	1836.14
761.741	4389.84
762.182	6265.24
762.622	4386.54
763.063	1277.94
