Data from 20171114-ORNL-Ar_H_NY_Subt18_08-06-33-291.txt Node
Date: Tue Nov 14 08:06:33 EST 2017
User: Ender
Spectrometer: HR+D1039
Trigger mode: 0
Integration Time (sec): 2.730000E-2
Scans to average: 10
Electric dark correction enabled: true
Nonlinearity correction enabled: false
Boxcar width: 0
XAxis mode: Wavelengths
Number of Pixels in Spectrum: 2048
>>>>>Begin Spectral Data<<<<<
187.836	-1.86
188.309	-1.86
188.782	-1.86
189.255	1.04
189.728	-5.16
190.201	-0.16
190.674	1.74
191.147	2.84
191.619	-7.16
192.092	1.24
192.565	-1.26
193.038	0.14
193.511	3.54
193.984	4.14
194.456	0.34
194.929	2.24
195.402	-2.56
195.874	0.94
196.347	2.04
196.82	-7.66
197.292	8.04
197.765	1.74
198.237	-4.86
198.71	3.74
199.182	0.74
199.655	4.14
200.127	3.84
200.6	-1.46
201.072	-3.76
201.544	3.24
202.017	-1.66
202.489	3.34
202.961	3.24
203.433	-3.36
203.906	-6.56
204.378	-5.76
204.85	-0.46
205.322	-6.66
205.794	-1.06
206.266	-8.06
206.739	-3.56
207.211	3.94
207.683	-8.06
208.155	-1.36
208.627	-9.36
209.099	-9.46
209.57	-3.96
210.042	-1.56
210.514	1.74
210.986	1.54
211.458	-1.46
211.93	-1.96
212.402	3.34
212.873	-5.76
213.345	-8.56
213.817	-5.06
214.288	1.24
214.76	-11.66
215.232	-6.26
215.703	-1.46
216.175	-5.66
216.646	0.64
217.118	-4.86
217.589	-3.66
218.061	3.44
218.532	-0.26
219.004	0.84
219.475	-2.76
219.946	0.94
220.418	-6.46
220.889	4.84
221.36	3.44
221.832	-6.86
222.303	-4.76
222.774	4.04
223.245	-11.36
223.717	-7.56
224.188	-5.86
224.659	-6.56
225.13	-5.96
225.601	-3.46
226.072	0.14
226.543	-3.26
227.014	3.24
227.485	-2.06
227.956	-3.46
228.427	-4.36
228.898	-2.26
229.369	6.74
229.839	-0.16
230.31	-4.16
230.781	-1.06
231.252	-1.86
231.722	-3.66
232.193	4.94
232.664	2.74
233.135	2.84
233.605	1.04
234.076	-4.16
234.546	4.74
235.017	3.94
235.487	2.84
235.958	-3.96
236.428	-3.96
236.899	5.04
237.369	3.94
237.84	-2.26
238.31	8.44
238.78	2.34
239.251	-3.86
239.721	4.44
240.191	-3.56
240.662	2.74
241.132	-2.26
241.602	0.34
242.072	2.34
242.542	2.54
243.013	3.24
243.483	1.84
243.953	3.64
244.423	1.94
244.893	2.54
245.363	3.74
245.833	8.64
246.303	-1.56
246.773	13.64
247.243	4.04
247.712	4.74
248.182	8.54
248.652	8.44
249.122	-2.56
249.592	14.84
250.061	21.74
250.531	33.94
251.001	12.84
251.471	20.24
251.94	16.64
252.41	4.14
252.879	3.04
253.349	12.64
253.818	12.94
254.288	2.44
254.757	8.04
255.227	3.44
255.696	2.24
256.166	9.94
256.635	4.74
257.105	10.44
257.574	6.44
258.043	9.44
258.513	12.24
258.982	17.34
259.451	5.34
259.92	12.54
260.389	11.94
260.859	17.74
261.328	14.84
261.797	16.14
262.266	12.14
262.735	11.74
263.204	5.44
263.673	5.24
264.142	4.94
264.611	-4.06
265.08	1.44
265.549	5.74
266.018	3.24
266.487	-4.16
266.955	-1.06
267.424	1.64
267.893	12.64
268.362	1.84
268.83	3.84
269.299	10.44
269.768	10.04
270.236	9.04
270.705	4.74
271.174	7.04
271.642	8.14
272.111	4.54
272.579	16.14
273.048	20.44
273.516	28.64
273.985	27.04
274.453	26.44
274.922	20.14
275.39	7.74
275.858	8.74
276.327	9.54
276.795	14.84
277.263	13.14
277.731	29.04
278.2	58.54
278.668	58.24
279.136	47.64
279.604	17.94
280.072	13.94
280.54	22.54
281.008	10.44
281.477	14.14
281.945	13.64
282.413	15.94
282.881	12.94
283.348	10.74
283.816	12.34
284.284	13.54
284.752	17.14
285.22	7.64
285.688	13.24
286.156	21.24
286.623	42.84
287.091	51.74
287.559	29.64
288.026	18.64
288.494	15.34
288.962	12.44
289.429	11.54
289.897	16.84
290.364	14.34
290.832	17.44
291.3	14.34
291.767	17.04
292.234	25.14
292.702	9.44
293.169	16.84
293.637	24.24
294.104	21.34
294.571	12.74
295.039	20.84
295.506	18.44
295.973	16.74
296.44	16.14
296.908	18.54
297.375	20.24
297.842	17.04
298.309	18.14
298.776	16.44
299.243	23.24
299.71	14.74
300.177	19.14
300.644	19.24
301.111	19.54
301.578	22.34
302.045	17.94
302.512	28.24
302.979	23.14
303.446	25.64
303.913	21.34
304.379	25.54
304.846	29.94
305.313	24.34
305.78	28.94
306.246	25.44
306.713	26.34
307.18	29.14
307.646	30.04
308.113	33.94
308.579	23.54
309.046	28.44
309.512	23.54
309.979	20.74
310.445	28.74
310.912	34.24
311.378	33.14
311.845	29.04
312.311	28.64
312.777	34.34
313.244	27.24
313.71	43.24
314.176	29.54
314.642	33.84
315.109	34.54
315.575	34.44
316.041	40.64
316.507	36.34
316.973	34.34
317.439	42.34
317.905	37.34
318.371	39.14
318.837	37.14
319.303	37.64
319.769	34.04
320.235	34.94
320.701	36.94
321.167	42.74
321.633	30.54
322.099	43.44
322.564	44.94
323.03	39.94
323.496	36.94
323.962	36.94
324.427	39.14
324.893	40.04
325.359	42.84
325.824	40.44
326.29	46.24
326.755	42.64
327.221	40.14
327.686	42.14
328.152	48.74
328.617	38.44
329.083	46.84
329.548	51.44
330.014	48.84
330.479	39.24
330.944	45.54
331.41	45.74
331.875	48.34
332.34	42.44
332.805	43.14
333.271	53.94
333.736	46.44
334.201	47.84
334.666	48.14
335.131	58.54
335.596	51.04
336.061	47.94
336.526	45.74
336.991	51.54
337.456	62.34
337.921	52.54
338.386	50.24
338.851	45.94
339.316	51.64
339.781	51.74
340.246	51.34
340.711	52.14
341.175	52.34
341.64	55.24
342.105	49.54
342.569	61.04
343.034	57.74
343.499	57.84
343.963	54.54
344.428	67.54
344.893	61.04
345.357	61.84
345.822	69.64
346.286	77.64
346.751	78.74
347.215	68.74
347.679	75.84
348.144	100.04
348.608	86.04
349.073	72.24
349.537	79.64
350.001	81.94
350.465	89.34
350.93	81.74
351.394	79.84
351.858	72.44
352.322	89.14
352.786	85.04
353.25	99.14
353.715	112.54
354.179	101.34
354.643	121.64
355.107	130.44
355.571	116.04
356.035	109.14
356.498	117.94
356.962	126.94
357.426	133.64
357.89	122.94
358.354	94.84
358.818	77.84
359.281	78.74
359.745	82.44
360.209	80.74
360.673	75.94
361.136	82.44
361.6	91.64
362.064	94.84
362.527	83.14
362.991	91.24
363.454	94.14
363.918	82.24
364.381	78.74
364.845	84.94
365.308	95.94
365.772	91.94
366.235	94.34
366.698	84.44
367.162	93.04
367.625	92.24
368.088	94.14
368.552	90.44
369.015	93.34
369.478	101.44
369.941	104.24
370.404	98.84
370.867	103.94
371.331	109.74
371.794	117.94
372.257	116.64
372.72	119.84
373.183	112.84
373.646	104.94
374.109	106.74
374.572	112.14
375.035	115.44
375.497	114.34
375.96	111.44
376.423	111.64
376.886	112.74
377.349	113.44
377.811	104.84
378.274	108.84
378.737	116.54
379.199	118.74
379.662	119.84
380.125	130.34
380.587	126.04
381.05	127.74
381.512	139.74
381.975	129.34
382.437	130.74
382.9	135.84
383.362	142.24
383.825	142.44
384.287	152.34
384.75	148.54
385.212	148.44
385.674	147.64
386.136	142.64
386.599	134.74
387.061	136.14
387.523	135.04
387.985	146.34
388.447	145.64
388.91	148.24
389.372	166.24
389.834	160.44
390.296	152.04
390.758	160.84
391.22	177.64
391.682	218.84
392.144	317.84
392.606	237.04
393.068	176.14
393.529	177.84
393.991	164.24
394.453	154.54
394.915	163.04
395.377	198.84
395.838	225.94
396.3	160.04
396.762	148.74
397.224	140.64
397.685	131.34
398.147	141.84
398.608	138.94
399.07	132.14
399.531	140.54
399.993	148.94
400.454	163.64
400.916	150.34
401.377	149.34
401.839	162.74
402.3	158.84
402.762	177.04
403.223	196.54
403.684	177.94
404.145	169.04
404.607	174.14
405.068	166.54
405.529	179.24
405.99	194.44
406.451	189.34
406.913	178.14
407.374	169.24
407.835	164.24
408.296	171.84
408.757	182.24
409.218	194.14
409.679	191.44
410.14	182.84
410.601	188.84
411.062	191.24
411.522	205.04
411.983	199.14
412.444	183.14
412.905	192.84
413.366	193.74
413.826	197.24
414.287	223.84
414.748	268.94
415.208	255.84
415.669	218.64
416.13	220.94
416.59	206.64
417.051	222.14
417.511	234.64
417.972	244.34
418.432	258.44
418.893	301.54
419.353	266.14
419.814	204.04
420.274	186.24
420.734	196.04
421.195	209.74
421.655	207.34
422.115	208.94
422.576	200.94
423.036	208.64
423.496	219.84
423.956	232.74
424.416	237.14
424.876	283.94
425.336	275.64
425.797	277.44
426.257	272.74
426.717	252.64
427.177	240.64
427.637	237.04
428.097	240.74
428.556	255.64
429.016	280.64
429.476	278.64
429.936	288.24
430.396	294.34
430.856	306.44
431.315	329.94
431.775	366.74
432.235	394.04
432.694	369.44
433.154	374.54
433.614	413.84
434.073	356.74
434.533	295.24
434.993	284.64
435.452	294.54
435.912	312.04
436.371	307.84
436.83	294.04
437.29	282.74
437.749	262.84
438.209	256.44
438.668	292.94
439.127	298.74
439.587	277.24
440.046	259.34
440.505	274.74
440.964	296.04
441.424	339.44
441.883	325.04
442.342	267.04
442.801	240.04
443.26	233.44
443.719	232.44
444.178	222.24
444.637	221.54
445.096	224.54
445.555	227.54
446.014	226.14
446.473	239.54
446.932	239.64
447.391	234.44
447.849	243.74
448.308	223.24
448.767	229.74
449.226	246.44
449.685	253.74
450.143	256.24
450.602	247.14
451.061	236.34
451.519	248.54
451.978	240.44
452.436	245.04
452.895	256.64
453.353	265.74
453.812	260.24
454.27	251.54
454.729	246.04
455.187	253.84
455.646	256.84
456.104	260.44
456.562	267.04
457.021	279.74
457.479	268.04
457.937	285.84
458.395	267.44
458.854	257.54
459.312	272.14
459.77	281.84
460.228	266.04
460.686	260.14
461.144	256.44
461.602	257.94
462.06	248.84
462.518	270.14
462.976	261.74
463.434	271.24
463.892	277.24
464.35	283.74
464.808	307.04
465.266	280.94
465.724	275.34
466.181	291.04
466.639	284.54
467.097	296.64
467.555	306.94
468.012	316.04
468.47	327.64
468.928	344.74
469.385	352.94
469.843	357.34
470.3	367.64
470.758	371.24
471.215	397.54
471.673	429.54
472.13	418.44
472.588	441.94
473.045	385.74
473.503	385.64
473.96	404.44
474.417	412.94
474.875	448.74
475.332	494.04
475.789	474.24
476.246	484.74
476.704	503.34
477.161	521.44
477.618	539.54
478.075	578.54
478.532	643.64
478.989	719.74
479.446	836.04
479.903	802.54
480.36	841.04
480.817	899.64
481.274	1005.84
481.731	1112.54
482.188	1210.84
482.645	1348.14
483.102	1461.54
483.558	1596.24
484.015	1656.34
484.472	1627.94
484.929	1575.24
485.385	1527.94
485.842	1481.54
486.299	1407.34
486.755	1356.64
487.212	1138.84
487.668	969.14
488.125	885.44
488.582	804.84
489.038	769.84
489.494	731.34
489.951	704.54
490.407	692.34
490.864	675.84
491.32	670.34
491.776	658.34
492.233	666.44
492.689	626.74
493.145	623.84
493.602	622.44
494.058	635.74
494.514	632.94
494.97	659.24
495.426	679.44
495.882	645.54
496.338	625.54
496.794	642.64
497.251	625.74
497.707	654.34
498.163	653.94
498.618	663.14
499.074	664.24
499.53	696.04
499.986	695.84
500.442	670.04
500.898	655.94
501.354	639.94
501.809	663.54
502.265	666.04
502.721	681.24
503.177	691.84
503.632	690.64
504.088	697.44
504.543	726.84
504.999	728.74
505.455	677.74
505.91	652.24
506.366	652.34
506.821	642.44
507.277	645.94
507.732	646.74
508.187	639.04
508.643	656.94
509.098	651.14
509.553	672.94
510.009	685.34
510.464	697.34
510.919	708.14
511.375	719.04
511.83	733.94
512.285	744.14
512.74	785.04
513.195	805.64
513.65	793.94
514.105	786.54
514.56	800.64
515.015	818.64
515.47	838.04
515.925	812.74
516.38	813.94
516.835	817.64
517.29	798.74
517.745	802.74
518.2	784.14
518.655	778.34
519.109	773.04
519.564	755.54
520.019	751.04
520.474	747.04
520.928	753.14
521.383	743.34
521.838	726.24
522.292	732.34
522.747	736.64
523.201	732.64
523.656	717.54
524.11	713.44
524.565	706.44
525.019	708.24
525.474	727.34
525.928	722.74
526.382	723.74
526.837	721.84
527.291	714.24
527.745	714.34
528.2	713.14
528.654	713.44
529.108	707.54
529.562	709.74
530.016	715.44
530.47	708.64
530.925	721.74
531.379	719.34
531.833	725.44
532.287	725.34
532.741	728.44
533.195	726.14
533.649	733.44
534.103	741.94
534.556	726.04
535.01	725.14
535.464	722.14
535.918	742.84
536.372	730.74
536.826	737.84
537.279	727.04
537.733	737.24
538.187	730.24
538.64	729.84
539.094	742.34
539.548	748.24
540.001	736.14
540.455	743.94
540.908	751.34
541.362	757.14
541.815	770.44
542.269	778.74
542.722	782.74
543.175	793.54
543.629	790.14
544.082	811.54
544.536	808.24
544.989	806.34
545.442	806.04
545.895	806.14
546.349	807.74
546.802	812.44
547.255	827.44
547.708	831.24
548.161	833.74
548.614	836.74
549.067	853.64
549.52	835.14
549.973	826.84
550.426	833.74
550.879	809.54
551.332	814.94
551.785	831.24
552.238	823.04
552.691	832.34
553.144	859.04
553.596	872.04
554.049	884.54
554.502	912.64
554.955	938.54
555.407	931.74
555.86	918.94
556.313	913.34
556.765	899.34
557.218	902.64
557.67	904.54
558.123	898.54
558.576	885.04
559.028	892.64
559.48	899.34
559.933	887.64
560.385	862.04
560.838	825.64
561.29	802.64
561.742	792.94
562.195	788.74
562.647	780.94
563.099	788.14
563.551	793.24
564.004	801.84
564.456	790.44
564.908	786.64
565.36	758.24
565.812	756.34
566.264	748.74
566.716	740.24
567.168	732.74
567.62	733.94
568.072	727.94
568.524	716.64
568.976	705.34
569.428	696.84
569.88	696.64
570.332	700.74
570.784	701.64
571.235	701.74
571.687	711.04
572.139	715.74
572.59	728.54
573.042	722.74
573.494	723.24
573.945	718.24
574.397	692.34
574.849	711.04
575.3	707.34
575.752	708.84
576.203	698.24
576.655	706.44
577.106	680.44
577.557	679.24
578.009	678.94
578.46	685.54
578.912	686.54
579.363	680.94
579.814	684.64
580.265	674.34
580.717	686.44
581.168	685.34
581.619	690.34
582.07	691.34
582.521	690.94
582.972	689.24
583.423	699.44
583.875	702.14
584.326	715.84
584.777	757.34
585.227	838.84
585.678	931.44
586.129	1013.24
586.58	1092.64
587.031	1179.24
587.482	1326.04
587.933	1525.04
588.384	1330.74
588.834	986.84
589.285	822.34
589.736	802.54
590.186	789.34
590.637	783.94
591.088	759.44
591.538	757.64
591.989	739.94
592.439	746.54
592.89	733.24
593.34	726.84
593.791	723.34
594.241	717.04
594.692	730.74
595.142	718.14
595.593	716.94
596.043	725.94
596.493	725.34
596.943	732.14
597.394	743.54
597.844	725.24
598.294	745.84
598.744	775.34
599.195	791.34
599.645	837.04
600.095	870.84
600.545	934.64
600.995	973.44
601.445	1032.04
601.895	1113.64
602.345	1154.04
602.795	1139.04
603.245	1089.44
603.695	1027.24
604.145	971.44
604.594	926.04
605.044	872.54
605.494	816.74
605.944	770.74
606.393	757.14
606.843	736.34
607.293	751.04
607.743	750.04
608.192	765.84
608.642	777.34
609.091	781.64
609.541	786.84
609.99	783.04
610.44	777.34
610.889	736.54
611.339	714.24
611.788	700.24
612.238	717.64
612.687	730.64
613.136	729.34
613.586	757.34
614.035	748.14
614.484	767.04
614.933	771.64
615.383	761.84
615.832	751.04
616.281	750.74
616.73	698.84
617.179	687.44
617.628	655.44
618.077	641.04
618.526	640.24
618.975	631.94
619.424	630.74
619.873	624.14
620.322	629.54
620.771	619.64
621.22	611.34
621.669	598.64
622.118	593.54
622.567	590.64
623.015	579.64
623.464	574.24
623.913	573.04
624.361	558.34
624.81	553.04
625.259	560.84
625.707	561.14
626.156	562.34
626.604	573.34
627.053	572.74
627.501	576.54
627.95	579.84
628.398	588.54
628.847	580.74
629.295	587.54
629.744	587.04
630.192	573.34
630.64	582.74
631.089	575.64
631.537	591.04
631.985	603.34
632.433	617.74
632.881	619.24
633.33	668.24
633.778	654.14
634.226	588.04
634.674	577.84
635.122	589.94
635.57	611.04
636.018	639.34
636.466	585.74
636.914	570.14
637.362	576.64
637.81	579.04
638.258	580.14
638.705	587.84
639.153	620.14
639.601	628.94
640.049	658.94
640.497	681.54
640.944	710.84
641.392	642.94
641.84	623.44
642.287	604.44
642.735	582.94
643.182	586.14
643.63	587.54
644.078	591.84
644.525	602.94
644.973	599.74
645.42	622.84
645.867	635.74
646.315	643.74
646.762	674.34
647.21	703.64
647.657	724.44
648.104	765.24
648.551	783.04
648.999	858.04
649.446	934.94
649.893	1029.44
650.34	1175.24
650.787	1415.34
651.234	1759.74
651.682	2305.54
652.129	3159.54
652.576	4565.24
653.023	6716.04
653.47	9233.44
653.917	11513.84
654.363	13248.74
654.81	14625.84
655.257	13924.04
655.704	9108.84
656.151	5380.34
656.598	3467.74
657.044	2454.34
657.491	1890.64
657.938	1520.04
658.385	1272.24
658.831	1099.64
659.278	973.24
659.724	859.04
660.171	797.44
660.618	746.14
661.064	699.84
661.511	671.34
661.957	664.44
662.404	649.04
662.85	666.94
663.296	630.84
663.743	579.44
664.189	553.04
664.635	541.24
665.082	539.14
665.528	536.24
665.974	524.44
666.42	514.74
666.867	515.64
667.313	502.74
667.759	485.34
668.205	473.74
668.651	491.74
669.097	490.54
669.543	510.54
669.989	482.34
670.435	457.54
670.881	454.14
671.327	458.84
671.773	473.94
672.219	498.04
672.665	550.84
673.11	585.74
673.556	622.84
674.002	668.94
674.448	662.24
674.893	552.74
675.339	474.94
675.785	447.54
676.23	431.94
676.676	405.04
677.122	385.24
677.567	379.94
678.013	367.44
678.458	359.44
678.904	367.74
679.349	364.44
679.794	359.34
680.24	354.84
680.685	353.54
681.131	352.64
681.576	351.24
682.021	359.64
682.466	347.84
682.912	351.94
683.357	357.14
683.802	381.14
684.247	418.24
684.692	450.94
685.137	492.04
685.583	531.04
686.028	566.94
686.473	519.94
686.918	448.14
687.363	425.14
687.807	395.84
688.252	364.44
688.697	360.24
689.142	341.84
689.587	338.04
690.032	338.44
690.477	347.14
690.921	356.04
691.366	388.34
691.811	407.94
692.255	431.94
692.7	466.54
693.145	504.54
693.589	695.44
694.034	1132.24
694.478	1543.84
694.923	1745.04
695.367	2282.84
695.812	1206.54
696.256	492.24
696.701	372.34
697.145	355.24
697.59	340.14
698.034	333.74
698.478	332.54
698.922	335.54
699.367	325.64
699.811	342.64
700.255	357.34
700.699	388.04
701.143	435.74
701.588	486.04
702.032	530.24
702.476	521.84
702.92	495.14
703.364	497.54
703.808	643.14
704.252	1045.14
704.696	1465.44
705.14	1680.24
705.584	2145.84
706.027	1068.74
706.471	523.44
706.915	405.44
707.359	350.14
707.803	326.34
708.246	315.74
708.69	317.54
709.134	313.34
709.577	313.24
710.021	322.94
710.465	314.24
710.908	304.34
711.352	302.54
711.795	314.64
712.239	350.04
712.682	388.64
713.126	418.84
713.569	472.54
714.012	370.64
714.456	326.04
714.899	303.34
715.342	278.94
715.786	269.04
716.229	265.14
716.672	257.74
717.115	250.74
717.558	251.64
718.002	249.44
718.445	257.44
718.888	283.54
719.331	298.74
719.774	317.24
720.217	304.24
720.66	291.04
721.103	269.24
721.546	262.54
721.989	253.54
722.432	234.44
722.874	234.44
723.317	233.64
723.76	241.24
724.203	269.84
724.645	319.84
725.088	458.44
725.531	572.44
725.974	652.64
726.416	547.14
726.859	308.34
727.301	251.94
727.744	238.14
728.187	234.24
728.629	239.04
729.071	250.34
729.514	257.84
729.956	269.44
730.399	290.94
730.841	283.84
731.283	274.94
731.726	275.84
732.168	265.44
732.61	270.54
733.053	281.24
733.495	317.94
733.937	358.34
734.379	399.04
734.821	441.44
735.263	545.24
735.705	831.84
736.148	1586.04
736.59	2605.84
737.032	3064.04
737.474	2482.04
737.916	803.64
738.357	428.34
738.799	328.54
739.241	299.84
739.683	299.04
740.125	294.34
740.567	297.84
741.008	322.94
741.45	315.44
741.892	321.04
742.334	351.14
742.775	358.84
743.217	347.84
743.658	277.54
744.1	257.64
744.542	264.34
744.983	313.44
745.425	341.14
745.866	342.54
746.307	288.34
746.749	284.74
747.19	332.64
747.632	462.74
748.073	888.04
748.514	1870.24
748.956	2871.04
749.397	3592.24
749.838	2980.54
750.279	2964.64
750.72	1492.64
751.162	541.44
751.603	320.54
752.044	255.54
752.485	219.84
752.926	215.74
753.367	204.24
753.808	195.24
754.249	190.64
754.69	189.24
755.131	182.84
755.572	178.54
756.013	185.64
756.453	189.04
756.894	192.44
757.335	194.04
757.776	194.14
758.216	197.64
758.657	200.14
759.098	209.54
759.538	233.04
759.979	269.64
760.42	377.34
760.86	709.54
761.301	1826.14
761.741	4428.34
762.182	6451.24
762.622	4529.14
