Data from 20171114-ORNL-Ar_H_NY_Subt18_08-04-35-911.txt Node
Date: Tue Nov 14 08:04:35 EST 2017
User: Ender
Spectrometer: HR+D1039
Trigger mode: 0
Integration Time (sec): 2.730000E-2
Scans to average: 10
Electric dark correction enabled: true
Nonlinearity correction enabled: false
Boxcar width: 0
XAxis mode: Wavelengths
Number of Pixels in Spectrum: 2048
>>>>>Begin Spectral Data<<<<<
187.836	-4.33
188.309	-4.33
188.782	-4.33
189.255	4.17
189.728	-0.03
190.201	4.67
190.674	0.37
191.147	-2.63
191.619	-5.13
192.092	5.27
192.565	7.97
193.038	-0.43
193.511	-0.73
193.984	1.07
194.456	-3.03
194.929	-1.03
195.402	-1.83
195.874	-4.43
196.347	-2.63
196.82	-10.03
197.292	3.07
197.765	1.77
198.237	-1.63
198.71	-0.03
199.182	1.77
199.655	-2.43
200.127	-1.33
200.6	1.77
201.072	-5.53
201.544	-0.33
202.017	-4.03
202.489	5.57
202.961	-2.13
203.433	-3.73
203.906	-7.63
204.378	-5.63
204.85	-6.43
205.322	-10.73
205.794	0.77
206.266	0.87
206.739	-4.63
207.211	-2.23
207.683	-2.43
208.155	-2.43
208.627	-3.63
209.099	-3.73
209.57	-5.83
210.042	-6.33
210.514	-6.63
210.986	-3.93
211.458	-4.43
211.93	-0.23
212.402	5.87
212.873	-3.33
213.345	-11.53
213.817	-11.73
214.288	-5.93
214.76	-13.33
215.232	-3.13
215.703	-6.63
216.175	-2.33
216.646	-6.73
217.118	-1.53
217.589	-1.83
218.061	-0.13
218.532	-4.43
219.004	-0.13
219.475	0.77
219.946	-2.23
220.418	-10.53
220.889	2.47
221.36	4.37
221.832	-0.33
222.303	-5.53
222.774	5.47
223.245	-8.93
223.717	-8.23
224.188	-7.53
224.659	-3.83
225.13	-2.73
225.601	0.87
226.072	-0.13
226.543	-3.33
227.014	0.87
227.485	-5.33
227.956	-5.13
228.427	0.27
228.898	4.17
229.369	0.77
229.839	0.57
230.31	-6.13
230.781	-1.83
231.252	-0.43
231.722	-3.13
232.193	-5.63
232.664	2.47
233.135	-0.93
233.605	2.87
234.076	-2.53
234.546	-0.83
235.017	4.07
235.487	5.17
235.958	1.97
236.428	-2.13
236.899	5.67
237.369	7.47
237.84	-2.63
238.31	9.67
238.78	7.27
239.251	1.97
239.721	4.37
240.191	6.87
240.662	-0.23
241.132	-1.53
241.602	-3.93
242.072	-3.63
242.542	11.57
243.013	3.57
243.483	5.27
243.953	9.07
244.423	2.37
244.893	-0.23
245.363	5.07
245.833	4.87
246.303	5.67
246.773	8.67
247.243	0.17
247.712	10.97
248.182	16.37
248.652	8.77
249.122	2.07
249.592	10.77
250.061	26.77
250.531	34.97
251.001	17.37
251.471	27.97
251.94	28.87
252.41	9.67
252.879	-1.93
253.349	12.47
253.818	8.67
254.288	10.97
254.757	8.27
255.227	4.47
255.696	8.07
256.166	10.77
256.635	9.77
257.105	9.57
257.574	9.37
258.043	9.67
258.513	13.47
258.982	16.97
259.451	15.57
259.92	16.77
260.389	15.57
260.859	13.87
261.328	14.67
261.797	22.37
262.266	12.87
262.735	12.27
263.204	5.47
263.673	1.97
264.142	5.47
264.611	0.37
265.08	6.27
265.549	3.07
266.018	10.87
266.487	-2.43
266.955	-5.63
267.424	1.77
267.893	7.67
268.362	4.87
268.83	4.47
269.299	12.67
269.768	2.87
270.236	11.57
270.705	4.87
271.174	11.07
271.642	7.67
272.111	12.97
272.579	15.17
273.048	22.77
273.516	27.57
273.985	29.97
274.453	27.97
274.922	19.97
275.39	14.57
275.858	4.97
276.327	15.77
276.795	15.27
277.263	10.47
277.731	32.77
278.2	57.77
278.668	65.17
279.136	53.37
279.604	18.27
280.072	12.87
280.54	14.77
281.008	11.07
281.477	22.37
281.945	14.17
282.413	22.97
282.881	15.37
283.348	7.87
283.816	14.97
284.284	15.07
284.752	17.07
285.22	13.37
285.688	23.57
286.156	19.07
286.623	49.77
287.091	56.87
287.559	38.97
288.026	16.17
288.494	20.27
288.962	10.47
289.429	13.37
289.897	24.57
290.364	12.27
290.832	22.97
291.3	19.67
291.767	18.27
292.234	17.57
292.702	14.87
293.169	22.67
293.637	26.87
294.104	26.07
294.571	10.97
295.039	12.07
295.506	13.67
295.973	19.97
296.44	16.97
296.908	25.27
297.375	22.07
297.842	23.17
298.309	23.07
298.776	14.57
299.243	20.27
299.71	14.67
300.177	21.27
300.644	23.47
301.111	22.47
301.578	16.57
302.045	14.97
302.512	24.37
302.979	27.07
303.446	24.37
303.913	24.87
304.379	15.57
304.846	28.07
305.313	21.47
305.78	25.47
306.246	22.87
306.713	35.27
307.18	26.07
307.646	30.77
308.113	32.17
308.579	25.97
309.046	25.37
309.512	28.07
309.979	19.97
310.445	27.27
310.912	31.47
311.378	39.17
311.845	26.87
312.311	31.17
312.777	38.97
313.244	31.37
313.71	38.97
314.176	33.57
314.642	33.27
315.109	33.77
315.575	33.17
316.041	41.97
316.507	30.77
316.973	44.67
317.439	30.37
317.905	40.97
318.371	38.37
318.837	38.57
319.303	36.67
319.769	29.47
320.235	36.57
320.701	35.87
321.167	41.77
321.633	32.87
322.099	48.17
322.564	44.07
323.03	42.97
323.496	40.47
323.962	46.97
324.427	41.07
324.893	47.97
325.359	36.87
325.824	40.57
326.29	36.07
326.755	39.67
327.221	41.87
327.686	42.07
328.152	49.67
328.617	55.17
329.083	52.47
329.548	57.87
330.014	44.87
330.479	43.87
330.944	41.97
331.41	39.37
331.875	47.17
332.34	42.27
332.805	45.57
333.271	50.57
333.736	48.27
334.201	55.87
334.666	50.97
335.131	54.57
335.596	54.67
336.061	53.87
336.526	49.87
336.991	55.87
337.456	54.27
337.921	51.37
338.386	43.37
338.851	43.07
339.316	46.67
339.781	47.27
340.246	53.07
340.711	43.07
341.175	52.37
341.64	52.57
342.105	55.87
342.569	57.97
343.034	68.27
343.499	56.47
343.963	50.97
344.428	61.77
344.893	60.77
345.357	65.77
345.822	58.37
346.286	67.17
346.751	78.37
347.215	64.37
347.679	79.17
348.144	102.47
348.608	78.97
349.073	66.47
349.537	69.77
350.001	82.07
350.465	85.67
350.93	71.57
351.394	87.07
351.858	68.87
352.322	92.57
352.786	86.57
353.25	89.57
353.715	113.37
354.179	103.47
354.643	119.17
355.107	124.87
355.571	110.07
356.035	102.27
356.498	117.17
356.962	121.47
357.426	130.87
357.89	114.17
358.354	85.47
358.818	85.07
359.281	79.37
359.745	80.97
360.209	72.97
360.673	76.97
361.136	78.77
361.6	84.87
362.064	84.87
362.527	82.77
362.991	93.37
363.454	79.07
363.918	79.57
364.381	77.57
364.845	81.07
365.308	87.27
365.772	84.07
366.235	78.97
366.698	87.37
367.162	89.27
367.625	87.07
368.088	88.57
368.552	88.97
369.015	86.57
369.478	95.37
369.941	102.97
370.404	97.77
370.867	104.47
371.331	104.97
371.794	113.07
372.257	108.47
372.72	113.27
373.183	104.17
373.646	97.07
374.109	101.47
374.572	102.67
375.035	106.57
375.497	105.47
375.96	99.57
376.423	98.07
376.886	108.77
377.349	107.47
377.811	94.57
378.274	105.37
378.737	97.07
379.199	109.97
379.662	111.07
380.125	111.27
380.587	113.37
381.05	120.47
381.512	118.77
381.975	127.37
382.437	123.37
382.9	122.87
383.362	130.37
383.825	131.47
384.287	143.17
384.75	135.57
385.212	140.77
385.674	138.87
386.136	132.77
386.599	120.07
387.061	118.67
387.523	125.87
387.985	123.97
388.447	143.57
388.91	139.27
389.372	155.27
389.834	143.97
390.296	137.07
390.758	148.77
391.22	160.87
391.682	199.77
392.144	280.47
392.606	215.07
393.068	161.27
393.529	159.77
393.991	149.17
394.453	139.87
394.915	150.67
395.377	178.27
395.838	207.07
396.3	147.07
396.762	134.87
397.224	124.97
397.685	123.67
398.147	124.37
398.608	126.87
399.07	125.37
399.531	127.27
399.993	132.37
400.454	142.87
400.916	142.37
401.377	139.57
401.839	145.57
402.3	149.37
402.762	162.67
403.223	174.17
403.684	168.67
404.145	146.07
404.607	149.07
405.068	157.57
405.529	162.87
405.99	176.77
406.451	170.27
406.913	161.07
407.374	154.47
407.835	157.97
408.296	156.47
408.757	166.67
409.218	177.37
409.679	173.47
410.14	170.07
410.601	165.57
411.062	177.97
411.522	181.57
411.983	173.97
412.444	168.67
412.905	168.87
413.366	173.67
413.826	183.17
414.287	202.47
414.748	243.77
415.208	233.97
415.669	209.07
416.13	193.87
416.59	188.77
417.051	199.57
417.511	204.77
417.972	225.67
418.432	230.88
418.893	278.17
419.353	242.07
419.814	190.47
420.274	172.07
420.734	170.47
421.195	184.77
421.655	182.17
422.115	186.87
422.576	188.67
423.036	191.07
423.496	188.17
423.956	203.77
424.416	215.57
424.876	249.67
425.336	241.17
425.797	257.57
426.257	241.07
426.717	224.17
427.177	221.67
427.637	208.07
428.097	223.37
428.556	227.77
429.016	254.17
429.476	246.37
429.936	260.17
430.396	260.27
430.856	283.27
431.315	300.87
431.775	331.27
432.235	359.97
432.694	330.37
433.154	345.67
433.614	367.87
434.073	313.37
434.533	268.47
434.993	252.97
435.452	270.47
435.912	271.57
436.371	274.07
436.83	270.98
437.29	254.37
437.749	236.88
438.209	232.77
438.668	251.27
439.127	276.17
439.587	249.87
440.046	233.88
440.505	246.98
440.964	262.57
441.424	306.37
441.883	288.37
442.342	242.37
442.801	214.27
443.26	206.47
443.719	211.88
444.178	207.87
444.637	201.17
445.096	207.37
445.555	212.77
446.014	211.77
446.473	213.47
446.932	217.97
447.391	209.77
447.849	220.47
448.308	199.97
448.767	210.77
449.226	224.97
449.685	220.87
450.143	234.87
450.602	224.27
451.061	219.77
451.519	226.48
451.978	220.27
452.436	221.38
452.895	226.57
453.353	238.07
453.812	220.98
454.27	222.07
454.729	224.17
455.187	226.57
455.646	232.77
456.104	229.47
456.562	250.67
457.021	252.57
457.479	246.37
457.937	261.87
458.395	257.87
458.854	229.57
459.312	239.07
459.77	255.07
460.228	240.87
460.686	229.07
461.144	229.57
461.602	225.87
462.06	228.27
462.518	236.67
462.976	244.67
463.434	251.07
463.892	251.97
464.35	262.07
464.808	273.47
465.266	243.27
465.724	253.27
466.181	263.88
466.639	254.47
467.097	271.17
467.555	282.47
468.012	283.47
468.47	287.88
468.928	321.07
469.385	315.37
469.843	324.27
470.3	326.27
470.758	329.07
471.215	358.17
471.673	380.07
472.13	379.77
472.588	390.57
473.045	346.48
473.503	357.57
473.96	371.47
474.417	373.97
474.875	400.17
475.332	445.77
475.789	426.77
476.246	442.67
476.704	451.37
477.161	471.07
477.618	497.47
478.075	520.67
478.532	569.88
478.989	646.97
479.446	753.48
479.903	726.17
480.36	762.77
480.817	813.67
481.274	921.47
481.731	1014.88
482.188	1099.97
482.645	1238.88
483.102	1333.68
483.558	1472.57
484.015	1507.68
484.472	1488.78
484.929	1444.97
485.385	1406.67
485.842	1361.97
486.299	1302.98
486.755	1222.87
487.212	1029.38
487.668	875.47
488.125	802.97
488.582	734.27
489.038	710.87
489.494	674.57
489.951	649.17
490.407	629.77
490.864	619.17
491.32	607.77
491.776	599.07
492.233	608.77
492.689	569.17
493.145	564.97
493.602	557.37
494.058	572.47
494.514	579.27
494.97	603.07
495.426	609.38
495.882	591.47
496.338	583.57
496.794	587.67
497.251	588.17
497.707	591.37
498.163	597.07
498.618	600.97
499.074	612.57
499.53	632.17
499.986	636.47
500.442	605.77
500.898	598.27
501.354	576.97
501.809	587.17
502.265	599.77
502.721	620.57
503.177	623.87
503.632	625.37
504.088	623.97
504.543	663.77
504.999	659.57
505.455	609.47
505.91	592.97
506.366	592.37
506.821	585.37
507.277	576.57
507.732	586.07
508.187	576.27
508.643	594.17
509.098	586.67
509.553	614.97
510.009	626.37
510.464	621.27
510.919	639.88
511.375	647.97
511.83	667.27
512.285	684.37
512.74	713.38
513.195	728.38
513.65	719.98
514.105	727.07
514.56	719.17
515.015	748.37
515.47	764.38
515.925	741.17
516.38	744.47
516.835	743.27
517.29	731.48
517.745	733.17
518.2	711.27
518.655	702.77
519.109	697.57
519.564	694.87
520.019	684.27
520.474	678.17
520.928	671.87
521.383	678.37
521.838	661.87
522.292	666.47
522.747	666.47
523.201	657.57
523.656	642.77
524.11	639.48
524.565	641.67
525.019	639.97
525.474	649.07
525.928	650.48
526.382	645.97
526.837	652.47
527.291	661.57
527.745	650.07
528.2	651.37
528.654	643.67
529.108	636.87
529.562	638.27
530.016	652.27
530.47	643.17
530.925	643.97
531.379	643.38
531.833	654.67
532.287	652.77
532.741	655.77
533.195	657.37
533.649	662.87
534.103	669.77
534.556	657.97
535.01	658.87
535.464	662.57
535.918	663.98
536.372	667.47
536.826	659.27
537.279	654.07
537.733	652.88
538.187	659.97
538.64	665.47
539.094	668.17
539.548	665.07
540.001	674.17
540.455	669.67
540.908	678.07
541.362	687.38
541.815	687.38
542.269	697.87
542.722	698.77
543.175	705.27
543.629	710.17
544.082	716.97
544.536	731.07
544.989	723.17
545.442	736.07
545.895	723.77
546.349	724.37
546.802	730.47
547.255	732.67
547.708	739.77
548.161	737.87
548.614	744.17
549.067	760.07
549.52	754.67
549.973	743.67
550.426	743.37
550.879	721.77
551.332	731.67
551.785	751.37
552.238	743.37
552.691	762.27
553.144	768.57
553.596	769.07
554.049	786.27
554.502	825.27
554.955	839.07
555.407	832.27
555.86	826.77
556.313	806.47
556.765	814.27
557.218	806.87
557.67	807.97
558.123	804.87
558.576	800.97
559.028	798.07
559.48	800.77
559.933	794.07
560.385	768.07
560.838	747.17
561.29	717.47
561.742	725.07
562.195	698.17
562.647	701.87
563.099	706.97
563.551	703.67
564.004	718.47
564.456	704.77
564.908	700.87
565.36	682.17
565.812	668.97
566.264	661.37
566.716	664.27
567.168	647.97
567.62	650.67
568.072	639.77
568.524	627.27
568.976	627.37
569.428	604.88
569.88	607.47
570.332	614.07
570.784	630.37
571.235	611.27
571.687	620.77
572.139	632.87
572.59	647.17
573.042	639.77
573.494	644.87
573.945	637.87
574.397	625.88
574.849	629.97
575.3	626.67
575.752	614.57
576.203	612.47
576.655	608.77
577.106	602.47
577.557	606.87
578.009	599.48
578.46	603.07
578.912	598.07
579.363	604.17
579.814	604.37
580.265	601.47
580.717	597.37
581.168	608.47
581.619	608.77
582.07	604.07
582.521	612.07
582.972	600.17
583.423	603.87
583.875	607.17
584.326	631.07
584.777	678.27
585.227	740.27
585.678	830.37
586.129	902.67
586.58	969.37
587.031	1043.77
587.482	1202.67
587.933	1370.97
588.384	1190.57
588.834	885.38
589.285	721.57
589.736	692.67
590.186	688.27
590.637	687.47
591.088	667.98
591.538	661.38
591.989	648.07
592.439	644.57
592.89	644.27
593.34	637.97
593.791	632.67
594.241	636.77
594.692	636.97
595.142	624.97
595.593	624.07
596.043	633.37
596.493	631.27
596.943	639.77
597.394	644.77
597.844	629.67
598.294	644.07
598.744	663.57
599.195	685.07
599.645	718.27
600.095	751.17
600.545	808.47
600.995	851.37
601.445	917.37
601.895	966.08
602.345	1004.07
602.795	991.27
603.245	951.38
603.695	900.37
604.145	841.77
604.594	810.37
605.044	766.57
605.494	711.97
605.944	662.87
606.393	656.37
606.843	646.97
607.293	649.77
607.743	640.27
608.192	652.07
608.642	668.57
609.091	674.67
609.541	676.97
609.99	680.87
610.44	675.77
610.889	634.27
611.339	619.17
611.788	612.98
612.238	609.07
612.687	631.87
613.136	627.97
613.586	648.67
614.035	647.98
614.484	667.37
614.933	665.17
615.383	658.07
615.832	652.37
616.281	639.98
616.73	601.17
617.179	573.57
617.628	560.67
618.077	548.67
618.526	548.97
618.975	544.77
619.424	550.77
619.873	530.48
620.322	536.77
620.771	520.17
621.22	527.87
621.669	524.67
622.118	507.77
622.567	493.07
623.015	501.97
623.464	493.17
623.913	489.77
624.361	482.97
624.81	471.97
625.259	484.57
625.707	486.07
626.156	484.17
626.604	492.87
627.053	489.17
627.501	488.97
627.95	494.67
628.398	499.27
628.847	492.27
629.295	491.17
629.744	498.47
630.192	497.77
630.64	492.37
631.089	493.97
631.537	500.17
631.985	497.17
632.433	513.88
632.881	521.57
633.33	571.67
633.778	549.97
634.226	485.98
634.674	489.07
635.122	498.47
635.57	514.67
636.018	542.67
636.466	512.88
636.914	484.27
637.362	502.57
637.81	500.57
638.258	500.87
638.705	496.57
639.153	524.67
639.601	532.97
640.049	549.37
640.497	591.67
640.944	592.87
641.392	549.57
641.84	526.87
642.287	516.27
642.735	486.17
643.182	489.67
643.63	494.07
644.078	497.77
644.525	512.57
644.973	508.97
645.42	519.37
645.867	528.77
646.315	549.37
646.762	575.07
647.21	603.37
647.657	613.47
648.104	647.57
648.551	675.57
648.999	710.88
649.446	783.57
649.893	863.77
650.34	996.57
650.787	1182.07
651.234	1473.58
651.682	1906.97
652.129	2611.57
652.576	3755.08
653.023	5570.17
653.47	7659.38
653.917	9712.17
654.363	11351.77
654.81	12769.58
655.257	12140.48
655.704	7848.18
656.151	4631.27
656.598	2980.58
657.044	2107.07
657.491	1623.18
657.938	1288.97
658.385	1082.37
658.831	925.77
659.278	832.97
659.724	733.37
660.171	687.27
660.618	616.17
661.064	586.57
661.511	567.77
661.957	546.87
662.404	545.57
662.85	551.77
663.296	519.77
663.743	474.77
664.189	458.37
664.635	451.07
665.082	447.87
665.528	447.37
665.974	437.47
666.42	429.97
666.867	429.77
667.313	418.57
667.759	401.47
668.205	403.77
668.651	409.98
669.097	421.17
669.543	441.27
669.989	400.87
670.435	382.87
670.881	380.07
671.327	386.97
671.773	400.87
672.219	418.47
672.665	457.67
673.11	486.27
673.556	533.57
674.002	567.88
674.448	555.17
674.893	466.77
675.339	401.67
675.785	374.88
676.23	353.17
676.676	329.07
677.122	317.87
677.567	314.67
678.013	306.77
678.458	310.57
678.904	309.07
679.349	295.77
679.794	299.27
680.24	297.17
680.685	289.57
681.131	293.57
681.576	292.17
682.021	303.88
682.466	288.47
682.912	291.87
683.357	292.17
683.802	326.48
684.247	341.47
684.692	383.97
685.137	412.07
685.583	457.77
686.028	478.37
686.473	438.37
686.918	378.57
687.363	352.57
687.807	325.87
688.252	311.57
688.697	296.77
689.142	291.37
689.587	272.07
690.032	272.27
690.477	287.47
690.921	287.27
691.366	318.77
691.811	345.27
692.255	368.17
692.7	392.77
693.145	430.67
693.589	571.67
694.034	925.47
694.478	1279.67
694.923	1498.38
695.367	1972.18
695.812	1015.07
696.256	425.17
696.701	320.77
697.145	294.27
697.59	273.17
698.034	270.27
698.478	279.67
698.922	271.37
699.367	272.97
699.811	284.87
700.255	299.27
700.699	321.47
701.143	353.77
701.588	403.47
702.032	436.17
702.476	438.07
702.92	408.17
703.364	409.97
703.808	522.67
704.252	843.87
704.696	1212.98
705.14	1425.78
705.584	1829.18
706.027	906.17
706.471	440.37
706.915	330.07
707.359	295.27
707.803	264.57
708.246	256.67
708.69	264.27
709.134	266.67
709.577	262.17
710.021	269.07
710.465	257.37
710.908	249.97
711.352	256.38
711.795	262.27
712.239	297.57
712.682	314.37
713.126	350.07
713.569	397.57
714.012	308.77
714.456	274.27
714.899	253.77
715.342	234.07
715.786	216.38
716.229	213.17
716.672	214.37
717.115	207.97
717.558	216.27
718.002	212.77
718.445	218.27
718.888	238.37
719.331	243.48
719.774	257.87
720.217	263.07
720.66	240.77
721.103	225.17
721.546	214.67
721.989	207.57
722.432	192.07
722.874	194.87
723.317	192.57
723.76	196.47
724.203	213.17
724.645	251.67
725.088	361.67
725.531	479.97
725.974	551.07
726.416	463.57
726.859	262.77
727.301	203.97
727.744	199.07
728.187	195.98
728.629	196.77
729.071	199.57
729.514	218.37
729.956	227.67
730.399	240.27
730.841	242.07
731.283	225.48
731.726	220.27
732.168	217.17
732.61	221.67
733.053	238.67
733.495	259.27
733.937	287.27
734.379	327.77
734.821	353.67
735.263	450.87
735.705	675.97
736.148	1280.78
736.59	2149.38
737.032	2637.38
737.474	2140.68
737.916	687.07
738.357	367.17
738.799	270.67
739.241	248.87
739.683	236.87
740.125	246.57
740.567	247.27
741.008	270.17
741.45	264.17
741.892	264.77
742.334	296.17
742.775	309.27
743.217	291.17
743.658	218.37
744.1	206.57
744.542	214.27
744.983	259.27
745.425	288.27
745.866	296.87
746.307	233.67
746.749	235.38
747.19	263.27
747.632	372.17
748.073	702.27
748.514	1508.67
748.956	2391.47
749.397	2997.18
749.838	2495.98
750.279	2551.28
750.72	1278.27
751.162	465.47
751.603	269.87
752.044	208.37
752.485	187.67
752.926	175.97
753.367	168.07
753.808	163.77
754.249	165.57
754.69	156.87
755.131	147.77
755.572	150.87
756.013	147.17
756.453	154.57
756.894	160.07
757.335	159.67
757.776	161.07
758.216	164.57
758.657	160.97
759.098	169.77
759.538	185.77
759.979	228.27
760.42	302.38
760.86	556.27
761.301	1463.88
761.741	3643.97
762.182	5586.17
762.622	3922.67
