Data from 20171114-ORNL-Ar_H_NY_Subt18_08-07-52-454.txt Node
Date: Tue Nov 14 08:07:52 EST 2017
User: Ender
Spectrometer: HR+D1039
Trigger mode: 0
Integration Time (sec): 2.730000E-2
Scans to average: 10
Electric dark correction enabled: true
Nonlinearity correction enabled: false
Boxcar width: 0
XAxis mode: Wavelengths
Number of Pixels in Spectrum: 2048
>>>>>Begin Spectral Data<<<<<
187.836	-4.12
188.309	-4.12
188.782	-4.12
189.255	0.98
189.728	3.18
190.201	4.48
190.674	-0.92
191.147	6.98
191.619	-11.62
192.092	1.88
192.565	4.68
193.038	-3.22
193.511	1.38
193.984	-0.82
194.456	1.28
194.929	-1.02
195.402	-2.72
195.874	-0.42
196.347	2.28
196.82	-4.12
197.292	5.68
197.765	-0.02
198.237	-2.32
198.71	0.98
199.182	-0.32
199.655	7.08
200.127	2.18
200.6	-1.32
201.072	-5.92
201.544	-1.62
202.017	-1.62
202.489	7.88
202.961	-1.92
203.433	0.28
203.906	-7.02
204.378	-8.22
204.85	-2.92
205.322	-10.92
205.794	-3.02
206.266	-4.52
206.739	-10.62
207.211	-0.82
207.683	-9.12
208.155	-3.42
208.627	-5.62
209.099	2.38
209.57	-5.82
210.042	-2.12
210.514	0.28
210.986	-0.72
211.458	-5.12
211.93	-2.82
212.402	-2.22
212.873	-5.32
213.345	-6.92
213.817	-12.52
214.288	-3.62
214.76	-7.22
215.232	0.48
215.703	0.88
216.175	-6.12
216.646	-3.52
217.118	-3.52
217.589	-1.82
218.061	-2.72
218.532	0.88
219.004	-5.72
219.475	-5.42
219.946	0.68
220.418	-5.02
220.889	1.38
221.36	-2.52
221.832	-5.22
222.303	-7.82
222.774	1.58
223.245	-8.32
223.717	-9.52
224.188	-5.12
224.659	-7.92
225.13	-9.42
225.601	-6.92
226.072	3.98
226.543	-1.62
227.014	2.68
227.485	-5.92
227.956	-3.42
228.427	-11.02
228.898	1.58
229.369	5.98
229.839	-6.42
230.31	-4.52
230.781	3.98
231.252	-3.02
231.722	-4.92
232.193	-4.02
232.664	2.78
233.135	0.28
233.605	-0.52
234.076	-9.22
234.546	2.48
235.017	4.98
235.487	7.18
235.958	-0.62
236.428	-3.22
236.899	3.68
237.369	0.38
237.84	-4.82
238.31	-3.02
238.78	1.98
239.251	-2.52
239.721	3.88
240.191	-2.52
240.662	-2.82
241.132	-4.52
241.602	-2.82
242.072	1.08
242.542	10.68
243.013	-1.92
243.483	4.28
243.953	2.48
244.423	-0.62
244.893	-6.82
245.363	-1.72
245.833	0.98
246.303	-1.72
246.773	3.28
247.243	-0.82
247.712	4.18
248.182	9.18
248.652	-0.32
249.122	-0.62
249.592	12.68
250.061	21.08
250.531	25.28
251.001	15.58
251.471	21.58
251.94	18.18
252.41	7.78
252.879	0.58
253.349	11.78
253.818	5.98
254.288	3.08
254.757	1.88
255.227	-0.82
255.696	-0.02
256.166	2.98
256.635	7.18
257.105	1.78
257.574	6.68
258.043	6.88
258.513	15.08
258.982	14.18
259.451	2.28
259.92	9.48
260.389	10.28
260.859	17.08
261.328	12.28
261.797	15.28
262.266	3.78
262.735	9.08
263.204	8.98
263.673	5.68
264.142	8.88
264.611	-5.72
265.08	-1.62
265.549	2.08
266.018	8.78
266.487	-1.12
266.955	-1.62
267.424	-2.52
267.893	3.08
268.362	-1.62
268.83	1.68
269.299	10.88
269.768	7.78
270.236	4.48
270.705	5.78
271.174	3.58
271.642	6.88
272.111	4.18
272.579	15.18
273.048	22.98
273.516	26.58
273.985	20.38
274.453	17.28
274.922	17.28
275.39	15.08
275.858	1.98
276.327	12.08
276.795	19.28
277.263	12.08
277.731	30.98
278.2	48.88
278.668	45.18
279.136	40.38
279.604	13.78
280.072	8.88
280.54	10.58
281.008	12.28
281.477	9.28
281.945	14.58
282.413	13.38
282.881	14.58
283.348	2.68
283.816	15.58
284.284	13.38
284.752	15.68
285.22	12.18
285.688	16.58
286.156	21.88
286.623	41.98
287.091	47.18
287.559	24.28
288.026	15.88
288.494	9.68
288.962	9.78
289.429	4.78
289.897	18.18
290.364	17.08
290.832	18.18
291.3	16.38
291.767	11.88
292.234	11.68
292.702	9.58
293.169	18.78
293.637	24.98
294.104	21.48
294.571	5.78
295.039	9.58
295.506	13.98
295.973	17.48
296.44	16.98
296.908	13.08
297.375	18.48
297.842	19.48
298.309	11.08
298.776	15.28
299.243	15.58
299.71	14.38
300.177	14.48
300.644	20.78
301.111	14.08
301.578	18.98
302.045	13.28
302.512	15.78
302.979	23.88
303.446	20.58
303.913	21.38
304.379	13.18
304.846	28.38
305.313	22.78
305.78	20.88
306.246	19.18
306.713	29.48
307.18	22.38
307.646	23.58
308.113	28.28
308.579	16.98
309.046	24.48
309.512	23.68
309.979	17.98
310.445	23.98
310.912	28.68
311.378	24.78
311.845	23.38
312.311	28.28
312.777	29.38
313.244	29.18
313.71	29.28
314.176	30.98
314.642	30.98
315.109	21.08
315.575	35.18
316.041	30.98
316.507	30.28
316.973	36.18
317.439	33.78
317.905	33.48
318.371	37.28
318.837	30.88
319.303	31.08
319.769	30.78
320.235	32.58
320.701	30.68
321.167	39.58
321.633	32.58
322.099	37.08
322.564	42.78
323.03	36.98
323.496	41.58
323.962	36.98
324.427	32.98
324.893	42.88
325.359	32.78
325.824	32.88
326.29	36.08
326.755	39.78
327.221	32.48
327.686	33.08
328.152	44.08
328.617	36.08
329.083	44.18
329.548	40.98
330.014	45.18
330.479	29.38
330.944	38.78
331.41	43.18
331.875	39.28
332.34	47.48
332.805	45.78
333.271	38.98
333.736	49.08
334.201	47.98
334.666	46.78
335.131	50.08
335.596	44.28
336.061	49.18
336.526	38.58
336.991	43.68
337.456	50.28
337.921	43.78
338.386	45.08
338.851	40.18
339.316	46.18
339.781	47.58
340.246	52.28
340.711	40.48
341.175	45.08
341.64	37.98
342.105	45.58
342.569	50.48
343.034	57.68
343.499	55.28
343.963	48.08
344.428	58.58
344.893	57.78
345.357	55.18
345.822	57.68
346.286	59.48
346.751	73.58
347.215	55.98
347.679	65.88
348.144	95.58
348.608	76.58
349.073	65.68
349.537	67.68
350.001	72.18
350.465	80.78
350.93	76.58
351.394	77.78
351.858	71.58
352.322	83.68
352.786	73.98
353.25	90.78
353.715	100.48
354.179	91.08
354.643	112.08
355.107	122.18
355.571	97.88
356.035	103.48
356.498	108.38
356.962	118.08
357.426	118.18
357.89	114.48
358.354	87.68
358.818	74.98
359.281	78.48
359.745	67.78
360.209	68.38
360.673	68.18
361.136	78.28
361.6	81.88
362.064	72.78
362.527	81.18
362.991	80.88
363.454	70.38
363.918	72.08
364.381	76.98
364.845	75.28
365.308	80.38
365.772	80.98
366.235	81.98
366.698	73.68
367.162	76.68
367.625	81.28
368.088	76.08
368.552	79.18
369.015	81.38
369.478	85.38
369.941	94.48
370.404	90.98
370.867	100.68
371.331	105.28
371.794	110.78
372.257	104.78
372.72	106.48
373.183	101.58
373.646	95.28
374.109	96.78
374.572	99.38
375.035	105.18
375.497	102.18
375.96	99.48
376.423	95.48
376.886	106.68
377.349	104.28
377.811	92.98
378.274	94.98
378.737	98.28
379.199	104.98
379.662	104.48
380.125	106.48
380.587	102.58
381.05	116.38
381.512	121.58
381.975	119.98
382.437	124.38
382.9	124.28
383.362	122.48
383.825	134.58
384.287	142.88
384.75	126.48
385.212	137.98
385.674	128.88
386.136	126.78
386.599	117.68
387.061	121.78
387.523	114.38
387.985	126.68
388.447	135.28
388.91	136.68
389.372	150.68
389.834	142.48
390.296	144.88
390.758	149.58
391.22	157.78
391.682	201.58
392.144	291.88
392.606	219.18
393.068	158.48
393.529	161.88
393.991	146.18
394.453	142.18
394.915	150.58
395.377	182.98
395.838	211.18
396.3	142.98
396.762	137.48
397.224	124.68
397.685	117.68
398.147	119.58
398.608	123.58
399.07	120.98
399.531	128.38
399.993	132.88
400.454	140.68
400.916	132.28
401.377	132.88
401.839	144.28
402.3	140.38
402.762	154.08
403.223	169.78
403.684	167.28
404.145	144.18
404.607	153.28
405.068	156.38
405.529	162.48
405.99	184.28
406.451	159.98
406.913	168.48
407.374	149.98
407.835	152.08
408.296	154.78
408.757	165.88
409.218	182.38
409.679	170.38
410.14	168.58
410.601	168.48
411.062	171.98
411.522	181.08
411.983	180.38
412.444	170.38
412.905	170.48
413.366	172.78
413.826	185.18
414.287	203.38
414.748	245.78
415.208	231.68
415.669	198.28
416.13	185.48
416.59	189.78
417.051	204.78
417.511	205.28
417.972	216.68
418.432	228.18
418.893	267.98
419.353	234.58
419.814	187.48
420.274	180.18
420.734	176.48
421.195	190.68
421.655	192.98
422.115	189.08
422.576	182.78
423.036	185.98
423.496	193.08
423.956	204.48
424.416	217.78
424.876	249.48
425.336	252.88
425.797	245.38
426.257	249.08
426.717	230.48
427.177	220.68
427.637	217.88
428.097	221.28
428.556	234.28
429.016	263.28
429.476	253.38
429.936	261.68
430.396	266.68
430.856	281.08
431.315	298.58
431.775	338.88
432.235	369.38
432.694	336.58
433.154	347.08
433.614	378.08
434.073	327.98
434.533	276.08
434.993	253.78
435.452	268.88
435.912	290.48
436.371	273.38
436.83	278.48
437.29	263.48
437.749	233.28
438.209	234.58
438.668	256.78
439.127	283.98
439.587	254.48
440.046	238.08
440.505	249.78
440.964	262.28
441.424	312.28
441.883	292.58
442.342	245.78
442.801	217.08
443.26	212.08
443.719	216.18
444.178	207.78
444.637	196.38
445.096	207.08
445.555	216.18
446.014	210.58
446.473	211.18
446.932	229.98
447.391	219.58
447.849	213.38
448.308	209.48
448.767	212.98
449.226	222.28
449.685	217.58
450.143	241.08
450.602	225.08
451.061	218.78
451.519	221.38
451.978	223.08
452.436	216.98
452.895	230.98
453.353	242.68
453.812	236.98
454.27	227.08
454.729	230.08
455.187	230.28
455.646	231.18
456.104	235.58
456.562	247.98
457.021	257.68
457.479	251.98
457.937	255.08
458.395	244.68
458.854	236.08
459.312	246.48
459.77	261.68
460.228	252.68
460.686	231.08
461.144	235.28
461.602	234.68
462.06	239.98
462.518	246.88
462.976	241.98
463.434	247.08
463.892	248.88
464.35	259.08
464.808	278.88
465.266	254.48
465.724	257.48
466.181	262.28
466.639	260.98
467.097	266.68
467.555	280.28
468.012	284.48
468.47	291.78
468.928	314.38
469.385	330.58
469.843	337.38
470.3	340.18
470.758	342.98
471.215	371.18
471.673	388.38
472.13	392.38
472.588	406.68
473.045	351.68
473.503	361.78
473.96	377.58
474.417	387.08
474.875	424.38
475.332	459.98
475.789	439.08
476.246	443.38
476.704	475.28
477.161	486.28
477.618	500.38
478.075	542.08
478.532	594.08
478.989	658.68
479.446	771.98
479.903	749.18
480.36	784.48
480.817	837.08
481.274	928.78
481.731	1037.98
482.188	1109.58
482.645	1247.88
483.102	1361.08
483.558	1487.98
484.015	1537.28
484.472	1523.68
484.929	1470.88
485.385	1426.58
485.842	1379.28
486.299	1312.08
486.755	1247.38
487.212	1048.58
487.668	895.78
488.125	815.08
488.582	745.88
489.038	722.18
489.494	682.18
489.951	649.38
490.407	635.28
490.864	618.18
491.32	619.18
491.776	612.18
492.233	616.08
492.689	586.68
493.145	590.88
493.602	569.68
494.058	579.58
494.514	587.98
494.97	606.18
495.426	620.98
495.882	578.68
496.338	573.48
496.794	598.58
497.251	592.88
497.707	604.28
498.163	603.58
498.618	612.18
499.074	613.48
499.53	651.38
499.986	638.58
500.442	616.48
500.898	603.68
501.354	608.98
501.809	599.18
502.265	620.38
502.721	637.98
503.177	647.08
503.632	632.98
504.088	645.58
504.543	682.18
504.999	688.88
505.455	626.98
505.91	595.38
506.366	593.98
506.821	592.78
507.277	596.08
507.732	595.58
508.187	592.88
508.643	610.48
509.098	599.68
509.553	616.08
510.009	626.58
510.464	630.68
510.919	656.68
511.375	659.68
511.83	666.88
512.285	689.38
512.74	729.18
513.195	746.38
513.65	734.38
514.105	734.48
514.56	741.78
515.015	748.88
515.47	775.08
515.925	753.68
516.38	742.68
516.835	754.28
517.29	748.88
517.745	746.78
518.2	726.18
518.655	707.88
519.109	707.98
519.564	698.08
520.019	696.98
520.474	685.18
520.928	699.38
521.383	685.38
521.838	682.18
522.292	674.98
522.747	680.08
523.201	675.98
523.656	664.48
524.11	658.48
524.565	662.78
525.019	669.68
525.474	661.48
525.928	665.88
526.382	657.18
526.837	666.98
527.291	668.68
527.745	669.88
528.2	669.28
528.654	658.98
529.108	657.78
529.562	658.88
530.016	657.68
530.47	655.08
530.925	663.38
531.379	661.98
531.833	680.68
532.287	674.88
532.741	663.78
533.195	663.78
533.649	676.98
534.103	697.98
534.556	678.78
535.01	677.88
535.464	680.78
535.918	682.78
536.372	690.58
536.826	689.28
537.279	687.58
537.733	690.08
538.187	684.68
538.64	682.58
539.094	695.48
539.548	702.88
540.001	695.88
540.455	694.18
540.908	699.98
541.362	715.58
541.815	718.38
542.269	722.28
542.722	727.18
543.175	744.68
543.629	735.88
544.082	759.48
544.536	756.28
544.989	750.08
545.442	761.18
545.895	746.38
546.349	757.78
546.802	760.68
547.255	761.58
547.708	770.98
548.161	773.58
548.614	790.58
549.067	794.08
549.52	787.28
549.973	767.68
550.426	779.08
550.879	760.58
551.332	760.98
551.785	771.58
552.238	775.18
552.691	777.58
553.144	793.78
553.596	814.18
554.049	832.18
554.502	867.38
554.955	878.88
555.407	869.58
555.86	860.38
556.313	857.48
556.765	844.78
557.218	846.88
557.67	846.48
558.123	837.18
558.576	833.88
559.028	841.88
559.48	850.78
559.933	837.18
560.385	805.68
560.838	770.18
561.29	755.58
561.742	750.88
562.195	733.38
562.647	736.68
563.099	744.58
563.551	742.68
564.004	755.28
564.456	742.98
564.908	730.48
565.36	720.08
565.812	703.78
566.264	698.78
566.716	707.88
567.168	693.18
567.62	698.38
568.072	679.48
568.524	670.88
568.976	670.28
569.428	646.58
569.88	650.78
570.332	658.78
570.784	664.68
571.235	653.28
571.687	666.58
572.139	670.58
572.59	680.48
573.042	693.38
573.494	677.38
573.945	676.68
574.397	662.68
574.849	658.18
575.3	663.88
575.752	664.28
576.203	650.78
576.655	650.38
577.106	649.88
577.557	637.28
578.009	644.48
578.46	641.38
578.912	634.68
579.363	649.68
579.814	648.88
580.265	637.08
580.717	642.48
581.168	637.78
581.619	656.58
582.07	651.38
582.521	653.88
582.972	654.58
583.423	653.08
583.875	661.58
584.326	684.38
584.777	728.48
585.227	814.28
585.678	910.48
586.129	997.58
586.58	1069.68
587.031	1155.48
587.482	1295.28
587.933	1496.28
588.384	1302.28
588.834	960.38
589.285	774.38
589.736	759.88
590.186	753.88
590.637	740.98
591.088	721.88
591.538	715.48
591.989	707.28
592.439	701.98
592.89	696.08
593.34	684.98
593.791	689.88
594.241	678.68
594.692	685.68
595.142	680.08
595.593	680.38
596.043	682.28
596.493	696.48
596.943	699.98
597.394	702.28
597.844	699.58
598.294	702.48
598.744	726.38
599.195	758.98
599.645	779.38
600.095	832.98
600.545	882.58
600.995	933.28
601.445	988.38
601.895	1051.48
602.345	1102.78
602.795	1066.88
603.245	1025.18
603.695	979.08
604.145	918.08
604.594	879.48
605.044	831.68
605.494	780.58
605.944	724.68
606.393	717.18
606.843	709.48
607.293	704.38
607.743	700.28
608.192	718.88
608.642	735.68
609.091	748.98
609.541	747.48
609.99	746.28
610.44	751.48
610.889	696.08
611.339	684.28
611.788	660.08
612.238	687.18
612.687	704.58
613.136	692.88
613.586	723.98
614.035	712.98
614.484	737.78
614.933	745.88
615.383	732.18
615.832	719.48
616.281	713.18
616.73	659.68
617.179	652.18
617.628	632.28
618.077	612.08
618.526	597.78
618.975	603.98
619.424	587.78
619.873	597.98
620.322	598.28
620.771	587.98
621.22	573.58
621.669	570.18
622.118	568.68
622.567	564.08
623.015	557.78
623.464	558.88
623.913	542.18
624.361	531.18
624.81	532.38
625.259	536.28
625.707	536.18
626.156	540.18
626.604	554.48
627.053	546.38
627.501	543.38
627.95	545.58
628.398	560.98
628.847	553.88
629.295	556.58
629.744	565.28
630.192	555.48
630.64	558.28
631.089	544.68
631.537	564.38
631.985	576.58
632.433	594.18
632.881	599.98
633.33	658.98
633.778	629.28
634.226	552.28
634.674	556.98
635.122	562.98
635.57	577.88
636.018	617.28
636.466	570.28
636.914	548.18
637.362	554.88
637.81	559.28
638.258	565.58
638.705	556.68
639.153	588.68
639.601	588.78
640.049	620.08
640.497	648.58
640.944	666.08
641.392	618.88
641.84	599.28
642.287	571.88
642.735	550.98
643.182	554.68
643.63	554.98
644.078	563.58
644.525	580.68
644.973	590.88
645.42	593.58
645.867	604.48
646.315	631.28
646.762	646.78
647.21	677.08
647.657	692.58
648.104	725.58
648.551	749.98
648.999	814.98
649.446	902.38
649.893	982.58
650.34	1131.48
650.787	1375.98
651.234	1704.78
651.682	2239.28
652.129	3087.58
652.576	4441.28
653.023	6584.18
653.47	9043.28
653.917	11204.28
654.363	12848.38
654.81	14188.58
655.257	13481.78
655.704	8806.78
656.151	5169.68
656.598	3341.78
657.044	2351.98
657.491	1812.08
657.938	1451.68
658.385	1215.28
658.831	1050.78
659.278	937.58
659.724	830.58
660.171	768.88
660.618	700.78
661.064	664.98
661.511	655.18
661.957	635.18
662.404	627.48
662.85	639.78
663.296	606.78
663.743	549.18
664.189	529.78
664.635	521.88
665.082	516.78
665.528	516.18
665.974	497.68
666.42	490.88
666.867	494.58
667.313	479.88
667.759	466.68
668.205	469.68
668.651	474.48
669.097	478.88
669.543	497.68
669.989	459.48
670.435	438.18
670.881	429.18
671.327	431.98
671.773	450.48
672.219	472.48
672.665	529.08
673.11	564.48
673.556	600.88
674.002	639.98
674.448	629.68
674.893	530.78
675.339	453.08
675.785	421.08
676.23	400.48
676.676	379.58
677.122	369.18
677.567	361.88
678.013	355.18
678.458	349.18
678.904	352.78
679.349	334.28
679.794	338.08
680.24	334.98
680.685	332.58
681.131	337.68
681.576	339.98
682.021	339.48
682.466	333.78
682.912	341.58
683.357	347.28
683.802	373.38
684.247	405.48
684.692	443.78
685.137	482.48
685.583	521.48
686.028	541.88
686.473	494.88
686.918	431.48
687.363	401.88
687.807	370.18
688.252	354.68
688.697	351.08
689.142	332.18
689.587	322.88
690.032	317.68
690.477	338.38
690.921	351.18
691.366	376.88
691.811	388.28
692.255	422.28
692.7	450.48
693.145	494.38
693.589	687.78
694.034	1112.88
694.478	1499.68
694.923	1659.38
695.367	2156.68
695.812	1149.88
696.256	491.08
696.701	359.08
697.145	335.58
697.59	318.08
698.034	312.58
698.478	326.98
698.922	313.68
699.367	313.68
699.811	326.68
700.255	344.68
700.699	370.98
701.143	414.08
701.588	466.58
702.032	500.48
702.476	502.68
702.92	472.38
703.364	485.08
703.808	622.58
704.252	1021.78
704.696	1415.48
705.14	1623.98
705.584	2039.78
706.027	1020.78
706.471	498.48
706.915	382.68
707.359	342.98
707.803	311.58
708.246	302.18
708.69	303.98
709.134	306.68
709.577	293.38
710.021	311.48
710.465	297.18
710.908	292.78
711.352	294.78
711.795	298.38
712.239	349.28
712.682	373.18
713.126	401.68
713.569	449.38
714.012	364.58
714.456	313.48
714.899	295.38
715.342	265.18
715.786	258.88
716.229	248.48
716.672	251.88
717.115	243.28
717.558	244.08
718.002	253.18
718.445	256.48
718.888	266.68
719.331	283.08
719.774	299.18
720.217	300.18
720.66	268.38
721.103	255.58
721.546	254.38
721.989	245.18
722.432	218.68
722.874	223.38
723.317	223.88
723.76	231.68
724.203	251.48
724.645	317.58
725.088	438.68
725.531	553.98
725.974	607.98
726.416	528.18
726.859	294.68
727.301	235.18
727.744	230.98
728.187	227.68
728.629	235.78
729.071	238.08
729.514	242.58
729.956	266.58
730.399	275.88
730.841	283.18
731.283	266.48
731.726	254.18
732.168	251.98
732.61	256.58
733.053	277.48
733.495	303.98
733.937	347.38
734.379	385.58
734.821	422.58
735.263	534.48
735.705	813.58
736.148	1560.58
736.59	2495.68
737.032	2910.78
737.474	2367.28
737.916	778.18
738.357	418.48
738.799	319.08
739.241	288.18
739.683	275.98
740.125	287.28
740.567	288.68
741.008	306.58
741.45	308.48
741.892	304.28
742.334	343.08
742.775	350.18
743.217	326.38
743.658	264.08
744.1	242.38
744.542	252.78
744.983	299.38
745.425	329.08
745.866	327.48
746.307	282.18
746.749	275.78
747.19	317.28
747.632	450.28
748.073	882.48
748.514	1830.88
748.956	2758.78
749.397	3458.48
749.838	2859.48
750.279	2818.68
750.72	1427.58
751.162	530.68
751.603	316.18
752.044	252.28
752.485	213.48
752.926	204.48
753.367	193.78
753.808	186.68
754.249	187.18
754.69	183.48
755.131	177.48
755.572	176.08
756.013	173.58
756.453	178.08
756.894	187.48
757.335	184.18
757.776	195.78
758.216	195.48
758.657	196.98
759.098	198.28
759.538	217.08
759.979	267.78
760.42	369.88
760.86	707.78
761.301	1822.38
761.741	4335.68
762.182	6106.38
762.622	4276.48
