Data from 20171114-ORNL-Ar_H_NY_Subt18_08-05-07-576.txt Node
Date: Tue Nov 14 08:05:07 EST 2017
User: Ender
Spectrometer: HR+D1039
Trigger mode: 0
Integration Time (sec): 2.730000E-2
Scans to average: 10
Electric dark correction enabled: true
Nonlinearity correction enabled: false
Boxcar width: 0
XAxis mode: Wavelengths
Number of Pixels in Spectrum: 2048
>>>>>Begin Spectral Data<<<<<
187.836	-3.46
188.309	-3.46
188.782	-3.46
189.255	4.34
189.728	-3.16
190.201	4.14
190.674	2.34
191.147	3.04
191.619	-6.26
192.092	3.24
192.565	0.84
193.038	-2.46
193.511	2.24
193.984	2.44
194.456	-2.46
194.929	-2.46
195.402	-1.26
195.874	-1.06
196.347	0.94
196.82	-1.06
197.292	4.64
197.765	0.84
198.237	-4.56
198.71	3.54
199.182	1.84
199.655	0.44
200.127	2.14
200.6	-7.16
201.072	2.44
201.544	-4.06
202.017	0.64
202.489	6.24
202.961	0.14
203.433	-1.06
203.906	-5.96
204.378	-7.86
204.85	-3.66
205.322	-7.36
205.794	3.54
206.266	-4.56
206.739	-6.36
207.211	7.04
207.683	-3.56
208.155	-3.16
208.627	-3.16
209.099	-0.46
209.57	-5.86
210.042	-2.76
210.514	-6.06
210.986	-2.86
211.458	-5.76
211.93	4.34
212.402	3.14
212.873	-6.06
213.345	-2.56
213.817	-2.36
214.288	-1.86
214.76	-9.36
215.232	-2.56
215.703	-0.96
216.175	1.04
216.646	-2.86
217.118	-5.06
217.589	-4.06
218.061	-1.76
218.532	-3.26
219.004	4.54
219.475	0.54
219.946	-5.46
220.418	0.24
220.889	0.64
221.36	1.84
221.832	-3.86
222.303	-4.26
222.774	1.24
223.245	-9.26
223.717	-8.56
224.188	-2.66
224.659	-10.56
225.13	-7.36
225.601	3.74
226.072	4.94
226.543	-1.76
227.014	3.04
227.485	-3.76
227.956	-7.46
228.427	-3.76
228.898	5.34
229.369	-0.66
229.839	-3.66
230.31	-5.36
230.781	0.14
231.252	-0.56
231.722	-3.46
232.193	-8.96
232.664	0.64
233.135	3.64
233.605	-1.06
234.076	-3.76
234.546	-0.76
235.017	2.94
235.487	1.44
235.958	5.14
236.428	-1.16
236.899	5.34
237.369	7.14
237.84	2.54
238.31	7.44
238.78	5.24
239.251	-2.46
239.721	-1.06
240.191	-1.46
240.662	-2.86
241.132	-1.66
241.602	-0.26
242.072	4.04
242.542	7.44
243.013	5.94
243.483	0.54
243.953	4.74
244.423	2.94
244.893	1.24
245.363	10.94
245.833	7.14
246.303	8.74
246.773	5.34
247.243	1.24
247.712	3.54
248.182	14.04
248.652	9.74
249.122	0.34
249.592	17.04
250.061	23.94
250.531	35.74
251.001	21.84
251.471	28.24
251.94	22.74
252.41	11.44
252.879	2.54
253.349	15.74
253.818	19.34
254.288	4.94
254.757	11.54
255.227	5.04
255.696	7.24
256.166	11.94
256.635	14.04
257.105	10.34
257.574	7.54
258.043	12.14
258.513	13.54
258.982	24.44
259.451	11.34
259.92	16.54
260.389	13.34
260.859	19.54
261.328	16.84
261.797	17.84
262.266	10.04
262.735	13.44
263.204	10.94
263.673	5.24
264.142	8.64
264.611	4.84
265.08	4.74
265.549	-1.86
266.018	10.74
266.487	3.04
266.955	-0.86
267.424	2.14
267.893	5.94
268.362	4.34
268.83	5.94
269.299	7.84
269.768	6.64
270.236	7.34
270.705	2.64
271.174	4.74
271.642	9.94
272.111	10.44
272.579	22.04
273.048	27.54
273.516	32.84
273.985	34.84
274.453	29.14
274.922	26.34
275.39	12.14
275.858	9.44
276.327	16.34
276.795	14.64
277.263	11.74
277.731	31.84
278.2	54.44
278.668	62.54
279.136	50.94
279.604	26.24
280.072	21.84
280.54	17.34
281.008	14.34
281.477	16.54
281.945	17.14
282.413	16.94
282.881	17.94
283.348	8.74
283.816	12.94
284.284	14.34
284.752	24.24
285.22	15.44
285.688	19.74
286.156	21.34
286.623	52.24
287.091	52.24
287.559	28.84
288.026	19.94
288.494	16.14
288.962	12.54
289.429	12.34
289.897	27.94
290.364	18.14
290.832	23.74
291.3	26.34
291.767	25.24
292.234	22.14
292.702	12.64
293.169	20.44
293.637	23.74
294.104	20.24
294.571	12.74
295.039	18.64
295.506	21.04
295.973	21.64
296.44	20.84
296.908	27.24
297.375	16.74
297.842	25.14
298.309	20.04
298.776	15.34
299.243	23.34
299.71	10.54
300.177	18.74
300.644	21.24
301.111	27.44
301.578	29.34
302.045	20.84
302.512	28.74
302.979	25.44
303.446	25.64
303.913	23.64
304.379	20.14
304.846	32.04
305.313	38.24
305.78	26.64
306.246	29.34
306.713	30.74
307.18	30.44
307.646	29.14
308.113	36.74
308.579	30.04
309.046	30.24
309.512	37.04
309.979	22.74
310.445	35.74
310.912	29.84
311.378	37.64
311.845	28.04
312.311	36.14
312.777	32.34
313.244	36.14
313.71	40.24
314.176	34.84
314.642	39.04
315.109	31.74
315.575	34.24
316.041	38.74
316.507	38.74
316.973	46.94
317.439	36.04
317.905	43.74
318.371	41.14
318.837	35.34
319.303	39.74
319.769	40.74
320.235	35.54
320.701	37.74
321.167	39.74
321.633	30.84
322.099	44.64
322.564	45.24
323.03	40.14
323.496	40.24
323.962	49.74
324.427	32.74
324.893	48.04
325.359	37.44
325.824	40.24
326.29	39.34
326.755	44.44
327.221	46.54
327.686	37.44
328.152	51.04
328.617	48.84
329.083	46.64
329.548	54.24
330.014	51.04
330.479	46.54
330.944	43.14
331.41	46.14
331.875	45.74
332.34	45.94
332.805	44.94
333.271	48.24
333.736	50.94
334.201	64.74
334.666	55.74
335.131	59.24
335.596	57.84
336.061	53.94
336.526	43.84
336.991	55.44
337.456	60.64
337.921	51.34
338.386	47.64
338.851	47.74
339.316	55.94
339.781	52.34
340.246	54.54
340.711	47.64
341.175	52.94
341.64	55.04
342.105	52.94
342.569	51.64
343.034	65.34
343.499	59.64
343.963	55.44
344.428	57.34
344.893	67.04
345.357	67.34
345.822	66.24
346.286	78.04
346.751	81.54
347.215	70.54
347.679	78.14
348.144	98.14
348.608	83.24
349.073	77.24
349.537	78.24
350.001	83.24
350.465	92.04
350.93	86.64
351.394	82.14
351.858	75.74
352.322	93.64
352.786	87.64
353.25	104.54
353.715	116.64
354.179	105.94
354.643	128.24
355.107	132.04
355.571	112.64
356.035	107.14
356.498	121.04
356.962	128.24
357.426	132.94
357.89	125.04
358.354	93.54
358.818	89.54
359.281	86.24
359.745	81.34
360.209	77.94
360.673	79.34
361.136	85.04
361.6	88.74
362.064	79.84
362.527	85.14
362.991	93.14
363.454	87.64
363.918	71.44
364.381	82.64
364.845	86.44
365.308	87.24
365.772	86.44
366.235	89.34
366.698	87.84
367.162	91.74
367.625	85.14
368.088	86.74
368.552	86.14
369.015	92.74
369.478	97.04
369.941	105.34
370.404	96.34
370.867	105.14
371.331	107.84
371.794	113.24
372.257	111.54
372.72	117.44
373.183	107.94
373.646	101.94
374.109	103.44
374.572	107.14
375.035	108.94
375.497	106.84
375.96	105.04
376.423	105.64
376.886	108.84
377.349	116.24
377.811	107.74
378.274	110.84
378.737	107.74
379.199	114.44
379.662	110.84
380.125	117.74
380.587	114.74
381.05	125.14
381.512	129.84
381.975	130.14
382.437	133.34
382.9	123.44
383.362	136.74
383.825	138.14
384.287	145.74
384.75	136.34
385.212	136.84
385.674	146.74
386.136	141.84
386.599	124.14
387.061	131.94
387.523	132.74
387.985	128.84
388.447	143.84
388.91	142.94
389.372	158.84
389.834	151.24
390.296	147.94
390.758	150.84
391.22	169.14
391.682	210.14
392.144	290.44
392.606	228.34
393.068	171.54
393.529	175.44
393.991	159.34
394.453	148.04
394.915	157.84
395.377	188.74
395.838	212.74
396.3	155.74
396.762	145.34
397.224	129.34
397.685	129.04
398.147	125.84
398.608	128.94
399.07	124.94
399.531	133.14
399.993	137.84
400.454	146.24
400.916	148.94
401.377	146.74
401.839	148.84
402.3	152.04
402.762	171.64
403.223	180.34
403.684	175.74
404.145	167.24
404.607	155.74
405.068	167.04
405.529	168.84
405.99	188.54
406.451	173.04
406.913	179.74
407.374	160.94
407.835	157.14
408.296	171.34
408.757	167.64
409.218	187.14
409.679	178.94
410.14	175.84
410.601	177.64
411.062	186.64
411.522	188.74
411.983	186.24
412.444	175.24
412.905	173.94
413.366	184.34
413.826	197.24
414.287	221.14
414.748	253.44
415.208	246.04
415.669	211.14
416.13	207.44
416.59	201.84
417.051	214.64
417.511	217.54
417.972	241.54
418.432	248.34
418.893	279.94
419.353	252.54
419.814	199.74
420.274	185.14
420.734	184.74
421.195	193.94
421.655	194.14
422.115	194.44
422.576	189.34
423.036	189.04
423.496	207.84
423.956	216.04
424.416	225.14
424.876	259.64
425.336	260.04
425.797	257.84
426.257	247.94
426.717	236.54
427.177	231.24
427.637	219.34
428.097	232.04
428.556	236.94
429.016	266.44
429.476	257.04
429.936	270.24
430.396	267.84
430.856	281.24
431.315	309.54
431.775	350.04
432.235	381.04
432.694	355.04
433.154	358.24
433.614	389.54
434.073	334.34
434.533	282.54
434.993	273.54
435.452	278.94
435.912	291.74
436.371	284.94
436.83	279.04
437.29	264.34
437.749	243.74
438.209	243.34
438.668	271.04
439.127	288.84
439.587	266.24
440.046	249.04
440.505	256.94
440.964	279.14
441.424	320.54
441.883	311.54
442.342	260.04
442.801	226.14
443.26	216.24
443.719	213.84
444.178	216.74
444.637	211.04
445.096	217.54
445.555	219.44
446.014	226.94
446.473	220.84
446.932	227.64
447.391	226.84
447.849	224.64
448.308	217.74
448.767	224.24
449.226	238.74
449.685	233.34
450.143	244.74
450.602	234.94
451.061	227.74
451.519	236.54
451.978	231.94
452.436	240.14
452.895	237.54
453.353	249.14
453.812	239.54
454.27	236.74
454.729	240.14
455.187	233.74
455.646	244.04
456.104	244.24
456.562	253.94
457.021	258.94
457.479	253.44
457.937	267.54
458.395	260.94
458.854	245.74
459.312	259.54
459.77	273.34
460.228	251.54
460.686	237.64
461.144	246.64
461.602	248.04
462.06	242.64
462.518	254.94
462.976	257.54
463.434	256.84
463.892	260.04
464.35	271.74
464.808	285.54
465.266	260.44
465.724	267.94
466.181	270.64
466.639	268.74
467.097	286.84
467.555	296.54
468.012	305.14
468.47	307.34
468.928	319.04
469.385	342.64
469.843	345.74
470.3	350.84
470.758	363.54
471.215	384.44
471.673	405.24
472.13	405.34
472.588	410.34
473.045	364.54
473.503	370.04
473.96	399.64
474.417	396.84
474.875	425.34
475.332	476.44
475.789	464.54
476.246	462.94
476.704	484.04
477.161	495.24
477.618	517.94
478.075	554.24
478.532	605.34
478.989	686.84
479.446	799.84
479.903	774.14
480.36	797.24
480.817	857.54
481.274	969.74
481.731	1070.14
482.188	1166.04
482.645	1286.44
483.102	1397.04
483.558	1531.24
484.015	1582.84
484.472	1570.24
484.929	1510.74
485.385	1474.64
485.842	1424.94
486.299	1361.34
486.755	1286.34
487.212	1089.04
487.668	920.14
488.125	853.24
488.582	782.04
489.038	746.54
489.494	713.94
489.951	687.34
490.407	665.64
490.864	643.94
491.32	648.64
491.776	640.34
492.233	638.04
492.689	605.54
493.145	604.34
493.602	601.14
494.058	600.14
494.514	617.74
494.97	632.34
495.426	652.04
495.882	617.74
496.338	607.94
496.794	621.84
497.251	623.54
497.707	635.74
498.163	648.14
498.618	641.64
499.074	648.64
499.53	676.74
499.986	683.04
500.442	649.34
500.898	638.44
501.354	614.74
501.809	634.14
502.265	648.54
502.721	655.44
503.177	669.44
503.632	662.04
504.088	668.24
504.543	713.94
504.999	712.34
505.455	658.84
505.91	632.04
506.366	625.74
506.821	626.04
507.277	620.64
507.732	619.84
508.187	621.24
508.643	630.14
509.098	627.94
509.553	649.64
510.009	666.44
510.464	661.64
510.919	681.64
511.375	683.54
511.83	707.04
512.285	722.84
512.74	753.94
513.195	774.74
513.65	757.74
514.105	763.74
514.56	764.04
515.015	786.14
515.47	797.74
515.925	792.64
516.38	783.94
516.835	791.14
517.29	776.74
517.745	777.44
518.2	758.04
518.655	749.14
519.109	732.94
519.564	733.54
520.019	730.54
520.474	725.04
520.928	722.14
521.383	712.14
521.838	710.44
522.292	703.74
522.747	704.54
523.201	698.74
523.656	687.44
524.11	688.04
524.565	701.44
525.019	693.44
525.474	695.84
525.928	694.94
526.382	692.74
526.837	681.14
527.291	702.84
527.745	691.64
528.2	684.44
528.654	687.64
529.108	683.04
529.562	686.54
530.016	681.44
530.47	694.64
530.925	684.24
531.379	680.54
531.833	697.44
532.287	696.24
532.741	700.34
533.195	698.24
533.649	707.74
534.103	720.44
534.556	708.94
535.01	704.34
535.464	704.54
535.918	716.04
536.372	714.74
536.826	711.64
537.279	705.44
537.733	710.74
538.187	710.84
538.64	707.44
539.094	707.94
539.548	720.74
540.001	720.94
540.455	713.44
540.908	721.34
541.362	724.84
541.815	740.14
542.269	759.64
542.722	750.74
543.175	764.14
543.629	756.14
544.082	778.04
544.536	773.94
544.989	775.54
545.442	779.94
545.895	767.74
546.349	789.34
546.802	778.34
547.255	794.24
547.708	794.44
548.161	796.74
548.614	805.74
549.067	804.24
549.52	799.24
549.973	800.24
550.426	786.64
550.879	786.04
551.332	784.94
551.785	792.94
552.238	803.54
552.691	804.34
553.144	815.84
553.596	821.34
554.049	860.64
554.502	878.14
554.955	910.14
555.407	905.74
555.86	886.64
556.313	879.44
556.765	849.44
557.218	864.04
557.67	869.74
558.123	871.14
558.576	860.44
559.028	864.34
559.48	869.74
559.933	858.64
560.385	829.14
560.838	796.34
561.29	769.64
561.742	764.24
562.195	747.54
562.647	753.14
563.099	761.04
563.551	758.34
564.004	762.94
564.456	758.74
564.908	744.34
565.36	735.04
565.812	720.24
566.264	712.64
566.716	703.14
567.168	696.84
567.62	701.94
568.072	682.84
568.524	679.84
568.976	665.34
569.428	658.24
569.88	655.74
570.332	670.54
570.784	659.84
571.235	658.94
571.687	681.54
572.139	687.14
572.59	696.34
573.042	701.14
573.494	692.34
573.945	691.04
574.397	659.04
574.849	682.94
575.3	668.04
575.752	665.34
576.203	664.14
576.655	672.74
577.106	653.54
577.557	647.84
578.009	656.54
578.46	646.84
578.912	651.64
579.363	657.74
579.814	650.74
580.265	639.34
580.717	649.14
581.168	649.74
581.619	660.34
582.07	662.24
582.521	659.94
582.972	646.44
583.423	657.64
583.875	659.24
584.326	678.34
584.777	732.64
585.227	795.44
585.678	885.74
586.129	962.84
586.58	1025.54
587.031	1115.44
587.482	1264.44
587.933	1434.74
588.384	1248.94
588.834	937.14
589.285	775.54
589.736	759.54
590.186	744.34
590.637	734.94
591.088	716.84
591.538	711.64
591.989	698.04
592.439	707.64
592.89	696.04
593.34	689.24
593.791	691.04
594.241	680.34
594.692	688.64
595.142	678.54
595.593	675.04
596.043	687.54
596.493	693.04
596.943	683.44
597.394	692.74
597.844	685.64
598.294	704.34
598.744	719.94
599.195	743.54
599.645	784.34
600.095	824.24
600.545	880.54
600.995	917.74
601.445	983.54
601.895	1052.94
602.345	1083.14
602.795	1067.64
603.245	1025.14
603.695	974.04
604.145	922.54
604.594	871.24
605.044	826.14
605.494	760.14
605.944	729.84
606.393	727.94
606.843	695.64
607.293	711.84
607.743	701.84
608.192	715.74
608.642	725.44
609.091	730.24
609.541	729.14
609.99	724.54
610.44	729.54
610.889	688.04
611.339	665.74
611.788	657.14
612.238	678.44
612.687	681.84
613.136	675.74
613.586	693.54
614.035	698.54
614.484	721.14
614.933	723.04
615.383	721.14
615.832	711.54
616.281	691.94
616.73	649.44
617.179	638.44
617.628	620.64
618.077	595.94
618.526	598.64
618.975	593.44
619.424	587.64
619.873	579.14
620.322	596.34
620.771	581.94
621.22	567.94
621.669	562.14
622.118	563.24
622.567	548.24
623.015	542.14
623.464	544.34
623.913	538.44
624.361	525.94
624.81	521.84
625.259	525.74
625.707	524.14
626.156	527.44
626.604	540.14
627.053	540.94
627.501	538.24
627.95	539.14
628.398	545.74
628.847	541.04
629.295	541.54
629.744	542.14
630.192	532.74
630.64	534.64
631.089	528.94
631.537	544.64
631.985	549.94
632.433	564.74
632.881	561.44
633.33	620.44
633.778	597.84
634.226	531.34
634.674	530.04
635.122	544.04
635.57	567.94
636.018	594.14
636.466	551.94
636.914	535.24
637.362	541.84
637.81	551.54
638.258	541.44
638.705	538.64
639.153	577.14
639.601	582.54
640.049	604.14
640.497	638.94
640.944	663.14
641.392	617.34
641.84	578.94
642.287	546.44
642.735	534.94
643.182	542.74
643.63	543.44
644.078	534.74
644.525	555.04
644.973	560.74
645.42	560.94
645.867	587.84
646.315	597.44
646.762	627.54
647.21	640.64
647.657	667.04
648.104	702.04
648.551	721.94
648.999	789.44
649.446	860.34
649.893	949.14
650.34	1079.24
650.787	1292.54
651.234	1590.04
651.682	2084.14
652.129	2845.74
652.576	4083.94
653.023	6038.64
653.47	8322.44
653.917	10471.54
654.363	12158.24
654.81	13590.84
655.257	12948.14
655.704	8416.84
656.151	4978.84
656.598	3229.44
657.044	2288.14
657.491	1765.84
657.938	1398.14
658.385	1157.64
658.831	1019.54
659.278	899.34
659.724	808.34
660.171	743.24
660.618	667.54
661.064	636.74
661.511	617.44
661.957	611.34
662.404	595.34
662.85	616.14
663.296	587.54
663.743	529.54
664.189	499.94
664.635	504.84
665.082	489.24
665.528	493.04
665.974	491.34
666.42	470.34
666.867	477.44
667.313	458.54
667.759	445.44
668.205	453.64
668.651	453.84
669.097	447.74
669.543	467.24
669.989	436.64
670.435	417.84
670.881	411.54
671.327	420.34
671.773	436.44
672.219	459.44
672.665	501.04
673.11	533.04
673.556	581.74
674.002	619.74
674.448	608.54
674.893	511.14
675.339	449.84
675.785	411.84
676.23	395.14
676.676	366.94
677.122	356.44
677.567	349.44
678.013	343.84
678.458	333.44
678.904	329.44
679.349	319.54
679.794	329.14
680.24	319.94
680.685	310.54
681.131	322.34
681.576	319.34
682.021	327.64
682.466	318.14
682.912	319.74
683.357	321.84
683.802	355.44
684.247	381.54
684.692	419.14
685.137	459.34
685.583	486.14
686.028	515.74
686.473	476.94
686.918	414.34
687.363	380.44
687.807	358.54
688.252	341.74
688.697	333.54
689.142	313.64
689.587	312.84
690.032	295.54
690.477	312.04
690.921	328.44
691.366	350.84
691.811	365.64
692.255	405.04
692.7	426.64
693.145	464.74
693.589	623.94
694.034	1022.04
694.478	1412.44
694.923	1630.44
695.367	2132.84
695.812	1115.64
696.256	470.64
696.701	346.14
697.145	315.64
697.59	307.84
698.034	299.24
698.478	298.94
698.922	294.94
699.367	302.64
699.811	317.94
700.255	323.14
700.699	353.14
701.143	380.44
701.588	433.94
702.032	476.74
702.476	472.44
702.92	447.84
703.364	448.64
703.808	578.64
704.252	931.24
704.696	1324.44
705.14	1551.94
705.584	1995.14
706.027	990.84
706.471	477.24
706.915	368.74
707.359	323.44
707.803	297.24
708.246	292.94
708.69	283.44
709.134	284.24
709.577	292.94
710.021	291.94
710.465	287.14
710.908	281.34
711.352	278.84
711.795	286.84
712.239	324.54
712.682	345.94
713.126	382.54
713.569	432.34
714.012	340.74
714.456	300.94
714.899	277.54
715.342	248.74
715.786	247.24
716.229	245.44
716.672	235.14
717.115	226.44
717.558	231.74
718.002	228.04
718.445	241.44
718.888	264.84
719.331	265.74
719.774	283.44
720.217	275.94
720.66	263.14
721.103	241.74
721.546	243.04
721.989	234.54
722.432	213.44
722.874	221.94
723.317	203.44
723.76	221.24
724.203	232.54
724.645	291.54
725.088	398.34
725.531	512.04
725.974	603.04
726.416	504.84
726.859	284.84
727.301	227.24
727.744	221.74
728.187	212.54
728.629	216.54
729.071	223.04
729.514	242.84
729.956	243.04
730.399	263.64
730.841	272.04
731.283	254.64
731.726	249.54
732.168	243.54
732.61	246.64
733.053	259.24
733.495	287.74
733.937	320.34
734.379	369.04
734.821	399.24
735.263	487.34
735.705	741.94
736.148	1412.44
736.59	2343.94
737.032	2865.14
737.474	2331.84
737.916	747.44
738.357	395.24
738.799	303.54
739.241	270.94
739.683	263.24
740.125	269.94
740.567	273.54
741.008	296.14
741.45	288.44
741.892	297.24
742.334	324.84
742.775	337.04
743.217	316.74
743.658	246.24
744.1	236.94
744.542	236.54
744.983	282.84
745.425	311.14
745.866	316.74
746.307	262.84
746.749	262.24
747.19	294.04
747.632	409.64
748.073	779.94
748.514	1671.14
748.956	2605.04
749.397	3261.04
749.838	2717.84
750.279	2769.64
750.72	1399.74
751.162	493.24
751.603	295.14
752.044	234.64
752.485	198.24
752.926	193.14
753.367	184.84
753.808	174.24
754.249	170.14
754.69	169.04
755.131	165.14
755.572	167.04
756.013	170.24
756.453	174.84
756.894	171.94
757.335	177.94
757.776	176.14
758.216	179.14
758.657	188.04
759.098	181.44
759.538	209.04
759.979	236.14
760.42	337.34
760.86	621.14
761.301	1600.04
761.741	3976.94
762.182	5998.54
762.622	4248.34
