Data from 20171114-ORNL-Ar_H_NY_Subt18_08-05-30-779.txt Node
Date: Tue Nov 14 08:05:30 EST 2017
User: Ender
Spectrometer: HR+D1039
Trigger mode: 0
Integration Time (sec): 2.730000E-2
Scans to average: 10
Electric dark correction enabled: true
Nonlinearity correction enabled: false
Boxcar width: 0
XAxis mode: Wavelengths
Number of Pixels in Spectrum: 2048
>>>>>Begin Spectral Data<<<<<
187.836	-5.36
188.309	-5.36
188.782	-5.36
189.255	-0.46
189.728	-0.76
190.201	0.84
190.674	0.94
191.147	4.34
191.619	-7.76
192.092	-0.26
192.565	6.34
193.038	1.24
193.511	2.84
193.984	2.14
194.456	-0.56
194.929	-2.26
195.402	0.04
195.874	-1.36
196.347	-3.96
196.82	-3.86
197.292	4.54
197.765	-4.16
198.237	-5.36
198.71	-1.96
199.182	-4.96
199.655	2.04
200.127	-3.86
200.6	-0.06
201.072	-6.66
201.544	-10.76
202.017	-2.46
202.489	3.04
202.961	-6.06
203.433	-7.86
203.906	-12.56
204.378	-5.66
204.85	-0.06
205.322	-4.26
205.794	1.84
206.266	1.24
206.739	-3.76
207.211	-3.36
207.683	-5.46
208.155	-3.26
208.627	-4.86
209.099	1.44
209.57	-8.06
210.042	-2.76
210.514	-1.06
210.986	3.24
211.458	-6.36
211.93	0.34
212.402	2.84
212.873	-3.76
213.345	-3.86
213.817	-7.96
214.288	1.54
214.76	-13.86
215.232	0.24
215.703	-3.76
216.175	0.74
216.646	-7.36
217.118	-8.56
217.589	-1.26
218.061	-0.66
218.532	-6.16
219.004	-1.96
219.475	-2.36
219.946	-8.86
220.418	-5.26
220.889	-2.96
221.36	-0.76
221.832	-1.46
222.303	-11.16
222.774	-0.56
223.245	-11.66
223.717	-5.46
224.188	-7.06
224.659	-7.76
225.13	-1.86
225.601	1.94
226.072	4.34
226.543	-6.96
227.014	-0.76
227.485	-1.76
227.956	-4.56
228.427	-3.66
228.898	-1.46
229.369	5.04
229.839	-0.26
230.31	-0.66
230.781	-1.06
231.252	-2.46
231.722	-3.56
232.193	-1.16
232.664	0.94
233.135	3.04
233.605	0.64
234.076	-10.06
234.546	-4.96
235.017	1.74
235.487	-1.66
235.958	1.54
236.428	-4.56
236.899	4.34
237.369	5.74
237.84	-3.76
238.31	4.54
238.78	8.74
239.251	-2.36
239.721	5.44
240.191	5.24
240.662	-2.86
241.132	-2.26
241.602	-0.16
242.072	-2.16
242.542	10.74
243.013	5.44
243.483	7.74
243.953	1.54
244.423	4.14
244.893	-3.66
245.363	1.74
245.833	-1.26
246.303	5.54
246.773	8.44
247.243	8.94
247.712	4.24
248.182	9.14
248.652	5.84
249.122	1.64
249.592	13.64
250.061	20.64
250.531	40.24
251.001	22.24
251.471	24.44
251.94	25.74
252.41	11.34
252.879	2.14
253.349	12.84
253.818	4.54
254.288	10.64
254.757	4.34
255.227	-0.76
255.696	4.84
256.166	6.64
256.635	9.34
257.105	9.94
257.574	9.34
258.043	13.14
258.513	16.14
258.982	15.74
259.451	12.84
259.92	9.74
260.389	11.44
260.859	23.74
261.328	14.14
261.797	21.24
262.266	8.44
262.735	11.14
263.204	8.44
263.673	1.84
264.142	3.44
264.611	1.54
265.08	3.54
265.549	-1.06
266.018	9.34
266.487	1.54
266.955	5.84
267.424	1.74
267.893	4.24
268.362	6.74
268.83	6.64
269.299	10.64
269.768	9.54
270.236	12.44
270.705	3.74
271.174	9.24
271.642	8.44
272.111	10.04
272.579	15.34
273.048	27.14
273.516	30.84
273.985	32.64
274.453	27.84
274.922	12.94
275.39	16.44
275.858	4.74
276.327	15.44
276.795	18.54
277.263	9.64
277.731	33.44
278.2	54.64
278.668	57.14
279.136	56.04
279.604	15.94
280.072	11.14
280.54	14.44
281.008	8.14
281.477	13.24
281.945	19.04
282.413	15.24
282.881	15.54
283.348	7.14
283.816	17.94
284.284	17.44
284.752	21.64
285.22	11.14
285.688	16.84
286.156	21.94
286.623	47.64
287.091	49.44
287.559	32.44
288.026	25.74
288.494	19.54
288.962	9.04
289.429	14.24
289.897	15.84
290.364	15.74
290.832	20.64
291.3	18.84
291.767	25.54
292.234	23.94
292.702	21.14
293.169	20.04
293.637	24.54
294.104	20.54
294.571	13.04
295.039	12.04
295.506	20.04
295.973	23.34
296.44	24.24
296.908	21.94
297.375	25.14
297.842	18.74
298.309	20.64
298.776	13.14
299.243	22.44
299.71	12.54
300.177	30.24
300.644	23.74
301.111	25.64
301.578	25.24
302.045	24.94
302.512	29.24
302.979	24.54
303.446	27.64
303.913	22.94
304.379	26.64
304.846	33.24
305.313	23.84
305.78	25.34
306.246	23.94
306.713	34.04
307.18	28.84
307.646	34.74
308.113	27.64
308.579	29.04
309.046	28.14
309.512	30.74
309.979	22.44
310.445	26.14
310.912	34.04
311.378	35.24
311.845	31.54
312.311	37.54
312.777	43.64
313.244	35.04
313.71	41.64
314.176	37.14
314.642	30.44
315.109	32.24
315.575	40.14
316.041	46.04
316.507	38.24
316.973	43.74
317.439	36.54
317.905	40.94
318.371	38.84
318.837	31.74
319.303	34.94
319.769	35.54
320.235	39.14
320.701	42.14
321.167	38.94
321.633	39.84
322.099	39.24
322.564	45.04
323.03	40.64
323.496	44.54
323.962	43.94
324.427	44.94
324.893	46.94
325.359	39.14
325.824	45.24
326.29	38.84
326.755	39.04
327.221	43.14
327.686	44.04
328.152	48.24
328.617	39.84
329.083	48.24
329.548	45.44
330.014	49.34
330.479	47.44
330.944	51.44
331.41	42.84
331.875	41.74
332.34	46.34
332.805	42.64
333.271	53.34
333.736	45.64
334.201	53.54
334.666	54.04
335.131	61.14
335.596	56.54
336.061	54.94
336.526	38.74
336.991	52.04
337.456	55.34
337.921	58.74
338.386	43.64
338.851	46.74
339.316	54.64
339.781	55.54
340.246	57.24
340.711	48.84
341.175	54.14
341.64	43.04
342.105	58.14
342.569	56.44
343.034	64.84
343.499	56.04
343.963	59.64
344.428	60.54
344.893	68.94
345.357	60.94
345.822	63.24
346.286	74.24
346.751	77.54
347.215	72.94
347.679	77.94
348.144	99.84
348.608	85.44
349.073	68.24
349.537	83.14
350.001	83.94
350.465	91.14
350.93	87.14
351.394	87.44
351.858	70.14
352.322	85.14
352.786	85.44
353.25	105.24
353.715	116.44
354.179	101.24
354.643	130.94
355.107	127.24
355.571	107.64
356.035	106.74
356.498	121.84
356.962	121.74
357.426	136.24
357.89	128.34
358.354	100.24
358.818	87.24
359.281	81.34
359.745	84.84
360.209	80.54
360.673	77.34
361.136	84.34
361.6	82.94
362.064	94.64
362.527	91.04
362.991	97.74
363.454	80.24
363.918	76.64
364.381	77.64
364.845	80.54
365.308	92.34
365.772	86.84
366.235	89.24
366.698	88.24
367.162	87.14
367.625	84.24
368.088	89.44
368.552	85.94
369.015	84.04
369.478	102.54
369.941	103.04
370.404	101.64
370.867	109.24
371.331	111.24
371.794	115.44
372.257	112.04
372.72	119.74
373.183	113.64
373.646	108.34
374.109	102.64
374.572	109.74
375.035	108.54
375.497	108.64
375.96	108.24
376.423	103.74
376.886	116.04
377.349	114.34
377.811	105.54
378.274	112.54
378.737	108.84
379.199	116.44
379.662	114.64
380.125	117.74
380.587	125.74
381.05	127.44
381.512	130.04
381.975	135.94
382.437	133.34
382.9	122.94
383.362	137.34
383.825	146.84
384.287	148.34
384.75	141.84
385.212	142.64
385.674	139.34
386.136	132.94
386.599	128.64
387.061	128.54
387.523	132.64
387.985	133.24
388.447	140.84
388.91	148.84
389.372	154.24
389.834	163.44
390.296	147.04
390.758	154.84
391.22	169.14
391.682	206.44
392.144	297.44
392.606	226.34
393.068	164.74
393.529	163.94
393.991	153.94
394.453	145.84
394.915	155.24
395.377	182.74
395.838	215.74
396.3	156.14
396.762	138.04
397.224	138.94
397.685	128.34
398.147	127.04
398.608	129.14
399.07	125.04
399.531	134.74
399.993	145.74
400.454	161.14
400.916	147.04
401.377	149.54
401.839	147.64
402.3	149.24
402.762	168.44
403.223	186.04
403.684	176.84
404.145	167.64
404.607	163.04
405.068	164.74
405.529	172.14
405.99	189.04
406.451	181.04
406.913	179.24
407.374	164.34
407.835	170.04
408.296	173.84
408.757	171.74
409.218	187.04
409.679	179.54
410.14	178.14
410.601	177.04
411.062	178.74
411.522	198.74
411.983	192.24
412.444	180.64
412.905	178.74
413.366	184.04
413.826	192.14
414.287	224.74
414.748	258.64
415.208	242.84
415.669	215.94
416.13	207.14
416.59	209.64
417.051	214.74
417.511	222.24
417.972	228.84
418.432	241.44
418.893	281.14
419.353	248.94
419.814	201.04
420.274	181.74
420.734	178.34
421.195	195.64
421.655	196.04
422.115	189.74
422.576	200.84
423.036	201.94
423.496	200.74
423.956	213.44
424.416	229.14
424.876	268.64
425.336	262.54
425.797	267.34
426.257	251.94
426.717	241.14
427.177	237.14
427.637	225.24
428.097	236.74
428.556	244.34
429.016	270.74
429.476	267.54
429.936	282.54
430.396	276.64
430.856	294.14
431.315	322.74
431.775	355.44
432.235	382.54
432.694	352.04
433.154	362.84
433.614	395.54
434.073	338.84
434.533	290.04
434.993	261.24
435.452	282.74
435.912	303.14
436.371	297.44
436.83	283.44
437.29	274.64
437.749	251.64
438.209	253.34
438.668	276.74
439.127	286.44
439.587	267.24
440.046	242.04
440.505	261.24
440.964	276.34
441.424	330.94
441.883	310.94
442.342	259.54
442.801	224.04
443.26	220.94
443.719	219.84
444.178	217.64
444.637	209.44
445.096	222.54
445.555	226.04
446.014	222.74
446.473	233.54
446.932	238.14
447.391	230.34
447.849	225.94
448.308	223.94
448.767	225.24
449.226	241.34
449.685	233.54
450.143	246.94
450.602	241.64
451.061	231.14
451.519	238.24
451.978	234.84
452.436	236.64
452.895	243.14
453.353	256.54
453.812	250.64
454.27	241.34
454.729	240.84
455.187	241.34
455.646	242.14
456.104	246.94
456.562	257.54
457.021	270.34
457.479	262.54
457.937	279.64
458.395	263.44
458.854	247.54
459.312	255.54
459.77	277.54
460.228	263.84
460.686	241.24
461.144	251.04
461.602	242.94
462.06	236.74
462.518	256.14
462.976	255.04
463.434	257.94
463.892	267.04
464.35	279.24
464.808	286.84
465.266	263.74
465.724	268.94
466.181	270.84
466.639	268.34
467.097	292.84
467.555	302.34
468.012	302.64
468.47	310.94
468.928	334.64
469.385	350.24
469.843	352.24
470.3	350.44
470.758	367.34
471.215	397.24
471.673	409.94
472.13	410.94
472.588	420.44
473.045	378.14
473.503	378.14
473.96	394.84
474.417	407.24
474.875	431.94
475.332	473.54
475.789	460.94
476.246	472.54
476.704	499.84
477.161	511.94
477.618	524.54
478.075	565.44
478.532	624.94
478.989	699.24
479.446	807.84
479.903	775.74
480.36	807.04
480.817	881.54
481.274	977.74
481.731	1085.34
482.188	1182.04
482.645	1323.44
483.102	1426.44
483.558	1557.34
484.015	1610.44
484.472	1598.24
484.929	1545.14
485.385	1496.84
485.842	1437.74
486.299	1374.74
486.755	1317.84
487.212	1104.84
487.668	932.34
488.125	850.84
488.582	781.64
489.038	749.94
489.494	716.94
489.951	686.54
490.407	676.24
490.864	657.24
491.32	647.44
491.776	644.54
492.233	641.44
492.689	615.34
493.145	602.14
493.602	596.74
494.058	613.74
494.514	614.24
494.97	643.54
495.426	663.04
495.882	628.04
496.338	617.54
496.794	638.94
497.251	625.64
497.707	637.84
498.163	641.64
498.618	649.34
499.074	657.14
499.53	681.94
499.986	676.14
500.442	654.14
500.898	636.84
501.354	627.84
501.809	635.04
502.265	646.84
502.721	665.74
503.177	674.64
503.632	673.54
504.088	679.04
504.543	710.14
504.999	713.14
505.455	650.34
505.91	631.94
506.366	634.24
506.821	629.74
507.277	627.34
507.732	626.24
508.187	627.94
508.643	628.04
509.098	633.64
509.553	653.64
510.009	658.74
510.464	673.94
510.919	695.94
511.375	696.24
511.83	700.24
512.285	725.64
512.74	764.14
513.195	790.94
513.65	778.24
514.105	771.54
514.56	766.94
515.015	786.94
515.47	813.94
515.925	794.84
516.38	789.94
516.835	792.84
517.29	787.24
517.745	776.14
518.2	767.04
518.655	755.54
519.109	745.84
519.564	747.64
520.019	734.94
520.474	732.34
520.928	726.04
521.383	715.44
521.838	714.34
522.292	709.64
522.747	711.04
523.201	707.44
523.656	685.34
524.11	698.64
524.565	697.34
525.019	703.14
525.474	706.74
525.928	696.24
526.382	697.44
526.837	702.04
527.291	698.54
527.745	697.94
528.2	692.34
528.654	689.94
529.108	688.24
529.562	695.14
530.016	692.54
530.47	684.74
530.925	692.24
531.379	704.94
531.833	700.34
532.287	702.34
532.741	706.94
533.195	714.84
533.649	713.44
534.103	722.04
534.556	711.34
535.01	709.54
535.464	708.24
535.918	714.24
536.372	712.44
536.826	715.54
537.279	704.24
537.733	718.84
538.187	716.84
538.64	719.74
539.094	724.24
539.548	725.84
540.001	722.24
540.455	733.54
540.908	724.74
541.362	732.54
541.815	745.74
542.269	754.34
542.722	758.34
543.175	768.24
543.629	774.44
544.082	796.14
544.536	791.64
544.989	780.04
545.442	792.34
545.895	785.04
546.349	788.54
546.802	790.64
547.255	789.24
547.708	816.44
548.161	814.14
548.614	815.44
549.067	822.14
549.52	819.64
549.973	812.54
550.426	795.64
550.879	790.74
551.332	792.94
551.785	801.84
552.238	799.94
552.691	815.64
553.144	826.94
553.596	837.54
554.049	855.74
554.502	881.44
554.955	911.54
555.407	903.24
555.86	893.44
556.313	891.84
556.765	879.14
557.218	884.54
557.67	876.74
558.123	863.84
558.576	873.14
559.028	875.64
559.48	875.24
559.933	876.64
560.385	834.04
560.838	815.84
561.29	780.34
561.742	764.64
562.195	751.14
562.647	762.34
563.099	761.94
563.551	762.14
564.004	775.04
564.456	768.84
564.908	763.74
565.36	744.04
565.812	732.84
566.264	714.64
566.716	715.64
567.168	708.94
567.62	719.24
568.072	708.74
568.524	685.44
568.976	680.64
569.428	661.94
569.88	663.94
570.332	671.44
570.784	673.34
571.235	676.34
571.687	693.34
572.139	698.04
572.59	707.94
573.042	706.24
573.494	697.84
573.945	696.64
574.397	683.54
574.849	675.84
575.3	683.34
575.752	677.14
576.203	667.74
576.655	682.74
577.106	660.24
577.557	661.74
578.009	662.24
578.46	654.24
578.912	653.44
579.363	650.44
579.814	665.24
580.265	650.34
580.717	662.94
581.168	659.24
581.619	666.54
582.07	681.84
582.521	671.24
582.972	670.94
583.423	672.14
583.875	677.74
584.326	686.54
584.777	741.04
585.227	810.44
585.678	892.84
586.129	982.44
586.58	1055.04
587.031	1136.44
587.482	1306.94
587.933	1480.54
588.384	1294.24
588.834	963.24
589.285	786.64
589.736	770.94
590.186	766.74
590.637	758.14
591.088	724.24
591.538	719.74
591.989	723.74
592.439	716.64
592.89	712.24
593.34	701.74
593.791	694.54
594.241	697.14
594.692	695.44
595.142	696.24
595.593	684.54
596.043	695.74
596.493	703.64
596.943	704.04
597.394	703.34
597.844	691.24
598.294	717.04
598.744	745.44
599.195	757.64
599.645	796.74
600.095	830.84
600.545	891.84
600.995	937.84
601.445	1001.34
601.895	1055.94
602.345	1108.54
602.795	1090.04
603.245	1038.74
603.695	981.44
604.145	940.24
604.594	900.64
605.044	838.64
605.494	786.24
605.944	727.64
606.393	730.64
606.843	713.04
607.293	719.44
607.743	712.84
608.192	735.04
608.642	737.44
609.091	747.14
609.541	755.84
609.99	738.44
610.44	744.04
610.889	707.94
611.339	685.24
611.788	672.74
612.238	692.84
612.687	705.44
613.136	703.34
613.586	718.54
614.035	720.24
614.484	737.24
614.933	736.24
615.383	723.54
615.832	722.34
616.281	711.34
616.73	676.34
617.179	651.64
617.628	637.14
618.077	619.54
618.526	607.34
618.975	608.44
619.424	604.44
619.873	597.34
620.322	597.54
620.771	587.94
621.22	578.34
621.669	570.54
622.118	572.24
622.567	576.64
623.015	553.84
623.464	559.54
623.913	549.74
624.361	536.74
624.81	534.94
625.259	538.54
625.707	542.64
626.156	532.24
626.604	556.24
627.053	543.34
627.501	549.44
627.95	546.14
628.398	558.14
628.847	558.64
629.295	544.54
629.744	561.64
630.192	560.44
630.64	558.64
631.089	564.64
631.537	565.94
631.985	565.64
632.433	581.04
632.881	581.04
633.33	635.34
633.778	613.44
634.226	547.74
634.674	550.04
635.122	559.44
635.57	575.94
636.018	603.44
636.466	559.44
636.914	543.54
637.362	549.64
637.81	547.54
638.258	550.34
638.705	552.14
639.153	589.54
639.601	593.54
640.049	614.04
640.497	649.54
640.944	672.74
641.392	619.14
641.84	586.04
642.287	566.24
642.735	552.54
643.182	549.64
643.63	553.04
644.078	553.74
644.525	572.84
644.973	583.24
645.42	588.34
645.867	592.74
646.315	617.94
646.762	648.54
647.21	667.94
647.657	686.44
648.104	714.54
648.551	745.94
648.999	811.44
649.446	887.34
649.893	977.44
650.34	1113.74
650.787	1329.94
651.234	1657.24
651.682	2168.74
652.129	2970.94
652.576	4275.64
653.023	6330.14
653.47	8690.84
653.917	10885.74
654.363	12696.04
654.81	14057.34
655.257	13377.64
655.704	8751.74
656.151	5148.94
656.598	3338.04
657.044	2353.04
657.491	1811.54
657.938	1442.84
658.385	1202.34
658.831	1064.54
659.278	930.44
659.724	826.14
660.171	771.44
660.618	701.54
661.064	666.64
661.511	647.54
661.957	629.64
662.404	621.44
662.85	627.94
663.296	604.54
663.743	538.24
664.189	527.84
664.635	515.34
665.082	502.04
665.528	504.14
665.974	496.34
666.42	492.44
666.867	486.54
667.313	477.04
667.759	465.84
668.205	456.64
668.651	465.64
669.097	459.14
669.543	480.64
669.989	449.94
670.435	430.94
670.881	418.94
671.327	426.44
671.773	452.44
672.219	469.04
672.665	516.34
673.11	558.34
673.556	596.94
674.002	650.54
674.448	630.24
674.893	525.94
675.339	444.14
675.785	419.64
676.23	399.94
676.676	365.54
677.122	366.54
677.567	354.64
678.013	349.64
678.458	342.54
678.904	336.84
679.349	337.14
679.794	345.24
680.24	332.64
680.685	343.04
681.131	335.94
681.576	336.44
682.021	333.54
682.466	325.34
682.912	326.14
683.357	335.44
683.802	370.74
684.247	393.04
684.692	430.94
685.137	465.64
685.583	511.04
686.028	529.84
686.473	485.14
686.918	429.54
687.363	401.24
687.807	377.24
688.252	350.64
688.697	339.34
689.142	318.04
689.587	319.64
690.032	310.34
690.477	325.04
690.921	329.64
691.366	365.64
691.811	382.44
692.255	406.54
692.7	435.34
693.145	469.44
693.589	659.34
694.034	1048.54
694.478	1450.24
694.923	1644.14
695.367	2157.44
695.812	1138.44
696.256	470.14
696.701	356.24
697.145	329.14
697.59	309.34
698.034	300.24
698.478	313.44
698.922	309.74
699.367	307.94
699.811	318.24
700.255	333.64
700.699	361.74
701.143	398.34
701.588	450.24
702.032	497.54
702.476	489.34
702.92	457.74
703.364	459.14
703.808	592.14
704.252	960.84
704.696	1368.24
705.14	1597.34
705.584	2031.04
706.027	1015.54
706.471	488.14
706.915	376.64
707.359	327.44
707.803	301.64
708.246	290.34
708.69	293.04
709.134	305.54
709.577	294.54
710.021	295.44
710.465	293.44
710.908	280.64
711.352	278.14
711.795	293.34
712.239	331.64
712.682	362.44
713.126	393.64
713.569	439.54
714.012	355.94
714.456	313.04
714.899	276.34
715.342	260.34
715.786	243.74
716.229	247.04
716.672	249.54
717.115	236.94
717.558	236.94
718.002	234.24
718.445	250.84
718.888	269.24
719.331	287.34
719.774	288.04
720.217	286.34
720.66	270.04
721.103	250.64
721.546	242.34
721.989	230.84
722.432	216.54
722.874	224.34
723.317	214.94
723.76	225.34
724.203	240.84
724.645	300.34
725.088	417.44
725.531	542.84
725.974	608.24
726.416	506.24
726.859	280.74
727.301	228.34
727.744	227.94
728.187	215.34
728.629	232.44
729.071	233.84
729.514	237.44
729.956	251.64
730.399	273.24
730.841	274.04
731.283	256.64
731.726	254.64
732.168	246.24
732.61	246.64
733.053	262.24
733.495	295.14
733.937	332.84
734.379	371.34
734.821	409.24
735.263	500.74
735.705	769.24
736.148	1447.24
736.59	2407.24
737.032	2917.64
737.474	2368.44
737.916	761.34
738.357	398.74
738.799	298.34
739.241	278.04
739.683	263.54
740.125	279.24
740.567	278.14
741.008	300.74
741.45	303.24
741.892	303.24
742.334	323.54
742.775	343.94
743.217	321.04
743.658	246.84
744.1	239.14
744.542	247.24
744.983	297.14
745.425	329.54
745.866	327.14
746.307	269.94
746.749	267.94
747.19	301.44
747.632	420.34
748.073	802.44
748.514	1728.64
748.956	2665.34
749.397	3360.34
749.838	2772.54
750.279	2823.24
750.72	1429.64
751.162	519.64
751.603	302.34
752.044	238.14
752.485	206.24
752.926	199.54
753.367	190.94
753.808	183.04
754.249	178.74
754.69	172.04
755.131	172.84
755.572	172.14
756.013	167.84
756.453	172.64
756.894	171.44
757.335	177.74
757.776	185.94
758.216	189.34
758.657	182.24
759.098	193.94
759.538	211.64
759.979	251.14
760.42	344.44
760.86	637.14
761.301	1672.24
761.741	4076.54
762.182	6118.44
