Data from 20171114-ORNL-Ar_H_NY_Subt18_08-07-29-524.txt Node
Date: Tue Nov 14 08:07:29 EST 2017
User: Ender
Spectrometer: HR+D1039
Trigger mode: 0
Integration Time (sec): 2.730000E-2
Scans to average: 10
Electric dark correction enabled: true
Nonlinearity correction enabled: false
Boxcar width: 0
XAxis mode: Wavelengths
Number of Pixels in Spectrum: 2048
>>>>>Begin Spectral Data<<<<<
187.836	-6.06
188.309	-6.06
188.782	-6.06
189.255	-3.06
189.728	-0.96
190.201	6.94
190.674	3.64
191.147	0.74
191.619	-2.66
192.092	-0.86
192.565	8.04
193.038	1.54
193.511	-0.96
193.984	-2.96
194.456	-1.96
194.929	1.44
195.402	-2.16
195.874	-0.76
196.347	0.64
196.82	-8.86
197.292	9.14
197.765	0.64
198.237	-9.16
198.71	0.24
199.182	-0.86
199.655	0.74
200.127	0.14
200.6	3.24
201.072	-5.16
201.544	-5.36
202.017	0.74
202.489	0.94
202.961	-2.06
203.433	-5.86
203.906	-4.16
204.378	-4.56
204.85	-4.06
205.322	-7.26
205.794	-2.26
206.266	-3.06
206.739	-6.66
207.211	0.54
207.683	-5.86
208.155	-3.06
208.627	-8.76
209.099	-3.26
209.57	-6.26
210.042	-4.16
210.514	-0.96
210.986	-1.16
211.458	-7.26
211.93	-2.66
212.402	0.24
212.873	-4.46
213.345	-8.46
213.817	-10.66
214.288	-5.56
214.76	-11.36
215.232	-0.16
215.703	-5.36
216.175	-3.06
216.646	-5.26
217.118	-3.76
217.589	1.64
218.061	-1.96
218.532	-5.96
219.004	-4.66
219.475	-4.16
219.946	-0.66
220.418	-5.86
220.889	-5.56
221.36	-2.86
221.832	-10.36
222.303	-5.46
222.774	-2.06
223.245	-6.86
223.717	-1.66
224.188	0.24
224.659	-3.36
225.13	-6.96
225.601	-0.76
226.072	-2.16
226.543	-1.86
227.014	8.04
227.485	-3.46
227.956	-9.46
228.427	-6.56
228.898	1.64
229.369	4.74
229.839	1.44
230.31	-5.86
230.781	0.64
231.252	-1.16
231.722	-6.36
232.193	-3.96
232.664	2.64
233.135	6.64
233.605	4.24
234.076	-4.26
234.546	1.54
235.017	8.94
235.487	1.54
235.958	-1.96
236.428	-4.56
236.899	4.04
237.369	1.44
237.84	-5.76
238.31	0.94
238.78	-1.56
239.251	-2.76
239.721	-2.06
240.191	-1.86
240.662	0.24
241.132	1.84
241.602	-1.66
242.072	2.74
242.542	5.34
243.013	1.74
243.483	6.84
243.953	1.24
244.423	4.14
244.893	-4.46
245.363	4.24
245.833	0.74
246.303	0.94
246.773	10.34
247.243	3.14
247.712	6.64
248.182	0.74
248.652	9.04
249.122	-5.46
249.592	5.64
250.061	11.84
250.531	24.94
251.001	12.14
251.471	12.24
251.94	19.64
252.41	4.74
252.879	-7.46
253.349	11.94
253.818	11.94
254.288	4.34
254.757	3.34
255.227	2.84
255.696	1.54
256.166	6.04
256.635	3.84
257.105	2.64
257.574	3.24
258.043	8.04
258.513	9.64
258.982	11.04
259.451	-1.36
259.92	8.74
260.389	8.24
260.859	12.94
261.328	8.74
261.797	8.84
262.266	-0.06
262.735	6.84
263.204	3.54
263.673	1.84
264.142	5.44
264.611	-0.86
265.08	-2.86
265.549	2.14
266.018	6.74
266.487	-0.76
266.955	-2.96
267.424	-0.66
267.893	3.34
268.362	-0.36
268.83	-1.16
269.299	13.34
269.768	2.84
270.236	3.64
270.705	0.54
271.174	2.14
271.642	4.64
272.111	4.44
272.579	2.64
273.048	15.04
273.516	21.94
273.985	17.64
274.453	14.64
274.922	16.14
275.39	2.14
275.858	-3.26
276.327	10.44
276.795	10.74
277.263	6.34
277.731	23.84
278.2	43.14
278.668	39.84
279.136	37.04
279.604	12.04
280.072	11.44
280.54	11.54
281.008	7.54
281.477	12.64
281.945	6.44
282.413	8.74
282.881	10.14
283.348	2.74
283.816	12.64
284.284	8.54
284.752	16.24
285.22	11.14
285.688	15.34
286.156	16.24
286.623	36.54
287.091	43.24
287.559	17.54
288.026	8.94
288.494	10.44
288.962	1.94
289.429	5.04
289.897	18.04
290.364	14.44
290.832	11.04
291.3	13.84
291.767	14.14
292.234	12.34
292.702	10.54
293.169	12.64
293.637	12.74
294.104	12.14
294.571	6.64
295.039	2.44
295.506	12.34
295.973	8.34
296.44	5.14
296.908	13.24
297.375	7.74
297.842	12.74
298.309	11.04
298.776	7.34
299.243	13.54
299.71	6.84
300.177	17.54
300.644	15.44
301.111	17.24
301.578	14.54
302.045	3.84
302.512	18.94
302.979	13.14
303.446	16.94
303.913	12.74
304.379	12.14
304.846	20.34
305.313	16.84
305.78	11.54
306.246	13.94
306.713	20.24
307.18	20.94
307.646	24.14
308.113	22.34
308.579	16.24
309.046	17.34
309.512	17.74
309.979	15.34
310.445	26.44
310.912	23.04
311.378	21.44
311.845	22.44
312.311	16.74
312.777	19.34
313.244	20.54
313.71	31.84
314.176	21.14
314.642	22.14
315.109	20.94
315.575	24.44
316.041	32.34
316.507	24.84
316.973	27.54
317.439	28.94
317.905	29.14
318.371	27.64
318.837	22.94
319.303	20.94
319.769	24.54
320.235	25.34
320.701	22.84
321.167	30.74
321.633	26.54
322.099	37.24
322.564	46.94
323.03	28.34
323.496	23.84
323.962	35.64
324.427	25.44
324.893	34.14
325.359	29.14
325.824	31.34
326.29	30.04
326.755	28.04
327.221	29.84
327.686	31.74
328.152	35.94
328.617	34.14
329.083	41.64
329.548	41.94
330.014	34.14
330.479	31.74
330.944	30.74
331.41	33.34
331.875	41.14
332.34	32.64
332.805	38.14
333.271	36.44
333.736	33.44
334.201	37.84
334.666	40.04
335.131	47.84
335.596	42.94
336.061	41.34
336.526	29.84
336.991	40.84
337.456	47.44
337.921	44.44
338.386	38.64
338.851	35.74
339.316	37.14
339.781	39.14
340.246	38.54
340.711	39.24
341.175	43.04
341.64	39.04
342.105	44.24
342.569	32.34
343.034	46.54
343.499	46.34
343.963	40.94
344.428	55.44
344.893	46.04
345.357	47.24
345.822	49.74
346.286	50.74
346.751	53.74
347.215	57.04
347.679	56.84
348.144	74.44
348.608	67.54
349.073	49.64
349.537	57.44
350.001	60.54
350.465	69.84
350.93	60.74
351.394	68.84
351.858	56.04
352.322	73.14
352.786	66.34
353.25	73.54
353.715	88.44
354.179	74.04
354.643	102.34
355.107	99.24
355.571	81.84
356.035	82.14
356.498	91.34
356.962	99.34
357.426	102.34
357.89	92.14
358.354	69.74
358.818	74.14
359.281	61.64
359.745	60.24
360.209	61.94
360.673	60.34
361.136	61.04
361.6	72.44
362.064	69.14
362.527	70.14
362.991	78.74
363.454	67.04
363.918	66.54
364.381	66.04
364.845	68.84
365.308	66.94
365.772	66.94
366.235	72.94
366.698	70.14
367.162	72.04
367.625	69.04
368.088	75.14
368.552	71.04
369.015	82.24
369.478	80.94
369.941	83.94
370.404	84.74
370.867	88.44
371.331	92.94
371.794	98.04
372.257	95.74
372.72	99.54
373.183	95.64
373.646	88.34
374.109	85.94
374.572	91.94
375.035	95.24
375.497	96.94
375.96	87.94
376.423	88.64
376.886	90.74
377.349	97.34
377.811	97.44
378.274	97.04
378.737	93.44
379.199	101.14
379.662	100.94
380.125	105.44
380.587	101.04
381.05	109.74
381.512	109.54
381.975	121.24
382.437	111.14
382.9	114.24
383.362	123.94
383.825	119.64
384.287	131.44
384.75	132.74
385.212	127.54
385.674	120.84
386.136	115.04
386.599	112.54
387.061	113.94
387.523	112.94
387.985	119.64
388.447	121.34
388.91	128.44
389.372	140.34
389.834	138.34
390.296	129.24
390.758	134.34
391.22	149.44
391.682	185.34
392.144	257.94
392.606	199.34
393.068	151.44
393.529	148.84
393.991	137.44
394.453	131.34
394.915	142.44
395.377	171.44
395.838	182.84
396.3	134.54
396.762	131.64
397.224	119.94
397.685	118.44
398.147	121.84
398.608	114.64
399.07	117.54
399.531	117.24
399.993	129.44
400.454	137.34
400.916	133.74
401.377	130.54
401.839	127.94
402.3	141.74
402.762	150.64
403.223	161.74
403.684	154.04
404.145	147.74
404.607	146.34
405.068	153.04
405.529	156.94
405.99	171.44
406.451	154.34
406.913	162.04
407.374	146.54
407.835	149.44
408.296	154.04
408.757	157.64
409.218	172.74
409.679	160.84
410.14	164.44
410.601	165.54
411.062	169.74
411.522	181.54
411.983	170.44
412.444	152.44
412.905	167.04
413.366	168.54
413.826	180.44
414.287	190.94
414.748	238.04
415.208	224.04
415.669	197.04
416.13	193.84
416.59	183.34
417.051	199.14
417.511	200.74
417.972	215.14
418.432	232.44
418.893	262.94
419.353	225.64
419.814	187.54
420.274	170.74
420.734	163.24
421.195	190.54
421.655	186.04
422.115	178.34
422.576	181.84
423.036	182.44
423.496	196.74
423.956	197.94
424.416	206.74
424.876	248.04
425.336	245.84
425.797	241.04
426.257	234.34
426.717	224.94
427.177	210.84
427.637	213.74
428.097	212.74
428.556	229.54
429.016	248.44
429.476	245.54
429.936	258.14
430.396	258.44
430.856	272.34
431.315	295.74
431.775	324.24
432.235	354.54
432.694	331.64
433.154	327.84
433.614	357.74
434.073	310.84
434.533	261.04
434.993	248.04
435.452	259.04
435.912	274.04
436.371	267.64
436.83	265.24
437.29	249.44
437.749	233.24
438.209	226.84
438.668	255.14
439.127	264.04
439.587	241.74
440.046	231.34
440.505	242.74
440.964	269.54
441.424	290.74
441.883	292.44
442.342	242.04
442.801	211.54
443.26	211.74
443.719	212.54
444.178	207.34
444.637	189.34
445.096	208.24
445.555	207.14
446.014	211.24
446.473	217.14
446.932	225.24
447.391	216.94
447.849	214.14
448.308	206.44
448.767	209.04
449.226	214.14
449.685	219.94
450.143	234.94
450.602	225.14
451.061	216.54
451.519	213.34
451.978	218.44
452.436	220.94
452.895	232.44
453.353	233.34
453.812	233.84
454.27	227.14
454.729	229.24
455.187	227.44
455.646	230.04
456.104	235.84
456.562	249.54
457.021	258.24
457.479	244.14
457.937	259.74
458.395	252.84
458.854	240.54
459.312	233.74
459.77	259.24
460.228	241.44
460.686	229.84
461.144	232.94
461.602	232.64
462.06	228.44
462.518	243.54
462.976	248.04
463.434	242.94
463.892	256.34
464.35	260.84
464.808	271.44
465.266	250.54
465.724	254.74
466.181	263.74
466.639	254.84
467.097	273.64
467.555	278.54
468.012	283.44
468.47	290.64
468.928	317.94
469.385	325.64
469.843	334.54
470.3	331.84
470.758	345.94
471.215	362.74
471.673	383.64
472.13	379.74
472.588	396.24
473.045	356.04
473.503	365.44
473.96	379.84
474.417	390.94
474.875	411.34
475.332	446.54
475.789	439.34
476.246	451.44
476.704	471.34
477.161	494.84
477.618	498.14
478.075	542.14
478.532	581.44
478.989	652.54
479.446	768.34
479.903	740.34
480.36	775.14
480.817	832.84
481.274	923.94
481.731	1021.54
482.188	1114.84
482.645	1244.34
483.102	1336.24
483.558	1478.84
484.015	1506.94
484.472	1499.14
484.929	1448.64
485.385	1389.84
485.842	1354.14
486.299	1306.54
486.755	1234.04
487.212	1038.44
487.668	883.94
488.125	819.74
488.582	747.84
489.038	717.44
489.494	684.84
489.951	656.64
490.407	640.84
490.864	621.14
491.32	605.84
491.776	611.64
492.233	623.64
492.689	583.74
493.145	573.64
493.602	574.64
494.058	597.14
494.514	599.24
494.97	615.44
495.426	627.34
495.882	598.84
496.338	581.54
496.794	603.44
497.251	593.74
497.707	609.24
498.163	606.54
498.618	615.74
499.074	617.84
499.53	655.64
499.986	661.84
500.442	628.14
500.898	609.54
501.354	593.34
501.809	623.54
502.265	622.64
502.721	634.54
503.177	650.94
503.632	650.34
504.088	654.24
504.543	689.94
504.999	685.64
505.455	634.44
505.91	621.54
506.366	613.04
506.821	603.54
507.277	604.04
507.732	605.94
508.187	605.24
508.643	622.94
509.098	624.04
509.553	631.14
510.009	635.34
510.464	651.44
510.919	663.74
511.375	670.74
511.83	674.14
512.285	697.34
512.74	730.64
513.195	760.84
513.65	753.54
514.105	747.44
514.56	742.64
515.015	765.44
515.47	783.44
515.925	766.74
516.38	764.14
516.835	774.04
517.29	759.14
517.745	753.24
518.2	741.24
518.655	712.14
519.109	724.24
519.564	719.54
520.019	718.94
520.474	710.44
520.928	708.74
521.383	703.84
521.838	693.54
522.292	695.74
522.747	696.94
523.201	675.94
523.656	671.14
524.11	676.84
524.565	677.74
525.019	679.94
525.474	691.84
525.928	681.94
526.382	684.14
526.837	671.54
527.291	685.94
527.745	673.84
528.2	679.44
528.654	679.44
529.108	677.84
529.562	677.44
530.016	678.34
530.47	670.14
530.925	678.04
531.379	673.64
531.833	681.84
532.287	684.84
532.741	683.94
533.195	684.44
533.649	702.34
534.103	702.14
534.556	682.94
535.01	693.74
535.464	682.84
535.918	697.44
536.372	709.84
536.826	692.74
537.279	685.64
537.733	686.94
538.187	702.14
538.64	705.14
539.094	705.04
539.548	710.14
540.001	700.94
540.455	699.74
540.908	715.74
541.362	718.34
541.815	731.14
542.269	749.34
542.722	748.04
543.175	756.74
543.629	747.24
544.082	766.24
544.536	771.94
544.989	766.84
545.442	773.24
545.895	775.14
546.349	779.54
546.802	777.64
547.255	777.44
547.708	777.04
548.161	798.54
548.614	800.14
549.067	810.34
549.52	803.94
549.973	798.84
550.426	786.94
550.879	782.44
551.332	777.24
551.785	788.94
552.238	790.34
552.691	803.14
553.144	818.74
553.596	830.14
554.049	838.44
554.502	875.24
554.955	908.94
555.407	887.74
555.86	887.74
556.313	882.14
556.765	867.74
557.218	871.24
557.67	860.44
558.123	857.54
558.576	857.24
559.028	869.34
559.48	866.34
559.933	856.74
560.385	828.94
560.838	790.74
561.29	769.94
561.742	771.14
562.195	754.34
562.647	748.84
563.099	765.44
563.551	761.74
564.004	764.94
564.456	750.84
564.908	739.44
565.36	737.64
565.812	714.84
566.264	713.54
566.716	707.74
567.168	700.84
567.62	713.34
568.072	687.14
568.524	682.94
568.976	675.54
569.428	663.84
569.88	661.64
570.332	677.34
570.784	671.84
571.235	674.34
571.687	687.84
572.139	696.04
572.59	702.24
573.042	696.94
573.494	693.24
573.945	690.04
574.397	676.74
574.849	682.64
575.3	677.94
575.752	672.64
576.203	668.94
576.655	671.94
577.106	659.44
577.557	656.64
578.009	657.94
578.46	646.74
578.912	647.04
579.363	652.04
579.814	650.54
580.265	646.64
580.717	661.34
581.168	656.94
581.619	661.04
582.07	669.04
582.521	657.04
582.972	657.14
583.423	670.84
583.875	667.94
584.326	692.84
584.777	726.34
585.227	812.54
585.678	883.64
586.129	969.24
586.58	1029.54
587.031	1112.94
587.482	1246.24
587.933	1419.74
588.384	1243.84
588.834	943.94
589.285	793.14
589.736	769.04
590.186	764.14
590.637	747.94
591.088	739.04
591.538	728.14
591.989	718.04
592.439	726.44
592.89	711.44
593.34	706.94
593.791	706.74
594.241	692.24
594.692	699.14
595.142	692.44
595.593	686.44
596.043	701.74
596.493	704.04
596.943	696.44
597.394	708.74
597.844	705.24
598.294	718.94
598.744	737.14
599.195	764.04
599.645	811.94
600.095	840.34
600.545	910.44
600.995	956.04
601.445	1010.54
601.895	1076.24
602.345	1111.64
602.795	1088.04
603.245	1048.84
603.695	1006.84
604.145	947.04
604.594	901.84
605.044	841.74
605.494	790.54
605.944	749.24
606.393	731.14
606.843	718.64
607.293	720.44
607.743	726.54
608.192	730.04
608.642	743.94
609.091	752.84
609.541	763.44
609.99	765.74
610.44	761.44
610.889	706.84
611.339	693.24
611.788	673.54
612.238	695.84
612.687	709.44
613.136	719.14
613.586	729.34
614.035	717.54
614.484	748.04
614.933	741.04
615.383	735.54
615.832	731.94
616.281	707.64
616.73	683.44
617.179	647.04
617.628	650.54
618.077	625.24
618.526	618.14
618.975	612.44
619.424	610.54
619.873	598.84
620.322	606.14
620.771	601.84
621.22	600.74
621.669	587.64
622.118	581.04
622.567	574.14
623.015	568.84
623.464	560.94
623.913	548.84
624.361	547.24
624.81	544.04
625.259	539.54
625.707	548.84
626.156	552.54
626.604	561.04
627.053	555.24
627.501	560.34
627.95	560.24
628.398	577.54
628.847	564.04
629.295	554.24
629.744	562.64
630.192	561.74
630.64	565.84
631.089	559.14
631.537	576.44
631.985	573.74
632.433	590.14
632.881	590.64
633.33	638.64
633.778	627.74
634.226	555.04
634.674	562.14
635.122	566.74
635.57	587.74
636.018	619.44
636.466	574.84
636.914	553.44
637.362	560.84
637.81	573.34
638.258	577.04
638.705	573.94
639.153	605.14
639.601	609.74
640.049	635.84
640.497	669.14
640.944	676.84
641.392	638.94
641.84	609.54
642.287	582.04
642.735	563.24
643.182	560.34
643.63	565.24
644.078	577.84
644.525	582.44
644.973	598.74
645.42	598.24
645.867	616.04
646.315	635.84
646.762	654.84
647.21	686.84
647.657	704.24
648.104	731.74
648.551	767.14
648.999	819.34
649.446	901.14
649.893	1005.34
650.34	1140.94
650.787	1372.94
651.234	1713.84
651.682	2222.14
652.129	3069.04
652.576	4421.74
653.023	6481.44
653.47	8872.14
653.917	11063.34
654.363	12710.64
654.81	14036.74
655.257	13342.64
655.704	8708.34
656.151	5150.24
656.598	3338.54
657.044	2366.14
657.491	1822.04
657.938	1474.84
658.385	1226.04
658.831	1055.04
659.278	955.04
659.724	844.04
660.171	763.94
660.618	706.74
661.064	672.74
661.511	662.34
661.957	640.34
662.404	632.94
662.85	645.24
663.296	618.34
663.743	559.34
664.189	533.44
664.635	523.54
665.082	526.34
665.528	524.94
665.974	519.44
666.42	499.74
666.867	507.34
667.313	490.94
667.759	475.34
668.205	466.34
668.651	475.24
669.097	478.24
669.543	488.14
669.989	467.04
670.435	436.24
670.881	444.54
671.327	444.44
671.773	459.84
672.219	486.84
672.665	540.34
673.11	583.94
673.556	618.24
674.002	661.84
674.448	646.04
674.893	544.34
675.339	472.64
675.785	435.84
676.23	410.14
676.676	398.84
677.122	387.34
677.567	365.44
678.013	359.54
678.458	360.44
678.904	357.84
679.349	343.14
679.794	363.54
680.24	343.14
680.685	355.34
681.131	340.84
681.576	352.74
682.021	348.94
682.466	350.04
682.912	340.94
683.357	359.74
683.802	378.34
684.247	408.44
684.692	451.84
685.137	486.44
685.583	538.64
686.028	558.04
686.473	516.64
686.918	444.14
687.363	413.04
687.807	385.84
688.252	359.44
688.697	354.04
689.142	342.14
689.587	331.64
690.032	319.04
690.477	345.54
690.921	351.84
691.366	377.44
691.811	400.34
692.255	426.84
692.7	457.04
693.145	495.44
693.589	696.44
694.034	1136.04
694.478	1527.34
694.923	1709.84
695.367	2236.14
695.812	1179.34
696.256	494.54
696.701	375.54
697.145	343.64
697.59	322.94
698.034	319.04
698.478	333.24
698.922	328.44
699.367	316.04
699.811	329.94
700.255	351.84
700.699	380.24
701.143	428.04
701.588	478.64
702.032	510.74
702.476	514.04
702.92	483.84
703.364	495.34
703.808	637.94
704.252	1040.94
704.696	1450.24
705.14	1664.34
705.584	2101.74
706.027	1044.74
706.471	515.54
706.915	390.54
707.359	349.34
707.803	316.44
708.246	304.64
708.69	313.84
709.134	306.44
709.577	311.34
710.021	312.44
710.465	301.44
710.908	287.54
711.352	291.64
711.795	313.64
712.239	347.34
712.682	388.14
713.126	415.74
713.569	458.54
714.012	372.84
714.456	317.14
714.899	302.04
715.342	273.24
715.786	266.24
716.229	257.34
716.672	258.44
717.115	239.94
717.558	247.44
718.002	250.74
718.445	260.24
718.888	280.14
719.331	295.34
719.774	311.74
720.217	302.24
720.66	288.84
721.103	264.14
721.546	249.24
721.989	246.54
722.432	228.64
722.874	233.54
723.317	231.24
723.76	239.84
724.203	255.54
724.645	318.24
725.088	437.04
725.531	562.64
725.974	641.44
726.416	542.84
726.859	301.14
727.301	251.24
727.744	234.84
728.187	234.64
728.629	234.74
729.071	240.64
729.514	258.14
729.956	277.24
730.399	280.64
730.841	285.94
731.283	275.04
731.726	267.34
732.168	251.04
732.61	267.74
733.053	278.74
733.495	314.94
733.937	349.94
734.379	398.54
734.821	434.84
735.263	548.54
735.705	846.84
736.148	1589.54
736.59	2567.84
737.032	2999.54
737.474	2450.64
737.916	807.14
738.357	429.44
738.799	323.34
739.241	299.24
739.683	290.24
740.125	292.34
740.567	285.84
741.008	308.44
741.45	310.04
741.892	317.34
742.334	339.84
742.775	355.54
743.217	342.44
743.658	267.24
744.1	251.14
744.542	253.94
744.983	309.94
745.425	337.24
745.866	342.94
746.307	280.04
746.749	271.14
747.19	320.14
747.632	463.64
748.073	897.94
748.514	1873.94
748.956	2835.94
749.397	3565.34
749.838	2963.64
750.279	2919.74
750.72	1474.84
751.162	540.54
751.603	320.14
752.044	253.14
752.485	215.44
752.926	203.54
753.367	198.64
753.808	192.24
754.249	189.84
754.69	184.14
755.131	186.74
755.572	180.34
756.013	175.94
756.453	184.24
756.894	184.44
757.335	187.84
757.776	192.94
758.216	197.14
758.657	198.74
759.098	203.04
759.538	227.44
759.979	264.64
760.42	372.84
760.86	718.44
761.301	1844.14
761.741	4447.94
762.182	6324.04
762.622	4430.84
763.063	1295.74
763.503	539.64
