Data from 20171114-ORNL-Ar_H_NY_Subt18_08-08-32-035.txt Node
Date: Tue Nov 14 08:08:32 EST 2017
User: Ender
Spectrometer: HR+D1039
Trigger mode: 0
Integration Time (sec): 2.730000E-2
Scans to average: 10
Electric dark correction enabled: true
Nonlinearity correction enabled: false
Boxcar width: 0
XAxis mode: Wavelengths
Number of Pixels in Spectrum: 2048
>>>>>Begin Spectral Data<<<<<
187.836	-3.16
188.309	-3.16
188.782	-3.16
189.255	0.84
189.728	2.14
190.201	2.04
190.674	-0.26
191.147	3.94
191.619	-7.76
192.092	1.64
192.565	4.24
193.038	-1.06
193.511	0.24
193.984	4.24
194.456	-3.26
194.929	-1.36
195.402	-3.36
195.874	0.84
196.347	-3.86
196.82	-11.56
197.292	7.24
197.765	-1.96
198.237	-3.06
198.71	0.04
199.182	-2.76
199.655	1.84
200.127	-3.96
200.6	-4.86
201.072	-7.16
201.544	-8.76
202.017	-5.16
202.489	4.74
202.961	-0.16
203.433	-5.46
203.906	-4.46
204.378	-7.46
204.85	-5.46
205.322	-15.86
205.794	0.54
206.266	-9.66
206.739	-7.66
207.211	6.44
207.683	-8.16
208.155	-3.76
208.627	-11.06
209.099	-2.16
209.57	-8.96
210.042	-6.86
210.514	-5.06
210.986	-0.96
211.458	-4.76
211.93	-3.76
212.402	6.24
212.873	-7.96
213.345	-6.26
213.817	-13.26
214.288	-5.66
214.76	-12.86
215.232	-6.56
215.703	-3.76
216.175	-5.96
216.646	-2.96
217.118	-6.26
217.589	-0.96
218.061	1.84
218.532	-2.06
219.004	-4.96
219.475	-3.86
219.946	-3.66
220.418	-7.26
220.889	2.84
221.36	0.04
221.832	-4.76
222.303	-11.46
222.774	-1.66
223.245	-11.06
223.717	-9.36
224.188	-1.66
224.659	-7.66
225.13	-7.36
225.601	-4.46
226.072	-2.76
226.543	-3.36
227.014	-0.96
227.485	-3.66
227.956	-2.76
228.427	-0.86
228.898	-0.36
229.369	2.84
229.839	-4.66
230.31	-7.96
230.781	1.14
231.252	3.94
231.722	-9.86
232.193	-5.66
232.664	-8.16
233.135	-0.16
233.605	-4.56
234.076	-11.36
234.546	4.14
235.017	3.84
235.487	-0.16
235.958	-7.26
236.428	-8.26
236.899	-5.96
237.369	-3.76
237.84	-8.06
238.31	-2.66
238.78	2.64
239.251	-9.16
239.721	-2.96
240.191	-3.76
240.662	0.94
241.132	-4.56
241.602	-2.86
242.072	0.14
242.542	-0.26
243.013	3.34
243.483	-2.76
243.953	3.44
244.423	-11.56
244.893	-5.76
245.363	4.84
245.833	-0.06
246.303	-1.16
246.773	0.04
247.243	2.84
247.712	-1.16
248.182	9.04
248.652	3.34
249.122	-7.56
249.592	-4.26
250.061	0.54
250.531	6.14
251.001	-5.56
251.471	10.44
251.94	4.74
252.41	-1.36
252.879	-4.96
253.349	12.94
253.818	5.14
254.288	1.64
254.757	-4.06
255.227	-3.96
255.696	1.14
256.166	-4.16
256.635	3.34
257.105	0.04
257.574	1.84
258.043	-1.16
258.513	-1.06
258.982	1.14
259.451	-7.86
259.92	-0.76
260.389	2.94
260.859	10.14
261.328	-3.46
261.797	0.54
262.266	-4.56
262.735	9.94
263.204	-2.16
263.673	-2.96
264.142	3.44
264.611	-9.66
265.08	-4.96
265.549	-2.86
266.018	1.84
266.487	-4.56
266.955	-3.26
267.424	-2.76
267.893	-0.56
268.362	0.04
268.83	3.34
269.299	12.44
269.768	0.24
270.236	-0.56
270.705	-1.46
271.174	4.04
271.642	-1.66
272.111	0.64
272.579	0.14
273.048	-0.06
273.516	0.94
273.985	5.34
274.453	12.44
274.922	9.54
275.39	6.24
275.858	0.04
276.327	9.54
276.795	13.14
277.263	2.94
277.731	10.94
278.2	6.44
278.668	8.04
279.136	11.14
279.604	3.54
280.072	5.24
280.54	9.94
281.008	9.34
281.477	11.14
281.945	5.44
282.413	7.84
282.881	13.74
283.348	1.24
283.816	10.24
284.284	10.64
284.752	17.64
285.22	7.64
285.688	10.64
286.156	10.54
286.623	15.84
287.091	7.94
287.559	12.64
288.026	8.64
288.494	10.54
288.962	5.04
289.429	4.84
289.897	16.14
290.364	12.34
290.832	12.74
291.3	12.74
291.767	11.74
292.234	15.54
292.702	8.74
293.169	18.44
293.637	18.34
294.104	15.24
294.571	8.64
295.039	8.14
295.506	14.34
295.973	15.24
296.44	12.74
296.908	12.64
297.375	12.24
297.842	14.24
298.309	15.34
298.776	10.34
299.243	16.84
299.71	12.34
300.177	17.74
300.644	14.34
301.111	16.44
301.578	26.64
302.045	14.24
302.512	22.84
302.979	21.64
303.446	13.14
303.913	16.84
304.379	15.64
304.846	26.84
305.313	24.84
305.78	17.74
306.246	19.34
306.713	23.54
307.18	19.24
307.646	22.64
308.113	25.14
308.579	12.84
309.046	17.74
309.512	27.94
309.979	17.94
310.445	26.44
310.912	28.44
311.378	30.04
311.845	18.54
312.311	29.54
312.777	26.94
313.244	26.24
313.71	37.44
314.176	27.34
314.642	22.84
315.109	32.94
315.575	36.64
316.041	32.54
316.507	22.04
316.973	30.74
317.439	29.34
317.905	27.84
318.371	34.64
318.837	32.44
319.303	28.44
319.769	27.64
320.235	27.74
320.701	39.24
321.167	35.74
321.633	30.14
322.099	35.74
322.564	40.04
323.03	37.34
323.496	36.14
323.962	37.84
324.427	30.04
324.893	43.44
325.359	37.04
325.824	32.34
326.29	34.94
326.755	35.04
327.221	39.34
327.686	36.34
328.152	47.44
328.617	41.04
329.083	46.94
329.548	46.14
330.014	45.44
330.479	35.54
330.944	37.64
331.41	44.54
331.875	36.64
332.34	38.04
332.805	41.04
333.271	41.24
333.736	35.24
334.201	49.94
334.666	50.04
335.131	47.94
335.596	46.94
336.061	47.84
336.526	40.84
336.991	43.24
337.456	57.04
337.921	46.24
338.386	40.94
338.851	40.64
339.316	44.74
339.781	45.34
340.246	53.94
340.711	46.64
341.175	52.74
341.64	46.84
342.105	49.44
342.569	51.24
343.034	56.94
343.499	57.24
343.963	50.84
344.428	65.04
344.893	58.74
345.357	54.84
345.822	58.34
346.286	61.24
346.751	72.04
347.215	67.84
347.679	76.04
348.144	96.84
348.608	81.54
349.073	70.64
349.537	72.64
350.001	81.84
350.465	83.94
350.93	83.24
351.394	78.74
351.858	72.84
352.322	93.14
352.786	76.64
353.25	101.44
353.715	107.54
354.179	103.54
354.643	111.34
355.107	115.14
355.571	97.94
356.035	96.84
356.498	110.44
356.962	116.64
357.426	125.84
357.89	112.34
358.354	88.54
358.818	81.74
359.281	80.94
359.745	73.74
360.209	74.14
360.673	71.84
361.136	75.14
361.6	84.84
362.064	82.54
362.527	91.34
362.991	89.84
363.454	79.54
363.918	78.04
364.381	74.84
364.845	83.64
365.308	85.24
365.772	89.94
366.235	82.04
366.698	84.44
367.162	81.34
367.625	88.04
368.088	93.54
368.552	89.64
369.015	86.84
369.478	95.34
369.941	99.74
370.404	93.84
370.867	99.94
371.331	106.04
371.794	113.34
372.257	100.34
372.72	102.54
373.183	104.34
373.646	91.44
374.109	102.74
374.572	105.64
375.035	104.94
375.497	106.84
375.96	105.64
376.423	107.64
376.886	115.84
377.349	115.74
377.811	103.54
378.274	99.34
378.737	99.04
379.199	111.04
379.662	105.64
380.125	110.64
380.587	102.64
381.05	107.44
381.512	120.44
381.975	124.14
382.437	122.54
382.9	119.34
383.362	121.44
383.825	129.34
384.287	133.84
384.75	116.94
385.212	133.64
385.674	133.64
386.136	141.94
386.599	123.74
387.061	131.44
387.523	123.44
387.985	124.44
388.447	137.64
388.91	124.14
389.372	137.44
389.834	131.94
390.296	132.94
390.758	143.34
391.22	147.04
391.682	153.24
392.144	161.74
392.606	147.14
393.068	139.54
393.529	155.84
393.991	145.04
394.453	142.74
394.915	136.34
395.377	142.34
395.838	140.74
396.3	131.64
396.762	147.74
397.224	141.44
397.685	134.34
398.147	135.94
398.608	137.64
399.07	130.74
399.531	142.04
399.993	147.34
400.454	154.74
400.916	153.44
401.377	144.84
401.839	154.34
402.3	157.84
402.762	174.64
403.223	183.84
403.684	174.64
404.145	170.04
404.607	163.84
405.068	171.64
405.529	171.74
405.99	194.44
406.451	189.04
406.913	175.34
407.374	173.54
407.835	170.14
408.296	173.54
408.757	186.24
409.218	202.64
409.679	189.84
410.14	180.84
410.601	186.04
411.062	188.24
411.522	188.34
411.983	181.14
412.444	181.64
412.905	190.84
413.366	194.04
413.826	207.64
414.287	228.64
414.748	273.54
415.208	270.54
415.669	222.44
416.13	219.74
416.59	215.54
417.051	225.64
417.511	234.74
417.972	250.64
418.432	267.84
418.893	312.84
419.353	268.74
419.814	207.54
420.274	199.74
420.734	194.74
421.195	204.24
421.655	197.64
422.115	204.54
422.576	207.74
423.036	205.64
423.496	220.04
423.956	228.44
424.416	240.24
424.876	284.24
425.336	277.94
425.797	278.24
426.257	260.74
426.717	263.94
427.177	242.64
427.637	234.84
428.097	247.24
428.556	256.84
429.016	280.04
429.476	273.54
429.936	286.74
430.396	286.04
430.856	298.84
431.315	323.44
431.775	359.24
432.235	394.04
432.694	365.14
433.154	378.34
433.614	408.34
434.073	344.74
434.533	298.64
434.993	283.54
435.452	299.14
435.912	312.04
436.371	304.14
436.83	294.84
437.29	277.74
437.749	252.94
438.209	258.94
438.668	293.34
439.127	306.54
439.587	276.84
440.046	259.14
440.505	274.84
440.964	294.94
441.424	347.24
441.883	334.84
442.342	270.24
442.801	240.44
443.26	239.54
443.719	239.44
444.178	237.24
444.637	225.74
445.096	237.54
445.555	240.44
446.014	244.94
446.473	239.44
446.932	251.74
447.391	237.54
447.849	251.04
448.308	234.84
448.767	231.74
449.226	258.84
449.685	255.44
450.143	266.24
450.602	255.14
451.061	248.94
451.519	256.14
451.978	249.84
452.436	253.14
452.895	254.04
453.353	264.94
453.812	260.54
454.27	260.54
454.729	256.24
455.187	257.14
455.646	263.54
456.104	269.14
456.562	283.44
457.021	293.94
457.479	281.84
457.937	295.64
458.395	290.24
458.854	268.64
459.312	278.14
459.77	297.14
460.228	273.64
460.686	264.84
461.144	278.04
461.602	274.44
462.06	267.84
462.518	279.94
462.976	275.64
463.434	280.34
463.892	284.54
464.35	293.94
464.808	309.34
465.266	285.24
465.724	297.64
466.181	293.04
466.639	294.94
467.097	316.64
467.555	323.84
468.012	323.34
468.47	330.44
468.928	348.24
469.385	362.54
469.843	370.14
470.3	379.84
470.758	394.14
471.215	413.64
471.673	434.44
472.13	442.04
472.588	443.64
473.045	403.34
473.503	400.34
473.96	423.84
474.417	429.84
474.875	457.64
475.332	510.74
475.789	488.54
476.246	496.34
476.704	519.34
477.161	536.14
477.618	553.24
478.075	587.84
478.532	649.24
478.989	719.04
479.446	835.34
479.903	795.54
480.36	819.14
480.817	877.34
481.274	975.54
481.731	1055.54
482.188	1144.64
482.645	1259.34
483.102	1358.34
483.558	1491.04
484.015	1512.04
484.472	1491.24
484.929	1446.84
485.385	1405.74
485.842	1367.54
486.299	1331.34
486.755	1283.54
487.212	1094.44
487.668	946.44
488.125	871.94
488.582	803.84
489.038	772.54
489.494	736.74
489.951	708.94
490.407	694.04
490.864	666.94
491.32	668.34
491.776	685.04
492.233	685.94
492.689	645.74
493.145	642.74
493.602	633.64
494.058	645.24
494.514	655.94
494.97	672.34
495.426	679.14
495.882	656.54
496.338	640.14
496.794	652.44
497.251	645.84
497.707	664.14
498.163	665.94
498.618	681.54
499.074	681.14
499.53	703.84
499.986	701.54
500.442	678.94
500.898	657.24
501.354	642.54
501.809	657.84
502.265	663.74
502.721	665.94
503.177	681.84
503.632	689.44
504.088	678.04
504.543	714.44
504.999	726.04
505.455	694.44
505.91	670.24
506.366	673.34
506.821	671.94
507.277	669.14
507.732	662.24
508.187	667.34
508.643	671.24
509.098	679.14
509.553	700.04
510.009	712.34
510.464	709.84
510.919	731.94
511.375	744.44
511.83	764.14
512.285	754.34
512.74	805.64
513.195	824.44
513.65	806.64
514.105	806.14
514.56	805.74
515.015	826.64
515.47	840.94
515.925	832.74
516.38	823.04
516.835	830.04
517.29	819.94
517.745	818.24
518.2	803.04
518.655	786.34
519.109	794.24
519.564	789.04
520.019	779.04
520.474	762.84
520.928	765.04
521.383	754.54
521.838	740.24
522.292	764.64
522.747	755.04
523.201	747.74
523.656	742.64
524.11	742.74
524.565	733.04
525.019	734.44
525.474	739.64
525.928	733.94
526.382	740.74
526.837	740.14
527.291	743.04
527.745	738.04
528.2	739.44
528.654	721.54
529.108	730.54
529.562	730.14
530.016	740.94
530.47	737.34
530.925	718.44
531.379	739.84
531.833	743.04
532.287	741.64
532.741	731.44
533.195	735.44
533.649	752.44
534.103	756.34
534.556	747.84
535.01	747.14
535.464	747.44
535.918	752.14
536.372	758.04
536.826	750.64
537.279	747.04
537.733	753.14
538.187	751.94
538.64	752.44
539.094	764.64
539.548	769.04
540.001	765.34
540.455	770.74
540.908	769.64
541.362	788.84
541.815	785.74
542.269	802.14
542.722	798.04
543.175	818.04
543.629	823.04
544.082	829.44
544.536	831.04
544.989	824.94
545.442	850.14
545.895	829.44
546.349	838.24
546.802	842.94
547.255	843.24
547.708	851.24
548.161	866.24
548.614	869.64
549.067	877.64
549.52	858.64
549.973	855.14
550.426	859.84
550.879	846.04
551.332	844.34
551.785	853.84
552.238	859.84
552.691	871.54
553.144	875.04
553.596	905.44
554.049	919.84
554.502	943.74
554.955	972.14
555.407	962.14
555.86	942.94
556.313	939.14
556.765	932.24
557.218	938.44
557.67	939.74
558.123	932.04
558.576	918.24
559.028	931.74
559.48	926.84
559.933	929.44
560.385	885.94
560.838	858.64
561.29	839.34
561.742	842.64
562.195	820.64
562.647	821.64
563.099	826.94
563.551	820.94
564.004	819.74
564.456	816.74
564.908	810.74
565.36	787.84
565.812	765.54
566.264	768.64
566.716	757.44
567.168	750.54
567.62	752.24
568.072	735.44
568.524	731.54
568.976	727.64
569.428	708.44
569.88	707.44
570.332	733.34
570.784	741.84
571.235	728.04
571.687	737.04
572.139	748.14
572.59	743.84
573.042	751.84
573.494	751.64
573.945	739.64
574.397	727.54
574.849	734.14
575.3	733.34
575.752	725.44
576.203	723.24
576.655	733.64
577.106	717.44
577.557	712.14
578.009	714.24
578.46	697.64
578.912	703.54
579.363	714.54
579.814	712.74
580.265	708.54
580.717	705.64
581.168	713.44
581.619	706.64
582.07	719.34
582.521	726.54
582.972	710.44
583.423	709.54
583.875	709.24
584.326	726.14
584.777	735.24
585.227	761.94
585.678	784.44
586.129	803.74
586.58	813.94
587.031	848.54
587.482	883.84
587.933	907.74
588.384	877.24
588.834	831.04
589.285	818.84
589.736	825.24
590.186	818.64
590.637	816.94
591.088	796.74
591.538	771.14
591.989	773.94
592.439	775.44
592.89	757.54
593.34	746.44
593.791	740.64
594.241	744.54
594.692	741.24
595.142	737.24
595.593	734.74
596.043	747.64
596.493	743.54
596.943	747.74
597.394	758.54
597.844	765.34
598.294	777.64
598.744	803.24
599.195	834.04
599.645	875.34
600.095	911.74
600.545	977.24
600.995	1028.64
601.445	1098.24
601.895	1148.34
602.345	1193.34
602.795	1178.14
603.245	1131.04
603.695	1070.74
604.145	1005.44
604.594	964.04
605.044	902.24
605.494	857.04
605.944	802.84
606.393	788.74
606.843	763.64
607.293	780.54
607.743	771.74
608.192	788.34
608.642	805.14
609.091	798.74
609.541	811.34
609.99	800.94
610.44	808.14
610.889	766.34
611.339	736.34
611.788	709.84
612.238	727.14
612.687	749.14
613.136	730.94
613.586	744.34
614.035	740.34
614.484	752.14
614.933	734.54
615.383	753.14
615.832	742.74
616.281	738.04
616.73	699.14
617.179	692.54
617.628	671.84
618.077	666.34
618.526	654.84
618.975	656.94
619.424	648.44
619.873	636.64
620.322	650.94
620.771	645.84
621.22	634.24
621.669	630.14
622.118	616.34
622.567	607.84
623.015	601.34
623.464	604.24
623.913	595.74
624.361	589.14
624.81	581.44
625.259	591.24
625.707	590.74
626.156	587.94
626.604	605.64
627.053	588.64
627.501	599.44
627.95	607.04
628.398	613.54
628.847	596.54
629.295	606.34
629.744	610.04
630.192	603.94
630.64	593.34
631.089	572.04
631.537	572.94
631.985	558.74
632.433	566.74
632.881	554.34
633.33	562.34
633.778	552.74
634.226	549.74
634.674	576.34
635.122	569.24
635.57	583.84
636.018	585.04
636.466	593.04
636.914	585.14
637.362	601.34
637.81	612.24
638.258	610.54
638.705	615.44
639.153	646.34
639.601	662.54
640.049	681.64
640.497	711.14
640.944	742.34
641.392	682.54
641.84	643.94
642.287	616.64
642.735	600.24
643.182	591.44
643.63	600.14
644.078	603.14
644.525	608.04
644.973	615.44
645.42	621.54
645.867	652.54
646.315	664.04
646.762	693.84
647.21	723.44
647.657	739.64
648.104	766.54
648.551	795.64
648.999	865.74
649.446	929.74
649.893	1013.84
650.34	1160.54
650.787	1383.54
651.234	1702.84
651.682	2210.84
652.129	2995.64
652.576	4258.04
653.023	6193.74
653.47	8330.34
653.917	10272.24
654.363	11742.74
654.81	12944.84
655.257	12249.94
655.704	8126.64
656.151	4894.34
656.598	3233.04
657.044	2321.04
657.491	1813.64
657.938	1465.54
658.385	1237.94
658.831	1071.94
659.278	963.24
659.724	867.04
660.171	798.24
660.618	747.64
661.064	708.74
661.511	694.54
661.957	678.74
662.404	659.74
662.85	675.44
663.296	649.74
663.743	590.24
664.189	567.24
664.635	566.94
665.082	556.64
665.528	557.64
665.974	541.74
666.42	531.54
666.867	534.54
667.313	510.54
667.759	492.94
668.205	483.64
668.651	489.14
669.097	473.14
669.543	468.94
669.989	476.34
670.435	470.94
670.881	482.34
671.327	481.34
671.773	497.64
672.219	524.44
672.665	577.84
673.11	622.24
673.556	670.74
674.002	711.24
674.448	698.34
674.893	586.14
675.339	507.34
675.785	465.94
676.23	445.24
676.676	420.34
677.122	408.74
677.567	403.44
678.013	393.24
678.458	386.54
678.904	380.64
679.349	367.94
679.794	380.64
680.24	378.44
680.685	378.04
681.131	368.24
681.576	383.34
682.021	377.14
682.466	371.04
682.912	370.74
683.357	374.94
683.802	410.74
684.247	441.44
684.692	493.44
685.137	533.04
685.583	566.94
686.028	586.54
686.473	546.14
686.918	466.34
687.363	444.64
687.807	417.74
688.252	385.04
688.697	373.14
689.142	358.34
689.587	354.64
690.032	344.84
690.477	361.24
690.921	376.34
691.366	406.14
691.811	433.64
692.255	464.34
692.7	489.74
693.145	547.34
693.589	772.64
694.034	1251.54
694.478	1670.34
694.923	1843.64
695.367	2391.24
695.812	1285.54
696.256	536.14
696.701	395.74
697.145	360.44
697.59	350.14
698.034	335.24
698.478	353.64
698.922	343.64
699.367	345.94
699.811	360.54
700.255	376.24
700.699	407.54
701.143	448.44
701.588	508.34
702.032	544.54
702.476	548.34
702.92	526.44
703.364	532.04
703.808	699.14
704.252	1149.94
704.696	1584.24
705.14	1781.94
705.584	2263.14
706.027	1147.84
706.471	564.44
706.915	428.94
707.359	382.04
707.803	342.84
708.246	328.44
708.69	334.94
709.134	338.54
709.577	327.44
710.021	332.84
710.465	328.34
710.908	318.84
711.352	332.04
711.795	340.54
712.239	378.34
712.682	415.64
713.126	439.34
713.569	486.24
714.012	378.84
714.456	334.04
714.899	314.94
715.342	293.94
715.786	278.44
716.229	268.44
716.672	273.54
717.115	263.74
717.558	266.04
718.002	263.54
718.445	275.64
718.888	298.64
719.331	314.44
719.774	331.44
720.217	322.14
720.66	302.24
721.103	286.84
721.546	273.84
721.989	264.84
722.432	249.64
722.874	253.44
723.317	245.94
723.76	263.24
724.203	281.64
724.645	346.64
725.088	480.84
725.531	605.74
725.974	677.94
726.416	586.34
726.859	327.34
727.301	271.94
727.744	247.24
728.187	245.94
728.629	263.64
729.071	260.24
729.514	277.54
729.956	294.34
730.399	304.74
730.841	314.64
731.283	301.44
731.726	291.24
732.168	279.74
732.61	288.74
733.053	305.64
733.495	337.44
733.937	381.74
734.379	430.34
734.821	468.54
735.263	599.64
735.705	926.74
736.148	1738.44
736.59	2815.44
737.032	3217.84
737.474	2643.54
737.916	876.24
738.357	463.14
738.799	357.94
739.241	317.04
739.683	306.24
740.125	305.24
740.567	315.64
741.008	342.64
741.45	339.24
741.892	340.34
742.334	375.64
742.775	388.14
743.217	363.94
743.658	297.94
744.1	275.24
744.542	283.94
744.983	337.24
745.425	371.64
745.866	366.14
746.307	301.44
746.749	305.24
747.19	346.54
747.632	504.84
748.073	991.94
748.514	2045.84
748.956	3079.94
749.397	3885.44
749.838	3226.34
750.279	3139.54
750.72	1611.44
751.162	595.74
751.603	349.24
752.044	275.54
752.485	240.14
752.926	225.94
753.367	215.94
753.808	205.84
754.249	204.34
754.69	198.44
755.131	190.64
755.572	193.74
756.013	190.84
756.453	201.04
756.894	206.94
757.335	209.04
757.776	211.14
758.216	219.64
758.657	213.24
759.098	224.44
759.538	245.14
759.979	296.14
760.42	411.74
760.86	795.24
761.301	2069.04
761.741	4887.84
762.182	6767.34
762.622	4804.54
