Data from 20171114-ORNL-Ar_H_NY_Subt18_08-07-02-226.txt Node
Date: Tue Nov 14 08:07:02 EST 2017
User: Ender
Spectrometer: HR+D1039
Trigger mode: 0
Integration Time (sec): 2.730000E-2
Scans to average: 10
Electric dark correction enabled: true
Nonlinearity correction enabled: false
Boxcar width: 0
XAxis mode: Wavelengths
Number of Pixels in Spectrum: 2048
>>>>>Begin Spectral Data<<<<<
187.836	-6.16
188.309	-6.16
188.782	-6.16
189.255	-2.06
189.728	-1.86
190.201	3.24
190.674	5.64
191.147	3.64
191.619	-7.36
192.092	7.64
192.565	6.04
193.038	0.94
193.511	1.04
193.984	-1.76
194.456	-2.36
194.929	2.44
195.402	-5.56
195.874	-3.46
196.347	-4.16
196.82	-5.16
197.292	6.34
197.765	0.04
198.237	-8.66
198.71	3.94
199.182	-11.96
199.655	4.84
200.127	0.44
200.6	-2.56
201.072	-1.86
201.544	-10.46
202.017	-0.26
202.489	10.44
202.961	-1.16
203.433	-10.86
203.906	-4.36
204.378	-7.16
204.85	-0.46
205.322	-5.26
205.794	-4.36
206.266	-0.96
206.739	-6.96
207.211	-2.26
207.683	-6.06
208.155	0.84
208.627	-4.56
209.099	-4.66
209.57	-11.76
210.042	-7.16
210.514	0.54
210.986	0.14
211.458	-8.96
211.93	-5.16
212.402	8.84
212.873	-0.16
213.345	-12.26
213.817	-8.96
214.288	0.94
214.76	-12.96
215.232	-6.36
215.703	-5.86
216.175	-3.16
216.646	-9.76
217.118	-8.76
217.589	-7.46
218.061	-2.36
218.532	-5.96
219.004	2.04
219.475	-7.16
219.946	-4.16
220.418	-8.16
220.889	2.74
221.36	-1.76
221.832	-8.86
222.303	-12.26
222.774	-3.76
223.245	-6.36
223.717	-8.76
224.188	-3.56
224.659	-8.26
225.13	-12.66
225.601	-0.36
226.072	2.04
226.543	-5.46
227.014	-4.66
227.485	-3.26
227.956	-6.56
228.427	-1.26
228.898	1.14
229.369	5.34
229.839	-3.56
230.31	-6.16
230.781	3.14
231.252	-3.66
231.722	-4.86
232.193	1.14
232.664	2.44
233.135	-4.96
233.605	-0.76
234.076	-9.26
234.546	-4.06
235.017	8.04
235.487	0.14
235.958	-4.46
236.428	-6.46
236.899	-4.56
237.369	-5.56
237.84	-8.56
238.31	1.34
238.78	-6.26
239.251	-6.16
239.721	-1.16
240.191	-1.86
240.662	0.44
241.132	0.34
241.602	-1.66
242.072	-1.16
242.542	0.34
243.013	-3.76
243.483	1.14
243.953	-0.56
244.423	-5.96
244.893	-6.36
245.363	2.14
245.833	-1.76
246.303	1.14
246.773	0.84
247.243	1.24
247.712	-3.06
248.182	0.14
248.652	-1.76
249.122	-10.46
249.592	3.94
250.061	0.14
250.531	13.44
251.001	-0.76
251.471	3.74
251.94	6.24
252.41	-2.46
252.879	-4.26
253.349	6.84
253.818	8.24
254.288	1.04
254.757	-3.46
255.227	-2.86
255.696	-0.36
256.166	-4.56
256.635	-2.76
257.105	-0.76
257.574	-3.26
258.043	2.24
258.513	-5.26
258.982	6.64
259.451	-9.86
259.92	3.04
260.389	4.34
260.859	10.14
261.328	-0.66
261.797	3.94
262.266	1.94
262.735	11.54
263.204	4.74
263.673	-6.96
264.142	4.84
264.611	-2.86
265.08	1.44
265.549	-8.46
266.018	-1.36
266.487	-4.46
266.955	-9.06
267.424	-5.56
267.893	4.04
268.362	1.14
268.83	2.04
269.299	6.24
269.768	5.04
270.236	5.14
270.705	-0.76
271.174	6.94
271.642	5.54
272.111	1.94
272.579	2.74
273.048	2.04
273.516	3.14
273.985	3.54
274.453	4.94
274.922	8.54
275.39	3.14
275.858	2.24
276.327	2.84
276.795	9.04
277.263	5.34
277.731	10.34
278.2	3.04
278.668	8.14
279.136	6.14
279.604	7.34
280.072	5.14
280.54	4.44
281.008	5.04
281.477	10.54
281.945	8.24
282.413	12.84
282.881	10.34
283.348	3.34
283.816	11.44
284.284	7.84
284.752	14.04
285.22	5.64
285.688	9.84
286.156	12.04
286.623	16.14
287.091	7.04
287.559	10.14
288.026	11.74
288.494	12.34
288.962	3.74
289.429	4.44
289.897	9.94
290.364	14.34
290.832	11.74
291.3	12.54
291.767	10.74
292.234	15.64
292.702	5.84
293.169	7.84
293.637	12.54
294.104	15.64
294.571	7.64
295.039	9.44
295.506	10.44
295.973	15.34
296.44	7.94
296.908	13.74
297.375	7.44
297.842	14.54
298.309	10.94
298.776	11.84
299.243	14.44
299.71	7.34
300.177	15.74
300.644	19.34
301.111	16.74
301.578	16.54
302.045	8.24
302.512	18.44
302.979	19.94
303.446	15.44
303.913	13.64
304.379	15.44
304.846	21.04
305.313	20.64
305.78	16.74
306.246	22.64
306.713	17.74
307.18	19.74
307.646	28.24
308.113	22.44
308.579	23.74
309.046	20.34
309.512	17.94
309.979	11.24
310.445	22.64
310.912	30.64
311.378	26.84
311.845	24.04
312.311	31.64
312.777	25.74
313.244	30.14
313.71	39.14
314.176	33.54
314.642	28.04
315.109	20.34
315.575	32.74
316.041	36.14
316.507	25.34
316.973	28.64
317.439	27.54
317.905	30.24
318.371	25.74
318.837	27.24
319.303	28.34
319.769	28.54
320.235	21.54
320.701	30.04
321.167	24.14
321.633	25.24
322.099	31.54
322.564	27.74
323.03	34.84
323.496	22.34
323.962	34.24
324.427	27.74
324.893	33.24
325.359	36.64
325.824	32.44
326.29	29.54
326.755	30.54
327.221	38.74
327.686	35.64
328.152	41.94
328.617	31.44
329.083	39.54
329.548	47.04
330.014	49.34
330.479	33.74
330.944	35.14
331.41	40.04
331.875	33.14
332.34	37.14
332.805	39.44
333.271	40.64
333.736	34.24
334.201	43.44
334.666	43.94
335.131	44.14
335.596	43.04
336.061	40.34
336.526	36.04
336.991	39.64
337.456	52.14
337.921	49.04
338.386	37.74
338.851	37.04
339.316	40.94
339.781	43.74
340.246	45.64
340.711	44.64
341.175	44.14
341.64	38.34
342.105	51.74
342.569	47.44
343.034	42.24
343.499	44.74
343.963	49.44
344.428	55.54
344.893	59.04
345.357	50.64
345.822	52.34
346.286	52.44
346.751	62.94
347.215	62.74
347.679	63.44
348.144	82.24
348.608	70.74
349.073	62.74
349.537	67.14
350.001	70.14
350.465	70.54
350.93	68.24
351.394	74.54
351.858	67.34
352.322	74.04
352.786	78.14
353.25	87.04
353.715	91.24
354.179	90.04
354.643	101.94
355.107	106.94
355.571	90.34
356.035	78.94
356.498	96.14
356.962	98.24
357.426	114.74
357.89	100.64
358.354	81.74
358.818	79.44
359.281	72.14
359.745	64.84
360.209	73.74
360.673	69.54
361.136	68.94
361.6	75.34
362.064	73.94
362.527	77.84
362.991	79.14
363.454	71.54
363.918	73.54
364.381	75.54
364.845	74.14
365.308	76.04
365.772	79.14
366.235	80.64
366.698	79.64
367.162	81.04
367.625	80.74
368.088	78.14
368.552	79.44
369.015	80.74
369.478	92.14
369.941	92.74
370.404	83.34
370.867	95.94
371.331	92.34
371.794	98.64
372.257	89.84
372.72	99.24
373.183	95.04
373.646	89.24
374.109	92.34
374.572	96.64
375.035	92.34
375.497	102.14
375.96	99.94
376.423	92.34
376.886	103.24
377.349	103.04
377.811	94.14
378.274	97.94
378.737	97.54
379.199	104.24
379.662	103.94
380.125	106.44
380.587	96.34
381.05	105.04
381.512	112.84
381.975	120.34
382.437	113.34
382.9	105.94
383.362	115.34
383.825	120.84
384.287	123.14
384.75	110.64
385.212	117.64
385.674	118.24
386.136	120.54
386.599	111.34
387.061	112.64
387.523	121.34
387.985	117.54
388.447	128.54
388.91	118.44
389.372	122.14
389.834	123.84
390.296	126.34
390.758	125.44
391.22	137.54
391.682	141.64
392.144	145.04
392.606	135.64
393.068	138.54
393.529	144.54
393.991	137.34
394.453	127.84
394.915	132.34
395.377	124.04
395.838	133.94
396.3	128.84
396.762	135.84
397.224	131.74
397.685	128.14
398.147	124.74
398.608	132.04
399.07	130.54
399.531	134.34
399.993	141.74
400.454	150.54
400.916	142.24
401.377	143.94
401.839	145.84
402.3	149.64
402.762	171.44
403.223	175.94
403.684	163.34
404.145	163.34
404.607	160.54
405.068	169.54
405.529	163.64
405.99	182.54
406.451	175.54
406.913	166.74
407.374	167.74
407.835	161.94
408.296	168.14
408.757	174.64
409.218	176.24
409.679	175.54
410.14	178.84
410.601	177.34
411.062	180.54
411.522	182.94
411.983	175.64
412.444	173.54
412.905	179.14
413.366	184.94
413.826	193.94
414.287	219.64
414.748	264.94
415.208	252.64
415.669	217.14
416.13	204.04
416.59	211.14
417.051	221.64
417.511	231.74
417.972	251.44
418.432	256.84
418.893	299.34
419.353	255.24
419.814	205.04
420.274	187.34
420.734	190.14
421.195	200.14
421.655	202.44
422.115	186.74
422.576	203.44
423.036	206.94
423.496	221.14
423.956	231.54
424.416	236.84
424.876	272.74
425.336	266.84
425.797	270.74
426.257	266.84
426.717	240.94
427.177	229.14
427.637	226.94
428.097	236.24
428.556	249.74
429.016	271.54
429.476	261.14
429.936	275.74
430.396	270.74
430.856	293.94
431.315	313.64
431.775	338.14
432.235	378.24
432.694	344.04
433.154	357.64
433.614	385.34
434.073	330.94
434.533	281.44
434.993	266.34
435.452	279.64
435.912	288.84
436.371	286.54
436.83	280.84
437.29	271.14
437.749	254.34
438.209	254.74
438.668	277.04
439.127	292.64
439.587	262.34
440.046	255.54
440.505	261.84
440.964	283.24
441.424	327.54
441.883	310.74
442.342	265.34
442.801	226.14
443.26	230.44
443.719	235.74
444.178	227.94
444.637	216.44
445.096	230.54
445.555	234.44
446.014	237.94
446.473	237.64
446.932	247.24
447.391	242.14
447.849	242.74
448.308	230.84
448.767	233.24
449.226	250.94
449.685	249.54
450.143	262.54
450.602	245.94
451.061	240.84
451.519	243.24
451.978	242.44
452.436	254.04
452.895	257.34
453.353	267.14
453.812	253.94
454.27	248.94
454.729	254.14
455.187	250.54
455.646	256.24
456.104	259.44
456.562	275.54
457.021	277.64
457.479	276.84
457.937	285.74
458.395	274.94
458.854	263.24
459.312	266.74
459.77	286.64
460.228	270.44
460.686	259.14
461.144	260.24
461.602	263.24
462.06	264.54
462.518	266.34
462.976	271.24
463.434	270.94
463.892	274.84
464.35	288.84
464.808	308.34
465.266	288.24
465.724	289.54
466.181	295.34
466.639	285.04
467.097	300.54
467.555	318.74
468.012	321.84
468.47	329.24
468.928	351.24
469.385	356.54
469.843	373.14
470.3	362.64
470.758	386.54
471.215	407.14
471.673	424.84
472.13	422.64
472.588	432.34
473.045	400.04
473.503	401.34
473.96	415.24
474.417	419.54
474.875	455.94
475.332	494.14
475.789	484.54
476.246	487.24
476.704	498.14
477.161	527.94
477.618	541.54
478.075	584.94
478.532	633.94
478.989	701.94
479.446	820.04
479.903	779.74
480.36	814.14
480.817	857.34
481.274	952.84
481.731	1048.54
482.188	1134.54
482.645	1249.44
483.102	1323.44
483.558	1463.74
484.015	1510.74
484.472	1462.54
484.929	1431.34
485.385	1395.14
485.842	1347.34
486.299	1311.84
486.755	1260.24
487.212	1074.94
487.668	930.44
488.125	863.64
488.582	804.24
489.038	773.54
489.494	737.84
489.951	709.64
490.407	697.74
490.864	671.24
491.32	668.44
491.776	671.04
492.233	673.74
492.689	639.34
493.145	630.94
493.602	628.44
494.058	641.54
494.514	644.54
494.97	664.74
495.426	679.04
495.882	660.04
496.338	648.64
496.794	649.74
497.251	647.94
497.707	670.74
498.163	658.34
498.618	667.24
499.074	673.64
499.53	708.84
499.986	697.44
500.442	675.74
500.898	647.64
501.354	647.84
501.809	655.84
502.265	651.54
502.721	677.54
503.177	673.64
503.632	678.94
504.088	679.24
504.543	711.34
504.999	723.64
505.455	684.54
505.91	674.94
506.366	669.64
506.821	665.84
507.277	670.34
507.732	674.24
508.187	666.44
508.643	680.54
509.098	682.94
509.553	695.54
510.009	706.14
510.464	714.64
510.919	726.54
511.375	734.74
511.83	754.74
512.285	768.24
512.74	801.34
513.195	826.94
513.65	819.64
514.105	814.64
514.56	807.34
515.015	834.74
515.47	847.54
515.925	834.74
516.38	820.84
516.835	832.54
517.29	823.94
517.745	826.04
518.2	810.34
518.655	791.34
519.109	793.04
519.564	786.34
520.019	774.34
520.474	761.54
520.928	778.14
521.383	754.34
521.838	751.44
522.292	745.64
522.747	750.34
523.201	748.94
523.656	740.74
524.11	738.64
524.565	732.14
525.019	733.94
525.474	735.84
525.928	749.24
526.382	747.34
526.837	739.34
527.291	742.04
527.745	736.14
528.2	744.04
528.654	731.84
529.108	727.74
529.562	735.04
530.016	733.44
530.47	732.84
530.925	727.14
531.379	733.64
531.833	739.44
532.287	748.34
532.741	739.74
533.195	747.34
533.649	754.04
534.103	771.44
534.556	749.84
535.01	740.74
535.464	750.34
535.918	750.94
536.372	761.04
536.826	758.14
537.279	754.64
537.733	754.14
538.187	759.54
538.64	765.14
539.094	761.94
539.548	767.44
540.001	762.24
540.455	772.24
540.908	778.74
541.362	779.24
541.815	790.14
542.269	817.54
542.722	805.54
543.175	804.84
543.629	814.34
544.082	838.24
544.536	847.64
544.989	828.44
545.442	836.34
545.895	845.24
546.349	841.34
546.802	841.44
547.255	851.54
547.708	864.74
548.161	864.74
548.614	877.74
549.067	873.04
549.52	865.64
549.973	867.44
550.426	863.34
550.879	851.54
551.332	848.74
551.785	860.04
552.238	866.44
552.691	868.84
553.144	884.04
553.596	898.54
554.049	916.44
554.502	945.94
554.955	971.64
555.407	960.24
555.86	954.74
556.313	936.34
556.765	929.74
557.218	946.34
557.67	935.04
558.123	927.34
558.576	936.54
559.028	932.84
559.48	938.64
559.933	909.34
560.385	890.14
560.838	859.34
561.29	836.74
561.742	839.34
562.195	819.74
562.647	805.84
563.099	825.34
563.551	825.64
564.004	832.24
564.456	816.84
564.908	802.34
565.36	785.34
565.812	770.64
566.264	767.94
566.716	764.54
567.168	751.34
567.62	752.44
568.072	746.54
568.524	736.44
568.976	740.54
569.428	727.64
569.88	721.54
570.332	727.84
570.784	726.64
571.235	726.94
571.687	741.84
572.139	742.54
572.59	759.44
573.042	757.44
573.494	755.64
573.945	749.34
574.397	727.14
574.849	732.14
575.3	733.54
575.752	730.24
576.203	725.14
576.655	730.44
577.106	712.44
577.557	711.94
578.009	713.94
578.46	710.44
578.912	709.04
579.363	705.84
579.814	715.84
580.265	713.94
580.717	712.14
581.168	719.54
581.619	718.14
582.07	727.24
582.521	715.44
582.972	705.34
583.423	717.14
583.875	708.04
584.326	722.94
584.777	741.34
585.227	754.94
585.678	767.44
586.129	786.84
586.58	805.64
587.031	829.04
587.482	854.04
587.933	870.84
588.384	865.64
588.834	830.14
589.285	813.74
589.736	814.04
590.186	807.84
590.637	806.64
591.088	784.74
591.538	774.24
591.989	766.84
592.439	761.94
592.89	754.64
593.34	750.44
593.791	745.14
594.241	732.24
594.692	737.74
595.142	731.64
595.593	721.74
596.043	734.14
596.493	738.84
596.943	749.84
597.394	755.64
597.844	759.14
598.294	779.14
598.744	788.74
599.195	832.44
599.645	863.44
600.095	912.14
600.545	968.34
600.995	1022.34
601.445	1085.04
601.895	1138.64
602.345	1191.84
602.795	1183.94
603.245	1127.54
603.695	1070.94
604.145	1005.34
604.594	962.14
605.044	899.74
605.494	846.54
605.944	800.44
606.393	788.64
606.843	782.24
607.293	772.34
607.743	777.34
608.192	780.04
608.642	789.54
609.091	799.94
609.541	800.34
609.99	805.14
610.44	800.94
610.889	750.94
611.339	727.14
611.788	713.74
612.238	720.64
612.687	739.64
613.136	725.54
613.586	740.74
614.035	731.84
614.484	735.14
614.933	737.14
615.383	747.54
615.832	746.04
616.281	738.54
616.73	702.84
617.179	684.44
617.628	668.64
618.077	664.84
618.526	644.24
618.975	649.74
619.424	646.34
619.873	641.14
620.322	646.64
620.771	640.54
621.22	634.44
621.669	624.74
622.118	616.34
622.567	606.74
623.015	595.64
623.464	597.94
623.913	587.94
624.361	583.54
624.81	578.44
625.259	589.04
625.707	583.64
626.156	585.84
626.604	599.94
627.053	586.84
627.501	598.84
627.95	593.94
628.398	603.54
628.847	601.44
629.295	601.84
629.744	611.14
630.192	597.84
630.64	580.94
631.089	579.84
631.537	565.84
631.985	556.74
632.433	561.34
632.881	554.64
633.33	552.84
633.778	550.04
634.226	548.24
634.674	555.94
635.122	573.34
635.57	577.34
636.018	587.64
636.466	585.54
636.914	584.34
637.362	606.34
637.81	605.14
638.258	614.24
638.705	603.94
639.153	633.54
639.601	654.04
640.049	679.84
640.497	710.94
640.944	724.34
641.392	680.14
641.84	626.54
642.287	611.64
642.735	589.54
643.182	594.44
643.63	587.34
644.078	580.94
644.525	603.04
644.973	602.54
645.42	628.74
645.867	644.24
646.315	656.04
646.762	681.14
647.21	719.24
647.657	733.54
648.104	764.74
648.551	785.54
648.999	838.54
649.446	925.24
649.893	996.64
650.34	1135.74
650.787	1351.64
651.234	1669.64
651.682	2159.34
652.129	2920.34
652.576	4136.44
653.023	6031.14
653.47	8142.74
653.917	10132.24
654.363	11678.64
654.81	12860.34
655.257	12173.14
655.704	8070.14
656.151	4857.54
656.598	3224.84
657.044	2300.94
657.491	1792.04
657.938	1436.04
658.385	1209.24
658.831	1071.14
659.278	959.34
659.724	855.54
660.171	795.94
660.618	727.14
661.064	702.94
661.511	685.24
661.957	659.54
662.404	649.54
662.85	661.94
663.296	649.34
663.743	577.74
664.189	554.14
664.635	557.24
665.082	550.34
665.528	556.44
665.974	540.84
666.42	534.24
666.867	523.54
667.313	501.84
667.759	484.74
668.205	473.64
668.651	473.04
669.097	470.14
669.543	461.94
669.989	455.64
670.435	469.74
670.881	469.74
671.327	466.14
671.773	490.44
672.219	513.94
672.665	566.94
673.11	608.04
673.556	656.84
674.002	699.24
674.448	691.64
674.893	585.54
675.339	503.04
675.785	464.24
676.23	435.54
676.676	417.44
677.122	408.74
677.567	398.64
678.013	387.74
678.458	385.44
678.904	371.34
679.349	368.74
679.794	378.34
680.24	372.74
680.685	365.34
681.131	367.24
681.576	367.14
682.021	371.74
682.466	371.94
682.912	362.14
683.357	361.24
683.802	403.64
684.247	433.84
684.692	476.94
685.137	512.94
685.583	561.64
686.028	593.44
686.473	545.64
686.918	462.14
687.363	430.54
687.807	405.04
688.252	392.04
688.697	375.74
689.142	353.34
689.587	352.14
690.032	334.14
690.477	361.74
690.921	369.44
691.366	403.94
691.811	423.44
692.255	445.04
692.7	484.94
693.145	532.74
693.589	741.34
694.034	1212.64
694.478	1632.74
694.923	1838.84
695.367	2394.94
695.812	1262.44
696.256	527.64
696.701	396.64
697.145	362.54
697.59	341.54
698.034	331.14
698.478	351.34
698.922	333.84
699.367	339.94
699.811	348.54
700.255	367.14
700.699	400.64
701.143	449.14
701.588	497.94
702.032	538.54
702.476	535.04
702.92	521.84
703.364	519.54
703.808	694.04
704.252	1108.34
704.696	1548.24
705.14	1781.14
705.584	2259.04
706.027	1120.64
706.471	550.34
706.915	417.74
707.359	371.74
707.803	338.94
708.246	333.94
708.69	331.74
709.134	334.24
709.577	322.74
710.021	329.24
710.465	319.14
710.908	314.84
711.352	312.54
711.795	322.24
712.239	369.94
712.682	409.44
713.126	436.34
713.569	480.44
714.012	365.44
714.456	320.74
714.899	309.24
715.342	288.84
715.786	274.34
716.229	273.64
716.672	268.14
717.115	262.74
717.558	258.44
718.002	258.14
718.445	272.04
718.888	295.44
719.331	309.44
719.774	320.34
720.217	322.04
720.66	295.94
721.103	286.74
721.546	268.04
721.989	265.14
722.432	243.54
722.874	254.64
723.317	244.34
723.76	244.24
724.203	273.04
724.645	333.34
725.088	467.74
725.531	607.44
725.974	680.64
726.416	588.84
726.859	325.24
727.301	260.54
727.744	250.64
728.187	247.34
728.629	253.54
729.071	259.84
729.514	272.94
729.956	288.04
730.399	301.34
730.841	304.74
731.283	291.04
731.726	285.34
732.168	279.44
732.61	284.84
733.053	303.94
733.495	343.24
733.937	375.84
734.379	413.44
734.821	464.74
735.263	577.64
735.705	894.44
736.148	1696.84
736.59	2768.74
737.032	3238.84
737.474	2642.54
737.916	871.84
738.357	458.94
738.799	344.24
739.241	324.04
739.683	295.74
740.125	305.34
740.567	317.24
741.008	327.94
741.45	332.44
741.892	335.64
742.334	370.04
742.775	382.44
743.217	367.54
743.658	284.04
744.1	278.54
744.542	278.04
744.983	336.24
745.425	373.74
745.866	371.64
746.307	285.24
746.749	291.04
747.19	345.14
747.632	486.74
748.073	936.54
748.514	1990.64
748.956	3041.44
749.397	3803.34
749.838	3151.64
750.279	3144.94
750.72	1601.84
751.162	578.94
751.603	339.24
752.044	273.84
752.485	233.84
752.926	222.94
753.367	209.44
753.808	208.24
754.249	204.14
754.69	200.34
755.131	192.74
755.572	192.44
756.013	193.14
756.453	186.74
756.894	200.44
757.335	206.94
757.776	208.44
758.216	211.54
758.657	213.14
759.098	212.54
759.538	234.84
759.979	280.34
760.42	402.74
760.86	759.94
761.301	1962.44
761.741	4758.04
762.182	6806.64
762.622	4823.04
763.063	1394.64
763.503	571.44
