Data from 20171114-ORNL-Ar_H_NY_Subt18_08-06-54-037.txt Node
Date: Tue Nov 14 08:06:54 EST 2017
User: Ender
Spectrometer: HR+D1039
Trigger mode: 0
Integration Time (sec): 2.730000E-2
Scans to average: 10
Electric dark correction enabled: true
Nonlinearity correction enabled: false
Boxcar width: 0
XAxis mode: Wavelengths
Number of Pixels in Spectrum: 2048
>>>>>Begin Spectral Data<<<<<
187.836	-4.66
188.309	-4.66
188.782	-4.66
189.255	0.84
189.728	2.44
190.201	7.64
190.674	0.74
191.147	1.24
191.619	-8.96
192.092	-2.66
192.565	2.34
193.038	1.84
193.511	5.54
193.984	3.14
194.456	-3.76
194.929	1.44
195.402	-3.46
195.874	-3.66
196.347	-5.16
196.82	-4.86
197.292	4.44
197.765	-2.26
198.237	-7.36
198.71	1.84
199.182	-5.06
199.655	-3.06
200.127	0.64
200.6	-9.86
201.072	-4.96
201.544	-7.16
202.017	1.94
202.489	-0.06
202.961	-2.46
203.433	-1.06
203.906	-7.36
204.378	-5.76
204.85	-9.66
205.322	-6.36
205.794	-3.76
206.266	-3.66
206.739	-11.46
207.211	0.64
207.683	-5.66
208.155	-4.96
208.627	-11.46
209.099	-8.96
209.57	-6.76
210.042	-11.96
210.514	-4.56
210.986	-0.86
211.458	-5.96
211.93	3.04
212.402	-1.36
212.873	-8.16
213.345	-11.06
213.817	-4.16
214.288	-8.56
214.76	-6.76
215.232	-5.16
215.703	-2.76
216.175	-1.86
216.646	-10.16
217.118	-3.76
217.589	-5.06
218.061	1.64
218.532	-4.86
219.004	-3.66
219.475	-2.26
219.946	1.24
220.418	-2.86
220.889	1.14
221.36	0.04
221.832	-5.06
222.303	-9.96
222.774	-0.36
223.245	-5.26
223.717	-4.56
224.188	-10.16
224.659	-10.96
225.13	-7.56
225.601	4.54
226.072	-4.56
226.543	2.24
227.014	-5.96
227.485	0.04
227.956	-4.16
228.427	3.14
228.898	-0.16
229.369	7.94
229.839	1.84
230.31	-3.76
230.781	6.14
231.252	-6.86
231.722	-4.36
232.193	-8.56
232.664	-4.56
233.135	-3.66
233.605	-3.96
234.076	-11.16
234.546	-1.96
235.017	-3.36
235.487	0.04
235.958	-3.86
236.428	-3.66
236.899	-0.06
237.369	1.74
237.84	-7.76
238.31	0.84
238.78	-5.86
239.251	3.44
239.721	-2.26
240.191	-9.76
240.662	-4.06
241.132	-2.06
241.602	-8.76
242.072	-6.36
242.542	1.84
243.013	-4.86
243.483	3.04
243.953	-3.86
244.423	-2.26
244.893	-5.26
245.363	-2.16
245.833	1.44
246.303	-4.96
246.773	1.94
247.243	-1.86
247.712	-3.36
248.182	3.14
248.652	2.34
249.122	-6.56
249.592	-4.86
250.061	-0.86
250.531	10.24
251.001	-5.06
251.471	3.14
251.94	6.64
252.41	-4.36
252.879	0.94
253.349	10.04
253.818	5.24
254.288	3.24
254.757	2.74
255.227	-4.26
255.696	-0.06
256.166	0.04
256.635	-3.86
257.105	2.44
257.574	4.84
258.043	5.54
258.513	-5.86
258.982	-1.66
259.451	2.44
259.92	1.04
260.389	2.24
260.859	11.64
261.328	-0.46
261.797	-4.36
262.266	-1.66
262.735	1.84
263.204	3.94
263.673	-3.76
264.142	2.94
264.611	-1.26
265.08	-1.16
265.549	2.24
266.018	-5.96
266.487	-3.86
266.955	-6.56
267.424	-4.56
267.893	2.54
268.362	-1.26
268.83	0.14
269.299	6.74
269.768	-0.36
270.236	-1.56
270.705	-2.06
271.174	2.24
271.642	3.94
272.111	6.14
272.579	5.64
273.048	3.54
273.516	-1.46
273.985	4.04
274.453	6.64
274.922	14.14
275.39	1.84
275.858	-0.56
276.327	-0.06
276.795	14.34
277.263	1.74
277.731	14.44
278.2	6.64
278.668	13.54
279.136	13.74
279.604	3.34
280.072	5.44
280.54	4.44
281.008	7.24
281.477	9.04
281.945	0.24
282.413	8.94
282.881	13.04
283.348	7.64
283.816	12.54
284.284	9.74
284.752	14.64
285.22	7.74
285.688	8.04
286.156	4.24
286.623	17.54
287.091	6.74
287.559	14.44
288.026	9.44
288.494	11.24
288.962	-2.56
289.429	10.14
289.897	10.44
290.364	10.04
290.832	11.74
291.3	12.14
291.767	11.14
292.234	9.84
292.702	7.14
293.169	11.14
293.637	21.84
294.104	18.84
294.571	2.04
295.039	4.44
295.506	8.34
295.973	10.34
296.44	10.14
296.908	7.34
297.375	12.84
297.842	16.74
298.309	12.74
298.776	8.64
299.243	15.94
299.71	9.14
300.177	17.04
300.644	13.94
301.111	17.74
301.578	17.54
302.045	10.54
302.512	19.44
302.979	17.04
303.446	17.64
303.913	22.14
304.379	13.44
304.846	27.14
305.313	16.94
305.78	10.94
306.246	19.24
306.713	20.44
307.18	27.34
307.646	23.74
308.113	19.84
308.579	19.74
309.046	13.44
309.512	20.24
309.979	19.14
310.445	20.94
310.912	21.54
311.378	28.14
311.845	22.44
312.311	19.14
312.777	20.04
313.244	27.54
313.71	27.94
314.176	29.24
314.642	23.84
315.109	31.74
315.575	24.94
316.041	34.24
316.507	24.84
316.973	28.34
317.439	23.74
317.905	30.34
318.371	28.14
318.837	26.24
319.303	24.94
319.769	31.84
320.235	28.74
320.701	25.84
321.167	27.64
321.633	21.34
322.099	29.74
322.564	28.34
323.03	29.84
323.496	28.94
323.962	28.54
324.427	35.74
324.893	37.54
325.359	31.14
325.824	25.04
326.29	33.64
326.755	28.84
327.221	38.34
327.686	33.64
328.152	43.14
328.617	33.74
329.083	37.44
329.548	41.44
330.014	42.34
330.479	28.44
330.944	33.04
331.41	34.04
331.875	39.84
332.34	40.44
332.805	42.24
333.271	37.84
333.736	38.44
334.201	39.84
334.666	47.04
335.131	48.94
335.596	48.64
336.061	41.74
336.526	33.34
336.991	38.34
337.456	45.94
337.921	41.24
338.386	35.94
338.851	41.94
339.316	40.14
339.781	38.44
340.246	43.54
340.711	42.74
341.175	45.44
341.64	45.34
342.105	46.94
342.569	48.84
343.034	56.84
343.499	56.24
343.963	45.54
344.428	53.04
344.893	54.14
345.357	52.94
345.822	57.94
346.286	58.14
346.751	62.34
347.215	63.04
347.679	56.24
348.144	79.94
348.608	66.54
349.073	57.54
349.537	69.64
350.001	65.84
350.465	79.24
350.93	71.84
351.394	75.44
351.858	64.14
352.322	78.24
352.786	74.14
353.25	89.24
353.715	91.24
354.179	87.94
354.643	103.84
355.107	108.64
355.571	91.44
356.035	86.04
356.498	105.44
356.962	99.84
357.426	108.34
357.89	98.14
358.354	78.44
358.818	71.34
359.281	66.24
359.745	65.44
360.209	61.44
360.673	69.84
361.136	62.24
361.6	72.84
362.064	76.14
362.527	75.84
362.991	80.14
363.454	74.84
363.918	73.64
364.381	65.54
364.845	84.04
365.308	80.94
365.772	77.64
366.235	74.94
366.698	84.44
367.162	73.44
367.625	81.34
368.088	76.44
368.552	85.94
369.015	80.04
369.478	81.04
369.941	94.54
370.404	77.24
370.867	91.34
371.331	88.14
371.794	93.34
372.257	86.84
372.72	99.04
373.183	94.44
373.646	86.64
374.109	93.64
374.572	92.14
375.035	97.54
375.497	95.84
375.96	96.94
376.423	97.44
376.886	103.04
377.349	104.84
377.811	96.24
378.274	96.34
378.737	96.94
379.199	99.74
379.662	101.54
380.125	101.54
380.587	95.64
381.05	97.94
381.512	113.14
381.975	115.74
382.437	110.84
382.9	108.24
383.362	113.24
383.825	115.74
384.287	115.54
384.75	110.94
385.212	114.14
385.674	129.04
386.136	124.44
386.599	117.24
387.061	114.64
387.523	115.24
387.985	122.24
388.447	126.34
388.91	120.04
389.372	124.84
389.834	121.14
390.296	119.74
390.758	118.54
391.22	129.74
391.682	147.14
392.144	154.94
392.606	137.94
393.068	137.84
393.529	150.24
393.991	124.94
394.453	120.24
394.915	132.34
395.377	120.84
395.838	126.14
396.3	131.64
396.762	136.84
397.224	127.94
397.685	122.64
398.147	122.64
398.608	131.54
399.07	130.24
399.531	132.14
399.993	138.84
400.454	145.04
400.916	149.74
401.377	132.94
401.839	140.34
402.3	146.44
402.762	159.64
403.223	172.44
403.684	165.24
404.145	157.74
404.607	153.64
405.068	158.14
405.529	168.74
405.99	182.04
406.451	170.64
406.913	170.94
407.374	158.74
407.835	159.94
408.296	165.94
408.757	164.64
409.218	180.24
409.679	170.54
410.14	173.54
410.601	171.54
411.062	169.04
411.522	173.74
411.983	170.84
412.444	165.64
412.905	174.54
413.366	185.94
413.826	195.14
414.287	212.74
414.748	261.24
415.208	249.94
415.669	217.44
416.13	208.44
416.59	196.84
417.051	207.04
417.511	215.34
417.972	239.74
418.432	246.64
418.893	291.74
419.353	251.04
419.814	203.34
420.274	178.24
420.734	182.74
421.195	197.54
421.655	185.14
422.115	188.04
422.576	199.04
423.036	199.04
423.496	206.44
423.956	221.04
424.416	231.54
424.876	264.64
425.336	262.34
425.797	264.14
426.257	255.34
426.717	238.14
427.177	238.64
427.637	221.54
428.097	232.54
428.556	239.04
429.016	272.94
429.476	258.14
429.936	267.54
430.396	272.54
430.856	289.44
431.315	305.44
431.775	331.64
432.235	370.24
432.694	343.24
433.154	350.64
433.614	376.64
434.073	336.44
434.533	283.34
434.993	274.44
435.452	273.94
435.912	281.74
436.371	281.44
436.83	273.74
437.29	261.24
437.749	240.44
438.209	246.24
438.668	269.54
439.127	277.44
439.587	264.84
440.046	245.14
440.505	264.34
440.964	271.24
441.424	323.34
441.883	314.14
442.342	257.44
442.801	227.04
443.26	225.44
443.719	229.54
444.178	223.74
444.637	211.44
445.096	226.44
445.555	230.24
446.014	230.74
446.473	230.24
446.932	240.54
447.391	233.74
447.849	235.04
448.308	224.34
448.767	223.94
449.226	239.14
449.685	244.04
450.143	255.84
450.602	247.24
451.061	233.14
451.519	240.54
451.978	246.64
452.436	247.24
452.895	245.94
453.353	259.74
453.812	245.14
454.27	251.04
454.729	248.54
455.187	244.84
455.646	253.64
456.104	259.34
456.562	266.24
457.021	280.24
457.479	271.24
457.937	278.24
458.395	268.84
458.854	255.94
459.312	257.14
459.77	276.44
460.228	262.34
460.686	255.44
461.144	258.24
461.602	253.14
462.06	252.84
462.518	257.44
462.976	261.04
463.434	266.64
463.892	276.34
464.35	276.54
464.808	294.44
465.266	270.54
465.724	286.04
466.181	286.24
466.639	273.94
467.097	291.64
467.555	305.54
468.012	316.84
468.47	316.24
468.928	337.64
469.385	355.14
469.843	351.84
470.3	349.74
470.758	364.64
471.215	392.34
471.673	410.24
472.13	411.14
472.588	423.54
473.045	379.94
473.503	393.74
473.96	404.64
474.417	410.44
474.875	447.24
475.332	480.34
475.789	469.94
476.246	472.44
476.704	497.04
477.161	518.24
477.618	522.14
478.075	563.44
478.532	623.14
478.989	686.44
479.446	797.44
479.903	753.14
480.36	783.04
480.817	838.74
481.274	933.64
481.731	1014.84
482.188	1087.94
482.645	1224.64
483.102	1305.14
483.558	1420.94
484.015	1469.54
484.472	1441.94
484.929	1401.04
485.385	1353.24
485.842	1316.14
486.299	1276.54
486.755	1235.04
487.212	1052.14
487.668	912.44
488.125	828.44
488.582	776.14
489.038	743.54
489.494	705.04
489.951	684.24
490.407	679.24
490.864	660.74
491.32	658.74
491.776	650.24
492.233	647.34
492.689	619.64
493.145	618.44
493.602	610.74
494.058	618.54
494.514	634.94
494.97	645.84
495.426	660.24
495.882	639.54
496.338	624.74
496.794	629.44
497.251	619.24
497.707	635.64
498.163	645.54
498.618	647.54
499.074	654.84
499.53	691.24
499.986	681.34
500.442	651.74
500.898	644.14
501.354	629.14
501.809	635.64
502.265	627.04
502.721	644.74
503.177	655.34
503.632	653.74
504.088	658.54
504.543	678.84
504.999	697.94
505.455	674.74
505.91	648.54
506.366	643.74
506.821	649.54
507.277	649.84
507.732	647.14
508.187	635.84
508.643	655.64
509.098	657.64
509.553	679.94
510.009	688.94
510.464	692.44
510.919	703.34
511.375	725.54
511.83	731.64
512.285	748.24
512.74	771.34
513.195	800.24
513.65	783.24
514.105	784.24
514.56	788.24
515.015	813.04
515.47	820.74
515.925	798.14
516.38	796.44
516.835	807.94
517.29	795.64
517.745	794.64
518.2	791.24
518.655	765.84
519.109	759.54
519.564	756.54
520.019	742.94
520.474	732.74
520.928	746.24
521.383	741.34
521.838	727.74
522.292	729.04
522.747	730.54
523.201	725.74
523.656	717.34
524.11	722.94
524.565	714.04
525.019	720.74
525.474	710.64
525.928	719.84
526.382	718.54
526.837	712.64
527.291	729.04
527.745	720.54
528.2	723.24
528.654	705.04
529.108	697.14
529.562	703.94
530.016	707.14
530.47	703.74
530.925	706.64
531.379	714.94
531.833	717.24
532.287	720.34
532.741	709.84
533.195	722.74
533.649	731.54
534.103	734.04
534.556	726.94
535.01	731.04
535.464	732.84
535.918	730.24
536.372	733.84
536.826	737.04
537.279	727.94
537.733	724.24
538.187	723.14
538.64	730.74
539.094	734.34
539.548	745.54
540.001	743.04
540.455	748.14
540.908	750.34
541.362	759.74
541.815	755.34
542.269	775.04
542.722	786.34
543.175	787.74
543.629	789.44
544.082	808.24
544.536	808.54
544.989	818.14
545.442	814.04
545.895	813.34
546.349	817.24
546.802	812.94
547.255	823.44
547.708	824.54
548.161	827.34
548.614	851.14
549.067	855.84
549.52	845.44
549.973	827.34
550.426	828.74
550.879	828.84
551.332	812.44
551.785	822.74
552.238	827.74
552.691	840.34
553.144	863.24
553.596	877.34
554.049	898.74
554.502	930.84
554.955	942.24
555.407	930.64
555.86	928.64
556.313	907.04
556.765	905.74
557.218	906.14
557.67	899.54
558.123	896.14
558.576	891.94
559.028	903.04
559.48	911.24
559.933	892.34
560.385	855.14
560.838	839.24
561.29	806.04
561.742	803.04
562.195	787.44
562.647	786.34
563.099	800.14
563.551	789.34
564.004	805.14
564.456	789.54
564.908	778.84
565.36	769.04
565.812	754.24
566.264	730.84
566.716	726.54
567.168	732.84
567.62	726.04
568.072	725.04
568.524	710.74
568.976	706.44
569.428	695.74
569.88	696.84
570.332	691.54
570.784	710.24
571.235	703.34
571.687	711.04
572.139	718.94
572.59	729.74
573.042	734.04
573.494	734.04
573.945	725.84
574.397	689.94
574.849	715.84
575.3	699.74
575.752	702.14
576.203	700.34
576.655	711.94
577.106	685.64
577.557	676.24
578.009	681.04
578.46	685.24
578.912	681.74
579.363	678.74
579.814	679.44
580.265	687.54
580.717	687.94
581.168	688.34
581.619	690.14
582.07	703.14
582.521	691.04
582.972	686.24
583.423	687.84
583.875	684.64
584.326	698.14
584.777	712.74
585.227	728.74
585.678	745.34
586.129	771.64
586.58	777.74
587.031	800.54
587.482	842.14
587.933	867.14
588.384	842.34
588.834	805.04
589.285	785.34
589.736	782.74
590.186	781.64
590.637	775.84
591.088	760.84
591.538	749.44
591.989	741.24
592.439	742.94
592.89	747.24
593.34	721.44
593.791	714.34
594.241	714.94
594.692	716.64
595.142	709.84
595.593	713.34
596.043	717.04
596.493	717.14
596.943	721.34
597.394	744.94
597.844	729.24
598.294	746.04
598.744	769.44
599.195	799.54
599.645	837.84
600.095	883.04
600.545	929.34
600.995	996.54
601.445	1043.74
601.895	1099.04
602.345	1164.24
602.795	1132.04
603.245	1093.84
603.695	1033.44
604.145	976.74
604.594	938.94
605.044	878.64
605.494	816.34
605.944	780.84
606.393	754.74
606.843	735.34
607.293	744.64
607.743	744.94
608.192	751.34
608.642	769.94
609.091	774.74
609.541	779.94
609.99	774.34
610.44	782.54
610.889	724.64
611.339	701.74
611.788	680.04
612.238	694.54
612.687	712.44
613.136	706.94
613.586	709.94
614.035	706.04
614.484	718.54
614.933	713.34
615.383	719.64
615.832	713.44
616.281	716.74
616.73	681.14
617.179	665.84
617.628	664.54
618.077	635.64
618.526	626.54
618.975	622.64
619.424	620.44
619.873	612.84
620.322	623.04
620.771	609.54
621.22	622.44
621.669	608.34
622.118	589.54
622.567	587.54
623.015	577.44
623.464	576.04
623.913	567.64
624.361	562.84
624.81	564.64
625.259	562.24
625.707	566.64
626.156	566.44
626.604	570.14
627.053	570.44
627.501	572.94
627.95	574.84
628.398	592.34
628.847	586.44
629.295	583.54
629.744	594.44
630.192	586.34
630.64	565.54
631.089	557.24
631.537	546.14
631.985	546.64
632.433	545.74
632.881	524.34
633.33	544.04
633.778	540.84
634.226	531.74
634.674	542.64
635.122	546.94
635.57	556.14
636.018	563.04
636.466	573.74
636.914	566.74
637.362	576.44
637.81	572.94
638.258	588.14
638.705	593.94
639.153	610.54
639.601	634.74
640.049	652.94
640.497	684.54
640.944	700.04
641.392	644.84
641.84	618.34
642.287	593.84
642.735	568.74
643.182	567.04
643.63	558.44
644.078	568.64
644.525	569.94
644.973	592.64
645.42	607.04
645.867	621.74
646.315	641.74
646.762	654.24
647.21	690.94
647.657	709.54
648.104	746.64
648.551	752.74
648.999	817.54
649.446	883.74
649.893	972.74
650.34	1112.34
650.787	1309.94
651.234	1622.44
651.682	2077.24
652.129	2806.84
652.576	4013.74
653.023	5828.74
653.47	7897.94
653.917	9830.44
654.363	11320.64
654.81	12490.74
655.257	11880.84
655.704	7835.34
656.151	4719.44
656.598	3112.54
657.044	2228.54
657.491	1747.14
657.938	1405.64
658.385	1181.24
658.831	1025.64
659.278	920.44
659.724	836.34
660.171	766.04
660.618	705.24
661.064	679.24
661.511	659.24
661.957	646.44
662.404	642.44
662.85	644.84
663.296	621.14
663.743	559.14
664.189	534.64
664.635	539.74
665.082	526.84
665.528	534.34
665.974	523.34
666.42	513.24
666.867	511.94
667.313	490.34
667.759	464.34
668.205	456.14
668.651	461.84
669.097	447.24
669.543	442.44
669.989	442.64
670.435	451.54
670.881	457.94
671.327	452.44
671.773	480.44
672.219	494.74
672.665	552.84
673.11	594.14
673.556	650.64
674.002	683.84
674.448	673.54
674.893	567.44
675.339	481.24
675.785	448.24
676.23	421.64
676.676	398.54
677.122	390.14
677.567	375.84
678.013	371.74
678.458	373.74
678.904	372.74
679.349	356.14
679.794	356.84
680.24	356.44
680.685	353.64
681.131	352.84
681.576	352.04
682.021	355.34
682.466	364.44
682.912	361.64
683.357	362.84
683.802	381.94
684.247	421.14
684.692	472.14
685.137	507.94
685.583	547.54
686.028	566.94
686.473	533.44
686.918	453.54
687.363	426.94
687.807	397.84
688.252	368.54
688.697	363.14
689.142	340.94
689.587	340.04
690.032	335.64
690.477	346.14
690.921	356.14
691.366	383.34
691.811	401.04
692.255	438.24
692.7	471.74
693.145	513.24
693.589	720.44
694.034	1149.44
694.478	1569.04
694.923	1768.74
695.367	2313.84
695.812	1221.04
696.256	508.04
696.701	374.04
697.145	342.04
697.59	331.54
698.034	320.54
698.478	339.64
698.922	327.24
699.367	330.94
699.811	334.14
700.255	355.44
700.699	388.24
701.143	431.24
701.588	478.94
702.032	520.34
702.476	523.64
702.92	500.04
703.364	510.54
703.808	653.34
704.252	1067.34
704.696	1485.84
705.14	1702.04
705.584	2177.34
706.027	1076.14
706.471	532.94
706.915	407.64
707.359	362.54
707.803	330.54
708.246	321.24
708.69	320.24
709.134	315.74
709.577	318.04
710.021	311.94
710.465	310.14
710.908	312.04
711.352	299.64
711.795	321.14
712.239	354.24
712.682	391.64
713.126	420.24
713.569	463.04
714.012	368.34
714.456	309.64
714.899	294.74
715.342	272.04
715.786	263.54
716.229	258.54
716.672	259.64
717.115	247.24
717.558	246.94
718.002	251.44
718.445	262.94
718.888	282.64
719.331	301.44
719.774	305.74
720.217	309.84
720.66	292.94
721.103	272.44
721.546	260.14
721.989	255.94
722.432	234.04
722.874	234.14
723.317	229.14
723.76	236.84
724.203	258.14
724.645	321.84
725.088	460.44
725.531	578.74
725.974	661.34
726.416	555.54
726.859	306.04
727.301	245.44
727.744	232.54
728.187	236.84
728.629	253.14
729.071	254.34
729.514	271.64
729.956	275.94
730.399	290.44
730.841	290.04
731.283	275.54
731.726	270.44
732.168	263.64
732.61	267.94
733.053	286.74
733.495	322.44
733.937	360.24
734.379	406.54
734.821	438.54
735.263	549.24
735.705	851.54
736.148	1619.54
736.59	2665.04
737.032	3140.34
737.474	2554.24
737.916	832.54
738.357	443.44
738.799	332.04
739.241	305.14
739.683	291.14
740.125	309.24
740.567	299.34
741.008	322.84
741.45	318.64
741.892	321.74
742.334	348.84
742.775	369.94
743.217	352.24
743.658	277.44
744.1	263.14
744.542	267.14
744.983	322.94
745.425	361.44
745.866	353.74
746.307	284.74
746.749	277.04
747.19	332.84
747.632	465.84
748.073	917.14
748.514	1919.04
748.956	2932.94
749.397	3657.14
749.838	3037.54
750.279	3030.44
750.72	1534.14
751.162	563.64
751.603	323.14
752.044	262.14
752.485	222.14
752.926	210.54
753.367	200.44
753.808	201.84
754.249	193.24
754.69	188.64
755.131	187.74
755.572	181.94
756.013	185.74
756.453	185.84
756.894	194.94
757.335	193.04
757.776	194.44
758.216	198.94
758.657	203.04
759.098	208.44
759.538	228.74
759.979	273.24
760.42	373.54
760.86	726.04
761.301	1884.84
761.741	4540.64
762.182	6602.14
762.622	4641.84
763.063	1343.64
763.503	546.94
