Data from 20171114-ORNL-Ar_H_NY_Subt18_08-08-13-746.txt Node
Date: Tue Nov 14 08:08:13 EST 2017
User: Ender
Spectrometer: HR+D1039
Trigger mode: 0
Integration Time (sec): 2.730000E-2
Scans to average: 10
Electric dark correction enabled: true
Nonlinearity correction enabled: false
Boxcar width: 0
XAxis mode: Wavelengths
Number of Pixels in Spectrum: 2048
>>>>>Begin Spectral Data<<<<<
187.836	-3.46
188.309	-3.46
188.782	-3.46
189.255	4.94
189.728	-5.66
190.201	5.94
190.674	3.94
191.147	3.54
191.619	-6.06
192.092	1.14
192.565	4.14
193.038	-0.56
193.511	-0.36
193.984	1.44
194.456	-5.86
194.929	1.14
195.402	-1.26
195.874	-2.96
196.347	5.24
196.82	-7.96
197.292	4.74
197.765	-0.16
198.237	-1.66
198.71	2.24
199.182	-5.36
199.655	3.54
200.127	2.64
200.6	-4.26
201.072	-3.66
201.544	-1.76
202.017	-2.06
202.489	6.24
202.961	-1.46
203.433	-2.26
203.906	-9.26
204.378	-4.46
204.85	-2.86
205.322	-11.76
205.794	-0.96
206.266	-4.16
206.739	-7.76
207.211	-2.66
207.683	-4.06
208.155	-4.56
208.627	-7.76
209.099	-4.86
209.57	-5.66
210.042	-0.86
210.514	-4.26
210.986	-1.46
211.458	-9.16
211.93	-5.16
212.402	-2.66
212.873	-9.76
213.345	-14.96
213.817	-15.16
214.288	-6.06
214.76	-10.96
215.232	1.74
215.703	-3.66
216.175	-5.46
216.646	-4.06
217.118	-8.76
217.589	-5.46
218.061	-6.16
218.532	-12.96
219.004	-3.36
219.475	-8.76
219.946	-6.46
220.418	-5.76
220.889	2.14
221.36	6.24
221.832	-4.26
222.303	-8.26
222.774	-2.36
223.245	-8.06
223.717	-8.46
224.188	-6.06
224.659	-7.26
225.13	-5.26
225.601	-0.26
226.072	1.34
226.543	-2.06
227.014	0.24
227.485	-1.76
227.956	-8.56
228.427	-1.86
228.898	-1.16
229.369	-0.76
229.839	-5.16
230.31	-10.36
230.781	-0.36
231.252	-5.96
231.722	-7.16
232.193	-3.26
232.664	-5.66
233.135	5.04
233.605	-0.36
234.076	-11.56
234.546	1.64
235.017	3.44
235.487	0.94
235.958	-3.16
236.428	-2.86
236.899	0.64
237.369	0.64
237.84	-2.56
238.31	5.94
238.78	1.84
239.251	2.34
239.721	4.04
240.191	-3.46
240.662	-0.26
241.132	-2.16
241.602	7.74
242.072	1.14
242.542	6.94
243.013	-0.16
243.483	-0.26
243.953	3.74
244.423	0.64
244.893	-2.06
245.363	-0.06
245.833	3.64
246.303	-1.86
246.773	4.34
247.243	-0.36
247.712	-0.86
248.182	1.64
248.652	0.24
249.122	-6.06
249.592	8.84
250.061	23.14
250.531	29.64
251.001	16.54
251.471	16.44
251.94	16.34
252.41	7.94
252.879	-4.36
253.349	12.64
253.818	1.54
254.288	3.84
254.757	5.54
255.227	-6.16
255.696	1.04
256.166	2.24
256.635	8.14
257.105	6.74
257.574	4.84
258.043	6.14
258.513	5.24
258.982	15.34
259.451	14.34
259.92	13.24
260.389	5.24
260.859	14.94
261.328	7.44
261.797	16.54
262.266	6.24
262.735	14.74
263.204	4.54
263.673	-0.36
264.142	6.04
264.611	-6.46
265.08	-0.36
265.549	-3.26
266.018	-1.06
266.487	-3.86
266.955	3.24
267.424	-3.86
267.893	3.94
268.362	0.04
268.83	2.44
269.299	9.84
269.768	4.84
270.236	4.84
270.705	-3.26
271.174	2.94
271.642	8.94
272.111	13.74
272.579	17.74
273.048	18.04
273.516	27.94
273.985	25.14
274.453	24.94
274.922	21.34
275.39	13.64
275.858	3.14
276.327	8.44
276.795	12.64
277.263	3.24
277.731	33.54
278.2	53.84
278.668	49.64
279.136	45.54
279.604	21.64
280.072	18.54
280.54	13.14
281.008	8.54
281.477	13.84
281.945	11.24
282.413	21.04
282.881	16.14
283.348	6.14
283.816	13.64
284.284	15.44
284.752	16.54
285.22	14.14
285.688	14.34
286.156	17.84
286.623	41.84
287.091	47.24
287.559	25.94
288.026	16.04
288.494	12.34
288.962	7.24
289.429	5.54
289.897	15.14
290.364	10.44
290.832	15.54
291.3	18.24
291.767	10.94
292.234	8.94
292.702	16.44
293.169	18.84
293.637	19.94
294.104	15.64
294.571	9.14
295.039	8.04
295.506	12.04
295.973	15.94
296.44	11.64
296.908	20.34
297.375	19.84
297.842	22.54
298.309	12.44
298.776	11.84
299.243	24.94
299.71	9.54
300.177	21.64
300.644	17.14
301.111	18.14
301.578	23.04
302.045	13.04
302.512	19.14
302.979	22.54
303.446	18.54
303.913	17.44
304.379	9.04
304.846	25.44
305.313	19.54
305.78	25.94
306.246	25.54
306.713	21.64
307.18	25.64
307.646	29.34
308.113	31.84
308.579	21.04
309.046	26.34
309.512	22.24
309.979	18.74
310.445	28.44
310.912	28.24
311.378	30.44
311.845	30.54
312.311	32.64
312.777	35.64
313.244	28.44
313.71	35.34
314.176	25.84
314.642	26.64
315.109	27.04
315.575	38.74
316.041	36.54
316.507	31.64
316.973	36.24
317.439	31.34
317.905	31.74
318.371	34.44
318.837	28.34
319.303	32.24
319.769	32.94
320.235	28.14
320.701	30.94
321.167	34.54
321.633	31.14
322.099	36.34
322.564	41.64
323.03	32.84
323.496	41.94
323.962	42.04
324.427	36.84
324.893	38.74
325.359	34.34
325.824	36.24
326.29	29.04
326.755	37.34
327.221	37.14
327.686	34.74
328.152	44.94
328.617	40.84
329.083	47.24
329.548	51.74
330.014	43.94
330.479	35.74
330.944	48.34
331.41	41.04
331.875	38.24
332.34	39.34
332.805	45.54
333.271	46.34
333.736	44.74
334.201	50.14
334.666	47.04
335.131	53.64
335.596	46.84
336.061	48.04
336.526	42.74
336.991	42.14
337.456	55.84
337.921	46.74
338.386	41.44
338.851	50.24
339.316	45.04
339.781	38.04
340.246	51.64
340.711	47.44
341.175	46.04
341.64	43.94
342.105	46.34
342.569	50.34
343.034	54.24
343.499	55.14
343.963	46.94
344.428	54.94
344.893	55.64
345.357	55.84
345.822	60.54
346.286	66.94
346.751	67.14
347.215	67.54
347.679	72.84
348.144	96.04
348.608	83.14
349.073	67.84
349.537	72.14
350.001	78.44
350.465	80.74
350.93	82.84
351.394	82.24
351.858	70.84
352.322	86.04
352.786	84.34
353.25	97.54
353.715	110.14
354.179	97.34
354.643	120.14
355.107	123.44
355.571	108.34
356.035	100.94
356.498	115.34
356.962	132.84
357.426	133.14
357.89	119.34
358.354	84.54
358.818	81.64
359.281	79.44
359.745	74.34
360.209	77.94
360.673	78.84
361.136	84.14
361.6	79.14
362.064	79.04
362.527	83.14
362.991	91.34
363.454	71.14
363.918	76.34
364.381	79.24
364.845	82.34
365.308	82.54
365.772	81.64
366.235	86.54
366.698	88.74
367.162	93.74
367.625	89.14
368.088	89.04
368.552	89.44
369.015	84.54
369.478	102.04
369.941	102.74
370.404	84.34
370.867	112.04
371.331	104.94
371.794	114.64
372.257	112.34
372.72	118.94
373.183	107.84
373.646	104.34
374.109	103.54
374.572	108.24
375.035	111.34
375.497	113.54
375.96	107.14
376.423	104.24
376.886	114.84
377.349	111.14
377.811	100.44
378.274	103.14
378.737	104.04
379.199	109.04
379.662	113.34
380.125	122.24
380.587	113.34
381.05	122.34
381.512	130.04
381.975	137.34
382.437	127.64
382.9	128.84
383.362	132.54
383.825	145.74
384.287	144.94
384.75	145.44
385.212	142.74
385.674	136.24
386.136	137.74
386.599	128.84
387.061	125.84
387.523	133.84
387.985	145.04
388.447	142.64
388.91	156.14
389.372	169.44
389.834	157.34
390.296	146.94
390.758	160.44
391.22	170.84
391.682	218.24
392.144	309.04
392.606	240.54
393.068	172.84
393.529	164.64
393.991	159.34
394.453	153.24
394.915	156.54
395.377	193.84
395.838	219.54
396.3	158.94
396.762	146.74
397.224	138.24
397.685	129.74
398.147	130.34
398.608	131.24
399.07	130.74
399.531	138.54
399.993	141.14
400.454	152.84
400.916	142.94
401.377	145.54
401.839	146.94
402.3	150.84
402.762	163.34
403.223	184.34
403.684	172.04
404.145	160.44
404.607	161.74
405.068	167.24
405.529	172.04
405.99	192.74
406.451	175.24
406.913	176.14
407.374	167.44
407.835	164.84
408.296	168.14
408.757	175.94
409.218	191.84
409.679	178.74
410.14	183.04
410.601	176.74
411.062	185.94
411.522	193.54
411.983	194.04
412.444	177.44
412.905	180.24
413.366	181.64
413.826	202.14
414.287	217.04
414.748	257.14
415.208	240.04
415.669	214.34
416.13	208.54
416.59	204.64
417.051	214.64
417.511	219.64
417.972	242.34
418.432	253.54
418.893	295.54
419.353	246.54
419.814	199.34
420.274	184.24
420.734	185.14
421.195	199.84
421.655	202.84
422.115	193.74
422.576	190.14
423.036	199.84
423.496	213.34
423.956	215.84
424.416	231.54
424.876	266.64
425.336	262.44
425.797	263.64
426.257	259.84
426.717	242.04
427.177	240.04
427.637	224.24
428.097	239.74
428.556	244.64
429.016	276.74
429.476	272.84
429.936	289.64
430.396	287.44
430.856	296.64
431.315	322.34
431.775	363.34
432.235	382.04
432.694	356.54
433.154	368.44
433.614	407.44
434.073	349.84
434.533	291.64
434.993	265.04
435.452	280.04
435.912	299.04
436.371	291.94
436.83	289.44
437.29	272.44
437.749	248.54
438.209	249.64
438.668	281.64
439.127	290.84
439.587	268.44
440.046	244.84
440.505	267.04
440.964	281.84
441.424	325.04
441.883	322.64
442.342	257.54
442.801	227.84
443.26	224.54
443.719	220.94
444.178	220.14
444.637	216.04
445.096	224.74
445.555	229.74
446.014	232.14
446.473	227.34
446.932	241.14
447.391	232.74
447.849	231.94
448.308	224.44
448.767	226.74
449.226	236.64
449.685	235.24
450.143	253.24
450.602	239.44
451.061	230.64
451.519	234.04
451.978	235.84
452.436	231.64
452.895	240.44
453.353	255.94
453.812	238.24
454.27	244.74
454.729	240.94
455.187	247.04
455.646	244.14
456.104	247.54
456.562	259.04
457.021	273.34
457.479	261.04
457.937	270.24
458.395	271.44
458.854	251.54
459.312	261.54
459.77	273.24
460.228	262.74
460.686	238.74
461.144	255.14
461.602	246.84
462.06	249.64
462.518	254.04
462.976	259.84
463.434	255.24
463.892	261.74
464.35	278.64
464.808	283.24
465.266	263.04
465.724	272.44
466.181	277.64
466.639	277.14
467.097	287.44
467.555	298.34
468.012	300.14
468.47	311.24
468.928	321.74
469.385	337.94
469.843	348.04
470.3	354.74
470.758	365.54
471.215	382.84
471.673	410.44
472.13	415.84
472.588	424.14
473.045	373.84
473.503	387.84
473.96	397.84
474.417	406.24
474.875	434.04
475.332	480.14
475.789	464.24
476.246	466.94
476.704	492.64
477.161	514.04
477.618	517.64
478.075	567.74
478.532	618.44
478.989	701.34
479.446	821.84
479.903	776.14
480.36	808.04
480.817	871.14
481.274	971.74
481.731	1080.04
482.188	1165.44
482.645	1303.84
483.102	1402.44
483.558	1556.74
484.015	1601.84
484.472	1565.04
484.929	1535.74
485.385	1478.94
485.842	1425.74
486.299	1356.84
486.755	1305.74
487.212	1099.84
487.668	928.74
488.125	850.64
488.582	790.34
489.038	747.64
489.494	718.64
489.951	684.34
490.407	667.44
490.864	640.14
491.32	647.44
491.776	643.94
492.233	648.44
492.689	608.94
493.145	608.44
493.602	601.94
494.058	613.34
494.514	613.64
494.97	641.74
495.426	647.44
495.882	617.94
496.338	611.34
496.794	615.14
497.251	614.34
497.707	636.64
498.163	634.54
498.618	644.44
499.074	645.54
499.53	670.04
499.986	672.94
500.442	651.94
500.898	627.94
501.354	629.14
501.809	636.94
502.265	638.14
502.721	663.84
503.177	673.64
503.632	665.44
504.088	682.54
504.543	721.94
504.999	713.44
505.455	660.24
505.91	628.14
506.366	637.94
506.821	616.84
507.277	625.44
507.732	627.94
508.187	627.84
508.643	633.34
509.098	633.74
509.553	660.34
510.009	658.04
510.464	668.94
510.919	688.54
511.375	690.84
511.83	703.64
512.285	731.64
512.74	762.94
513.195	781.04
513.65	781.24
514.105	766.34
514.56	766.94
515.015	797.74
515.47	804.74
515.925	798.84
516.38	784.94
516.835	793.64
517.29	781.84
517.745	779.74
518.2	760.54
518.655	746.04
519.109	744.04
519.564	742.84
520.019	723.94
520.474	711.34
520.928	722.64
521.383	715.94
521.838	708.14
522.292	714.84
522.747	708.04
523.201	703.14
523.656	694.44
524.11	693.24
524.565	698.24
525.019	695.54
525.474	702.04
525.928	705.74
526.382	701.04
526.837	694.44
527.291	702.94
527.745	694.44
528.2	697.94
528.654	691.74
529.108	681.34
529.562	688.04
530.016	699.14
530.47	695.64
530.925	691.54
531.379	690.54
531.833	707.74
532.287	699.64
532.741	701.84
533.195	701.14
533.649	704.04
534.103	709.34
534.556	703.24
535.01	716.54
535.464	706.84
535.918	718.94
536.372	723.04
536.826	708.14
537.279	706.04
537.733	716.84
538.187	720.04
538.64	719.74
539.094	735.24
539.548	730.04
540.001	720.04
540.455	717.44
540.908	732.34
541.362	732.04
541.815	743.14
542.269	760.94
542.722	763.44
543.175	766.74
543.629	760.94
544.082	791.44
544.536	785.34
544.989	789.84
545.442	798.64
545.895	796.64
546.349	797.14
546.802	797.04
547.255	799.24
547.708	805.74
548.161	814.04
548.614	828.24
549.067	831.14
549.52	816.24
549.973	808.94
550.426	811.64
550.879	800.74
551.332	802.84
551.785	805.54
552.238	804.84
552.691	824.94
553.144	840.64
553.596	847.34
554.049	861.24
554.502	891.54
554.955	911.04
555.407	911.74
555.86	904.94
556.313	896.24
556.765	876.84
557.218	879.14
557.67	873.04
558.123	884.44
558.576	874.14
559.028	880.54
559.48	896.24
559.933	876.04
560.385	835.34
560.838	811.54
561.29	786.44
561.742	782.64
562.195	764.84
562.647	773.74
563.099	778.14
563.551	784.74
564.004	784.44
564.456	769.64
564.908	758.84
565.36	751.04
565.812	727.64
566.264	726.34
566.716	725.64
567.168	724.74
567.62	735.24
568.072	704.94
568.524	694.44
568.976	697.54
569.428	681.84
569.88	673.14
570.332	672.74
570.784	677.24
571.235	688.14
571.687	690.54
572.139	702.34
572.59	717.14
573.042	711.14
573.494	719.24
573.945	705.74
574.397	684.14
574.849	685.94
575.3	691.04
575.752	687.44
576.203	671.24
576.655	693.14
577.106	667.14
577.557	666.44
578.009	676.94
578.46	664.34
578.912	666.14
579.363	667.64
579.814	670.14
580.265	664.94
580.717	669.04
581.168	668.74
581.619	676.84
582.07	680.04
582.521	678.04
582.972	675.14
583.423	674.94
583.875	687.54
584.326	708.14
584.777	753.54
585.227	834.54
585.678	934.64
586.129	1016.44
586.58	1092.24
587.031	1171.54
587.482	1319.74
587.933	1514.74
588.384	1306.84
588.834	993.04
589.285	814.74
589.736	783.34
590.186	778.64
590.637	768.84
591.088	757.44
591.538	748.94
591.989	741.74
592.439	722.94
592.89	727.54
593.34	715.64
593.791	716.34
594.241	711.24
594.692	717.74
595.142	706.44
595.593	706.94
596.043	724.04
596.493	724.74
596.943	720.24
597.394	718.24
597.844	724.84
598.294	742.04
598.744	753.24
599.195	791.14
599.645	825.24
600.095	859.54
600.545	921.34
600.995	970.74
601.445	1018.04
601.895	1090.54
602.345	1146.74
602.795	1125.04
603.245	1074.24
603.695	1006.04
604.145	963.04
604.594	918.94
605.044	850.44
605.494	805.14
605.944	752.94
606.393	740.94
606.843	731.94
607.293	738.04
607.743	734.64
608.192	752.24
608.642	764.64
609.091	777.64
609.541	765.84
609.99	775.44
610.44	779.34
610.889	721.44
611.339	705.64
611.788	700.64
612.238	713.14
612.687	729.24
613.136	716.04
613.586	740.14
614.035	743.64
614.484	767.24
614.933	763.34
615.383	744.84
615.832	738.14
616.281	723.34
616.73	687.94
617.179	673.44
617.628	647.04
618.077	639.84
618.526	631.44
618.975	624.14
619.424	624.74
619.873	615.94
620.322	622.64
620.771	612.44
621.22	615.64
621.669	596.44
622.118	591.74
622.567	580.04
623.015	568.14
623.464	578.54
623.913	560.84
624.361	557.74
624.81	555.24
625.259	564.84
625.707	560.84
626.156	566.64
626.604	570.64
627.053	572.14
627.501	566.14
627.95	579.14
628.398	583.94
628.847	569.54
629.295	573.44
629.744	573.34
630.192	577.14
630.64	574.84
631.089	577.64
631.537	589.14
631.985	603.54
632.433	620.14
632.881	631.54
633.33	665.34
633.778	660.84
634.226	575.34
634.674	584.34
635.122	593.94
635.57	606.94
636.018	645.64
636.466	589.24
636.914	566.94
637.362	585.04
637.81	570.04
638.258	586.64
638.705	575.94
639.153	611.04
639.601	623.04
640.049	642.94
640.497	673.84
640.944	690.54
641.392	656.44
641.84	606.44
642.287	583.04
642.735	573.24
643.182	578.94
643.63	581.24
644.078	582.84
644.525	590.84
644.973	607.34
645.42	613.34
645.867	640.84
646.315	649.04
646.762	665.84
647.21	696.94
647.657	719.94
648.104	758.54
648.551	783.64
648.999	845.94
649.446	929.34
649.893	1023.64
650.34	1180.14
650.787	1412.64
651.234	1764.14
651.682	2314.54
652.129	3172.84
652.576	4583.24
653.023	6770.14
653.47	9219.44
653.917	11426.34
654.363	13141.44
654.81	14428.24
655.257	13710.54
655.704	8985.64
656.151	5301.54
656.598	3445.54
657.044	2426.84
657.491	1876.54
657.938	1485.14
658.385	1245.64
658.831	1083.04
659.278	969.04
659.724	867.04
660.171	788.74
660.618	732.24
661.064	702.34
661.511	668.84
661.957	661.84
662.404	651.24
662.85	659.54
663.296	631.44
663.743	578.24
664.189	544.94
664.635	533.94
665.082	528.74
665.528	537.74
665.974	514.14
666.42	520.74
666.867	517.94
667.313	490.24
667.759	491.94
668.205	489.44
668.651	492.94
669.097	491.54
669.543	507.94
669.989	474.84
670.435	458.94
670.881	447.04
671.327	453.84
671.773	483.24
672.219	494.54
672.665	551.24
673.11	594.04
673.556	632.24
674.002	675.94
674.448	664.94
674.893	553.44
675.339	472.24
675.785	439.24
676.23	419.74
676.676	395.14
677.122	393.44
677.567	376.74
678.013	373.14
678.458	369.24
678.904	365.54
679.349	353.84
679.794	361.64
680.24	358.64
680.685	349.94
681.131	355.94
681.576	346.24
682.021	354.34
682.466	348.34
682.912	355.84
683.357	357.54
683.802	383.14
684.247	420.84
684.692	471.14
685.137	504.24
685.583	535.84
686.028	566.54
686.473	528.24
686.918	446.04
687.363	423.84
687.807	395.74
688.252	371.14
688.697	355.74
689.142	342.44
689.587	339.04
690.032	330.34
690.477	356.04
690.921	357.44
691.366	393.54
691.811	407.94
692.255	441.84
692.7	469.04
693.145	514.44
693.589	718.84
694.034	1156.14
694.478	1565.04
694.923	1752.14
695.367	2251.54
695.812	1200.24
696.256	502.84
696.701	376.44
697.145	344.84
697.59	333.64
698.034	327.44
698.478	330.44
698.922	329.94
699.367	334.14
699.811	338.94
700.255	358.74
700.699	391.34
701.143	434.84
701.588	479.64
702.032	518.94
702.476	522.54
702.92	500.74
703.364	499.74
703.808	651.24
704.252	1068.34
704.696	1485.24
705.14	1672.54
705.584	2116.04
706.027	1064.14
706.471	525.94
706.915	399.54
707.359	356.94
707.803	318.54
708.246	310.84
708.69	306.24
709.134	322.34
709.577	315.04
710.021	324.44
710.465	308.94
710.908	303.84
711.352	295.34
711.795	313.14
712.239	359.34
712.682	386.54
713.126	423.64
713.569	471.44
714.012	369.84
714.456	325.34
714.899	302.64
715.342	282.24
715.786	262.64
716.229	260.74
716.672	247.14
717.115	256.94
717.558	259.14
718.002	256.14
718.445	260.84
718.888	287.24
719.331	291.84
719.774	312.34
720.217	309.04
720.66	282.64
721.103	275.74
721.546	261.84
721.989	254.44
722.432	232.14
722.874	238.14
723.317	230.64
723.76	234.64
724.203	259.64
724.645	323.94
725.088	459.64
725.531	574.14
725.974	633.94
726.416	547.94
726.859	307.64
727.301	249.54
727.744	229.44
728.187	228.64
728.629	250.24
729.071	248.94
729.514	252.14
729.956	271.74
730.399	285.64
730.841	284.84
731.283	279.04
731.726	266.14
732.168	263.04
732.61	267.94
733.053	284.94
733.495	319.54
733.937	359.44
734.379	403.84
734.821	435.54
735.263	555.04
735.705	867.34
736.148	1636.64
736.59	2626.64
737.032	3031.34
737.474	2473.94
737.916	824.84
738.357	429.14
738.799	329.94
739.241	304.84
739.683	282.54
740.125	292.74
740.567	297.44
741.008	315.54
741.45	317.34
741.892	322.64
742.334	357.44
742.775	362.14
743.217	340.64
743.658	279.14
744.1	252.24
744.542	270.54
744.983	309.84
745.425	336.74
745.866	352.04
746.307	286.94
746.749	289.84
747.19	330.14
747.632	469.44
748.073	928.44
748.514	1930.14
748.956	2864.44
749.397	3613.24
749.838	3004.84
750.279	2942.44
750.72	1495.94
751.162	551.24
751.603	320.04
752.044	250.44
752.485	213.54
752.926	212.04
753.367	201.34
753.808	194.74
754.249	198.64
754.69	178.34
755.131	180.54
755.572	184.74
756.013	181.74
756.453	189.34
756.894	189.84
757.335	194.34
757.776	198.54
758.216	199.44
758.657	200.94
759.098	201.74
759.538	227.04
759.979	273.44
760.42	383.84
760.86	734.14
761.301	1914.44
761.741	4534.14
762.182	6366.24
