Data from 20171114-ORNL-Ar_H_NY_Subt18_08-04-39-733.txt Node
Date: Tue Nov 14 08:04:39 EST 2017
User: Ender
Spectrometer: HR+D1039
Trigger mode: 0
Integration Time (sec): 2.730000E-2
Scans to average: 10
Electric dark correction enabled: true
Nonlinearity correction enabled: false
Boxcar width: 0
XAxis mode: Wavelengths
Number of Pixels in Spectrum: 2048
>>>>>Begin Spectral Data<<<<<
187.836	-2.34
188.309	-2.34
188.782	-2.34
189.255	0.16
189.728	2.06
190.201	3.06
190.674	4.36
191.147	0.76
191.619	-5.74
192.092	3.96
192.565	3.06
193.038	0.66
193.511	0.36
193.984	-4.64
194.456	-1.54
194.929	4.46
195.402	-5.14
195.874	-3.44
196.347	-4.14
196.82	-7.84
197.292	5.56
197.765	-4.04
198.237	-9.24
198.71	5.46
199.182	0.46
199.655	0.16
200.127	4.96
200.6	-2.94
201.072	-0.44
201.544	-5.54
202.017	-5.04
202.489	-1.24
202.961	-0.64
203.433	-9.94
203.906	-4.84
204.378	-5.44
204.85	-9.14
205.322	-9.84
205.794	-0.04
206.266	-3.04
206.739	-11.64
207.211	2.76
207.683	-10.14
208.155	-5.04
208.627	-6.94
209.099	-3.54
209.57	-9.74
210.042	-3.04
210.514	-1.94
210.986	-2.14
211.458	-6.04
211.93	-4.14
212.402	0.16
212.873	-8.44
213.345	-9.74
213.817	-9.64
214.288	-7.64
214.76	-4.84
215.232	-2.14
215.703	1.96
216.175	-2.64
216.646	-7.04
217.118	-6.04
217.589	-1.44
218.061	-2.54
218.532	-3.94
219.004	0.96
219.475	0.06
219.946	-1.64
220.418	-4.84
220.889	3.66
221.36	0.26
221.832	4.16
222.303	-1.64
222.774	-3.14
223.245	-5.04
223.717	-2.24
224.188	-8.14
224.659	-11.54
225.13	-5.04
225.601	-2.44
226.072	1.16
226.543	-0.74
227.014	2.56
227.485	1.26
227.956	-6.74
228.427	-0.14
228.898	-0.44
229.369	0.86
229.839	-0.24
230.31	-3.94
230.781	4.66
231.252	-6.24
231.722	-2.14
232.193	1.36
232.664	4.36
233.135	4.36
233.605	-3.54
234.076	-6.24
234.546	-0.84
235.017	9.96
235.487	-2.84
235.958	6.06
236.428	0.26
236.899	18.56
237.369	8.86
237.84	-1.94
238.31	5.06
238.78	6.16
239.251	4.26
239.721	-3.74
240.191	10.46
240.662	0.56
241.132	0.96
241.602	-0.24
242.072	5.86
242.542	4.56
243.013	-0.04
243.483	3.26
243.953	6.36
244.423	6.06
244.893	-3.44
245.363	7.96
245.833	6.36
246.303	4.76
246.773	10.46
247.243	8.56
247.712	2.76
248.182	9.26
248.652	9.46
249.122	2.16
249.592	9.96
250.061	31.46
250.531	34.36
251.001	17.66
251.471	20.76
251.94	24.16
252.41	12.26
252.879	-1.44
253.349	13.96
253.818	9.36
254.288	7.06
254.757	10.96
255.227	-0.94
255.696	5.66
256.166	5.06
256.635	9.86
257.105	12.66
257.574	10.26
258.043	8.36
258.513	18.36
258.982	18.36
259.451	12.96
259.92	21.76
260.389	12.66
260.859	18.66
261.328	15.16
261.797	18.06
262.266	8.56
262.735	10.86
263.204	10.26
263.673	4.26
264.142	6.46
264.611	2.66
265.08	6.06
265.549	2.36
266.018	8.36
266.487	5.56
266.955	-6.04
267.424	5.46
267.893	10.06
268.362	10.46
268.83	7.86
269.299	14.56
269.768	8.26
270.236	8.36
270.705	2.26
271.174	11.86
271.642	5.06
272.111	12.86
272.579	20.76
273.048	27.56
273.516	30.96
273.985	34.96
274.453	27.16
274.922	29.06
275.39	16.36
275.858	6.06
276.327	15.36
276.795	17.96
277.263	10.96
277.731	32.36
278.2	58.66
278.668	64.46
279.136	60.76
279.604	24.06
280.072	17.46
280.54	9.56
281.008	9.36
281.477	8.46
281.945	20.96
282.413	15.16
282.881	18.96
283.348	14.06
283.816	15.16
284.284	14.56
284.752	29.16
285.22	17.86
285.688	15.66
286.156	25.76
286.623	44.96
287.091	56.96
287.559	32.36
288.026	16.16
288.494	24.26
288.962	2.66
289.429	14.96
289.897	19.56
290.364	17.56
290.832	12.36
291.3	12.56
291.767	19.16
292.234	24.36
292.702	16.66
293.169	19.66
293.637	21.66
294.104	24.26
294.571	13.46
295.039	8.76
295.506	18.06
295.973	24.96
296.44	16.76
296.908	16.96
297.375	15.76
297.842	28.66
298.309	18.46
298.776	18.36
299.243	26.76
299.71	13.46
300.177	24.16
300.644	20.16
301.111	23.36
301.578	23.86
302.045	26.66
302.512	29.06
302.979	26.66
303.446	21.66
303.913	24.06
304.379	24.96
304.846	29.86
305.313	25.36
305.78	29.26
306.246	29.76
306.713	27.76
307.18	32.16
307.646	39.56
308.113	25.36
308.579	27.76
309.046	25.86
309.512	23.76
309.979	19.56
310.445	33.26
310.912	35.46
311.378	38.56
311.845	32.76
312.311	34.66
312.777	34.66
313.244	34.76
313.71	39.76
314.176	34.46
314.642	38.46
315.109	38.56
315.575	42.26
316.041	35.46
316.507	32.06
316.973	42.76
317.439	31.86
317.905	37.26
318.371	39.46
318.837	41.46
319.303	34.86
319.769	35.16
320.235	34.86
320.701	38.56
321.167	43.06
321.633	36.76
322.099	42.76
322.564	47.86
323.03	43.36
323.496	43.16
323.962	44.36
324.427	38.26
324.893	45.06
325.359	38.66
325.824	45.86
326.29	37.56
326.755	40.46
327.221	42.06
327.686	40.96
328.152	45.26
328.617	44.06
329.083	48.26
329.548	56.56
330.014	50.76
330.479	43.06
330.944	45.86
331.41	43.36
331.875	45.46
332.34	41.86
332.805	44.56
333.271	52.46
333.736	43.66
334.201	58.36
334.666	50.46
335.131	53.86
335.596	50.66
336.061	53.26
336.526	43.36
336.991	52.06
337.456	59.06
337.921	43.36
338.386	48.06
338.851	49.26
339.316	52.76
339.781	49.66
340.246	49.66
340.711	45.66
341.175	50.46
341.64	46.26
342.105	47.46
342.569	60.16
343.034	63.16
343.499	55.66
343.963	54.46
344.428	60.26
344.893	64.26
345.357	59.56
345.822	64.76
346.286	66.26
346.751	74.46
347.215	65.06
347.679	71.36
348.144	96.36
348.608	79.36
349.073	69.06
349.537	65.56
350.001	76.56
350.465	83.96
350.93	80.36
351.394	82.56
351.858	74.16
352.322	92.36
352.786	86.36
353.25	97.76
353.715	101.66
354.179	96.66
354.643	121.36
355.107	125.76
355.571	107.96
356.035	102.46
356.498	116.76
356.962	122.36
357.426	132.36
357.89	121.26
358.354	95.86
358.818	82.56
359.281	79.96
359.745	68.66
360.209	79.06
360.673	72.06
361.136	74.76
361.6	81.06
362.064	78.96
362.527	85.76
362.991	89.46
363.454	78.06
363.918	73.06
364.381	83.66
364.845	80.76
365.308	83.96
365.772	91.16
366.235	83.56
366.698	82.36
367.162	85.86
367.625	83.06
368.088	84.96
368.552	90.36
369.015	87.16
369.478	95.06
369.941	100.46
370.404	96.06
370.867	106.06
371.331	104.36
371.794	113.86
372.257	106.86
372.72	110.36
373.183	100.66
373.646	101.36
374.109	92.86
374.572	100.16
375.035	107.76
375.497	102.86
375.96	106.86
376.423	104.26
376.886	111.96
377.349	107.06
377.811	96.36
378.274	101.76
378.737	99.06
379.199	106.86
379.662	109.36
380.125	114.16
380.587	116.06
381.05	118.16
381.512	121.36
381.975	125.96
382.437	128.36
382.9	125.96
383.362	129.26
383.825	134.46
384.287	133.86
384.75	130.16
385.212	133.36
385.674	135.16
386.136	135.06
386.599	119.36
387.061	121.76
387.523	123.56
387.985	127.76
388.447	144.86
388.91	137.46
389.372	150.46
389.834	144.46
390.296	132.56
390.758	141.46
391.22	167.66
391.682	194.36
392.144	274.06
392.606	219.26
393.068	159.26
393.529	159.16
393.991	148.56
394.453	143.76
394.915	148.46
395.377	178.56
395.838	202.56
396.3	144.06
396.762	134.86
397.224	129.66
397.685	120.36
398.147	118.16
398.608	120.76
399.07	125.46
399.531	127.26
399.993	131.66
400.454	145.96
400.916	138.66
401.377	128.66
401.839	146.46
402.3	140.06
402.762	158.46
403.223	171.46
403.684	156.66
404.145	159.16
404.607	152.96
405.068	151.66
405.529	155.26
405.99	186.06
406.451	168.76
406.913	163.96
407.374	159.16
407.835	154.46
408.296	156.06
408.757	159.26
409.218	174.66
409.679	161.96
410.14	174.16
410.601	167.66
411.062	172.16
411.522	182.96
411.983	175.96
412.444	160.06
412.905	170.56
413.366	174.36
413.826	182.36
414.287	203.46
414.748	249.46
415.208	234.76
415.669	204.86
416.13	197.56
416.59	189.56
417.051	200.06
417.511	201.96
417.972	217.36
418.432	230.46
418.893	263.56
419.353	234.46
419.814	183.66
420.274	171.56
420.734	172.06
421.195	178.26
421.655	180.66
422.115	176.16
422.576	181.36
423.036	187.66
423.496	195.76
423.956	197.66
424.416	220.96
424.876	249.36
425.336	241.16
425.797	247.56
426.257	235.66
426.717	222.46
427.177	219.06
427.637	216.56
428.097	215.46
428.556	232.76
429.016	256.96
429.476	253.36
429.936	259.26
430.396	264.86
430.856	267.56
431.315	292.96
431.775	324.26
432.235	351.36
432.694	328.96
433.154	331.86
433.614	360.16
434.073	310.06
434.533	265.66
434.993	253.16
435.452	269.06
435.912	284.96
436.371	276.36
436.83	270.76
437.29	249.06
437.749	231.16
438.209	230.26
438.668	251.26
439.127	270.66
439.587	245.96
440.046	229.76
440.505	247.66
440.964	253.26
441.424	292.06
441.883	286.96
442.342	247.76
442.801	215.16
443.26	204.96
443.719	202.16
444.178	200.06
444.637	190.16
445.096	206.46
445.555	207.76
446.014	207.96
446.473	204.56
446.932	209.36
447.391	206.16
447.849	219.16
448.308	201.96
448.767	207.86
449.226	220.96
449.685	224.26
450.143	235.86
450.602	223.16
451.061	213.86
451.519	215.06
451.978	216.06
452.436	224.16
452.895	221.96
453.353	236.36
453.812	225.46
454.27	229.56
454.729	224.56
455.187	224.26
455.646	229.96
456.104	236.66
456.562	238.96
457.021	247.66
457.479	248.86
457.937	245.36
458.395	241.56
458.854	222.66
459.312	230.46
459.77	257.26
460.228	239.76
460.686	225.86
461.144	227.66
461.602	224.86
462.06	216.26
462.518	230.36
462.976	238.76
463.434	243.66
463.892	244.16
464.35	256.06
464.808	273.86
465.266	250.56
465.724	254.76
466.181	257.16
466.639	251.06
467.097	265.16
467.555	278.76
468.012	278.16
468.47	289.76
468.928	313.36
469.385	319.86
469.843	321.16
470.3	319.76
470.758	338.06
471.215	355.06
471.673	386.06
472.13	374.76
472.588	388.06
473.045	343.16
473.503	349.36
473.96	370.76
474.417	370.26
474.875	401.86
475.332	449.46
475.789	434.26
476.246	450.06
476.704	461.46
477.161	480.76
477.618	495.66
478.075	521.56
478.532	575.96
478.989	642.16
479.446	749.86
479.903	730.06
480.36	761.36
480.817	815.86
481.274	911.76
481.731	1008.46
482.188	1107.56
482.645	1226.66
483.102	1341.16
483.558	1471.26
484.015	1526.66
484.472	1501.36
484.929	1457.36
485.385	1392.16
485.842	1369.96
486.299	1298.76
486.755	1226.56
487.212	1027.76
487.668	887.76
488.125	799.16
488.582	735.36
489.038	711.86
489.494	667.36
489.951	643.56
490.407	629.76
490.864	609.36
491.32	611.36
491.776	604.76
492.233	601.56
492.689	568.86
493.145	566.66
493.602	565.86
494.058	582.66
494.514	582.56
494.97	595.06
495.426	614.86
495.882	582.96
496.338	582.16
496.794	585.36
497.251	590.86
497.707	605.06
498.163	599.86
498.618	605.86
499.074	615.16
499.53	633.36
499.986	634.06
500.442	625.46
500.898	595.46
501.354	590.56
501.809	600.76
502.265	613.96
502.721	619.26
503.177	619.36
503.632	624.56
504.088	629.26
504.543	665.36
504.999	662.66
505.455	622.86
505.91	588.56
506.366	594.36
506.821	587.06
507.277	590.16
507.732	594.96
508.187	587.76
508.643	592.46
509.098	591.96
509.553	616.06
510.009	615.16
510.464	623.76
510.919	645.76
511.375	644.66
511.83	664.26
512.285	677.36
512.74	727.96
513.195	735.26
513.65	729.06
514.105	733.16
514.56	732.76
515.015	746.76
515.47	755.56
515.925	748.86
516.38	751.56
516.835	748.76
517.29	743.96
517.745	747.06
518.2	715.66
518.655	701.46
519.109	704.66
519.564	704.36
520.019	692.96
520.474	680.06
520.928	683.96
521.383	676.56
521.838	669.66
522.292	673.46
522.747	674.26
523.201	663.86
523.656	643.26
524.11	643.66
524.565	646.26
525.019	638.66
525.474	662.56
525.928	661.26
526.382	652.46
526.837	652.26
527.291	654.46
527.745	657.56
528.2	655.26
528.654	648.06
529.108	647.56
529.562	650.96
530.016	647.26
530.47	642.46
530.925	650.16
531.379	650.46
531.833	664.16
532.287	658.56
532.741	665.86
533.195	657.96
533.649	671.56
534.103	675.56
534.556	666.86
535.01	668.06
535.464	654.76
535.918	679.66
536.372	675.16
536.826	681.76
537.279	663.06
537.733	656.86
538.187	655.26
538.64	658.86
539.094	680.16
539.548	678.26
540.001	677.96
540.455	675.16
540.908	692.36
541.362	687.16
541.815	691.56
542.269	699.96
542.722	709.56
543.175	724.16
543.629	718.06
544.082	735.06
544.536	732.86
544.989	732.76
545.442	744.46
545.895	734.36
546.349	726.96
546.802	726.86
547.255	736.46
547.708	737.26
548.161	750.06
548.614	757.46
549.067	764.86
549.52	760.36
549.973	754.16
550.426	751.56
550.879	738.56
551.332	747.26
551.785	746.96
552.238	739.86
552.691	755.86
553.144	775.66
553.596	779.86
554.049	791.26
554.502	833.36
554.955	849.46
555.407	847.16
555.86	827.96
556.313	830.06
556.765	804.76
557.218	819.06
557.67	816.46
558.123	805.56
558.576	816.66
559.028	808.96
559.48	824.76
559.933	812.26
560.385	776.06
560.838	739.36
561.29	723.96
561.742	713.26
562.195	706.46
562.647	701.96
563.099	712.96
563.551	713.76
564.004	714.56
564.456	718.36
564.908	693.56
565.36	688.66
565.812	682.96
566.264	664.16
566.716	664.36
567.168	662.26
567.62	666.46
568.072	650.46
568.524	640.06
568.976	625.16
569.428	612.76
569.88	613.06
570.332	624.06
570.784	624.96
571.235	621.06
571.687	633.86
572.139	637.76
572.59	647.76
573.042	655.86
573.494	659.36
573.945	648.86
574.397	624.16
574.849	627.56
575.3	625.46
575.752	634.76
576.203	618.26
576.655	635.06
577.106	612.66
577.557	604.76
578.009	610.46
578.46	606.46
578.912	602.56
579.363	609.46
579.814	612.76
580.265	598.66
580.717	612.56
581.168	603.76
581.619	611.86
582.07	619.56
582.521	610.46
582.972	611.36
583.423	624.66
583.875	611.46
584.326	637.06
584.777	684.86
585.227	739.86
585.678	825.56
586.129	919.96
586.58	985.16
587.031	1071.46
587.482	1232.16
587.933	1388.16
588.384	1208.56
588.834	895.96
589.285	727.06
589.736	703.56
590.186	696.56
590.637	699.56
591.088	665.36
591.538	668.46
591.989	654.26
592.439	658.86
592.89	651.76
593.34	638.16
593.791	643.56
594.241	631.16
594.692	643.16
595.142	630.46
595.593	637.26
596.043	635.16
596.493	638.86
596.943	645.26
597.394	640.36
597.844	638.56
598.294	657.36
598.744	676.56
599.195	691.66
599.645	731.16
600.095	762.96
600.545	821.36
600.995	873.56
601.445	921.16
601.895	980.06
602.345	1022.46
602.795	1002.86
603.245	970.86
603.695	922.96
604.145	855.76
604.594	818.76
605.044	776.86
605.494	717.06
605.944	676.26
606.393	668.76
606.843	650.76
607.293	666.96
607.743	660.36
608.192	667.86
608.642	676.86
609.091	687.16
609.541	680.56
609.99	686.36
610.44	678.96
610.889	637.36
611.339	618.36
611.788	605.56
612.238	614.86
612.687	638.26
613.136	643.66
613.586	666.36
614.035	653.86
614.484	671.86
614.933	677.16
615.383	671.86
615.832	665.66
616.281	640.86
616.73	609.46
617.179	586.56
617.628	569.86
618.077	563.06
618.526	555.26
618.975	542.06
619.424	545.76
619.873	547.96
620.322	549.56
620.771	530.56
621.22	534.46
621.669	530.56
622.118	530.16
622.567	509.26
623.015	501.76
623.464	498.16
623.913	493.86
624.361	491.26
624.81	493.36
625.259	491.76
625.707	495.76
626.156	493.26
626.604	499.36
627.053	489.26
627.501	495.36
627.95	498.46
628.398	514.36
628.847	498.16
629.295	498.66
629.744	503.96
630.192	501.46
630.64	499.16
631.089	507.36
631.537	508.06
631.985	512.46
632.433	516.96
632.881	526.66
633.33	571.46
633.778	553.76
634.226	487.16
634.674	492.46
635.122	509.56
635.57	523.06
636.018	553.16
636.466	510.76
636.914	494.66
637.362	504.16
637.81	506.66
638.258	506.36
638.705	507.76
639.153	542.56
639.601	537.96
640.049	565.86
640.497	595.76
640.944	606.66
641.392	559.26
641.84	540.26
642.287	508.56
642.735	496.76
643.182	500.26
643.63	498.86
644.078	507.36
644.525	521.36
644.973	517.86
645.42	522.66
645.867	542.96
646.315	556.26
646.762	589.96
647.21	606.06
647.657	619.76
648.104	650.96
648.551	676.86
648.999	731.86
649.446	791.76
649.893	869.06
650.34	997.46
650.787	1203.16
651.234	1493.46
651.682	1949.16
652.129	2667.76
652.576	3847.06
653.023	5704.06
653.47	7838.56
653.917	9934.96
654.363	11629.86
654.81	13064.06
655.257	12402.96
655.704	8018.26
656.151	4723.36
656.598	3045.46
657.044	2151.16
657.491	1649.56
657.938	1317.66
658.385	1091.96
658.831	960.66
659.278	852.26
659.724	749.46
660.171	690.56
660.618	635.26
661.064	608.96
661.511	578.66
661.957	566.56
662.404	553.16
662.85	563.96
663.296	539.86
663.743	489.86
664.189	474.56
664.635	462.76
665.082	456.66
665.528	448.06
665.974	456.66
666.42	438.06
666.867	436.06
667.313	427.26
667.759	415.36
668.205	419.46
668.651	425.46
669.097	421.86
669.543	437.46
669.989	408.96
670.435	386.16
670.881	391.06
671.327	384.26
671.773	404.66
672.219	420.96
672.665	470.26
673.11	494.96
673.556	538.16
674.002	581.66
674.448	562.36
674.893	468.56
675.339	403.26
675.785	376.46
676.23	367.36
676.676	337.16
677.122	328.96
677.567	319.06
678.013	316.26
678.458	304.36
678.904	312.46
679.349	295.96
679.794	298.16
680.24	295.76
680.685	300.46
681.131	303.16
681.576	300.06
682.021	309.66
682.466	293.86
682.912	302.96
683.357	297.56
683.802	325.66
684.247	346.76
684.692	383.46
685.137	424.46
685.583	454.56
686.028	494.56
686.473	452.56
686.918	380.86
687.363	353.26
687.807	336.86
688.252	308.36
688.697	300.36
689.142	291.36
689.587	285.26
690.032	278.36
690.477	289.86
690.921	302.16
691.366	327.36
691.811	343.96
692.255	358.36
692.7	397.36
693.145	424.26
693.589	579.36
694.034	945.26
694.478	1307.56
694.923	1505.66
695.367	1981.26
695.812	1043.56
696.256	427.96
696.701	318.86
697.145	293.46
697.59	281.66
698.034	277.06
698.478	282.86
698.922	282.86
699.367	285.96
699.811	292.86
700.255	303.26
700.699	328.06
701.143	363.26
701.588	414.96
702.032	446.96
702.476	440.26
702.92	422.96
703.364	409.26
703.808	524.06
704.252	856.86
704.696	1229.86
705.14	1447.86
705.584	1864.16
706.027	926.36
706.471	443.66
706.915	339.06
707.359	297.76
707.803	278.26
708.246	267.76
708.69	275.46
709.134	261.26
709.577	265.26
710.021	279.56
710.465	264.76
710.908	258.76
711.352	251.16
711.795	267.66
712.239	296.46
712.682	329.06
713.126	358.76
713.569	406.56
714.012	314.16
714.456	275.06
714.899	255.16
715.342	233.76
715.786	230.36
716.229	228.36
716.672	216.86
717.115	209.66
717.558	218.36
718.002	223.16
718.445	221.46
718.888	244.66
719.331	242.36
719.774	261.96
720.217	259.36
720.66	243.76
721.103	224.26
721.546	213.46
721.989	213.26
722.432	201.26
722.874	203.36
723.317	195.06
723.76	202.36
724.203	214.86
724.645	266.76
725.088	370.96
725.531	490.56
725.974	558.76
726.416	470.26
726.859	265.06
727.301	210.76
727.744	203.36
728.187	198.46
728.629	201.96
729.071	208.76
729.514	220.66
729.956	223.76
730.399	241.06
730.841	241.66
731.283	231.36
731.726	226.16
732.168	217.26
732.61	227.96
733.053	240.76
733.495	265.76
733.937	295.46
734.379	332.76
734.821	359.06
735.263	447.96
735.705	693.86
736.148	1307.66
736.59	2177.76
737.032	2682.56
737.474	2167.76
737.916	691.66
738.357	363.46
738.799	272.66
739.241	254.36
739.683	236.76
740.125	245.66
740.567	248.86
741.008	269.36
741.45	263.06
741.892	259.36
742.334	297.96
742.775	299.26
743.217	295.36
743.658	223.96
744.1	214.06
744.542	217.96
744.983	261.76
745.425	296.86
745.866	300.46
746.307	248.06
746.749	234.06
747.19	275.16
747.632	375.36
748.073	708.96
748.514	1553.96
748.956	2437.86
749.397	3040.26
749.838	2528.06
750.279	2579.86
750.72	1288.86
751.162	462.36
751.603	278.26
752.044	213.16
752.485	183.76
752.926	180.16
753.367	171.26
753.808	159.16
754.249	165.36
754.69	159.36
755.131	151.36
755.572	159.56
756.013	146.16
756.453	154.06
756.894	159.66
757.335	159.66
757.776	166.06
758.216	167.66
758.657	167.66
759.098	168.06
759.538	189.66
759.979	217.36
760.42	303.96
760.86	575.16
761.301	1483.36
761.741	3684.76
762.182	5657.46
762.622	3981.66
