Data from 20171114-ORNL-Ar_H_NY_Subt18_08-09-05-944.txt Node
Date: Tue Nov 14 08:09:05 EST 2017
User: Ender
Spectrometer: HR+D1039
Trigger mode: 0
Integration Time (sec): 2.730000E-2
Scans to average: 10
Electric dark correction enabled: true
Nonlinearity correction enabled: false
Boxcar width: 0
XAxis mode: Wavelengths
Number of Pixels in Spectrum: 2048
>>>>>Begin Spectral Data<<<<<
187.836	-0.73
188.309	-0.73
188.782	-0.73
189.255	-1.63
189.728	-1.52
190.201	5.88
190.674	4.77
191.147	3.07
191.619	-9.63
192.092	-0.92
192.565	4.57
193.038	-1.43
193.511	0.57
193.984	0.27
194.456	-1.23
194.929	-1.52
195.402	-1.03
195.874	0.48
196.347	-1.62
196.82	-2.73
197.292	-0.33
197.765	-1.23
198.237	-5.42
198.71	6.17
199.182	0.07
199.655	2.77
200.127	-1.33
200.6	-1.73
201.072	-2.43
201.544	-8.42
202.017	-5.83
202.489	3.57
202.961	-1.42
203.433	-6.23
203.906	-9.12
204.378	-9.62
204.85	-6.33
205.322	-8.62
205.794	-5.53
206.266	-1.12
206.739	-11.02
207.211	-4.52
207.683	-7.62
208.155	-6.53
208.627	-6.23
209.099	-1.33
209.57	-9.92
210.042	-7.73
210.514	-4.32
210.986	-0.12
211.458	-8.33
211.93	-1.83
212.402	0.38
212.873	-8.12
213.345	-10.23
213.817	-9.03
214.288	-9.43
214.76	-10.93
215.232	-1.52
215.703	-5.33
216.175	-8.73
216.646	-7.62
217.118	-10.12
217.589	-5.82
218.061	-4.23
218.532	-4.23
219.004	-9.93
219.475	-9.52
219.946	-3.33
220.418	-7.02
220.889	-4.02
221.36	-0.12
221.832	-7.12
222.303	-8.33
222.774	-4.02
223.245	-15.73
223.717	-8.43
224.188	-0.62
224.659	-11.23
225.13	-7.52
225.601	-5.23
226.072	-0.83
226.543	-3.63
227.014	3.38
227.485	0.27
227.956	-10.92
228.427	-2.23
228.898	-2.62
229.369	5.07
229.839	-4.43
230.31	-7.83
230.781	-0.02
231.252	1.48
231.722	-7.83
232.193	-8.12
232.664	-5.73
233.135	-3.73
233.605	-5.52
234.076	-12.73
234.546	1.77
235.017	-2.33
235.487	1.38
235.958	-7.52
236.428	-7.52
236.899	-2.23
237.369	-1.12
237.84	-5.83
238.31	-4.62
238.78	-2.82
239.251	-3.23
239.721	-5.33
240.191	-10.42
240.662	-3.92
241.132	-0.23
241.602	-3.63
242.072	-3.73
242.542	0.08
243.013	-4.12
243.483	-1.52
243.953	3.27
244.423	-6.32
244.893	-5.43
245.363	3.07
245.833	-6.83
246.303	-0.43
246.773	-4.62
247.243	-6.53
247.712	-4.93
248.182	1.77
248.652	-0.62
249.122	-10.33
249.592	1.88
250.061	2.17
250.531	9.08
251.001	-0.52
251.471	8.38
251.94	7.77
252.41	0.58
252.879	-4.42
253.349	5.17
253.818	4.38
254.288	-3.52
254.757	-0.32
255.227	-3.73
255.696	-3.73
256.166	2.48
256.635	2.17
257.105	2.58
257.574	-2.63
258.043	-2.23
258.513	-6.53
258.982	6.98
259.451	-6.93
259.92	-0.62
260.389	-6.73
260.859	8.77
261.328	-3.82
261.797	-4.62
262.266	-0.93
262.735	4.68
263.204	2.27
263.673	-4.52
264.142	6.38
264.611	-1.53
265.08	-0.33
265.549	-2.23
266.018	2.58
266.487	-1.93
266.955	-3.73
267.424	-2.33
267.893	-2.42
268.362	-7.02
268.83	-1.93
269.299	9.27
269.768	-1.62
270.236	1.17
270.705	0.67
271.174	-0.12
271.642	1.27
272.111	-0.62
272.579	1.97
273.048	1.07
273.516	-3.62
273.985	8.67
274.453	9.98
274.922	3.97
275.39	3.57
275.858	0.57
276.327	4.38
276.795	7.08
277.263	-0.62
277.731	11.27
278.2	11.67
278.668	7.98
279.136	11.27
279.604	-0.73
280.072	6.27
280.54	3.38
281.008	6.77
281.477	8.88
281.945	5.38
282.413	6.57
282.881	9.08
283.348	-2.82
283.816	5.88
284.284	3.97
284.752	11.37
285.22	4.98
285.688	8.67
286.156	6.17
286.623	17.57
287.091	8.38
287.559	10.38
288.026	12.08
288.494	9.17
288.962	-2.23
289.429	-0.43
289.897	8.18
290.364	8.38
290.832	8.88
291.3	7.17
291.767	16.77
292.234	9.88
292.702	5.48
293.169	4.77
293.637	13.08
294.104	11.48
294.571	3.27
295.039	-0.33
295.506	8.38
295.973	8.88
296.44	7.98
296.908	6.58
297.375	6.88
297.842	10.27
298.309	10.48
298.776	0.68
299.243	10.67
299.71	3.07
300.177	10.67
300.644	12.98
301.111	10.48
301.578	13.77
302.045	6.98
302.512	17.58
302.979	10.77
303.446	12.38
303.913	11.48
304.379	15.38
304.846	18.88
305.313	20.57
305.78	12.87
306.246	15.48
306.713	13.07
307.18	18.58
307.646	16.27
308.113	14.97
308.579	17.88
309.046	13.88
309.512	20.77
309.979	7.37
310.445	16.07
310.912	23.57
311.378	25.67
311.845	19.98
312.311	18.77
312.777	18.67
313.244	18.58
313.71	24.98
314.176	16.38
314.642	15.88
315.109	14.38
315.575	23.08
316.041	25.17
316.507	14.47
316.973	24.17
317.439	18.48
317.905	24.58
318.371	24.27
318.837	25.77
319.303	17.27
319.769	23.68
320.235	24.77
320.701	27.97
321.167	22.97
321.633	22.98
322.099	28.77
322.564	32.98
323.03	25.47
323.496	26.17
323.962	23.98
324.427	23.98
324.893	39.97
325.359	26.97
325.824	23.17
326.29	27.38
326.755	23.37
327.221	30.27
327.686	18.77
328.152	37.08
328.617	30.88
329.083	30.38
329.548	38.77
330.014	38.27
330.479	32.27
330.944	30.67
331.41	28.97
331.875	36.08
332.34	35.77
332.805	30.17
333.271	33.77
333.736	22.77
334.201	37.58
334.666	39.47
335.131	38.27
335.596	41.07
336.061	38.07
336.526	30.97
336.991	40.58
337.456	43.27
337.921	39.27
338.386	34.77
338.851	41.87
339.316	38.67
339.781	38.88
340.246	40.27
340.711	33.77
341.175	35.57
341.64	36.88
342.105	37.77
342.569	44.47
343.034	47.47
343.499	43.88
343.963	43.68
344.428	51.98
344.893	49.07
345.357	52.67
345.822	49.07
346.286	53.27
346.751	51.68
347.215	46.77
347.679	55.08
348.144	71.17
348.608	61.98
349.073	52.48
349.537	54.77
350.001	62.17
350.465	69.38
350.93	65.88
351.394	67.58
351.858	51.48
352.322	67.98
352.786	59.18
353.25	75.27
353.715	84.77
354.179	77.87
354.643	93.18
355.107	95.07
355.571	81.38
356.035	77.67
356.498	81.88
356.962	82.87
357.426	96.57
357.89	88.48
358.354	71.57
358.818	68.48
359.281	62.38
359.745	70.38
360.209	68.48
360.673	59.27
361.136	68.68
361.6	71.17
362.064	69.98
362.527	67.97
362.991	80.67
363.454	67.77
363.918	67.88
364.381	65.27
364.845	65.88
365.308	73.17
365.772	71.38
366.235	73.57
366.698	74.17
367.162	68.57
367.625	68.88
368.088	72.88
368.552	66.77
369.015	76.17
369.478	77.48
369.941	86.47
370.404	77.87
370.867	85.67
371.331	85.87
371.794	89.57
372.257	82.08
372.72	90.67
373.183	89.08
373.646	78.88
374.109	84.48
374.572	84.27
375.035	88.97
375.497	93.77
375.96	97.17
376.423	88.87
376.886	95.98
377.349	88.07
377.811	88.88
378.274	90.08
378.737	90.77
379.199	94.98
379.662	99.38
380.125	101.58
380.587	97.38
381.05	95.88
381.512	100.57
381.975	106.97
382.437	106.17
382.9	100.27
383.362	107.57
383.825	117.08
384.287	116.98
384.75	102.97
385.212	113.37
385.674	121.97
386.136	116.48
386.599	107.17
387.061	106.08
387.523	113.77
387.985	112.27
388.447	115.57
388.91	117.77
389.372	119.88
389.834	125.27
390.296	117.47
390.758	122.07
391.22	123.17
391.682	143.27
392.144	160.77
392.606	144.47
393.068	130.88
393.529	141.57
393.991	130.88
394.453	121.77
394.915	126.67
395.377	124.58
395.838	133.67
396.3	125.88
396.762	128.77
397.224	122.47
397.685	118.47
398.147	121.88
398.608	129.38
399.07	121.17
399.531	130.17
399.993	131.48
400.454	138.97
400.916	138.57
401.377	133.58
401.839	136.67
402.3	138.57
402.762	147.88
403.223	162.88
403.684	162.77
404.145	148.87
404.607	147.77
405.068	145.17
405.529	150.98
405.99	173.88
406.451	163.67
406.913	160.47
407.374	151.27
407.835	156.38
408.296	152.77
408.757	164.38
409.218	175.88
409.679	170.18
410.14	166.88
410.601	166.77
411.062	164.27
411.522	167.48
411.983	168.88
412.444	167.17
412.905	173.88
413.366	176.77
413.826	188.07
414.287	209.47
414.748	254.08
415.208	240.07
415.669	200.67
416.13	201.47
416.59	198.87
417.051	209.27
417.511	221.07
417.972	231.07
418.432	237.67
418.893	288.38
419.353	241.77
419.814	193.97
420.274	174.67
420.734	172.77
421.195	187.17
421.655	193.48
422.115	186.07
422.576	186.57
423.036	193.07
423.496	192.27
423.956	205.18
424.416	223.27
424.876	256.77
425.336	254.27
425.797	248.68
426.257	248.98
426.717	232.38
427.177	226.08
427.637	217.68
428.097	221.87
428.556	229.17
429.016	257.67
429.476	257.48
429.936	255.68
430.396	258.08
430.856	275.17
431.315	290.27
431.775	326.27
432.235	351.08
432.694	325.18
433.154	339.67
433.614	364.37
434.073	314.57
434.533	275.57
434.993	252.78
435.452	268.17
435.912	274.37
436.371	273.57
436.83	271.68
437.29	253.98
437.749	243.97
438.209	237.77
438.668	261.97
439.127	270.47
439.587	252.77
440.046	235.88
440.505	251.48
440.964	261.87
441.424	311.98
441.883	305.27
442.342	248.18
442.801	224.67
443.26	226.17
443.719	228.88
444.178	219.38
444.637	213.88
445.096	224.98
445.555	222.17
446.014	215.37
446.473	229.28
446.932	226.87
447.391	219.27
447.849	227.57
448.308	216.08
448.767	221.68
449.226	231.87
449.685	234.08
450.143	254.88
450.602	234.37
451.061	232.67
451.519	231.38
451.978	235.58
452.436	231.08
452.895	237.07
453.353	254.77
453.812	246.38
454.27	238.08
454.729	240.68
455.187	242.47
455.646	241.18
456.104	244.17
456.562	259.68
457.021	273.08
457.479	252.97
457.937	270.48
458.395	265.27
458.854	246.47
459.312	254.47
459.77	269.28
460.228	255.37
460.686	247.88
461.144	250.97
461.602	238.87
462.06	247.48
462.518	255.87
462.976	253.07
463.434	260.28
463.892	260.67
464.35	282.17
464.808	292.28
465.266	267.08
465.724	268.07
466.181	275.97
466.639	274.77
467.097	285.67
467.555	291.88
468.012	310.97
468.47	317.47
468.928	322.77
469.385	334.07
469.843	344.67
470.3	350.88
470.758	356.17
471.215	382.08
471.673	398.77
472.13	399.48
472.588	423.58
473.045	375.77
473.503	381.98
473.96	393.67
474.417	403.97
474.875	437.48
475.332	481.58
475.789	463.37
476.246	466.87
476.704	489.07
477.161	492.78
477.618	515.47
478.075	552.77
478.532	603.67
478.989	671.08
479.446	777.48
479.903	746.88
480.36	779.97
480.817	818.77
481.274	902.08
481.731	998.28
482.188	1065.17
482.645	1190.58
483.102	1282.08
483.558	1394.28
484.015	1433.88
484.472	1425.58
484.929	1375.38
485.385	1335.38
485.842	1292.88
486.299	1249.77
486.755	1215.58
487.212	1034.28
487.668	878.57
488.125	821.88
488.582	756.68
489.038	722.67
489.494	702.07
489.951	674.47
490.407	657.48
490.864	640.48
491.32	633.47
491.776	639.38
492.233	639.87
492.689	597.08
493.145	595.87
493.602	604.17
494.058	608.67
494.514	609.98
494.97	640.18
495.426	643.17
495.882	621.67
496.338	598.67
496.794	611.97
497.251	611.27
497.707	625.18
498.163	619.67
498.618	634.87
499.074	638.08
499.53	664.98
499.986	674.87
500.442	640.48
500.898	626.98
501.354	617.07
501.809	625.87
502.265	628.78
502.721	632.37
503.177	646.07
503.632	647.97
504.088	644.68
504.543	667.77
504.999	694.88
505.455	655.07
505.91	633.58
506.366	643.47
506.821	628.07
507.277	637.17
507.732	640.98
508.187	630.08
508.643	650.47
509.098	646.38
509.553	668.37
510.009	671.27
510.464	686.88
510.919	694.58
511.375	697.77
511.83	720.87
512.285	724.07
512.74	752.08
513.195	774.88
513.65	776.68
514.105	771.17
514.56	775.77
515.015	792.77
515.47	800.58
515.925	783.98
516.38	789.58
516.835	791.67
517.29	773.98
517.745	780.57
518.2	770.37
518.655	765.48
519.109	747.27
519.564	757.18
520.019	732.38
520.474	724.68
520.928	728.18
521.383	724.17
521.838	718.38
522.292	716.28
522.747	713.08
523.201	712.98
523.656	696.08
524.11	701.48
524.565	692.47
525.019	697.48
525.474	716.27
525.928	706.38
526.382	706.17
526.837	700.97
527.291	701.88
527.745	706.67
528.2	707.07
528.654	698.08
529.108	693.67
529.562	701.38
530.016	692.77
530.47	686.17
530.925	697.88
531.379	689.08
531.833	711.68
532.287	701.77
532.741	702.27
533.195	705.27
533.649	722.67
534.103	728.97
534.556	715.07
535.01	712.77
535.464	720.08
535.918	717.98
536.372	714.57
536.826	730.27
537.279	715.57
537.733	721.17
538.187	716.17
538.64	717.87
539.094	732.88
539.548	733.48
540.001	735.07
540.455	744.77
540.908	746.77
541.362	741.38
541.815	752.08
542.269	765.48
542.722	771.77
543.175	782.67
543.629	778.27
544.082	801.67
544.536	799.67
544.989	795.98
545.442	812.08
545.895	803.37
546.349	802.77
546.802	807.87
547.255	807.17
547.708	813.97
548.161	823.17
548.614	835.98
549.067	850.67
549.52	833.08
549.973	828.27
550.426	818.07
550.879	808.77
551.332	816.57
551.785	814.38
552.238	821.67
552.691	830.38
553.144	858.77
553.596	860.38
554.049	877.97
554.502	910.27
554.955	912.87
555.407	919.58
555.86	910.08
556.313	897.38
556.765	893.57
557.218	888.07
557.67	892.98
558.123	893.17
558.576	881.88
559.028	899.68
559.48	902.87
559.933	893.17
560.385	849.87
560.838	832.67
561.29	802.38
561.742	798.88
562.195	782.08
562.647	782.38
563.099	798.67
563.551	790.78
564.004	789.48
564.456	782.27
564.908	770.67
565.36	763.67
565.812	746.87
566.264	731.88
566.716	732.48
567.168	716.87
567.62	724.37
568.072	708.38
568.524	717.27
568.976	709.57
569.428	694.38
569.88	690.88
570.332	704.27
570.784	696.67
571.235	695.87
571.687	710.47
572.139	723.48
572.59	723.77
573.042	733.77
573.494	729.07
573.945	723.17
574.397	696.97
574.849	712.27
575.3	712.78
575.752	705.97
576.203	686.98
576.655	697.48
577.106	689.08
577.557	683.98
578.009	690.88
578.46	682.07
578.912	690.87
579.363	675.67
579.814	687.67
580.265	680.37
580.717	680.67
581.168	681.08
581.619	695.18
582.07	689.27
582.521	690.57
582.972	689.48
583.423	697.37
583.875	690.08
584.326	706.98
584.777	732.68
585.227	740.47
585.678	780.97
586.129	794.18
586.58	829.18
587.031	862.38
587.482	904.17
587.933	950.67
588.384	909.87
588.834	827.38
589.285	801.57
589.736	791.77
590.186	793.67
590.637	777.88
591.088	773.18
591.538	762.58
591.989	743.97
592.439	753.18
592.89	738.87
593.34	725.47
593.791	728.27
594.241	711.18
594.692	720.47
595.142	712.38
595.593	709.17
596.043	708.87
596.493	726.38
596.943	714.68
597.394	738.78
597.844	743.67
598.294	748.88
598.744	780.58
599.195	801.97
599.645	847.08
600.095	892.27
600.545	940.47
600.995	1003.18
601.445	1047.67
601.895	1122.08
602.345	1154.38
602.795	1148.68
603.245	1088.07
603.695	1036.97
604.145	985.17
604.594	944.27
605.044	879.58
605.494	820.27
605.944	772.77
606.393	754.37
606.843	750.17
607.293	754.07
607.743	745.17
608.192	767.77
608.642	774.17
609.091	772.38
609.541	786.38
609.99	782.27
610.44	778.77
610.889	737.57
611.339	721.98
611.788	695.98
612.238	708.27
612.687	718.37
613.136	722.78
613.586	732.48
614.035	719.68
614.484	727.67
614.933	736.88
615.383	725.08
615.832	732.77
616.281	719.68
616.73	690.17
617.179	672.77
617.628	659.67
618.077	648.47
618.526	635.37
618.975	629.98
619.424	633.98
619.873	626.07
620.322	636.77
620.771	615.28
621.22	623.37
621.669	605.88
622.118	608.27
622.567	592.07
623.015	592.08
623.464	585.38
623.913	577.07
624.361	569.87
624.81	562.77
625.259	571.18
625.707	573.38
626.156	570.88
626.604	584.17
627.053	583.67
627.501	575.37
627.95	581.77
628.398	598.57
628.847	588.98
629.295	584.38
629.744	588.87
630.192	576.57
630.64	572.77
631.089	570.37
631.537	557.97
631.985	556.47
632.433	545.08
632.881	542.27
633.33	559.07
633.778	551.27
634.226	551.68
634.674	572.57
635.122	565.77
635.57	568.98
636.018	593.17
636.466	580.58
636.914	570.78
637.362	581.98
637.81	601.18
638.258	587.48
638.705	591.27
639.153	628.97
639.601	643.77
640.049	670.87
640.497	684.37
640.944	720.57
641.392	667.97
641.84	631.57
642.287	603.78
642.735	584.87
643.182	586.88
643.63	570.97
644.078	573.77
644.525	596.17
644.973	596.58
645.42	614.57
645.867	630.67
646.315	646.77
646.762	659.77
647.21	699.77
647.657	719.17
648.104	758.47
648.551	769.58
648.999	827.38
649.446	917.38
649.893	992.68
650.34	1147.18
650.787	1352.68
651.234	1684.28
651.682	2171.68
652.129	2953.97
652.576	4209.07
653.023	6166.77
653.47	8294.77
653.917	10235.57
654.363	11676.98
654.81	12789.67
655.257	12111.88
655.704	8053.48
656.151	4849.97
656.598	3161.68
657.044	2286.88
657.491	1781.88
657.938	1441.28
658.385	1194.98
658.831	1059.17
659.278	956.47
659.724	848.77
660.171	782.48
660.618	715.77
661.064	690.98
661.511	673.97
661.957	660.27
662.404	646.58
662.85	654.18
663.296	632.27
663.743	574.67
664.189	558.17
664.635	547.97
665.082	539.77
665.528	545.18
665.974	529.27
666.42	522.18
666.867	514.77
667.313	504.78
667.759	481.68
668.205	462.87
668.651	469.27
669.097	468.98
669.543	457.37
669.989	471.67
670.435	465.27
670.881	459.18
671.327	466.88
671.773	486.27
672.219	517.87
672.665	571.98
673.11	618.67
673.556	653.27
674.002	694.28
674.448	676.48
674.893	576.97
675.339	494.07
675.785	458.17
676.23	436.27
676.676	419.97
677.122	393.48
677.567	382.77
678.013	387.17
678.458	377.88
678.904	368.88
679.349	355.67
679.794	369.08
680.24	365.07
680.685	358.27
681.131	365.08
681.576	362.17
682.021	365.38
682.466	362.27
682.912	361.27
683.357	370.38
683.802	398.77
684.247	432.48
684.692	470.07
685.137	519.67
685.583	552.97
686.028	591.77
686.473	535.68
686.918	465.87
687.363	434.07
687.807	407.57
688.252	387.27
688.697	368.07
689.142	346.58
689.587	343.07
690.032	333.37
690.477	358.48
690.921	361.18
691.366	397.67
691.811	423.77
692.255	457.67
692.7	478.08
693.145	541.98
693.589	754.77
694.034	1212.58
694.478	1641.17
694.923	1795.38
695.367	2341.98
695.812	1252.97
696.256	516.98
696.701	384.07
697.145	369.08
697.59	347.07
698.034	336.98
698.478	333.18
698.922	331.77
699.367	339.08
699.811	351.08
700.255	366.18
700.699	401.58
701.143	446.57
701.588	498.57
702.032	540.67
702.476	535.57
702.92	511.48
703.364	520.07
703.808	692.27
704.252	1134.47
704.696	1552.17
705.14	1742.18
705.584	2213.78
706.027	1118.27
706.471	546.37
706.915	419.57
707.359	370.38
707.803	334.98
708.246	324.98
708.69	326.87
709.134	326.47
709.577	327.78
710.021	326.77
710.465	311.98
710.908	307.27
711.352	307.08
711.795	328.07
712.239	365.38
712.682	412.57
713.126	429.17
713.569	471.97
714.012	372.17
714.456	321.07
714.899	306.47
715.342	290.27
715.786	266.17
716.229	267.68
716.672	265.77
717.115	262.97
717.558	261.18
718.002	259.57
718.445	279.38
718.888	297.77
719.331	305.68
719.774	326.27
720.217	321.17
720.66	299.98
721.103	277.48
721.546	261.77
721.989	260.98
722.432	245.47
722.874	249.17
723.317	237.88
723.76	240.58
724.203	273.67
724.645	341.58
725.088	479.67
725.531	597.07
725.974	664.37
726.416	568.67
726.859	315.68
727.301	256.47
727.744	251.27
728.187	245.77
728.629	248.48
729.071	251.88
729.514	268.38
729.956	284.98
730.399	291.97
730.841	302.98
731.283	284.18
731.726	282.98
732.168	278.27
732.61	281.87
733.053	307.38
733.495	336.07
733.937	367.27
734.379	422.87
734.821	467.38
735.263	589.18
735.705	919.38
736.148	1745.28
736.59	2768.77
737.032	3159.88
737.474	2585.27
737.916	863.08
738.357	464.08
738.799	343.88
739.241	316.27
739.683	300.37
740.125	311.38
740.567	316.17
741.008	332.48
741.45	331.78
741.892	333.88
742.334	370.48
742.775	383.37
743.217	367.37
743.658	285.48
744.1	271.27
744.542	280.47
744.983	336.47
745.425	360.87
745.866	363.27
746.307	293.17
746.749	297.97
747.19	351.38
747.632	492.77
748.073	989.88
748.514	2050.98
748.956	3019.08
749.397	3823.17
749.838	3147.57
750.279	3065.88
750.72	1572.48
751.162	582.58
751.603	341.68
752.044	264.37
752.485	227.38
752.926	217.68
753.367	212.67
753.808	209.57
754.249	202.18
754.69	192.08
755.131	197.08
755.572	197.07
756.013	191.38
756.453	196.17
756.894	201.08
757.335	203.38
757.776	209.57
758.216	208.37
758.657	208.27
759.098	216.47
759.538	246.67
759.979	289.57
760.42	409.78
760.86	785.77
761.301	2053.28
761.741	4851.57
762.182	6670.88
762.622	4746.68
763.063	1403.58
763.503	569.68
