Data from 20171114-ORNL-Ar_H_NY_Subt18_08-04-09-160.txt Node
Date: Tue Nov 14 08:04:09 EST 2017
User: Ender
Spectrometer: HR+D1039
Trigger mode: 0
Integration Time (sec): 2.730000E-2
Scans to average: 10
Electric dark correction enabled: true
Nonlinearity correction enabled: false
Boxcar width: 0
XAxis mode: Wavelengths
Number of Pixels in Spectrum: 2048
>>>>>Begin Spectral Data<<<<<
187.836	-1.05
188.309	-1.05
188.782	-1.05
189.255	3.15
189.728	-0.35
190.201	8.25
190.674	1.25
191.147	5.25
191.619	-9.35
192.092	2.85
192.565	0.85
193.038	1.55
193.511	-6.15
193.984	2.95
194.456	0.15
194.929	-2.45
195.402	-2.25
195.874	-4.65
196.347	0.95
196.82	-8.75
197.292	2.05
197.765	-4.65
198.237	-3.25
198.71	2.75
199.182	-1.65
199.655	6.85
200.127	2.35
200.6	-3.35
201.072	-2.75
201.544	0.35
202.017	-1.85
202.489	5.35
202.961	-2.95
203.433	0.25
203.906	-3.85
204.378	-7.95
204.85	0.05
205.322	-14.15
205.794	-2.15
206.266	-4.15
206.739	-4.15
207.211	3.25
207.683	-7.85
208.155	-1.25
208.627	-1.85
209.099	-3.25
209.57	-6.35
210.042	-0.85
210.514	0.05
210.986	-0.25
211.458	-7.55
211.93	-4.75
212.402	0.95
212.873	-12.15
213.345	-11.05
213.817	-8.45
214.288	-5.35
214.76	-9.95
215.232	0.25
215.703	-4.65
216.175	-4.85
216.646	-1.25
217.118	-3.95
217.589	-9.05
218.061	-1.95
218.532	-7.55
219.004	-3.65
219.475	-4.25
219.946	-3.45
220.418	-2.65
220.889	5.85
221.36	-0.05
221.832	-7.05
222.303	-10.75
222.774	3.05
223.245	-8.35
223.717	-4.35
224.188	-6.05
224.659	-2.05
225.13	-5.85
225.601	1.35
226.072	0.45
226.543	-1.65
227.014	-1.55
227.485	-7.75
227.956	-5.25
228.427	-1.65
228.898	1.85
229.369	2.15
229.839	-2.95
230.31	4.65
230.781	4.45
231.252	2.75
231.722	-9.05
232.193	-2.45
232.664	2.05
233.135	-0.55
233.605	1.45
234.076	-10.35
234.546	4.85
235.017	1.55
235.487	0.45
235.958	-0.15
236.428	-6.15
236.899	4.65
237.369	7.85
237.84	-9.05
238.31	7.45
238.78	6.15
239.251	-1.15
239.721	-2.25
240.191	-0.05
240.662	2.45
241.132	0.15
241.602	-1.85
242.072	2.75
242.542	4.15
243.013	-5.85
243.483	4.05
243.953	5.05
244.423	-3.75
244.893	-1.65
245.363	0.25
245.833	1.25
246.303	-6.15
246.773	10.85
247.243	-0.15
247.712	-0.55
248.182	2.15
248.652	4.05
249.122	-0.45
249.592	2.65
250.061	21.75
250.531	31.55
251.001	12.95
251.471	16.25
251.94	17.75
252.41	4.65
252.879	2.35
253.349	9.45
253.818	0.05
254.288	5.65
254.757	3.05
255.227	5.75
255.696	6.95
256.166	6.05
256.635	5.55
257.105	7.65
257.574	6.75
258.043	2.35
258.513	12.85
258.982	9.05
259.451	1.55
259.92	10.15
260.389	8.85
260.859	9.65
261.328	15.25
261.797	22.75
262.266	8.05
262.735	9.65
263.204	8.95
263.673	-6.25
264.142	5.45
264.611	-7.15
265.08	3.25
265.549	-2.55
266.018	1.75
266.487	-2.85
266.955	-2.75
267.424	-7.65
267.893	1.45
268.362	-2.15
268.83	5.95
269.299	9.05
269.768	6.85
270.236	5.25
270.705	7.85
271.174	8.85
271.642	3.25
272.111	2.25
272.579	14.35
273.048	15.25
273.516	20.75
273.985	20.55
274.453	19.85
274.922	20.45
275.39	15.45
275.858	-3.15
276.327	10.45
276.795	12.65
277.263	3.25
277.731	19.85
278.2	42.95
278.668	45.25
279.136	37.35
279.604	18.25
280.072	10.25
280.54	11.25
281.008	7.65
281.477	7.35
281.945	9.25
282.413	13.25
282.881	11.05
283.348	5.15
283.816	8.35
284.284	7.15
284.752	19.85
285.22	9.15
285.688	11.55
286.156	15.55
286.623	32.15
287.091	37.35
287.559	22.25
288.026	15.55
288.494	10.15
288.962	-4.25
289.429	8.85
289.897	8.75
290.364	9.75
290.832	15.65
291.3	11.65
291.767	16.15
292.234	13.65
292.702	7.55
293.169	15.05
293.637	19.65
294.104	15.85
294.571	2.35
295.039	12.15
295.506	10.85
295.973	16.35
296.44	10.25
296.908	9.45
297.375	11.85
297.842	13.65
298.309	10.95
298.776	4.75
299.243	14.35
299.71	3.55
300.177	13.35
300.644	16.55
301.111	14.65
301.578	14.35
302.045	14.45
302.512	14.45
302.979	16.65
303.446	15.85
303.913	11.35
304.379	13.75
304.846	20.35
305.313	17.95
305.78	13.75
306.246	23.25
306.713	22.25
307.18	24.95
307.646	23.95
308.113	20.85
308.579	18.85
309.046	18.95
309.512	23.05
309.979	14.25
310.445	22.85
310.912	24.45
311.378	22.35
311.845	15.75
312.311	20.95
312.777	26.55
313.244	28.05
313.71	35.05
314.176	25.95
314.642	21.75
315.109	22.85
315.575	23.85
316.041	30.35
316.507	21.95
316.973	31.25
317.439	24.25
317.905	30.65
318.371	29.15
318.837	32.35
319.303	25.65
319.769	25.55
320.235	23.45
320.701	22.05
321.167	33.25
321.633	26.75
322.099	30.55
322.564	34.25
323.03	31.05
323.496	30.15
323.962	31.25
324.427	28.15
324.893	36.75
325.359	30.25
325.824	28.05
326.29	30.45
326.755	33.85
327.221	31.85
327.686	32.75
328.152	36.35
328.617	32.65
329.083	37.95
329.548	40.45
330.014	37.05
330.479	32.55
330.944	35.65
331.41	31.45
331.875	41.35
332.34	41.15
332.805	39.45
333.271	39.85
333.736	29.55
334.201	40.75
334.666	42.55
335.131	49.15
335.596	41.15
336.061	40.05
336.526	29.85
336.991	42.65
337.456	47.25
337.921	34.85
338.386	37.05
338.851	42.95
339.316	41.45
339.781	40.15
340.246	46.35
340.711	35.45
341.175	41.35
341.64	43.25
342.105	49.75
342.569	37.95
343.034	50.15
343.499	46.25
343.963	42.95
344.428	56.85
344.893	47.75
345.357	47.55
345.822	46.95
346.286	55.35
346.751	55.75
347.215	53.85
347.679	53.75
348.144	74.85
348.608	67.85
349.073	56.15
349.537	61.15
350.001	61.65
350.465	76.15
350.93	64.95
351.394	63.45
351.858	53.95
352.322	73.55
352.786	66.15
353.25	75.55
353.715	88.95
354.179	77.35
354.643	94.55
355.107	98.05
355.571	88.45
356.035	81.75
356.498	94.05
356.962	94.85
357.426	101.25
357.89	93.95
358.354	78.65
358.818	63.65
359.281	69.55
359.745	69.95
360.209	62.25
360.673	58.75
361.136	72.55
361.6	78.35
362.064	70.35
362.527	73.55
362.991	74.35
363.454	67.05
363.918	66.25
364.381	65.35
364.845	71.15
365.308	78.35
365.772	74.05
366.235	66.05
366.698	72.95
367.162	73.55
367.625	75.15
368.088	77.85
368.552	80.75
369.015	71.65
369.478	80.35
369.941	86.75
370.404	82.55
370.867	86.05
371.331	92.55
371.794	93.05
372.257	90.15
372.72	100.05
373.183	96.15
373.646	87.45
374.109	87.95
374.572	89.35
375.035	85.25
375.497	94.45
375.96	86.85
376.423	89.65
376.886	90.75
377.349	93.85
377.811	85.85
378.274	99.15
378.737	90.85
379.199	95.95
379.662	96.25
380.125	102.55
380.587	100.55
381.05	107.65
381.512	112.25
381.975	117.05
382.437	107.35
382.9	106.35
383.362	109.95
383.825	117.35
384.287	124.05
384.75	124.25
385.212	124.05
385.674	118.25
386.136	114.95
386.599	107.75
387.061	114.85
387.523	109.85
387.985	118.75
388.447	129.45
388.91	127.45
389.372	135.05
389.834	137.15
390.296	126.95
390.758	130.95
391.22	141.35
391.682	173.45
392.144	250.25
392.606	204.75
393.068	138.35
393.529	150.45
393.991	139.05
394.453	129.95
394.915	137.05
395.377	165.05
395.838	187.65
396.3	140.55
396.762	116.95
397.224	112.15
397.685	108.75
398.147	118.05
398.608	107.85
399.07	106.55
399.531	113.35
399.993	126.15
400.454	134.35
400.916	124.55
401.377	127.95
401.839	135.45
402.3	131.35
402.762	152.15
403.223	153.05
403.684	150.05
404.145	132.45
404.607	140.55
405.068	147.55
405.529	147.25
405.99	146.55
406.451	150.95
406.913	149.55
407.374	144.45
407.835	139.85
408.296	150.65
408.757	147.25
409.218	156.25
409.679	157.55
410.14	158.55
410.601	161.55
411.062	160.35
411.522	165.45
411.983	165.15
412.444	149.45
412.905	157.65
413.366	159.35
413.826	171.75
414.287	193.15
414.748	234.25
415.208	218.05
415.669	181.95
416.13	183.85
416.59	177.15
417.051	191.35
417.511	193.65
417.972	206.15
418.432	214.35
418.893	259.85
419.353	226.55
419.814	172.35
420.274	160.65
420.734	150.15
421.195	176.05
421.655	174.85
422.115	177.25
422.576	162.75
423.036	172.95
423.496	178.35
423.956	189.65
424.416	199.35
424.876	234.35
425.336	225.35
425.797	228.55
426.257	227.15
426.717	211.65
427.177	208.25
427.637	197.05
428.097	213.85
428.556	212.25
429.016	241.75
429.476	228.55
429.936	235.55
430.396	239.95
430.856	251.75
431.315	274.05
431.775	302.75
432.235	326.45
432.694	301.85
433.154	313.75
433.614	324.95
434.073	289.25
434.533	245.95
434.993	230.05
435.452	243.65
435.912	249.65
436.371	247.45
436.83	240.05
437.29	236.15
437.749	213.35
438.209	211.05
438.668	221.35
439.127	240.55
439.587	226.05
440.046	213.45
440.505	223.55
440.964	232.85
441.424	261.85
441.883	257.85
442.342	217.85
442.801	198.45
443.26	197.15
443.719	195.55
444.178	195.25
444.637	185.35
445.096	181.35
445.555	190.25
446.014	198.85
446.473	200.65
446.932	200.45
447.391	203.45
447.849	196.85
448.308	185.65
448.767	189.65
449.226	205.85
449.685	207.75
450.143	211.35
450.602	206.05
451.061	198.35
451.519	205.35
451.978	203.45
452.436	201.95
452.895	207.35
453.353	224.85
453.812	218.05
454.27	217.85
454.729	209.85
455.187	211.65
455.646	213.75
456.104	215.65
456.562	219.55
457.021	227.15
457.479	224.75
457.937	231.65
458.395	229.65
458.854	214.15
459.312	227.15
459.77	236.65
460.228	222.65
460.686	205.45
461.144	221.25
461.602	221.05
462.06	212.15
462.518	217.95
462.976	226.95
463.434	222.35
463.892	228.85
464.35	242.25
464.808	248.25
465.266	228.45
465.724	247.75
466.181	244.35
466.639	233.65
467.097	254.35
467.555	263.05
468.012	266.15
468.47	265.95
468.928	277.45
469.385	292.25
469.843	299.65
470.3	297.75
470.758	306.45
471.215	321.15
471.673	339.15
472.13	342.75
472.588	356.95
473.045	324.35
473.503	331.35
473.96	349.25
474.417	345.45
474.875	381.75
475.332	398.85
475.789	388.45
476.246	408.35
476.704	424.55
477.161	432.75
477.618	458.65
478.075	484.45
478.532	525.15
478.989	582.65
479.446	677.35
479.903	657.25
480.36	693.95
480.817	765.65
481.274	850.55
481.731	939.35
482.188	1014.35
482.645	1129.75
483.102	1229.05
483.558	1338.45
484.015	1393.05
484.472	1374.65
484.929	1325.45
485.385	1296.95
485.842	1254.85
486.299	1185.05
486.755	1112.05
487.212	947.35
487.668	815.65
488.125	758.25
488.582	689.35
489.038	657.15
489.494	626.95
489.951	598.15
490.407	585.75
490.864	566.75
491.32	561.95
491.776	558.95
492.233	555.45
492.689	522.35
493.145	526.15
493.602	521.05
494.058	523.25
494.514	535.55
494.97	542.25
495.426	547.05
495.882	527.75
496.338	525.65
496.794	536.55
497.251	535.95
497.707	548.15
498.163	544.35
498.618	555.45
499.074	547.75
499.53	585.35
499.986	580.65
500.442	558.35
500.898	543.15
501.354	543.45
501.809	550.75
502.265	556.65
502.721	572.65
503.177	584.85
503.632	571.15
504.088	579.55
504.543	610.25
504.999	600.35
505.455	569.45
505.91	551.25
506.366	548.65
506.821	543.25
507.277	542.45
507.732	537.85
508.187	547.65
508.643	542.85
509.098	545.65
509.553	562.05
510.009	578.55
510.464	574.85
510.919	595.35
511.375	591.65
511.83	599.45
512.285	616.85
512.74	658.35
513.195	668.15
513.65	663.55
514.105	667.75
514.56	659.65
515.015	680.75
515.47	696.05
515.925	677.65
516.38	692.55
516.835	686.55
517.29	685.85
517.745	668.65
518.2	660.45
518.655	649.55
519.109	640.25
519.564	638.75
520.019	631.95
520.474	615.55
520.928	621.95
521.383	619.25
521.838	603.35
522.292	613.25
522.747	613.45
523.201	600.85
523.656	602.05
524.11	600.25
524.565	594.35
525.019	585.15
525.474	600.95
525.928	594.75
526.382	595.85
526.837	591.85
527.291	601.15
527.745	598.85
528.2	598.45
528.654	591.05
529.108	585.35
529.562	590.15
530.016	585.85
530.47	582.85
530.925	585.05
531.379	594.35
531.833	603.45
532.287	593.15
532.741	590.55
533.195	600.25
533.649	604.45
534.103	613.55
534.556	598.95
535.01	612.05
535.464	595.95
535.918	607.65
536.372	607.05
536.826	598.55
537.279	588.75
537.733	608.25
538.187	607.35
538.64	607.15
539.094	614.45
539.548	620.55
540.001	612.25
540.455	606.25
540.908	604.35
541.362	624.55
541.815	626.45
542.269	653.55
542.722	639.45
543.175	647.05
543.629	650.65
544.082	661.95
544.536	665.05
544.989	663.45
545.442	673.65
545.895	665.95
546.349	666.05
546.802	669.45
547.255	680.25
547.708	677.85
548.161	690.75
548.614	684.35
549.067	695.85
549.52	688.55
549.973	685.85
550.426	680.35
550.879	669.45
551.332	661.25
551.785	681.55
552.238	679.65
552.691	694.45
553.144	696.55
553.596	704.15
554.049	719.65
554.502	748.05
554.955	756.25
555.407	761.55
555.86	762.55
556.313	744.15
556.765	730.25
557.218	728.75
557.67	728.75
558.123	732.85
558.576	722.85
559.028	731.95
559.48	727.45
559.933	722.15
560.385	694.95
560.838	676.55
561.29	661.35
561.742	649.95
562.195	636.15
562.647	630.45
563.099	643.95
563.551	646.95
564.004	643.65
564.456	636.25
564.908	622.55
565.36	614.35
565.812	607.65
566.264	601.55
566.716	595.35
567.168	584.95
567.62	591.45
568.072	578.55
568.524	577.05
568.976	564.35
569.428	545.05
569.88	544.05
570.332	562.15
570.784	552.75
571.235	546.85
571.687	566.95
572.139	572.65
572.59	589.95
573.042	580.35
573.494	564.15
573.945	581.15
574.397	562.55
574.849	555.95
575.3	576.85
575.752	563.85
576.203	551.55
576.655	567.05
577.106	546.05
577.557	532.75
578.009	550.75
578.46	546.45
578.912	534.85
579.363	541.85
579.814	548.55
580.265	534.55
580.717	550.55
581.168	538.25
581.619	542.65
582.07	558.05
582.521	542.55
582.972	546.25
583.423	545.05
583.875	548.75
584.326	561.65
584.777	596.75
585.227	668.95
585.678	741.65
586.129	829.55
586.58	879.85
587.031	954.35
587.482	1107.25
587.933	1271.85
588.384	1088.05
588.834	791.05
589.285	651.75
589.736	636.05
590.186	629.65
590.637	607.35
591.088	594.25
591.538	586.65
591.989	587.25
592.439	582.25
592.89	579.85
593.34	571.55
593.791	567.95
594.241	569.95
594.692	562.95
595.142	565.45
595.593	561.15
596.043	568.85
596.493	567.75
596.943	570.75
597.394	578.25
597.844	564.85
598.294	586.45
598.744	602.55
599.195	618.25
599.645	650.05
600.095	675.45
600.545	732.15
600.995	764.45
601.445	820.85
601.895	867.65
602.345	902.65
602.795	883.15
603.245	852.75
603.695	814.15
604.145	766.25
604.594	731.15
605.044	688.45
605.494	641.85
605.944	602.45
606.393	589.35
606.843	578.35
607.293	591.85
607.743	586.45
608.192	585.15
608.642	591.55
609.091	589.05
609.541	603.65
609.99	602.25
610.44	602.05
610.889	566.45
611.339	547.25
611.788	538.35
612.238	544.85
612.687	561.55
613.136	563.25
613.586	576.85
614.035	575.75
614.484	590.45
614.933	589.85
615.383	594.85
615.832	578.55
616.281	562.05
616.73	532.45
617.179	522.95
617.628	515.45
618.077	501.55
618.526	491.65
618.975	481.95
619.424	486.95
619.873	485.05
620.322	486.35
620.771	468.25
621.22	471.75
621.669	468.35
622.118	453.75
622.567	461.95
623.015	446.75
623.464	440.55
623.913	439.35
624.361	441.35
624.81	433.15
625.259	428.55
625.707	437.95
626.156	433.25
626.604	440.35
627.053	435.25
627.501	438.55
627.95	436.95
628.398	447.25
628.847	448.15
629.295	437.15
629.744	444.95
630.192	446.45
630.64	439.95
631.089	436.35
631.537	452.75
631.985	448.15
632.433	461.75
632.881	457.55
633.33	495.05
633.778	481.05
634.226	426.55
634.674	437.65
635.122	442.95
635.57	463.25
636.018	478.65
636.466	449.45
636.914	432.25
637.362	445.75
637.81	448.85
638.258	447.25
638.705	440.55
639.153	467.75
639.601	475.35
640.049	490.65
640.497	511.15
640.944	537.05
641.392	500.85
641.84	470.65
642.287	446.65
642.735	429.15
643.182	443.75
643.63	448.85
644.078	442.55
644.525	449.95
644.973	458.25
645.42	464.75
645.867	478.65
646.315	485.75
646.762	515.25
647.21	523.95
647.657	554.25
648.104	570.95
648.551	597.45
648.999	640.35
649.446	699.95
649.893	765.25
650.34	872.75
650.787	1049.35
651.234	1299.65
651.682	1690.05
652.129	2300.65
652.576	3309.25
653.023	4881.85
653.47	6792.95
653.917	8582.25
654.363	10117.55
654.81	11445.85
655.257	10876.25
655.704	7043.75
656.151	4124.25
656.598	2643.35
657.044	1885.45
657.491	1447.05
657.938	1152.95
658.385	958.75
658.831	829.25
659.278	737.95
659.724	653.35
660.171	602.55
660.618	541.15
661.064	511.55
661.511	500.65
661.957	485.15
662.404	471.15
662.85	479.35
663.296	465.75
663.743	425.55
664.189	412.95
664.635	406.95
665.082	402.15
665.528	403.85
665.974	401.45
666.42	387.95
666.867	384.15
667.313	369.15
667.759	356.25
668.205	365.95
668.651	365.65
669.097	369.35
669.543	378.45
669.989	358.05
670.435	344.35
670.881	331.85
671.327	344.05
671.773	349.25
672.219	373.55
672.665	413.35
673.11	435.25
673.556	468.55
674.002	502.65
674.448	496.85
674.893	412.75
675.339	355.55
675.785	333.95
676.23	317.05
676.676	295.45
677.122	290.45
677.567	281.15
678.013	281.75
678.458	272.75
678.904	271.75
679.349	257.65
679.794	261.75
680.24	265.35
680.685	263.25
681.131	266.45
681.576	261.55
682.021	268.65
682.466	262.45
682.912	259.05
683.357	261.35
683.802	277.35
684.247	305.05
684.692	338.75
685.137	373.75
685.583	404.85
686.028	422.45
686.473	388.75
686.918	336.85
687.363	315.85
687.807	292.85
688.252	276.15
688.697	276.95
689.142	256.15
689.587	250.05
690.032	242.45
690.477	249.25
690.921	257.35
691.366	278.35
691.811	300.65
692.255	323.05
692.7	345.45
693.145	369.35
693.589	501.75
694.034	823.15
694.478	1141.25
694.923	1317.85
695.367	1780.75
695.812	920.25
696.256	378.15
696.701	274.55
697.145	259.75
697.59	245.65
698.034	250.15
698.478	243.55
698.922	234.45
699.367	248.15
699.811	253.15
700.255	262.75
700.699	283.85
701.143	316.15
701.588	360.45
702.032	382.65
702.476	390.35
702.92	369.75
703.364	359.15
703.808	454.75
704.252	745.35
704.696	1079.65
705.14	1276.75
705.584	1653.95
706.027	816.85
706.471	406.25
706.915	296.25
707.359	260.65
707.803	241.15
708.246	226.45
708.69	234.35
709.134	241.05
709.577	231.95
710.021	236.85
710.465	228.85
710.908	225.75
711.352	220.05
711.795	228.15
712.239	252.25
712.682	274.35
713.126	310.85
713.569	357.45
714.012	282.15
714.456	242.15
714.899	221.15
715.342	204.55
715.786	190.35
716.229	193.45
716.672	191.95
717.115	183.85
717.558	190.45
718.002	187.35
718.445	194.75
718.888	212.55
719.331	218.75
719.774	229.55
720.217	230.65
720.66	208.45
721.103	202.05
721.546	188.65
721.989	186.95
722.432	166.25
722.874	186.95
723.317	171.35
723.76	174.75
724.203	196.95
724.645	232.45
725.088	325.25
725.531	419.75
725.974	490.45
726.416	419.65
726.859	225.65
727.301	173.95
727.744	179.75
728.187	174.25
728.629	176.65
729.071	179.35
729.514	190.45
729.956	201.15
730.399	209.95
730.841	216.25
731.283	211.85
731.726	202.35
732.168	193.05
732.61	199.25
733.053	209.15
733.495	230.55
733.937	256.75
734.379	296.85
734.821	319.75
735.263	395.05
735.705	599.35
736.148	1141.95
736.59	1900.65
737.032	2378.55
737.474	1934.75
737.916	611.55
738.357	319.95
738.799	242.95
739.241	223.95
739.683	216.15
740.125	213.55
740.567	220.15
741.008	239.55
741.45	238.85
741.892	238.95
742.334	257.15
742.775	278.05
743.217	264.95
743.658	196.75
744.1	192.65
744.542	197.85
744.983	240.55
745.425	262.75
745.866	263.65
746.307	215.65
746.749	210.55
747.19	234.25
747.632	323.85
748.073	616.25
748.514	1342.85
748.956	2152.65
749.397	2679.75
749.838	2237.65
750.279	2324.05
750.72	1161.95
751.162	412.95
751.603	241.75
752.044	194.95
752.485	157.25
752.926	162.45
753.367	140.05
753.808	143.95
754.249	139.75
754.69	141.55
755.131	136.45
755.572	136.95
756.013	127.15
756.453	129.25
756.894	136.15
757.335	134.85
757.776	149.15
758.216	143.45
758.657	150.05
759.098	152.95
759.538	169.25
759.979	201.95
760.42	266.95
760.86	506.85
761.301	1302.05
761.741	3284.45
762.182	5116.15
762.622	3603.25
763.063	1017.55
763.503	407.45
763.943	257.35
