Data from 20171114-ORNL-Ar_H_NY_Subt18_08-06-20-461.txt Node
Date: Tue Nov 14 08:06:20 EST 2017
User: Ender
Spectrometer: HR+D1039
Trigger mode: 0
Integration Time (sec): 2.730000E-2
Scans to average: 10
Electric dark correction enabled: true
Nonlinearity correction enabled: false
Boxcar width: 0
XAxis mode: Wavelengths
Number of Pixels in Spectrum: 2048
>>>>>Begin Spectral Data<<<<<
187.836	-3.9
188.309	-3.9
188.782	-3.9
189.255	-2.2
189.728	-1.5
190.201	4.9
190.674	-0.9
191.147	4.4
191.619	-10.6
192.092	4
192.565	4.5
193.038	-0
193.511	1.4
193.984	1.5
194.456	3.1
194.929	4.8
195.402	-8.2
195.874	-1.3
196.347	-3.7
196.82	-10.8
197.292	8.6
197.765	-0.1
198.237	-6
198.71	-1.5
199.182	-9.1
199.655	-2.5
200.127	3.1
200.6	-1.5
201.072	-5.5
201.544	-10.8
202.017	-3.9
202.489	2.6
202.961	-4.4
203.433	-1.6
203.906	-7.3
204.378	-4.1
204.85	-4.1
205.322	-7.2
205.794	-1.6
206.266	-9
206.739	-10.5
207.211	2.7
207.683	-5.8
208.155	-8.2
208.627	-11.4
209.099	-4.2
209.57	-10.3
210.042	-7.4
210.514	-6.2
210.986	-5.8
211.458	-8.1
211.93	-4.3
212.402	-4.2
212.873	-11
213.345	-7.8
213.817	-14.9
214.288	-4.5
214.76	-14.8
215.232	-0
215.703	-3.2
216.175	-4.7
216.646	-6.3
217.118	-11.2
217.589	-4.8
218.061	-0.6
218.532	-1.1
219.004	-6.2
219.475	-1.5
219.946	-5.8
220.418	-2.5
220.889	-0.4
221.36	-1.4
221.832	-7.3
222.303	-10.2
222.774	-0.1
223.245	-12
223.717	-6.7
224.188	-1.5
224.659	-10.7
225.13	-9.6
225.601	-8.8
226.072	-1.7
226.543	-0.3
227.014	0.3
227.485	-10.5
227.956	-6.5
228.427	-5.4
228.898	1.8
229.369	-0.8
229.839	0.7
230.31	-6.5
230.781	3
231.252	-9.6
231.722	-3.8
232.193	-1.6
232.664	-5.6
233.135	-2.3
233.605	-5
234.076	-3.5
234.546	5.3
235.017	2.4
235.487	-4.4
235.958	-5.8
236.428	-1.1
236.899	-0
237.369	6.2
237.84	-2
238.31	6.9
238.78	1.9
239.251	-1
239.721	-0.4
240.191	-3.5
240.662	-2.1
241.132	-4.4
241.602	-3.2
242.072	2.2
242.542	10.3
243.013	-2.3
243.483	4.7
243.953	4.1
244.423	-6.1
244.893	-4.5
245.363	-0.8
245.833	1.4
246.303	-1
246.773	6
247.243	10.5
247.712	-1
248.182	9.1
248.652	-7.3
249.122	2
249.592	5.1
250.061	19.8
250.531	24.9
251.001	15.7
251.471	22
251.94	17.8
252.41	4.5
252.879	-4.1
253.349	10.2
253.818	6.3
254.288	5.8
254.757	1.8
255.227	3.2
255.696	2
256.166	4.3
256.635	1.8
257.105	5.4
257.574	8
258.043	0.5
258.513	8.2
258.982	15.2
259.451	7.1
259.92	10.7
260.389	3.3
260.859	12.9
261.328	7.2
261.797	16.5
262.266	4
262.735	12.7
263.204	7.2
263.673	-1
264.142	3.3
264.611	-1.8
265.08	0.2
265.549	0.1
266.018	1.9
266.487	-1.4
266.955	-3.8
267.424	-1.2
267.893	5
268.362	-1
268.83	-1.6
269.299	11
269.768	7.5
270.236	9.9
270.705	0.8
271.174	10.5
271.642	6.1
272.111	8.3
272.579	18.5
273.048	22.5
273.516	27
273.985	28.4
274.453	22.7
274.922	20.7
275.39	14.6
275.858	-2
276.327	9.5
276.795	16.2
277.263	9.3
277.731	31.7
278.2	54.9
278.668	54.6
279.136	45.5
279.604	17.3
280.072	11.9
280.54	8.8
281.008	4.1
281.477	15.6
281.945	13.3
282.413	14.1
282.881	10
283.348	7.4
283.816	13.4
284.284	12.5
284.752	18.2
285.22	13.4
285.688	12.3
286.156	19.5
286.623	44.6
287.091	50.9
287.559	28.1
288.026	20.7
288.494	14.4
288.962	7.9
289.429	5.8
289.897	23.5
290.364	11
290.832	18.5
291.3	10.5
291.767	20.9
292.234	19.6
292.702	13.2
293.169	14.7
293.637	27.6
294.104	22.4
294.571	8
295.039	13.9
295.506	9.6
295.973	18.8
296.44	10.7
296.908	16.7
297.375	13.4
297.842	12.4
298.309	17.8
298.776	9.7
299.243	20
299.71	11.2
300.177	20.7
300.644	15.3
301.111	18.8
301.578	18
302.045	14.3
302.512	25.5
302.979	24
303.446	26.4
303.913	19
304.379	16.9
304.846	25.6
305.313	22.4
305.78	24.7
306.246	28.3
306.713	26.5
307.18	21.3
307.646	26.6
308.113	28.1
308.579	26.4
309.046	22.5
309.512	26.7
309.979	21.8
310.445	21.8
310.912	31
311.378	34.2
311.845	27.8
312.311	31.5
312.777	28.9
313.244	28.8
313.71	33.3
314.176	28.3
314.642	33.5
315.109	34.8
315.575	38.3
316.041	44
316.507	32.6
316.973	40.4
317.439	32.3
317.905	35.3
318.371	36.1
318.837	35.9
319.303	38.4
319.769	31.8
320.235	32
320.701	34.6
321.167	34.2
321.633	32.2
322.099	35.2
322.564	42.6
323.03	40.5
323.496	40.4
323.962	38.8
324.427	37.9
324.893	38.3
325.359	34.3
325.824	33.2
326.29	34.4
326.755	36.5
327.221	36.4
327.686	42.7
328.152	52.5
328.617	40.3
329.083	44.8
329.548	47.5
330.014	53
330.479	38.1
330.944	39.4
331.41	38.3
331.875	39.3
332.34	44.7
332.805	42.6
333.271	47.9
333.736	41
334.201	52.8
334.666	53
335.131	58.9
335.596	55.6
336.061	48.6
336.526	39.2
336.991	47
337.456	51.6
337.921	45.3
338.386	45.5
338.851	47.3
339.316	44.7
339.781	46.6
340.246	51.8
340.711	49.1
341.175	49.9
341.64	39.7
342.105	55.1
342.569	54.5
343.034	57.8
343.499	55.8
343.963	49.5
344.428	63.2
344.893	62.2
345.357	56
345.822	63.6
346.286	67.8
346.751	70.2
347.215	70.5
347.679	75.6
348.144	92.2
348.608	79.2
349.073	71.4
349.537	72.4
350.001	73.6
350.465	87.8
350.93	84.6
351.394	77.8
351.858	78.2
352.322	89.2
352.786	80.6
353.25	96.1
353.715	114
354.179	99
354.643	121.3
355.107	125.5
355.571	104.7
356.035	101.3
356.498	121.7
356.962	124.7
357.426	128.1
357.89	113.4
358.354	91.9
358.818	92.3
359.281	77.9
359.745	80
360.209	79.5
360.673	83.6
361.136	83.5
361.6	86.2
362.064	88.5
362.527	85.9
362.991	93.4
363.454	79
363.918	83.4
364.381	79.2
364.845	79.1
365.308	82.6
365.772	82.8
366.235	81.9
366.698	87.3
367.162	89.6
367.625	81.2
368.088	85.2
368.552	90.5
369.015	89.8
369.478	100.7
369.941	101.5
370.404	98.5
370.867	102.1
371.331	106.1
371.794	117
372.257	112.5
372.72	116.8
373.183	107.4
373.646	103.5
374.109	107.6
374.572	111.7
375.035	101.1
375.497	106.3
375.96	105.2
376.423	110.3
376.886	115.6
377.349	106.6
377.811	97.4
378.274	99.4
378.737	112.1
379.199	111.1
379.662	112.6
380.125	115.7
380.587	115.7
381.05	118.7
381.512	123.5
381.975	130.4
382.437	129.6
382.9	130.9
383.362	132
383.825	135.8
384.287	147.2
384.75	138.5
385.212	143.6
385.674	144.3
386.136	140.8
386.599	124.9
387.061	137.5
387.523	136.5
387.985	138
388.447	142.8
388.91	142.2
389.372	159.7
389.834	153.7
390.296	141.8
390.758	156.6
391.22	165.5
391.682	213.5
392.144	300.8
392.606	234.1
393.068	169.7
393.529	166.4
393.991	158
394.453	155.3
394.915	155.3
395.377	194.2
395.838	216.3
396.3	162
396.762	146.6
397.224	137
397.685	129.6
398.147	129.5
398.608	127.8
399.07	133.1
399.531	138.2
399.993	147.8
400.454	155.2
400.916	138.4
401.377	140.7
401.839	143.1
402.3	156.9
402.762	166.3
403.223	174.4
403.684	177.9
404.145	164.4
404.607	163
405.068	160.5
405.529	172
405.99	195.3
406.451	183.1
406.913	178.8
407.374	168.5
407.835	167.3
408.296	170
408.757	171.6
409.218	181.6
409.679	181.2
410.14	169.2
410.601	177.6
411.062	185.7
411.522	195.7
411.983	191.4
412.444	181.6
412.905	189.9
413.366	183.5
413.826	197.6
414.287	221.9
414.748	266.9
415.208	249.3
415.669	221.2
416.13	211.4
416.59	205.9
417.051	214.8
417.511	219
417.972	231.2
418.432	244.1
418.893	287.5
419.353	252.1
419.814	201.5
420.274	182.7
420.734	177.6
421.195	198.3
421.655	198.1
422.115	201.1
422.576	196
423.036	199.4
423.496	208
423.956	222.7
424.416	236.2
424.876	270.7
425.336	265.1
425.797	258.9
426.257	263.2
426.717	246.5
427.177	242
427.637	222.3
428.097	240.8
428.556	246.8
429.016	270.9
429.476	272.8
429.936	279
430.396	282.6
430.856	290.6
431.315	326.4
431.775	353.4
432.235	390.2
432.694	365.3
433.154	369
433.614	405
434.073	341.7
434.533	290.7
434.993	272.8
435.452	290.7
435.912	304.3
436.371	290.6
436.83	287.4
437.29	272.3
437.749	253.3
438.209	251.6
438.668	275.7
439.127	293.6
439.587	276.9
440.046	250.7
440.505	267.9
440.964	286.7
441.424	331.6
441.883	326.1
442.342	264.8
442.801	222.7
443.26	228.1
443.719	219.8
444.178	225.9
444.637	219.5
445.096	219
445.555	227.1
446.014	220.6
446.473	223.4
446.932	238
447.391	233.5
447.849	235.2
448.308	222.6
448.767	228.7
449.226	239.4
449.685	243.3
450.143	252.6
450.602	239.7
451.061	231.7
451.519	244.9
451.978	233
452.436	243.9
452.895	243.7
453.353	262
453.812	246.3
454.27	248.3
454.729	244.7
455.187	245.8
455.646	248.2
456.104	254.9
456.562	261.9
457.021	276.6
457.479	261.8
457.937	286.5
458.395	268.8
458.854	250.7
459.312	258.2
459.77	279.4
460.228	258
460.686	243.2
461.144	250.8
461.602	248.7
462.06	243.6
462.518	260.8
462.976	257.1
463.434	266.6
463.892	269.5
464.35	277.5
464.808	293.9
465.266	264.8
465.724	268.6
466.181	281
466.639	274.1
467.097	294.2
467.555	303.1
468.012	305.6
468.47	310.9
468.928	332.5
469.385	355.7
469.843	357.5
470.3	357
470.758	376.5
471.215	392.5
471.673	420
472.13	418.5
472.588	429.3
473.045	382.6
473.503	381
473.96	394.7
474.417	412.5
474.875	447
475.332	488
475.789	477
476.246	473.9
476.704	498.4
477.161	520.7
477.618	529.3
478.075	578.2
478.532	628.4
478.989	702.4
479.446	825.2
479.903	795.5
480.36	827.8
480.817	890.1
481.274	991
481.731	1099.2
482.188	1185.9
482.645	1324.1
483.102	1432.5
483.558	1583.7
484.015	1634.9
484.472	1611.5
484.929	1552.1
485.385	1502.4
485.842	1452.4
486.299	1398.1
486.755	1322.1
487.212	1124.9
487.668	953.2
488.125	869.6
488.582	794.1
489.038	764.7
489.494	723.1
489.951	702.8
490.407	687.2
490.864	663.2
491.32	657.3
491.776	663.9
492.233	659
492.689	624.1
493.145	619.3
493.602	615
494.058	632.2
494.514	631.6
494.97	661.7
495.426	672.2
495.882	634.1
496.338	619.4
496.794	640.9
497.251	631.1
497.707	649.6
498.163	647
498.618	657.3
499.074	655.1
499.53	687.7
499.986	695.9
500.442	664.4
500.898	658
501.354	643.5
501.809	644.3
502.265	656.7
502.721	675
503.177	688.7
503.632	686.1
504.088	696
504.543	724.9
504.999	719.3
505.455	665.4
505.91	642.7
506.366	646
506.821	642.8
507.277	648
507.732	636
508.187	633.4
508.643	648.9
509.098	652.8
509.553	667
510.009	679.2
510.464	682.1
510.919	701.3
511.375	709.6
511.83	728.6
512.285	746.2
512.74	779.4
513.195	801.8
513.65	786.7
514.105	788.8
514.56	788.7
515.015	798.4
515.47	828.7
515.925	806.5
516.38	801.6
516.835	813
517.29	802.1
517.745	789.2
518.2	777.4
518.655	755.8
519.109	756
519.564	759
520.019	746.2
520.474	744
520.928	733
521.383	729.8
521.838	732.7
522.292	716.7
522.747	720.8
523.201	709.3
523.656	709.1
524.11	706.2
524.565	720
525.019	712.6
525.474	725.7
525.928	711.8
526.382	707.5
526.837	722.6
527.291	717.6
527.745	716.7
528.2	715.7
528.654	708.7
529.108	706.5
529.562	699.9
530.016	709.1
530.47	713.9
530.925	712.6
531.379	711.1
531.833	731.9
532.287	719.1
532.741	719.3
533.195	723.9
533.649	727.9
534.103	734.5
534.556	727.5
535.01	719.7
535.464	731.4
535.918	730.5
536.372	724.8
536.826	734.3
537.279	722.6
537.733	725.3
538.187	727.8
538.64	731.1
539.094	739.5
539.548	748.3
540.001	734.5
540.455	734.6
540.908	752.5
541.362	755.9
541.815	759.4
542.269	774.7
542.722	785.3
543.175	794.7
543.629	784.5
544.082	803.8
544.536	801.6
544.989	807.9
545.442	814.4
545.895	811
546.349	796.3
546.802	812.5
547.255	812.8
547.708	820.4
548.161	834.9
548.614	843.1
549.067	847.6
549.52	841.5
549.973	831.9
550.426	825.2
550.879	808.3
551.332	814.4
551.785	829.2
552.238	831
552.691	836
553.144	855.7
553.596	860.5
554.049	898.5
554.502	919.2
554.955	932.3
555.407	931
555.86	927.6
556.313	908.1
556.765	903.3
557.218	903.7
557.67	904.4
558.123	898.5
558.576	889.3
559.028	902.1
559.48	911.5
559.933	886
560.385	852.4
560.838	834.1
561.29	792.2
561.742	785.6
562.195	784.1
562.647	784.5
563.099	792.2
563.551	784.1
564.004	797.7
564.456	790.4
564.908	775.9
565.36	761.4
565.812	748.8
566.264	736.7
566.716	736.9
567.168	735.7
567.62	737.6
568.072	725.6
568.524	717.3
568.976	708.9
569.428	695.1
569.88	691.1
570.332	695.1
570.784	694.1
571.235	699.9
571.687	713.3
572.139	718.5
572.59	721.9
573.042	724.7
573.494	727.5
573.945	718.4
574.397	696.4
574.849	698.4
575.3	708.4
575.752	687.9
576.203	687.5
576.655	693.8
577.106	686.5
577.557	683.3
578.009	685.5
578.46	683.3
578.912	669.7
579.363	672.9
579.814	679
580.265	677.6
580.717	682.8
581.168	682.8
581.619	691.8
582.07	697.5
582.521	689.2
582.972	689.6
583.423	694.1
583.875	688.1
584.326	714.7
584.777	758.8
585.227	833.3
585.678	915.1
586.129	1008.8
586.58	1075.5
587.031	1158.6
587.482	1314.1
587.933	1488
588.384	1300.9
588.834	980.7
589.285	816.2
589.736	799.5
590.186	790.8
590.637	782.5
591.088	762.3
591.538	753.2
591.989	746.4
592.439	742.2
592.89	726.1
593.34	728.5
593.791	720.6
594.241	710.9
594.692	713.5
595.142	712.2
595.593	715.2
596.043	713.9
596.493	717.4
596.943	730.2
597.394	737.7
597.844	720
598.294	744.5
598.744	766
599.195	790
599.645	832.6
600.095	873.1
600.545	931.7
600.995	979.5
601.445	1048.4
601.895	1108.2
602.345	1159.3
602.795	1127.2
603.245	1083.7
603.695	1029.7
604.145	970.8
604.594	931.1
605.044	870
605.494	812.9
605.944	769.9
606.393	762.7
606.843	741.5
607.293	742.8
607.743	747
608.192	751.5
608.642	777.6
609.091	775.7
609.541	782.4
609.99	779.5
610.44	773.3
610.889	733.4
611.339	716.6
611.788	697
612.238	704.2
612.687	732.2
613.136	735.5
613.586	751.9
614.035	747
614.484	767.4
614.933	774.3
615.383	760.2
615.832	749.7
616.281	740.4
616.73	695.6
617.179	680.8
617.628	664.1
618.077	638.9
618.526	631
618.975	625.5
619.424	630.9
619.873	619.6
620.322	623.6
620.771	617.8
621.22	613.1
621.669	595.3
622.118	600.8
622.567	595.6
623.015	575.7
623.464	574
623.913	570.7
624.361	563.5
624.81	555.4
625.259	556.2
625.707	561.2
626.156	567.5
626.604	581.6
627.053	577.1
627.501	571
627.95	576.8
628.398	582.9
628.847	576.1
629.295	575.3
629.744	582.9
630.192	577.4
630.64	577.9
631.089	562
631.537	583.8
631.985	591.5
632.433	595.6
632.881	607.4
633.33	656
633.778	645
634.226	574.8
634.674	586.3
635.122	589.2
635.57	602.2
636.018	627.3
636.466	597.7
636.914	566.4
637.362	581
637.81	585.9
638.258	585.4
638.705	586.9
639.153	626.4
639.601	623.8
640.049	638.4
640.497	685.8
640.944	699.9
641.392	644.6
641.84	620.6
642.287	588.6
642.735	572.3
643.182	578.9
643.63	577.1
644.078	579.4
644.525	591.8
644.973	607.4
645.42	609.1
645.867	635.8
646.315	647.9
646.762	677.7
647.21	695.8
647.657	730.8
648.104	763.3
648.551	774.7
648.999	852.6
649.446	929.3
649.893	1030.2
650.34	1170.8
650.787	1402.4
651.234	1729.7
651.682	2279.7
652.129	3140.4
652.576	4484.5
653.023	6635.6
653.47	9085.4
653.917	11394.9
654.363	13108.5
654.81	14500.1
655.257	13790.3
655.704	9074.2
656.151	5375.9
656.598	3469.8
657.044	2454.3
657.491	1885.6
657.938	1508.4
658.385	1256.1
658.831	1098.9
659.278	985
659.724	863.2
660.171	793.4
660.618	734.2
661.064	690.3
661.511	672.5
661.957	660.7
662.404	656.9
662.85	659.7
663.296	639.5
663.743	571.5
664.189	542.1
664.635	543
665.082	526.8
665.528	531.1
665.974	524.3
666.42	510.4
666.867	508.5
667.313	491.2
667.759	481.8
668.205	476.3
668.651	491.9
669.097	493.7
669.543	512.8
669.989	471.4
670.435	447.2
670.881	450.9
671.327	454.7
671.773	463.3
672.219	499.5
672.665	553.5
673.11	589.7
673.556	629.2
674.002	675.1
674.448	659.3
674.893	556.5
675.339	478.1
675.785	440.5
676.23	416.3
676.676	400.5
677.122	380.9
677.567	374.2
678.013	372.5
678.458	359.6
678.904	364.9
679.349	345.4
679.794	354.2
680.24	358.3
680.685	355.8
681.131	352.3
681.576	352.8
682.021	353.2
682.466	344.9
682.912	346.6
683.357	350.5
683.802	387.7
684.247	403
684.692	443.9
685.137	498.1
685.583	538.3
686.028	564.6
686.473	513.2
686.918	444.5
687.363	410.4
687.807	391.1
688.252	363.8
688.697	358.2
689.142	342.9
689.587	329.4
690.032	329.2
690.477	338.9
690.921	357.1
691.366	384.3
691.811	405.4
692.255	432
692.7	462
693.145	496.4
693.589	686
694.034	1123.5
694.478	1534.9
694.923	1730.1
695.367	2281.3
695.812	1201.2
696.256	501.7
696.701	370.7
697.145	342.8
697.59	330.1
698.034	319.6
698.478	332.8
698.922	323.4
699.367	325
699.811	339.3
700.255	351.3
700.699	389.1
701.143	422.2
701.588	479.2
702.032	509.2
702.476	511
702.92	494.6
703.364	488.5
703.808	626.7
704.252	1032
704.696	1444.4
705.14	1669
705.584	2145.2
706.027	1069.8
706.471	525
706.915	401.3
707.359	344.9
707.803	321.4
708.246	316.7
708.69	317
709.134	313.6
709.577	313.3
710.021	317
710.465	301.7
710.908	298.2
711.352	292.3
711.795	310.3
712.239	350.7
712.682	390.1
713.126	412.6
713.569	470.4
714.012	381.1
714.456	319.2
714.899	297.1
715.342	272.2
715.786	263.3
716.229	257.2
716.672	256.3
717.115	246.1
717.558	250.7
718.002	249.8
718.445	263.5
718.888	288.3
719.331	296.9
719.774	306.4
720.217	308.7
720.66	296
721.103	262.2
721.546	259
721.989	246.2
722.432	230.3
722.874	238.8
723.317	230.2
723.76	233.9
724.203	258.9
724.645	317.8
725.088	442.4
725.531	572.4
725.974	631.8
726.416	553
726.859	309.6
727.301	248.8
727.744	236.5
728.187	231.7
728.629	238.7
729.071	238.9
729.514	266.6
729.956	272.3
730.399	284.7
730.841	293.4
731.283	271.7
731.726	267.8
732.168	259.7
732.61	272.2
733.053	284.4
733.495	319.1
733.937	355.7
734.379	400.9
734.821	430.5
735.263	542.9
735.705	829.8
736.148	1568.3
736.59	2590.8
737.032	3055.2
737.474	2474.1
737.916	804.3
738.357	428.6
738.799	322
739.241	291.8
739.683	275.8
740.125	293.2
740.567	294.3
741.008	324
741.45	313.3
741.892	305.8
742.334	342.2
742.775	356.5
743.217	346.3
743.658	266.3
744.1	251
744.542	263.8
744.983	306.7
745.425	344.6
745.866	339.9
746.307	288.8
746.749	283.9
747.19	313.9
747.632	450.8
748.073	867.7
748.514	1857.4
748.956	2853.2
749.397	3584.4
749.838	2972.2
750.279	2961.9
750.72	1495.3
751.162	539.7
751.603	320
752.044	254.6
752.485	220.4
752.926	205.3
753.367	194.4
753.808	192.5
754.249	188
754.69	191.6
755.131	182.3
755.572	175.5
756.013	173.3
756.453	182.3
756.894	182.1
757.335	186.2
757.776	193.9
758.216	196.2
758.657	194.3
759.098	203.9
759.538	220.7
759.979	263.9
760.42	373.1
760.86	691
761.301	1793
761.741	4391.7
762.182	6431.2
762.622	4523.8
763.063	1307.1
763.503	533.6
763.943	349.7
764.384	336.1
764.824	388.4
765.264	421.9
765.705	303.8
766.145	210.5
766.585	185.5
767.025	181.8
767.465	188.3
767.906	231.2
768.346	311.5
768.786	332.6
769.226	263.3
769.666	309.9
770.106	618.8
770.546	1527
770.986	2638.2
771.426	2354.7
771.866	791.3
772.306	326.7
772.745	213.5
773.185	167.2
773.625	170
774.065	168.7
774.505	195.1
774.944	307
775.384	662.2
775.824	1214.4
776.263	1180.8
776.703	502
777.142	219.9
777.582	152.2
778.021	135
778.461	135.7
778.9	138.7
779.34	130.1
779.779	115.6
780.219	111.3
780.658	108.3
781.097	106.2
781.537	112.6
781.976	100.3
782.415	103.9
782.855	108.7
783.294	102.5
783.733	102.8
784.172	102.8
784.611	108.3
785.05	106.5
785.489	111
785.928	123
786.367	118
786.806	119
787.245	127.5
787.684	136.5
788.123	145.9
788.562	137.1
789.001	123.7
789.44	118
789.879	119.6
790.317	113.6
790.756	119.9
791.195	123.1
791.634	141.1
792.072	194.6
792.511	365.9
792.95	997.8
793.388	2128.1
793.827	1926.9
794.265	674.8
794.704	275.4
795.142	181
795.581	154
796.019	137.2
796.458	120.5
796.896	119.2
797.334	126.2
797.773	152.3
798.211	218.4
798.649	441.2
799.087	1009.4
799.526	1586.1
799.964	2004
800.402	2003.3
800.84	754.9
801.278	300.6
801.716	179.9
802.154	154.4
802.592	148.3
803.03	135.4
803.468	127.6
803.906	143.7
804.344	154.1
804.782	137
805.22	130.3
805.658	133.8
806.096	145.4
806.533	159.9
806.971	174.5
