Data from 20171114-ORNL-Ar_H_NY_Subt18_08-07-37-713.txt Node
Date: Tue Nov 14 08:07:37 EST 2017
User: Ender
Spectrometer: HR+D1039
Trigger mode: 0
Integration Time (sec): 2.730000E-2
Scans to average: 10
Electric dark correction enabled: true
Nonlinearity correction enabled: false
Boxcar width: 0
XAxis mode: Wavelengths
Number of Pixels in Spectrum: 2048
>>>>>Begin Spectral Data<<<<<
187.836	-1.39
188.309	-1.39
188.782	-1.39
189.255	0.91
189.728	-0.29
190.201	10.11
190.674	-1.69
191.147	3.51
191.619	-2.79
192.092	-0.49
192.565	1.21
193.038	3.01
193.511	-6.79
193.984	-2.79
194.456	-5.09
194.929	1.51
195.402	-0.19
195.874	1.21
196.347	0.51
196.82	-6.79
197.292	11.21
197.765	-1.39
198.237	-6.49
198.71	6.21
199.182	0.81
199.655	-0.29
200.127	5.21
200.6	-2.49
201.072	-5.59
201.544	-1.79
202.017	-3.29
202.489	3.41
202.961	-4.59
203.433	0.21
203.906	-3.79
204.378	-1.79
204.85	-5.59
205.322	-10.79
205.794	-3.39
206.266	-5.99
206.739	-1.99
207.211	-2.99
207.683	-6.09
208.155	-8.09
208.627	-4.89
209.099	-2.49
209.57	-7.69
210.042	-2.99
210.514	-6.49
210.986	-2.29
211.458	-5.79
211.93	0.81
212.402	4.41
212.873	-3.09
213.345	-8.99
213.817	-15.19
214.288	-5.59
214.76	-10.49
215.232	-6.49
215.703	-6.59
216.175	1.21
216.646	-5.69
217.118	-10.09
217.589	-6.49
218.061	-0.49
218.532	-0.79
219.004	-4.69
219.475	-1.89
219.946	-2.79
220.418	-4.09
220.889	-0.59
221.36	-2.89
221.832	-6.99
222.303	-6.29
222.774	-2.29
223.245	-8.19
223.717	-7.39
224.188	-5.29
224.659	-2.49
225.13	-4.09
225.601	-1.99
226.072	0.91
226.543	1.41
227.014	-0.99
227.485	2.51
227.956	-2.59
228.427	-2.09
228.898	3.11
229.369	7.31
229.839	-7.09
230.31	-5.69
230.781	1.31
231.252	4.11
231.722	-6.79
232.193	-3.69
232.664	-2.39
233.135	1.61
233.605	4.91
234.076	-5.09
234.546	0.11
235.017	1.61
235.487	4.21
235.958	4.91
236.428	-3.49
236.899	6.01
237.369	2.31
237.84	-1.59
238.31	11.41
238.78	1.01
239.251	-1.39
239.721	5.51
240.191	-0.69
240.662	4.11
241.132	3.91
241.602	-3.39
242.072	1.31
242.542	4.51
243.013	-2.19
243.483	3.91
243.953	4.01
244.423	0.41
244.893	2.01
245.363	3.81
245.833	3.01
246.303	-4.49
246.773	5.41
247.243	2.81
247.712	4.21
248.182	10.51
248.652	5.61
249.122	0.51
249.592	9.11
250.061	20.31
250.531	24.41
251.001	15.21
251.471	17.91
251.94	17.91
252.41	7.81
252.879	-0.09
253.349	13.21
253.818	10.11
254.288	3.21
254.757	1.91
255.227	-2.09
255.696	5.71
256.166	3.31
256.635	9.11
257.105	10.91
257.574	6.71
258.043	10.31
258.513	13.61
258.982	18.11
259.451	1.41
259.92	10.91
260.389	3.11
260.859	12.21
261.328	13.11
261.797	14.21
262.266	2.41
262.735	11.71
263.204	0.81
263.673	-0.39
264.142	3.21
264.611	7.01
265.08	4.41
265.549	1.31
266.018	-0.19
266.487	-1.99
266.955	0.11
267.424	5.81
267.893	5.91
268.362	-2.99
268.83	4.21
269.299	12.81
269.768	4.51
270.236	3.61
270.705	-3.89
271.174	3.91
271.642	9.41
272.111	12.01
272.579	12.31
273.048	20.41
273.516	29.51
273.985	18.01
274.453	16.71
274.922	16.51
275.39	12.91
275.858	2.91
276.327	7.61
276.795	19.81
277.263	6.11
277.731	24.21
278.2	47.01
278.668	53.41
279.136	45.41
279.604	16.11
280.072	9.41
280.54	11.31
281.008	8.71
281.477	14.11
281.945	10.71
282.413	10.61
282.881	11.81
283.348	5.11
283.816	17.41
284.284	11.71
284.752	16.21
285.22	10.11
285.688	13.31
286.156	12.71
286.623	40.41
287.091	44.91
287.559	24.21
288.026	15.31
288.494	15.31
288.962	-1.19
289.429	12.41
289.897	21.11
290.364	8.81
290.832	9.61
291.3	11.71
291.767	17.81
292.234	18.01
292.702	11.91
293.169	13.91
293.637	23.51
294.104	24.41
294.571	6.71
295.039	13.41
295.506	9.01
295.973	11.71
296.44	11.41
296.908	18.31
297.375	18.01
297.842	19.21
298.309	6.01
298.776	11.31
299.243	18.81
299.71	8.61
300.177	17.81
300.644	18.51
301.111	13.21
301.578	18.81
302.045	12.51
302.512	21.31
302.979	16.41
303.446	20.41
303.913	18.71
304.379	17.01
304.846	22.21
305.313	19.31
305.78	20.91
306.246	25.51
306.713	29.31
307.18	23.51
307.646	18.81
308.113	23.41
308.579	19.11
309.046	19.41
309.512	21.11
309.979	14.71
310.445	24.31
310.912	25.11
311.378	24.01
311.845	27.01
312.311	25.11
312.777	25.21
313.244	28.11
313.71	32.01
314.176	24.21
314.642	30.01
315.109	27.11
315.575	30.21
316.041	34.51
316.507	26.81
316.973	34.21
317.439	34.41
317.905	28.51
318.371	30.21
318.837	34.01
319.303	29.41
319.769	27.11
320.235	28.11
320.701	34.81
321.167	36.01
321.633	31.61
322.099	31.11
322.564	35.21
323.03	36.61
323.496	30.91
323.962	40.11
324.427	32.31
324.893	42.81
325.359	34.11
325.824	37.11
326.29	30.91
326.755	35.51
327.221	38.11
327.686	35.31
328.152	37.91
328.617	34.31
329.083	39.21
329.548	47.11
330.014	43.61
330.479	33.41
330.944	39.91
331.41	41.11
331.875	38.81
332.34	34.61
332.805	35.51
333.271	37.61
333.736	37.81
334.201	41.31
334.666	47.81
335.131	47.71
335.596	44.91
336.061	42.31
336.526	34.11
336.991	38.71
337.456	45.71
337.921	42.01
338.386	38.51
338.851	43.31
339.316	38.31
339.781	38.91
340.246	44.31
340.711	36.11
341.175	45.01
341.64	42.01
342.105	46.71
342.569	44.91
343.034	52.81
343.499	48.21
343.963	39.51
344.428	62.11
344.893	58.61
345.357	59.21
345.822	53.01
346.286	56.71
346.751	59.41
347.215	59.41
347.679	65.61
348.144	79.61
348.608	71.51
349.073	57.61
349.537	70.01
350.001	64.91
350.465	72.11
350.93	67.41
351.394	75.31
351.858	66.61
352.322	73.51
352.786	75.31
353.25	86.41
353.715	92.31
354.179	87.01
354.643	101.81
355.107	109.81
355.571	92.81
356.035	91.11
356.498	95.21
356.962	106.81
357.426	119.11
357.89	99.71
358.354	77.31
358.818	72.91
359.281	74.11
359.745	74.01
360.209	69.41
360.673	73.01
361.136	74.51
361.6	75.21
362.064	71.61
362.527	78.81
362.991	80.51
363.454	74.81
363.918	65.81
364.381	69.41
364.845	76.61
365.308	87.71
365.772	81.21
366.235	78.91
366.698	68.11
367.162	82.41
367.625	79.61
368.088	78.01
368.552	81.71
369.015	77.01
369.478	87.01
369.941	88.81
370.404	84.01
370.867	97.61
371.331	96.71
371.794	104.71
372.257	100.81
372.72	109.81
373.183	98.41
373.646	97.11
374.109	93.21
374.572	102.31
375.035	101.41
375.497	103.01
375.96	97.21
376.423	90.91
376.886	100.71
377.349	96.81
377.811	91.71
378.274	91.71
378.737	98.31
379.199	98.91
379.662	98.41
380.125	108.81
380.587	108.21
381.05	112.71
381.512	119.11
381.975	127.61
382.437	121.81
382.9	119.91
383.362	114.81
383.825	137.31
384.287	136.01
384.75	130.61
385.212	125.61
385.674	132.41
386.136	124.41
386.599	114.31
387.061	125.81
387.523	122.31
387.985	123.01
388.447	128.81
388.91	134.21
389.372	140.11
389.834	146.91
390.296	139.21
390.758	146.21
391.22	161.71
391.682	194.11
392.144	278.31
392.606	216.91
393.068	154.91
393.529	154.91
393.991	146.51
394.453	139.01
394.915	141.41
395.377	177.01
395.838	203.91
396.3	149.91
396.762	134.41
397.224	131.31
397.685	126.91
398.147	124.01
398.608	113.61
399.07	123.11
399.531	129.91
399.993	132.51
400.454	138.91
400.916	135.11
401.377	133.21
401.839	139.91
402.3	134.91
402.762	154.11
403.223	169.51
403.684	159.61
404.145	154.01
404.607	152.41
405.068	147.71
405.529	150.41
405.99	170.01
406.451	162.81
406.913	164.81
407.374	151.21
407.835	146.61
408.296	155.21
408.757	161.21
409.218	170.31
409.679	171.81
410.14	157.71
410.601	163.31
411.062	173.11
411.522	180.51
411.983	181.31
412.444	169.41
412.905	170.71
413.366	167.11
413.826	182.11
414.287	200.61
414.748	241.61
415.208	225.21
415.669	202.01
416.13	195.71
416.59	189.81
417.051	201.61
417.511	199.01
417.972	224.61
418.432	219.41
418.893	268.01
419.353	237.51
419.814	195.31
420.274	170.71
420.734	167.31
421.195	187.21
421.655	179.11
422.115	187.11
422.576	183.71
423.036	184.31
423.496	197.71
423.956	199.61
424.416	212.71
424.876	254.31
425.336	251.81
425.797	250.21
426.257	243.01
426.717	226.71
427.177	217.81
427.637	209.61
428.097	221.41
428.556	228.01
429.016	258.91
429.476	254.91
429.936	258.31
430.396	261.11
430.856	273.11
431.315	309.31
431.775	329.01
432.235	358.91
432.694	332.31
433.154	339.81
433.614	369.81
434.073	318.31
434.533	274.71
434.993	252.11
435.452	268.31
435.912	278.71
436.371	278.21
436.83	265.21
437.29	251.81
437.749	232.51
438.209	232.81
438.668	258.11
439.127	273.21
439.587	249.61
440.046	241.91
440.505	252.51
440.964	256.61
441.424	299.51
441.883	292.61
442.342	246.71
442.801	224.71
443.26	211.61
443.719	214.51
444.178	213.01
444.637	200.61
445.096	207.11
445.555	209.71
446.014	219.81
446.473	221.61
446.932	226.11
447.391	217.41
447.849	224.51
448.308	204.71
448.767	217.11
449.226	232.81
449.685	218.91
450.143	235.91
450.602	223.11
451.061	215.91
451.519	221.71
451.978	218.51
452.436	222.81
452.895	223.51
453.353	238.81
453.812	228.51
454.27	222.01
454.729	217.51
455.187	228.21
455.646	230.41
456.104	237.31
456.562	246.61
457.021	259.21
457.479	250.41
457.937	264.31
458.395	246.61
458.854	240.21
459.312	249.71
459.77	255.11
460.228	240.91
460.686	236.31
461.144	234.41
461.602	237.31
462.06	232.41
462.518	243.51
462.976	243.01
463.434	248.01
463.892	259.81
464.35	260.91
464.808	274.81
465.266	260.51
465.724	258.01
466.181	260.91
466.639	264.91
467.097	278.81
467.555	291.71
468.012	289.41
468.47	295.21
468.928	313.91
469.385	329.11
469.843	325.11
470.3	331.41
470.758	348.71
471.215	361.81
471.673	388.11
472.13	381.91
472.588	392.01
473.045	365.31
473.503	359.11
473.96	378.81
474.417	389.31
474.875	417.81
475.332	458.11
475.789	442.61
476.246	459.41
476.704	467.21
477.161	489.71
477.618	504.31
478.075	539.71
478.532	587.01
478.989	660.81
479.446	767.81
479.903	740.71
480.36	786.01
480.817	831.11
481.274	932.21
481.731	1041.81
482.188	1109.31
482.645	1248.51
483.102	1347.21
483.558	1488.51
484.015	1533.31
484.472	1515.61
484.929	1469.21
485.385	1413.91
485.842	1378.01
486.299	1300.31
486.755	1248.41
487.212	1054.31
487.668	897.71
488.125	821.81
488.582	747.41
489.038	715.21
489.494	681.21
489.951	659.81
490.407	640.41
490.864	632.21
491.32	619.11
491.776	629.01
492.233	632.41
492.689	590.41
493.145	583.01
493.602	581.21
494.058	585.21
494.514	598.31
494.97	608.31
495.426	622.01
495.882	603.91
496.338	583.31
496.794	599.81
497.251	604.51
497.707	606.31
498.163	609.01
498.618	625.61
499.074	630.61
499.53	648.51
499.986	649.51
500.442	621.61
500.898	617.31
501.354	615.31
501.809	611.41
502.265	629.11
502.721	638.71
503.177	660.01
503.632	634.51
504.088	653.71
504.543	693.01
504.999	686.91
505.455	630.81
505.91	607.01
506.366	594.41
506.821	600.71
507.277	601.71
507.732	605.91
508.187	603.31
508.643	615.21
509.098	618.81
509.553	638.61
510.009	630.91
510.464	647.81
510.919	664.51
511.375	669.31
511.83	685.11
512.285	696.81
512.74	729.61
513.195	759.31
513.65	743.41
514.105	751.31
514.56	755.01
515.015	764.61
515.47	780.11
515.925	764.61
516.38	766.51
516.835	771.41
517.29	759.31
517.745	759.71
518.2	746.11
518.655	727.11
519.109	719.01
519.564	723.01
520.019	706.01
520.474	699.21
520.928	706.71
521.383	696.81
521.838	692.81
522.292	680.01
522.747	691.61
523.201	689.51
523.656	678.41
524.11	678.31
524.565	669.51
525.019	672.61
525.474	674.41
525.928	686.11
526.382	678.51
526.837	678.81
527.291	679.41
527.745	675.31
528.2	677.91
528.654	678.01
529.108	667.31
529.562	669.91
530.016	669.11
530.47	666.11
530.925	671.41
531.379	681.31
531.833	686.91
532.287	686.21
532.741	681.71
533.195	690.91
533.649	688.71
534.103	700.31
534.556	689.11
535.01	687.71
535.464	682.01
535.918	699.01
536.372	703.31
536.826	708.31
537.279	686.81
537.733	694.01
538.187	692.01
538.64	695.11
539.094	704.61
539.548	719.71
540.001	701.41
540.455	709.11
540.908	709.01
541.362	722.71
541.815	726.61
542.269	739.21
542.722	745.41
543.175	751.31
543.629	749.81
544.082	764.51
544.536	768.21
544.989	761.11
545.442	776.01
545.895	761.31
546.349	776.61
546.802	775.51
547.255	789.71
547.708	797.31
548.161	794.01
548.614	802.11
549.067	815.71
549.52	800.41
549.973	784.91
550.426	780.01
550.879	769.41
551.332	773.91
551.785	785.21
552.238	781.91
552.691	798.41
553.144	808.41
553.596	826.91
554.049	840.41
554.502	880.71
554.955	896.61
555.407	887.01
555.86	869.51
556.313	870.41
556.765	865.31
557.218	861.51
557.67	853.21
558.123	855.81
558.576	862.01
559.028	863.81
559.48	860.51
559.933	843.21
560.385	810.71
560.838	792.51
561.29	765.71
561.742	761.11
562.195	752.21
562.647	754.91
563.099	767.51
563.551	760.51
564.004	766.41
564.456	753.81
564.908	748.41
565.36	727.51
565.812	720.61
566.264	708.01
566.716	716.91
567.168	702.21
567.62	713.71
568.072	680.31
568.524	689.21
568.976	681.11
569.428	665.01
569.88	660.11
570.332	667.81
570.784	667.31
571.235	678.51
571.687	684.71
572.139	693.11
572.59	697.31
573.042	702.71
573.494	696.81
573.945	696.41
574.397	670.71
574.849	677.81
575.3	672.21
575.752	670.51
576.203	659.21
576.655	676.21
577.106	662.11
577.557	647.91
578.009	661.11
578.46	652.91
578.912	651.41
579.363	654.51
579.814	657.21
580.265	645.31
580.717	654.01
581.168	656.51
581.619	661.81
582.07	665.01
582.521	660.41
582.972	665.51
583.423	677.51
583.875	665.81
584.326	689.21
584.777	738.91
585.227	811.71
585.678	905.71
586.129	984.01
586.58	1060.81
587.031	1147.31
587.482	1291.71
587.933	1468.01
588.384	1285.71
588.834	963.21
589.285	788.31
589.736	768.31
590.186	771.01
590.637	763.91
591.088	733.31
591.538	723.41
591.989	710.21
592.439	715.71
592.89	711.41
593.34	701.61
593.791	706.91
594.241	697.31
594.692	699.81
595.142	693.21
595.593	679.91
596.043	700.21
596.493	692.81
596.943	701.31
597.394	720.81
597.844	700.11
598.294	715.91
598.744	742.81
599.195	764.71
599.645	801.31
600.095	832.71
600.545	900.91
600.995	954.81
601.445	1006.01
601.895	1071.31
602.345	1114.51
602.795	1095.41
603.245	1042.41
603.695	990.11
604.145	936.11
604.594	902.51
605.044	848.01
605.494	783.51
605.944	746.81
606.393	725.61
606.843	722.01
607.293	720.71
607.743	721.91
608.192	733.71
608.642	753.31
609.091	754.81
609.541	760.51
609.99	763.01
610.44	755.11
610.889	718.21
611.339	686.61
611.788	668.21
612.238	696.11
612.687	708.61
613.136	709.41
613.586	724.11
614.035	727.81
614.484	737.41
614.933	752.71
615.383	745.81
615.832	733.71
616.281	717.91
616.73	675.61
617.179	658.21
617.628	637.11
618.077	617.21
618.526	610.01
618.975	609.11
619.424	597.61
619.873	608.51
620.322	619.81
620.771	602.31
621.22	599.01
621.669	590.41
622.118	576.21
622.567	571.11
623.015	561.41
623.464	565.41
623.913	564.11
624.361	548.61
624.81	543.21
625.259	547.51
625.707	552.01
626.156	554.71
626.604	558.21
627.053	557.11
627.501	552.01
627.95	556.81
628.398	568.91
628.847	556.61
629.295	558.81
629.744	571.21
630.192	552.71
630.64	557.51
631.089	563.11
631.537	564.41
631.985	579.01
632.433	596.21
632.881	601.91
633.33	648.11
633.778	643.21
634.226	560.61
634.674	560.11
635.122	573.41
635.57	588.81
636.018	621.21
636.466	566.51
636.914	551.81
637.362	566.21
637.81	567.11
638.258	580.21
638.705	579.81
639.153	605.21
639.601	606.61
640.049	634.61
640.497	666.41
640.944	684.31
641.392	627.71
641.84	607.01
642.287	585.11
642.735	561.41
643.182	562.11
643.63	555.91
644.078	574.51
644.525	587.61
644.973	596.91
645.42	596.11
645.867	611.01
646.315	638.51
646.762	652.21
647.21	688.21
647.657	701.31
648.104	751.91
648.551	770.11
648.999	830.01
649.446	910.11
649.893	1008.01
650.34	1149.01
650.787	1382.21
651.234	1716.11
651.682	2245.01
652.129	3091.41
652.576	4443.71
653.023	6566.81
653.47	8988.11
653.917	11117.11
654.363	12826.71
654.81	14122.61
655.257	13422.31
655.704	8796.11
656.151	5176.31
656.598	3363.71
657.044	2378.81
657.491	1828.81
657.938	1475.71
658.385	1221.01
658.831	1073.31
659.278	958.61
659.724	847.61
660.171	778.81
660.618	717.91
661.064	682.51
661.511	667.81
661.957	644.71
662.404	635.41
662.85	651.51
663.296	612.11
663.743	554.01
664.189	533.41
664.635	528.11
665.082	516.91
665.528	524.91
665.974	513.41
666.42	499.11
666.867	499.71
667.313	486.51
667.759	476.51
668.205	472.01
668.651	472.91
669.097	476.31
669.543	494.61
669.989	460.61
670.435	456.41
670.881	437.81
671.327	443.01
671.773	467.81
672.219	490.51
672.665	536.81
673.11	579.11
673.556	627.01
674.002	655.71
674.448	645.41
674.893	538.31
675.339	471.71
675.785	438.11
676.23	416.61
676.676	387.31
677.122	381.01
677.567	370.11
678.013	356.41
678.458	348.31
678.904	354.71
679.349	351.21
679.794	351.51
680.24	348.01
680.685	341.91
681.131	344.61
681.576	346.71
682.021	355.81
682.466	346.71
682.912	352.41
683.357	350.91
683.802	378.51
684.247	415.91
684.692	456.21
685.137	493.31
685.583	531.71
686.028	546.81
686.473	511.11
686.918	438.31
687.363	409.71
687.807	389.61
688.252	366.41
688.697	351.81
689.142	325.91
689.587	330.11
690.032	318.41
690.477	347.91
690.921	353.71
691.366	380.11
691.811	398.21
692.255	430.41
692.7	458.81
693.145	503.11
693.589	701.71
694.034	1134.21
694.478	1512.81
694.923	1696.11
695.367	2229.41
695.812	1180.61
696.256	493.21
696.701	369.91
697.145	335.61
697.59	325.31
698.034	328.41
698.478	332.41
698.922	323.71
699.367	323.41
699.811	338.81
700.255	346.81
700.699	372.81
701.143	425.21
701.588	472.81
702.032	521.71
702.476	512.51
702.92	483.81
703.364	486.81
703.808	635.11
704.252	1047.11
704.696	1428.81
705.14	1652.71
705.584	2090.31
706.027	1054.11
706.471	518.31
706.915	396.01
707.359	349.01
707.803	312.81
708.246	309.61
708.69	308.91
709.134	305.51
709.577	307.31
710.021	318.01
710.465	302.51
710.908	295.71
711.352	302.01
711.795	318.81
712.239	354.71
712.682	382.21
713.126	418.51
713.569	468.91
714.012	368.71
714.456	318.31
714.899	298.91
715.342	271.51
715.786	257.31
716.229	255.41
716.672	248.61
717.115	250.31
717.558	249.01
718.002	248.51
718.445	263.51
718.888	286.01
719.331	290.11
719.774	305.71
720.217	296.61
720.66	279.11
721.103	265.31
721.546	248.61
721.989	242.21
722.432	229.21
722.874	236.51
723.317	234.21
723.76	235.91
724.203	254.81
724.645	316.01
725.088	448.11
725.531	562.91
725.974	627.31
726.416	535.71
726.859	304.11
727.301	247.91
727.744	241.71
728.187	230.81
728.629	237.01
729.071	242.21
729.514	255.11
729.956	268.31
730.399	282.41
730.841	289.61
731.283	270.11
731.726	262.41
732.168	258.91
732.61	262.91
733.053	284.21
733.495	315.01
733.937	348.61
734.379	401.71
734.821	436.41
735.263	539.11
735.705	838.21
736.148	1576.31
736.59	2552.31
737.032	2972.61
737.474	2418.21
737.916	797.21
738.357	415.81
738.799	324.21
739.241	299.11
739.683	281.91
740.125	287.51
740.567	291.01
741.008	314.21
741.45	310.41
741.892	308.21
742.334	343.61
742.775	356.01
743.217	335.61
743.658	268.81
744.1	255.61
744.542	262.11
744.983	306.01
745.425	339.11
745.866	334.11
746.307	280.51
746.749	278.51
747.19	318.51
747.632	461.31
748.073	894.61
748.514	1869.91
748.956	2782.71
749.397	3522.81
749.838	2918.61
750.279	2888.91
750.72	1469.01
751.162	541.31
751.603	327.51
752.044	255.31
752.485	218.91
752.926	218.31
753.367	197.51
753.808	188.71
754.249	186.01
754.69	186.71
755.131	180.61
755.572	186.51
756.013	178.51
756.453	181.51
756.894	193.61
757.335	193.91
757.776	191.81
758.216	196.21
758.657	201.51
759.098	202.51
759.538	221.71
759.979	266.01
760.42	376.01
760.86	711.81
761.301	1849.11
761.741	4400.91
762.182	6281.01
762.622	4413.91
763.063	1285.81
