Data from 20171114-ORNL-Ar_H_NY_Subt18_08-04-48-195.txt Node
Date: Tue Nov 14 08:04:48 EST 2017
User: Ender
Spectrometer: HR+D1039
Trigger mode: 0
Integration Time (sec): 2.730000E-2
Scans to average: 10
Electric dark correction enabled: true
Nonlinearity correction enabled: false
Boxcar width: 0
XAxis mode: Wavelengths
Number of Pixels in Spectrum: 2048
>>>>>Begin Spectral Data<<<<<
187.836	-4.85
188.309	-4.85
188.782	-4.85
189.255	2.55
189.728	-0.35
190.201	6.15
190.674	4.75
191.147	1.55
191.619	-10.05
192.092	0.05
192.565	0.45
193.038	-1.75
193.511	-1.45
193.984	-3.45
194.456	1.55
194.929	5.55
195.402	0.75
195.874	-1.45
196.347	-2.05
196.82	-10.05
197.292	12.25
197.765	-2.55
198.237	-5.65
198.71	1.75
199.182	-2.15
199.655	4.85
200.127	8.35
200.6	-5.35
201.072	-3.15
201.544	-1.55
202.017	-6.15
202.489	2.45
202.961	-5.25
203.433	-9.45
203.906	-7.05
204.378	-4.85
204.85	-5.95
205.322	-11.55
205.794	-5.35
206.266	-0.95
206.739	-8.55
207.211	5.05
207.683	-5.25
208.155	-2.95
208.627	-7.35
209.099	-5.55
209.57	-5.45
210.042	-4.25
210.514	-4.55
210.986	1.85
211.458	-6.85
211.93	-3.85
212.402	3.85
212.873	-1.75
213.345	-7.65
213.817	-15.05
214.288	-5.15
214.76	-12.95
215.232	-5.35
215.703	-6.95
216.175	-5.45
216.646	-5.95
217.118	-5.55
217.589	-0.65
218.061	0.65
218.532	-1.95
219.004	-0.95
219.475	-4.55
219.946	-3.75
220.418	-5.75
220.889	-0.05
221.36	-0.85
221.832	0.55
222.303	-5.55
222.774	0.95
223.245	-9.15
223.717	-3.55
224.188	-6.85
224.659	-2.35
225.13	-9.85
225.601	-1.65
226.072	2.65
226.543	1.25
227.014	0.15
227.485	-3.95
227.956	-8.75
228.427	-1.05
228.898	3.45
229.369	1.15
229.839	-6.65
230.31	-0.15
230.781	-2.45
231.252	1.75
231.722	-4.45
232.193	-2.35
232.664	-2.05
233.135	-1.95
233.605	4.35
234.076	-3.95
234.546	3.65
235.017	1.15
235.487	3.05
235.958	-3.35
236.428	-3.25
236.899	6.05
237.369	7.85
237.84	-4.65
238.31	8.15
238.78	4.95
239.251	2.45
239.721	2.85
240.191	2.85
240.662	-4.15
241.132	-1.85
241.602	1.05
242.072	-3.75
242.542	4.35
243.013	2.65
243.483	0.55
243.953	5.75
244.423	-1.85
244.893	-8.25
245.363	1.55
245.833	-0.15
246.303	-2.85
246.773	13.05
247.243	2.25
247.712	6.45
248.182	6.45
248.652	4.35
249.122	-2.25
249.592	8.85
250.061	20.65
250.531	29.95
251.001	23.25
251.471	22.45
251.94	21.85
252.41	9.65
252.879	-0.05
253.349	13.15
253.818	10.35
254.288	7.55
254.757	6.55
255.227	4.65
255.696	5.75
256.166	10.15
256.635	7.75
257.105	13.15
257.574	7.35
258.043	2.75
258.513	14.75
258.982	12.65
259.451	10.25
259.92	16.85
260.389	13.55
260.859	20.15
261.328	14.85
261.797	17.15
262.266	13.85
262.735	16.45
263.204	2.65
263.673	1.45
264.142	5.65
264.611	-2.45
265.08	5.35
265.549	6.95
266.018	8.25
266.487	0.75
266.955	-1.75
267.424	-4.15
267.893	9.25
268.362	-1.25
268.83	9.75
269.299	10.25
269.768	12.45
270.236	8.55
270.705	-1.15
271.174	2.25
271.642	12.25
272.111	9.05
272.579	17.75
273.048	23.75
273.516	32.35
273.985	30.45
274.453	25.45
274.922	20.45
275.39	12.05
275.858	-0.75
276.327	7.25
276.795	23.15
277.263	18.35
277.731	29.35
278.2	59.35
278.668	59.45
279.136	52.35
279.604	23.35
280.072	10.65
280.54	12.95
281.008	9.35
281.477	22.35
281.945	12.25
282.413	15.95
282.881	18.25
283.348	10.75
283.816	10.45
284.284	18.05
284.752	22.95
285.22	12.25
285.688	24.65
286.156	20.65
286.623	42.75
287.091	48.75
287.559	28.95
288.026	19.35
288.494	18.15
288.962	10.85
289.429	8.45
289.897	24.25
290.364	21.65
290.832	21.05
291.3	17.25
291.767	16.25
292.234	18.55
292.702	16.15
293.169	18.45
293.637	30.65
294.104	25.15
294.571	8.35
295.039	15.55
295.506	12.85
295.973	23.85
296.44	22.95
296.908	21.25
297.375	17.55
297.842	17.95
298.309	17.05
298.776	14.95
299.243	22.25
299.71	16.75
300.177	24.45
300.644	21.75
301.111	22.75
301.578	22.15
302.045	19.35
302.512	29.25
302.979	23.55
303.446	22.35
303.913	17.05
304.379	16.45
304.846	26.05
305.313	25.55
305.78	22.35
306.246	24.05
306.713	22.15
307.18	27.45
307.646	35.25
308.113	25.55
308.579	30.85
309.046	18.25
309.512	32.15
309.979	23.75
310.445	26.75
310.912	29.45
311.378	29.55
311.845	37.65
312.311	33.05
312.777	36.65
313.244	32.35
313.71	41.45
314.176	30.65
314.642	27.75
315.109	31.15
315.575	38.55
316.041	39.15
316.507	34.95
316.973	41.15
317.439	34.95
317.905	40.15
318.371	37.85
318.837	34.35
319.303	35.65
319.769	39.15
320.235	44.15
320.701	39.95
321.167	36.25
321.633	31.95
322.099	37.75
322.564	48.55
323.03	39.55
323.496	43.55
323.962	38.15
324.427	45.85
324.893	45.15
325.359	44.55
325.824	39.45
326.29	44.85
326.755	40.25
327.221	43.35
327.686	35.25
328.152	48.05
328.617	47.85
329.083	50.75
329.548	54.75
330.014	53.65
330.479	40.55
330.944	44.55
331.41	44.25
331.875	49.85
332.34	36.95
332.805	46.25
333.271	43.65
333.736	48.25
334.201	51.85
334.666	57.55
335.131	56.85
335.596	59.25
336.061	57.35
336.526	45.95
336.991	45.95
337.456	55.95
337.921	46.15
338.386	44.35
338.851	44.35
339.316	43.45
339.781	48.95
340.246	54.75
340.711	49.55
341.175	48.95
341.64	38.45
342.105	52.25
342.569	56.75
343.034	57.25
343.499	59.05
343.963	55.45
344.428	63.15
344.893	60.65
345.357	65.75
345.822	61.05
346.286	72.55
346.751	73.15
347.215	73.85
347.679	74.35
348.144	106.95
348.608	88.75
349.073	71.75
349.537	77.85
350.001	83.75
350.465	87.95
350.93	79.75
351.394	85.75
351.858	83.65
352.322	90.45
352.786	84.35
353.25	103.75
353.715	103.65
354.179	93.55
354.643	123.75
355.107	121.45
355.571	105.75
356.035	105.85
356.498	118.45
356.962	119.45
357.426	133.05
357.89	123.85
358.354	93.75
358.818	86.25
359.281	80.35
359.745	80.35
360.209	79.15
360.673	82.75
361.136	82.75
361.6	85.35
362.064	78.65
362.527	86.05
362.991	94.05
363.454	78.85
363.918	77.95
364.381	81.05
364.845	86.85
365.308	89.85
365.772	83.55
366.235	81.95
366.698	81.15
367.162	84.35
367.625	82.55
368.088	86.05
368.552	86.35
369.015	93.35
369.478	100.45
369.941	101.05
370.404	93.35
370.867	99.15
371.331	103.15
371.794	117.05
372.257	115.85
372.72	107.75
373.183	103.85
373.646	99.65
374.109	101.65
374.572	103.15
375.035	105.05
375.497	103.05
375.96	109.55
376.423	100.65
376.886	110.45
377.349	111.45
377.811	101.15
378.274	106.45
378.737	107.65
379.199	103.65
379.662	108.25
380.125	114.95
380.587	116.85
381.05	122.85
381.512	126.45
381.975	131.45
382.437	124.55
382.9	125.65
383.362	126.85
383.825	136.35
384.287	140.05
384.75	132.45
385.212	130.45
385.674	143.65
386.136	133.55
386.599	126.05
387.061	125.95
387.523	125.15
387.985	125.65
388.447	138.35
388.91	140.85
389.372	146.45
389.834	147.15
390.296	137.05
390.758	152.15
391.22	159.05
391.682	204.45
392.144	285.15
392.606	218.15
393.068	162.95
393.529	161.45
393.991	152.55
394.453	146.05
394.915	148.05
395.377	183.55
395.838	206.35
396.3	155.65
396.762	134.25
397.224	127.85
397.685	127.75
398.147	130.25
398.608	126.15
399.07	125.05
399.531	127.45
399.993	139.35
400.454	146.35
400.916	142.65
401.377	145.95
401.839	148.55
402.3	156.15
402.762	164.25
403.223	175.55
403.684	165.45
404.145	160.55
404.607	162.95
405.068	162.75
405.529	166.15
405.99	172.45
406.451	178.25
406.913	167.15
407.374	156.25
407.835	152.95
408.296	161.95
408.757	161.75
409.218	176.15
409.679	171.45
410.14	169.25
410.601	171.55
411.062	171.85
411.522	178.45
411.983	182.55
412.444	174.25
412.905	175.25
413.366	177.25
413.826	187.05
414.287	210.35
414.748	253.55
415.208	239.95
415.669	200.55
416.13	194.55
416.59	194.65
417.051	197.35
417.511	209.75
417.972	225.45
418.432	239.35
418.893	278.15
419.353	242.35
419.814	196.45
420.274	170.35
420.734	174.85
421.195	189.15
421.655	192.05
422.115	195.35
422.576	186.15
423.036	185.45
423.496	202.45
423.956	211.35
424.416	227.25
424.876	257.05
425.336	251.15
425.797	252.85
426.257	243.75
426.717	227.75
427.177	222.45
427.637	210.35
428.097	228.35
428.556	228.65
429.016	258.95
429.476	255.55
429.936	263.65
430.396	270.15
430.856	280.35
431.315	304.35
431.775	334.45
432.235	365.35
432.694	335.05
433.154	347.45
433.614	376.65
434.073	321.75
434.533	273.55
434.993	257.05
435.452	270.85
435.912	281.45
436.371	274.75
436.83	273.75
437.29	256.55
437.749	235.25
438.209	240.05
438.668	259.25
439.127	270.55
439.587	248.05
440.046	236.15
440.505	249.25
440.964	260.25
441.424	303.15
441.883	301.85
442.342	251.25
442.801	215.55
443.26	208.75
443.719	211.85
444.178	201.65
444.637	198.05
445.096	208.15
445.555	214.85
446.014	213.65
446.473	212.35
446.932	224.45
447.391	210.35
447.849	218.85
448.308	215.95
448.767	206.75
449.226	219.35
449.685	234.45
450.143	232.15
450.602	228.35
451.061	217.15
451.519	225.35
451.978	219.75
452.436	228.15
452.895	225.95
453.353	237.45
453.812	228.35
454.27	231.75
454.729	229.85
455.187	232.25
455.646	230.85
456.104	235.45
456.562	247.45
457.021	255.75
457.479	251.25
457.937	254.95
458.395	249.25
458.854	241.85
459.312	241.95
459.77	264.45
460.228	240.55
460.686	232.75
461.144	241.95
461.602	224.45
462.06	234.05
462.518	243.85
462.976	245.45
463.434	239.65
463.892	257.35
464.35	259.75
464.808	275.25
465.266	254.75
465.724	261.45
466.181	262.45
466.639	252.95
467.097	277.65
467.555	282.35
468.012	288.85
468.47	294.55
468.928	314.05
469.385	324.15
469.843	339.05
470.3	335.05
470.758	344.85
471.215	374.85
471.673	384.75
472.13	389.55
472.588	394.35
473.045	354.55
473.503	357.55
473.96	379.65
474.417	387.35
474.875	419.45
475.332	457.35
475.789	439.35
476.246	448.55
476.704	469.75
477.161	490.95
477.618	501.95
478.075	539.35
478.532	592.65
478.989	655.65
479.446	761.85
479.903	728.65
480.36	778.05
480.817	827.85
481.274	933.45
481.731	1029.85
482.188	1118.45
482.645	1253.95
483.102	1363.15
483.558	1499.55
484.015	1540.15
484.472	1506.35
484.929	1464.35
485.385	1417.75
485.842	1373.25
486.299	1308.05
486.755	1250.35
487.212	1057.85
487.668	890.55
488.125	823.75
488.582	757.55
489.038	717.65
489.494	683.95
489.951	664.25
490.407	654.35
490.864	621.75
491.32	620.35
491.776	620.85
492.233	616.65
492.689	590.85
493.145	577.75
493.602	571.85
494.058	591.55
494.514	596.25
494.97	609.05
495.426	628.45
495.882	597.25
496.338	593.45
496.794	606.55
497.251	589.45
497.707	617.75
498.163	614.45
498.618	620.05
499.074	620.25
499.53	665.45
499.986	652.75
500.442	627.45
500.898	613.95
501.354	597.45
501.809	603.05
502.265	613.85
502.721	625.75
503.177	637.85
503.632	639.45
504.088	640.25
504.543	675.45
504.999	678.05
505.455	623.65
505.91	604.25
506.366	604.05
506.821	598.75
507.277	601.75
507.732	596.55
508.187	596.55
508.643	594.95
509.098	618.55
509.553	629.65
510.009	639.55
510.464	639.65
510.919	648.05
511.375	660.55
511.83	676.85
512.285	684.75
512.74	736.45
513.195	749.45
513.65	742.75
514.105	732.45
514.56	736.55
515.015	767.55
515.47	780.15
515.925	769.75
516.38	754.85
516.835	765.55
517.29	754.45
517.745	739.05
518.2	736.85
518.655	708.25
519.109	723.45
519.564	714.15
520.019	700.25
520.474	691.85
520.928	693.85
521.383	684.15
521.838	684.95
522.292	682.55
522.747	677.85
523.201	680.25
523.656	657.65
524.11	658.45
524.565	654.25
525.019	655.15
525.474	666.05
525.928	666.05
526.382	669.05
526.837	664.65
527.291	675.65
527.745	662.75
528.2	654.65
528.654	656.75
529.108	650.55
529.562	659.55
530.016	645.65
530.47	648.95
530.925	655.55
531.379	668.45
531.833	674.95
532.287	671.45
532.741	669.35
533.195	678.45
533.649	682.75
534.103	690.65
534.556	681.85
535.01	680.55
535.464	688.55
535.918	687.65
536.372	684.45
536.826	693.85
537.279	670.95
537.733	671.45
538.187	677.85
538.64	680.45
539.094	694.55
539.548	699.35
540.001	687.25
540.455	678.45
540.908	684.65
541.362	696.25
541.815	703.85
542.269	720.25
542.722	728.05
543.175	727.25
543.629	722.25
544.082	742.85
544.536	742.75
544.989	734.65
545.442	749.55
545.895	744.75
546.349	744.05
546.802	744.65
547.255	743.75
547.708	762.45
548.161	769.05
548.614	780.35
549.067	778.95
549.52	783.95
549.973	771.35
550.426	765.25
550.879	758.25
551.332	746.45
551.785	762.35
552.238	760.35
552.691	772.85
553.144	780.85
553.596	803.35
554.049	812.35
554.502	852.25
554.955	863.05
555.407	876.55
555.86	859.35
556.313	842.85
556.765	835.85
557.218	834.25
557.67	826.45
558.123	816.75
558.576	816.45
559.028	826.15
559.48	849.45
559.933	823.85
560.385	785.85
560.838	757.85
561.29	730.55
561.742	731.45
562.195	721.75
562.647	713.35
563.099	715.35
563.551	714.45
564.004	741.15
564.456	728.35
564.908	716.95
565.36	698.85
565.812	691.55
566.264	683.35
566.716	682.55
567.168	672.35
567.62	671.55
568.072	661.85
568.524	651.95
568.976	643.55
569.428	629.15
569.88	619.75
570.332	632.65
570.784	630.95
571.235	637.15
571.687	650.25
572.139	651.65
572.59	655.85
573.042	669.65
573.494	659.75
573.945	656.35
574.397	638.35
574.849	640.75
575.3	630.95
575.752	638.55
576.203	632.65
576.655	638.25
577.106	620.45
577.557	618.85
578.009	624.75
578.46	613.25
578.912	619.85
579.363	615.45
579.814	628.45
580.265	616.75
580.717	619.05
581.168	621.55
581.619	637.85
582.07	632.25
582.521	619.65
582.972	616.75
583.423	639.05
583.875	635.25
584.326	656.05
584.777	694.75
585.227	763.55
585.678	851.25
586.129	937.65
586.58	996.85
587.031	1082.85
587.482	1237.95
587.933	1413.65
588.384	1218.25
588.834	907.45
589.285	743.75
589.736	733.55
590.186	724.85
590.637	706.75
591.088	680.05
591.538	682.35
591.989	667.95
592.439	673.95
592.89	655.95
593.34	648.05
593.791	649.05
594.241	653.95
594.692	659.55
595.142	660.05
595.593	644.55
596.043	645.15
596.493	647.05
596.943	658.25
597.394	667.35
597.844	661.25
598.294	667.55
598.744	684.15
599.195	719.75
599.645	747.35
600.095	784.85
600.545	839.95
600.995	884.25
601.445	939.35
601.895	991.75
602.345	1037.35
602.795	1028.15
603.245	987.75
603.695	934.25
604.145	877.65
604.594	826.95
605.044	787.15
605.494	731.15
605.944	684.35
606.393	678.15
606.843	669.35
607.293	673.75
607.743	667.45
608.192	677.15
608.642	690.55
609.091	694.75
609.541	696.05
609.99	699.75
610.44	694.75
610.889	656.05
611.339	644.95
611.788	627.75
612.238	629.05
612.687	654.65
613.136	657.15
613.586	676.35
614.035	662.75
614.484	683.75
614.933	686.15
615.383	689.65
615.832	666.55
616.281	665.35
616.73	625.85
617.179	600.05
617.628	594.05
618.077	570.45
618.526	567.55
618.975	557.35
619.424	555.25
619.873	552.45
620.322	561.55
620.771	541.75
621.22	549.15
621.669	541.15
622.118	529.05
622.567	528.85
623.015	508.75
623.464	504.25
623.913	510.65
624.361	496.55
624.81	490.15
625.259	498.25
625.707	496.75
626.156	496.25
626.604	509.15
627.053	498.45
627.501	508.35
627.95	511.85
628.398	524.95
628.847	513.15
629.295	511.75
629.744	511.45
630.192	512.65
630.64	517.25
631.089	505.15
631.537	520.55
631.985	524.15
632.433	541.95
632.881	532.65
633.33	587.75
633.778	584.05
634.226	505.45
634.674	513.65
635.122	511.75
635.57	536.15
636.018	556.25
636.466	521.35
636.914	500.95
637.362	517.25
637.81	513.85
638.258	520.25
638.705	521.85
639.153	545.75
639.601	549.25
640.049	576.95
640.497	602.55
640.944	626.35
641.392	579.35
641.84	543.35
642.287	517.65
642.735	502.25
643.182	511.05
643.63	518.95
644.078	507.25
644.525	539.35
644.973	540.45
645.42	537.15
645.867	555.35
646.315	581.25
646.762	595.45
647.21	630.25
647.657	632.05
648.104	670.05
648.551	690.95
648.999	745.75
649.446	815.15
649.893	892.05
650.34	1020.75
650.787	1229.75
651.234	1524.35
651.682	1976.15
652.129	2706.45
652.576	3877.05
653.023	5767.15
653.47	7961.15
653.917	10000.85
654.363	11729.75
654.81	13097.55
655.257	12432.65
655.704	8111.15
656.151	4753.85
656.598	3087.75
657.044	2177.35
657.491	1682.65
657.938	1336.95
658.385	1120.35
658.831	972.95
659.278	868.75
659.724	764.75
660.171	700.75
660.618	647.15
661.064	620.95
661.511	598.65
661.957	581.55
662.404	572.35
662.85	582.35
663.296	544.95
663.743	499.45
664.189	479.35
664.635	475.55
665.082	473.55
665.528	466.95
665.974	460.45
666.42	450.35
666.867	444.35
667.313	436.75
667.759	429.25
668.205	417.95
668.651	425.85
669.097	435.45
669.543	446.35
669.989	417.85
670.435	396.45
670.881	398.95
671.327	395.05
671.773	414.05
672.219	434.25
672.665	481.65
673.11	508.15
673.556	562.95
674.002	591.75
674.448	583.05
674.893	487.55
675.339	426.85
675.785	382.85
676.23	364.25
676.676	341.45
677.122	334.55
677.567	330.45
678.013	322.35
678.458	317.15
678.904	309.15
679.349	301.75
679.794	306.25
680.24	307.35
680.685	305.85
681.131	293.55
681.576	310.35
682.021	310.45
682.466	302.75
682.912	306.65
683.357	305.55
683.802	328.25
684.247	361.05
684.692	404.45
685.137	437.75
685.583	475.55
686.028	504.55
686.473	460.15
686.918	395.95
687.363	364.35
687.807	341.55
688.252	325.85
688.697	307.35
689.142	294.05
689.587	293.15
690.032	288.55
690.477	298.55
690.921	301.45
691.366	341.35
691.811	353.55
692.255	375.05
692.7	401.95
693.145	440.85
693.589	596.25
694.034	963.15
694.478	1343.35
694.923	1534.75
695.367	2026.65
695.812	1058.75
696.256	433.05
696.701	324.25
697.145	310.75
697.59	288.25
698.034	281.95
698.478	294.05
698.922	285.45
699.367	290.75
699.811	299.55
700.255	319.45
700.699	334.95
701.143	368.85
701.588	421.25
702.032	455.75
702.476	446.65
702.92	422.15
703.364	428.15
703.808	542.05
704.252	876.75
704.696	1251.45
705.14	1471.35
705.584	1910.35
706.027	944.15
706.471	460.05
706.915	347.15
707.359	306.85
707.803	277.25
708.246	264.85
708.69	267.35
709.134	278.15
709.577	275.95
710.021	272.35
710.465	266.45
710.908	258.05
711.352	254.65
711.795	273.15
712.239	308.55
712.682	323.25
713.126	358.65
713.569	411.15
714.012	330.65
714.456	287.75
714.899	263.55
715.342	238.75
715.786	224.45
716.229	227.35
716.672	229.25
717.115	219.15
717.558	219.95
718.002	212.55
718.445	228.15
718.888	243.55
719.331	261.35
719.774	259.25
720.217	257.95
720.66	244.25
721.103	232.05
721.546	218.65
721.989	226.75
722.432	210.25
722.874	206.85
723.317	199.15
723.76	205.15
724.203	229.85
724.645	278.15
725.088	388.45
725.531	485.75
725.974	574.55
726.416	485.55
726.859	264.95
727.301	216.25
727.744	206.25
728.187	202.75
728.629	206.75
729.071	213.85
729.514	221.95
729.956	241.05
730.399	241.25
730.841	250.25
731.283	236.95
731.726	226.45
732.168	226.75
732.61	224.55
733.053	247.15
733.495	269.65
733.937	301.75
734.379	347.85
734.821	374.45
735.263	471.45
735.705	706.05
736.148	1331.45
736.59	2210.95
737.032	2734.75
737.474	2212.85
737.916	711.65
738.357	366.85
738.799	287.25
739.241	252.05
739.683	245.75
740.125	248.45
740.567	250.55
741.008	282.25
741.45	272.95
741.892	275.75
742.334	304.15
742.775	308.85
743.217	292.45
743.658	226.95
744.1	219.05
744.542	222.25
744.983	272.45
745.425	295.15
745.866	304.85
746.307	249.15
746.749	244.85
747.19	275.85
747.632	382.15
748.073	734.15
748.514	1566.35
748.956	2462.25
749.397	3109.45
749.838	2580.65
750.279	2625.75
750.72	1314.85
751.162	478.95
751.603	277.05
752.044	214.05
752.485	190.85
752.926	177.15
753.367	178.25
753.808	167.65
754.249	163.65
754.69	165.45
755.131	156.15
755.572	151.65
756.013	157.55
756.453	153.55
756.894	162.15
757.335	162.75
757.776	170.15
758.216	168.95
758.657	175.45
759.098	177.25
759.538	194.75
759.979	226.95
760.42	311.25
760.86	577.15
761.301	1515.55
761.741	3771.65
762.182	5765.35
