Data from 20171114-ORNL-Ar_H_NY_Subt18_08-03-59-059.txt Node
Date: Tue Nov 14 08:03:59 EST 2017
User: Ender
Spectrometer: HR+D1039
Trigger mode: 0
Integration Time (sec): 2.730000E-2
Scans to average: 10
Electric dark correction enabled: true
Nonlinearity correction enabled: false
Boxcar width: 0
XAxis mode: Wavelengths
Number of Pixels in Spectrum: 2048
>>>>>Begin Spectral Data<<<<<
187.836	-6.16
188.309	-6.16
188.782	-6.16
189.255	2.04
189.728	-3.66
190.201	7.14
190.674	0.14
191.147	-1.06
191.619	-6.16
192.092	3.74
192.565	8.74
193.038	1.94
193.511	-0.06
193.984	-3.36
194.456	0.54
194.929	-0.16
195.402	-1.46
195.874	-2.26
196.347	-3.16
196.82	-7.16
197.292	2.34
197.765	-1.46
198.237	-6.66
198.71	-0.26
199.182	-7.76
199.655	-0.26
200.127	-0.46
200.6	-7.06
201.072	-2.46
201.544	-9.86
202.017	-4.16
202.489	3.24
202.961	-3.96
203.433	-8.76
203.906	-5.16
204.378	-9.36
204.85	-10.46
205.322	-7.06
205.794	-0.46
206.266	-12.56
206.739	-11.86
207.211	5.34
207.683	-10.86
208.155	-6.76
208.627	-5.86
209.099	-0.56
209.57	-10.86
210.042	-2.66
210.514	-9.16
210.986	1.64
211.458	-10.86
211.93	-2.96
212.402	2.94
212.873	-1.96
213.345	-10.66
213.817	-10.36
214.288	-4.56
214.76	-14.16
215.232	-0.06
215.703	-6.76
216.175	-3.06
216.646	-1.96
217.118	-11.36
217.589	-3.36
218.061	-0.46
218.532	-3.46
219.004	0.24
219.475	-6.66
219.946	-1.66
220.418	-12.46
220.889	5.64
221.36	-2.86
221.832	-3.46
222.303	-10.86
222.774	-2.76
223.245	-5.06
223.717	-5.86
224.188	-1.96
224.659	-7.06
225.13	-3.26
225.601	-1.06
226.072	1.64
226.543	-2.96
227.014	-0.86
227.485	-4.06
227.956	-11.46
228.427	-3.56
228.898	-6.06
229.369	1.54
229.839	-6.06
230.31	-6.76
230.781	-1.56
231.252	-3.26
231.722	-5.56
232.193	-0.96
232.664	-1.46
233.135	2.04
233.605	-3.36
234.076	-6.96
234.546	0.94
235.017	1.14
235.487	-2.56
235.958	0.94
236.428	-5.56
236.899	3.34
237.369	-2.26
237.84	-13.26
238.31	1.14
238.78	0.84
239.251	-4.86
239.721	-3.36
240.191	2.14
240.662	-6.06
241.132	4.34
241.602	-2.86
242.072	-0.16
242.542	9.54
243.013	-4.16
243.483	1.74
243.953	2.84
244.423	-4.96
244.893	-7.76
245.363	1.14
245.833	-3.76
246.303	-3.16
246.773	1.14
247.243	-2.26
247.712	-1.86
248.182	7.44
248.652	1.94
249.122	-11.86
249.592	-0.36
250.061	10.24
250.531	17.64
251.001	5.04
251.471	5.94
251.94	7.64
252.41	3.54
252.879	-2.36
253.349	4.84
253.818	1.64
254.288	-1.66
254.757	-5.86
255.227	-1.36
255.696	-1.66
256.166	1.34
256.635	-0.46
257.105	3.84
257.574	-0.56
258.043	-1.26
258.513	-3.26
258.982	6.34
259.451	-4.86
259.92	2.44
260.389	9.64
260.859	15.34
261.328	2.84
261.797	3.24
262.266	2.04
262.735	9.14
263.204	-0.26
263.673	-4.86
264.142	6.34
264.611	-1.26
265.08	-1.96
265.549	-1.46
266.018	6.34
266.487	-5.66
266.955	-3.26
267.424	-1.96
267.893	6.14
268.362	-2.36
268.83	4.24
269.299	6.14
269.768	2.44
270.236	2.84
270.705	-0.16
271.174	-3.16
271.642	5.54
272.111	0.44
272.579	3.84
273.048	5.64
273.516	2.84
273.985	12.34
274.453	13.14
274.922	4.84
275.39	3.04
275.858	-2.56
276.327	7.04
276.795	11.14
277.263	0.94
277.731	14.74
278.2	20.04
278.668	21.74
279.136	23.04
279.604	2.34
280.072	8.74
280.54	10.04
281.008	7.94
281.477	7.34
281.945	5.74
282.413	4.34
282.881	9.94
283.348	4.34
283.816	8.94
284.284	6.34
284.752	13.54
285.22	2.94
285.688	7.64
286.156	7.74
286.623	22.34
287.091	19.54
287.559	14.34
288.026	13.64
288.494	13.44
288.962	-2.36
289.429	1.24
289.897	15.94
290.364	13.74
290.832	11.24
291.3	9.44
291.767	8.14
292.234	12.34
292.702	5.74
293.169	7.94
293.637	15.74
294.104	17.14
294.571	1.44
295.039	5.74
295.506	2.54
295.973	5.24
296.44	12.14
296.908	12.04
297.375	2.64
297.842	9.64
298.309	9.34
298.776	1.54
299.243	10.84
299.71	4.94
300.177	7.04
300.644	17.34
301.111	14.04
301.578	15.44
302.045	12.94
302.512	14.24
302.979	15.64
303.446	16.34
303.913	6.64
304.379	12.34
304.846	20.94
305.313	15.84
305.78	11.84
306.246	15.84
306.713	12.54
307.18	20.14
307.646	15.14
308.113	15.74
308.579	14.74
309.046	16.84
309.512	20.04
309.979	9.74
310.445	17.24
310.912	20.94
311.378	22.14
311.845	20.54
312.311	20.04
312.777	26.54
313.244	23.54
313.71	28.54
314.176	15.54
314.642	14.64
315.109	17.94
315.575	19.34
316.041	32.04
316.507	20.04
316.973	27.24
317.439	19.84
317.905	25.94
318.371	24.54
318.837	22.64
319.303	23.04
319.769	25.04
320.235	24.84
320.701	26.24
321.167	27.44
321.633	24.34
322.099	22.54
322.564	31.44
323.03	27.14
323.496	20.84
323.962	23.84
324.427	29.74
324.893	33.14
325.359	30.84
325.824	31.04
326.29	33.54
326.755	31.14
327.221	28.94
327.686	28.04
328.152	38.24
328.617	31.94
329.083	45.84
329.548	45.04
330.014	42.14
330.479	26.84
330.944	27.74
331.41	29.64
331.875	35.64
332.34	32.04
332.805	31.14
333.271	29.54
333.736	25.74
334.201	39.04
334.666	38.34
335.131	41.94
335.596	37.64
336.061	38.74
336.526	26.14
336.991	31.04
337.456	46.34
337.921	39.54
338.386	31.34
338.851	33.84
339.316	34.14
339.781	40.44
340.246	43.84
340.711	36.04
341.175	44.44
341.64	31.04
342.105	45.24
342.569	38.24
343.034	45.64
343.499	47.14
343.963	35.04
344.428	47.84
344.893	49.44
345.357	48.74
345.822	51.04
346.286	52.14
346.751	57.04
347.215	54.24
347.679	53.44
348.144	72.84
348.608	67.54
349.073	56.64
349.537	60.14
350.001	63.74
350.465	70.24
350.93	63.24
351.394	63.54
351.858	54.24
352.322	62.64
352.786	64.84
353.25	76.44
353.715	82.94
354.179	70.74
354.643	91.74
355.107	97.74
355.571	79.14
356.035	81.34
356.498	84.24
356.962	93.14
357.426	94.44
357.89	88.74
358.354	75.84
358.818	64.54
359.281	65.04
359.745	66.74
360.209	60.74
360.673	66.34
361.136	73.44
361.6	69.64
362.064	75.64
362.527	64.34
362.991	79.94
363.454	64.94
363.918	62.24
364.381	61.44
364.845	71.94
365.308	68.54
365.772	74.94
366.235	75.14
366.698	74.34
367.162	75.04
367.625	75.54
368.088	74.54
368.552	74.04
369.015	67.24
369.478	80.44
369.941	93.24
370.404	81.44
370.867	86.24
371.331	86.44
371.794	89.14
372.257	85.64
372.72	102.04
373.183	87.84
373.646	85.84
374.109	83.94
374.572	86.74
375.035	89.44
375.497	94.14
375.96	94.74
376.423	88.54
376.886	97.54
377.349	88.74
377.811	91.14
378.274	94.54
378.737	92.54
379.199	89.94
379.662	101.74
380.125	98.24
380.587	98.94
381.05	101.64
381.512	105.74
381.975	116.14
382.437	113.34
382.9	104.24
383.362	112.84
383.825	115.84
384.287	117.84
384.75	120.64
385.212	117.74
385.674	117.44
386.136	115.14
386.599	106.64
387.061	112.04
387.523	113.34
387.985	114.74
388.447	131.94
388.91	122.94
389.372	124.64
389.834	126.94
390.296	119.64
390.758	126.44
391.22	133.34
391.682	157.64
392.144	207.24
392.606	171.84
393.068	139.84
393.529	140.94
393.991	131.44
394.453	131.34
394.915	129.64
395.377	151.54
395.838	165.24
396.3	133.24
396.762	126.84
397.224	121.14
397.685	114.94
398.147	121.64
398.608	118.84
399.07	116.94
399.531	122.94
399.993	120.14
400.454	146.14
400.916	132.94
401.377	131.24
401.839	136.74
402.3	137.94
402.762	144.64
403.223	154.94
403.684	153.94
404.145	148.04
404.607	148.64
405.068	146.44
405.529	150.94
405.99	156.54
406.451	150.44
406.913	156.34
407.374	149.54
407.835	141.24
408.296	151.74
408.757	155.24
409.218	163.04
409.679	156.74
410.14	160.44
410.601	162.94
411.062	162.84
411.522	169.24
411.983	169.64
412.444	163.34
412.905	168.04
413.366	166.04
413.826	181.04
414.287	192.94
414.748	242.04
415.208	229.84
415.669	198.24
416.13	195.94
416.59	184.84
417.051	198.04
417.511	206.54
417.972	222.84
418.432	234.34
418.893	274.54
419.353	238.34
419.814	183.04
420.274	165.94
420.734	170.84
421.195	181.24
421.655	180.14
422.115	177.34
422.576	173.34
423.036	179.14
423.496	193.04
423.956	204.34
424.416	213.74
424.876	240.94
425.336	244.24
425.797	237.04
426.257	233.64
426.717	210.84
427.177	213.94
427.637	205.24
428.097	215.34
428.556	228.14
429.016	248.64
429.476	238.24
429.936	246.14
430.396	252.54
430.856	265.54
431.315	287.84
431.775	309.74
432.235	334.74
432.694	312.44
433.154	319.84
433.614	324.34
434.073	294.64
434.533	246.94
434.993	236.44
435.452	251.54
435.912	252.24
436.371	247.74
436.83	251.14
437.29	232.34
437.749	221.54
438.209	217.54
438.668	226.64
439.127	243.64
439.587	227.84
440.046	218.34
440.505	227.04
440.964	237.44
441.424	260.44
441.883	254.44
442.342	228.54
442.801	202.04
443.26	207.34
443.719	205.24
444.178	205.84
444.637	192.44
445.096	200.54
445.555	203.04
446.014	204.64
446.473	207.24
446.932	209.64
447.391	201.64
447.849	213.74
448.308	199.54
448.767	203.74
449.226	219.64
449.685	217.54
450.143	228.04
450.602	216.04
451.061	204.44
451.519	217.54
451.978	214.14
452.436	212.54
452.895	214.84
453.353	223.34
453.812	217.64
454.27	216.34
454.729	221.54
455.187	220.54
455.646	223.74
456.104	218.44
456.562	231.04
457.021	233.34
457.479	224.84
457.937	236.74
458.395	237.64
458.854	225.74
459.312	223.14
459.77	239.64
460.228	225.04
460.686	221.24
461.144	231.84
461.602	219.54
462.06	232.34
462.518	234.24
462.976	242.54
463.434	230.54
463.892	234.04
464.35	248.64
464.808	257.34
465.266	243.44
465.724	241.54
466.181	252.54
466.639	241.04
467.097	265.04
467.555	272.64
468.012	277.54
468.47	281.54
468.928	288.34
469.385	305.04
469.843	304.04
470.3	310.54
470.758	318.24
471.215	331.94
471.673	350.54
472.13	338.54
472.588	359.24
473.045	328.24
473.503	341.44
473.96	354.24
474.417	356.14
474.875	378.04
475.332	405.04
475.789	398.34
476.246	415.04
476.704	431.54
477.161	446.24
477.618	448.54
478.075	487.44
478.532	540.54
478.989	591.64
479.446	669.34
479.903	667.34
480.36	708.64
480.817	750.84
481.274	838.94
481.731	924.24
482.188	994.24
482.645	1118.74
483.102	1202.54
483.558	1307.64
484.015	1381.54
484.472	1360.14
484.929	1304.54
485.385	1277.34
485.842	1245.94
486.299	1174.74
486.755	1114.34
487.212	953.24
487.668	827.94
488.125	753.44
488.582	703.94
489.038	662.14
489.494	632.54
489.951	610.44
490.407	600.54
490.864	571.34
491.32	565.14
491.776	566.04
492.233	556.64
492.689	542.24
493.145	534.64
493.602	534.24
494.058	537.14
494.514	536.34
494.97	548.54
495.426	556.94
495.882	535.94
496.338	535.64
496.794	549.54
497.251	530.54
497.707	552.94
498.163	547.54
498.618	552.34
499.074	557.04
499.53	565.84
499.986	569.24
500.442	558.34
500.898	552.44
501.354	535.94
501.809	548.44
502.265	556.74
502.721	558.64
503.177	565.44
503.632	565.04
504.088	576.34
504.543	591.24
504.999	592.44
505.455	570.64
505.91	549.24
506.366	560.14
506.821	557.74
507.277	541.44
507.732	544.64
508.187	543.84
508.643	554.24
509.098	560.14
509.553	572.84
510.009	580.14
510.464	580.94
510.919	598.94
511.375	603.04
511.83	619.34
512.285	621.54
512.74	653.24
513.195	664.84
513.65	651.34
514.105	663.34
514.56	663.94
515.015	689.74
515.47	694.84
515.925	682.84
516.38	676.34
516.835	690.14
517.29	678.14
517.745	674.34
518.2	661.54
518.655	645.94
519.109	639.54
519.564	642.04
520.019	624.64
520.474	624.84
520.928	616.04
521.383	623.34
521.838	610.24
522.292	601.74
522.747	611.14
523.201	597.54
523.656	595.64
524.11	597.64
524.565	591.64
525.019	591.94
525.474	594.44
525.928	587.44
526.382	599.24
526.837	589.44
527.291	590.94
527.745	584.74
528.2	592.24
528.654	583.84
529.108	579.64
529.562	584.84
530.016	582.94
530.47	572.84
530.925	588.54
531.379	587.24
531.833	590.94
532.287	591.54
532.741	588.94
533.195	591.14
533.649	593.14
534.103	595.04
534.556	590.34
535.01	585.84
535.464	585.44
535.918	601.44
536.372	594.74
536.826	592.74
537.279	578.94
537.733	587.34
538.187	599.34
538.64	585.34
539.094	598.24
539.548	607.94
540.001	596.14
540.455	598.54
540.908	616.04
541.362	613.44
541.815	621.14
542.269	629.64
542.722	631.44
543.175	634.44
543.629	636.84
544.082	651.94
544.536	654.84
544.989	649.84
545.442	661.84
545.895	662.84
546.349	658.24
546.802	652.84
547.255	655.24
547.708	658.74
548.161	686.94
548.614	675.34
549.067	691.54
549.52	669.04
549.973	666.24
550.426	653.74
550.879	649.74
551.332	659.44
551.785	663.34
552.238	655.74
552.691	670.44
553.144	674.24
553.596	689.14
554.049	702.04
554.502	717.04
554.955	737.04
555.407	743.74
555.86	725.24
556.313	725.24
556.765	715.24
557.218	719.34
557.67	712.44
558.123	702.74
558.576	707.04
559.028	710.04
559.48	703.14
559.933	708.54
560.385	678.14
560.838	656.94
561.29	631.94
561.742	635.34
562.195	624.74
562.647	622.84
563.099	627.94
563.551	618.14
564.004	634.94
564.456	616.24
564.908	607.44
565.36	594.84
565.812	586.44
566.264	587.94
566.716	577.54
567.168	567.44
567.62	564.74
568.072	551.94
568.524	546.44
568.976	549.94
569.428	541.74
569.88	526.24
570.332	538.24
570.784	541.74
571.235	537.94
571.687	542.64
572.139	556.34
572.59	565.94
573.042	554.64
573.494	557.74
573.945	552.04
574.397	531.54
574.849	535.34
575.3	543.14
575.752	531.24
576.203	531.74
576.655	534.74
577.106	525.24
577.557	517.84
578.009	531.74
578.46	513.44
578.912	511.44
579.363	519.54
579.814	519.64
580.265	519.84
580.717	516.04
581.168	518.14
581.619	521.84
582.07	532.64
582.521	521.84
582.972	524.04
583.423	528.54
583.875	524.94
584.326	537.14
584.777	561.14
585.227	616.54
585.678	653.34
586.129	698.74
586.58	750.14
587.031	794.44
587.482	903.04
587.933	1006.64
588.384	893.34
588.834	707.64
589.285	617.24
589.736	597.74
590.186	603.54
590.637	591.34
591.088	570.94
591.538	561.94
591.989	563.04
592.439	556.24
592.89	549.84
593.34	539.94
593.791	532.74
594.241	535.34
594.692	543.94
595.142	529.94
595.593	527.94
596.043	537.94
596.493	543.84
596.943	536.94
597.394	544.14
597.844	541.64
598.294	559.74
598.744	574.34
599.195	591.24
599.645	623.64
600.095	654.34
600.545	686.94
600.995	729.94
601.445	777.24
601.895	817.94
602.345	854.74
602.795	854.74
603.245	817.94
603.695	780.14
604.145	718.84
604.594	702.14
605.044	657.44
605.494	607.54
605.944	574.24
606.393	553.64
606.843	540.94
607.293	545.94
607.743	548.04
608.192	556.44
608.642	562.94
609.091	566.84
609.541	565.14
609.99	569.94
610.44	559.24
610.889	534.74
611.339	522.84
611.788	513.84
612.238	520.04
612.687	539.44
613.136	530.34
613.586	547.04
614.035	535.64
614.484	551.34
614.933	547.34
615.383	540.94
615.832	539.24
616.281	529.94
616.73	510.64
617.179	499.84
617.628	487.74
618.077	472.84
618.526	464.94
618.975	455.34
619.424	458.84
619.873	454.74
620.322	456.34
620.771	446.84
621.22	443.54
621.669	435.74
622.118	432.34
622.567	425.24
623.015	412.74
623.464	415.24
623.913	416.04
624.361	401.94
624.81	405.44
625.259	404.84
625.707	402.44
626.156	408.24
626.604	415.94
627.053	411.84
627.501	408.64
627.95	419.84
628.398	424.74
628.847	416.54
629.295	410.34
629.744	424.64
630.192	420.84
630.64	412.64
631.089	398.04
631.537	405.34
631.985	406.34
632.433	405.24
632.881	411.34
633.33	413.74
633.778	415.34
634.226	393.54
634.674	401.64
635.122	398.74
635.57	411.44
636.018	424.04
636.466	411.94
636.914	407.54
637.362	413.24
637.81	420.04
638.258	422.44
638.705	417.24
639.153	433.94
639.601	451.14
640.049	466.94
640.497	484.54
640.944	509.34
641.392	459.84
641.84	444.64
642.287	421.34
642.735	405.94
643.182	409.54
643.63	405.64
644.078	415.34
644.525	418.74
644.973	427.04
645.42	436.84
645.867	437.64
646.315	459.44
646.762	472.34
647.21	485.34
647.657	504.34
648.104	535.74
648.551	541.54
648.999	583.64
649.446	649.54
649.893	706.54
650.34	794.24
650.787	954.94
651.234	1178.94
651.682	1509.74
652.129	2051.14
652.576	2936.94
653.023	4324.54
653.47	6031.34
653.917	7586.64
654.363	8979.74
654.81	10174.44
655.257	9689.24
655.704	6342.44
656.151	3690.14
656.598	2396.14
657.044	1702.74
657.491	1310.44
657.938	1036.54
658.385	879.64
658.831	757.94
659.278	679.24
659.724	594.54
660.171	554.64
660.618	509.84
661.064	481.24
661.511	457.84
661.957	441.64
662.404	439.64
662.85	436.64
663.296	415.94
663.743	397.44
664.189	379.64
664.635	373.84
665.082	369.84
665.528	367.24
665.974	367.54
666.42	361.34
666.867	359.54
667.313	339.34
667.759	332.64
668.205	328.14
668.651	333.74
669.097	331.24
669.543	340.74
669.989	324.24
670.435	315.44
670.881	309.14
671.327	311.94
671.773	333.34
672.219	347.84
672.665	383.44
673.11	411.64
673.556	444.14
674.002	476.04
674.448	468.44
674.893	389.44
675.339	348.24
675.785	312.34
676.23	297.94
676.676	276.14
677.122	268.64
677.567	264.14
678.013	254.54
678.458	252.14
678.904	255.24
679.349	240.44
679.794	249.04
680.24	240.24
680.685	245.14
681.131	233.64
681.576	245.14
682.021	250.24
682.466	244.54
682.912	240.14
683.357	238.04
683.802	267.94
684.247	290.24
684.692	311.84
685.137	341.34
685.583	378.74
686.028	392.24
686.473	362.34
686.918	308.24
687.363	291.54
687.807	279.04
688.252	248.24
688.697	250.24
689.142	239.34
689.587	235.04
690.032	235.74
690.477	233.64
690.921	239.64
691.366	264.24
691.811	276.34
692.255	299.44
692.7	331.04
693.145	348.94
693.589	468.54
694.034	770.64
694.478	1072.64
694.923	1259.44
695.367	1670.74
695.812	865.14
696.256	356.64
696.701	258.34
697.145	239.14
697.59	226.04
698.034	213.14
698.478	234.34
698.922	222.74
699.367	224.94
699.811	232.34
700.255	237.94
700.699	268.54
701.143	291.44
701.588	337.14
702.032	368.24
702.476	364.84
702.92	346.14
703.364	344.14
703.808	435.84
704.252	704.74
704.696	1009.54
705.14	1203.24
705.584	1571.94
706.027	774.34
706.471	373.54
706.915	275.44
707.359	245.54
707.803	223.04
708.246	209.94
708.69	223.14
709.134	220.34
709.577	219.54
710.021	217.64
710.465	209.34
710.908	207.84
711.352	203.04
711.795	203.74
712.239	237.34
712.682	259.34
713.126	287.84
713.569	321.84
714.012	258.74
714.456	229.24
714.899	210.64
715.342	194.74
715.786	183.14
716.229	182.14
716.672	183.24
717.115	173.04
717.558	179.94
718.002	175.24
718.445	179.64
718.888	200.84
719.331	206.74
719.774	216.14
720.217	210.84
720.66	197.24
721.103	185.54
721.546	180.74
721.989	174.24
722.432	152.04
722.874	169.64
723.317	167.14
723.76	158.24
724.203	170.64
724.645	208.74
725.088	298.54
725.531	390.74
725.974	456.64
726.416	390.84
726.859	215.74
727.301	170.24
727.744	164.04
728.187	160.14
728.629	173.94
729.071	164.64
729.514	179.74
729.956	178.04
730.399	194.44
730.841	199.44
731.283	190.14
731.726	184.84
732.168	182.24
732.61	183.04
733.053	194.94
733.495	217.24
733.937	237.54
734.379	274.04
734.821	298.14
735.263	372.04
735.705	549.74
736.148	1065.14
736.59	1801.54
737.032	2242.14
737.474	1846.14
737.916	579.34
738.357	301.24
738.799	224.64
739.241	208.64
739.683	190.54
740.125	200.54
740.567	203.24
741.008	223.84
741.45	223.54
741.892	218.94
742.334	240.04
742.775	255.04
743.217	249.34
743.658	191.04
744.1	170.74
744.542	184.24
744.983	221.14
745.425	250.14
745.866	251.94
746.307	201.44
746.749	197.84
747.19	221.74
747.632	306.54
748.073	575.24
748.514	1251.34
748.956	2033.04
749.397	2542.84
749.838	2116.04
750.279	2208.84
750.72	1104.64
751.162	394.24
751.603	224.94
752.044	176.44
752.485	150.84
752.926	146.34
753.367	144.94
753.808	133.84
754.249	133.34
754.69	125.14
755.131	129.64
755.572	117.64
756.013	122.44
756.453	118.94
756.894	126.34
757.335	133.04
757.776	133.94
758.216	134.54
758.657	134.14
759.098	138.14
759.538	148.44
759.979	188.84
760.42	256.64
760.86	470.14
761.301	1230.04
761.741	3106.14
762.182	4883.64
762.622	3472.14
763.063	970.04
763.503	384.04
763.943	241.64
