Data from 20171114-ORNL-Ar_H_NY_Subt18_08-04-42-192.txt Node
Date: Tue Nov 14 08:04:42 EST 2017
User: Ender
Spectrometer: HR+D1039
Trigger mode: 0
Integration Time (sec): 2.730000E-2
Scans to average: 10
Electric dark correction enabled: true
Nonlinearity correction enabled: false
Boxcar width: 0
XAxis mode: Wavelengths
Number of Pixels in Spectrum: 2048
>>>>>Begin Spectral Data<<<<<
187.836	-4.04
188.309	-4.04
188.782	-4.04
189.255	3.66
189.728	-1.14
190.201	6.46
190.674	3.56
191.147	1.86
191.619	-8.94
192.092	-0.94
192.565	0.86
193.038	0.36
193.511	6.26
193.984	-1.74
194.456	-2.94
194.929	-0.34
195.402	-0.34
195.874	-2.54
196.347	1.36
196.82	-9.44
197.292	11.16
197.765	-3.84
198.237	-5.04
198.71	0.56
199.182	-1.04
199.655	-0.24
200.127	4.06
200.6	0.46
201.072	-1.24
201.544	-0.94
202.017	-7.74
202.489	1.06
202.961	-2.44
203.433	-0.24
203.906	-6.74
204.378	-0.84
204.85	-4.64
205.322	-9.64
205.794	-6.84
206.266	-0.24
206.739	-12.04
207.211	4.26
207.683	-6.14
208.155	-4.94
208.627	-7.04
209.099	-5.34
209.57	-7.94
210.042	-2.04
210.514	-3.94
210.986	-7.44
211.458	-5.44
211.93	-6.24
212.402	1.26
212.873	-0.34
213.345	-6.14
213.817	-11.14
214.288	-2.14
214.76	-4.54
215.232	-6.84
215.703	-4.34
216.175	-4.54
216.646	-4.14
217.118	-4.54
217.589	-6.94
218.061	-9.34
218.532	-0.54
219.004	-3.64
219.475	-3.04
219.946	-2.94
220.418	-1.64
220.889	-0.94
221.36	4.76
221.832	-6.54
222.303	-8.24
222.774	2.76
223.245	-8.04
223.717	-4.44
224.188	-3.54
224.659	-9.34
225.13	-10.04
225.601	-4.14
226.072	1.86
226.543	-2.34
227.014	2.16
227.485	-4.14
227.956	-8.74
228.427	-5.94
228.898	2.96
229.369	0.86
229.839	1.66
230.31	-4.34
230.781	0.36
231.252	-2.34
231.722	-3.84
232.193	-0.14
232.664	-2.84
233.135	-2.64
233.605	-0.24
234.076	-4.64
234.546	4.96
235.017	6.06
235.487	-2.34
235.958	-3.14
236.428	3.06
236.899	4.86
237.369	4.56
237.84	3.56
238.31	2.96
238.78	7.36
239.251	3.56
239.721	7.66
240.191	8.06
240.662	2.26
241.132	6.86
241.602	-1.14
242.072	1.56
242.542	9.76
243.013	4.96
243.483	3.56
243.953	5.76
244.423	1.96
244.893	1.46
245.363	1.76
245.833	8.36
246.303	0.86
246.773	9.46
247.243	2.96
247.712	3.06
248.182	12.86
248.652	5.06
249.122	2.66
249.592	15.96
250.061	26.76
250.531	35.66
251.001	19.66
251.471	25.26
251.94	21.36
252.41	7.66
252.879	3.56
253.349	17.76
253.818	14.86
254.288	6.56
254.757	8.66
255.227	-0.64
255.696	5.96
256.166	4.76
256.635	11.76
257.105	9.26
257.574	9.56
258.043	11.26
258.513	6.46
258.982	18.96
259.451	6.96
259.92	14.46
260.389	10.56
260.859	17.96
261.328	13.36
261.797	20.06
262.266	10.76
262.735	9.56
263.204	2.16
263.673	3.56
264.142	10.86
264.611	0.56
265.08	5.46
265.549	0.66
266.018	10.06
266.487	-0.44
266.955	1.46
267.424	3.56
267.893	12.96
268.362	4.46
268.83	10.26
269.299	12.16
269.768	5.26
270.236	12.76
270.705	3.76
271.174	5.36
271.642	7.06
272.111	7.96
272.579	24.16
273.048	25.96
273.516	33.56
273.985	30.56
274.453	27.16
274.922	19.86
275.39	15.86
275.858	11.96
276.327	14.16
276.795	14.76
277.263	14.46
277.731	28.96
278.2	55.56
278.668	64.56
279.136	57.76
279.604	24.46
280.072	17.36
280.54	16.36
281.008	10.86
281.477	15.16
281.945	13.96
282.413	20.96
282.881	14.56
283.348	9.36
283.816	14.76
284.284	11.96
284.752	21.06
285.22	19.46
285.688	14.16
286.156	19.66
286.623	45.16
287.091	49.46
287.559	32.06
288.026	22.86
288.494	19.16
288.962	11.66
289.429	13.66
289.897	21.46
290.364	18.16
290.832	20.46
291.3	20.56
291.767	22.86
292.234	21.26
292.702	16.06
293.169	20.76
293.637	25.56
294.104	24.96
294.571	15.46
295.039	14.86
295.506	17.36
295.973	16.76
296.44	16.26
296.908	21.16
297.375	22.96
297.842	27.36
298.309	20.76
298.776	13.16
299.243	18.56
299.71	11.56
300.177	19.96
300.644	28.36
301.111	22.36
301.578	20.56
302.045	18.66
302.512	27.96
302.979	24.76
303.446	25.16
303.913	22.26
304.379	20.06
304.846	33.46
305.313	23.66
305.78	29.86
306.246	31.06
306.713	30.06
307.18	21.86
307.646	30.06
308.113	33.36
308.579	32.06
309.046	35.06
309.512	34.76
309.979	21.16
310.445	28.86
310.912	31.06
311.378	31.76
311.845	36.66
312.311	29.66
312.777	39.46
313.244	29.86
313.71	40.06
314.176	33.66
314.642	30.26
315.109	36.36
315.575	42.36
316.041	38.56
316.507	31.46
316.973	38.46
317.439	37.36
317.905	40.86
318.371	36.96
318.837	42.26
319.303	32.76
319.769	38.86
320.235	35.86
320.701	40.16
321.167	39.56
321.633	37.36
322.099	40.16
322.564	51.96
323.03	40.26
323.496	42.66
323.962	42.36
324.427	36.76
324.893	43.56
325.359	42.56
325.824	42.46
326.29	38.06
326.755	44.26
327.221	40.96
327.686	42.06
328.152	43.96
328.617	45.16
329.083	48.66
329.548	55.06
330.014	49.86
330.479	36.36
330.944	48.46
331.41	48.06
331.875	52.06
332.34	48.06
332.805	39.56
333.271	48.46
333.736	48.26
334.201	56.16
334.666	57.26
335.131	60.16
335.596	54.86
336.061	56.96
336.526	44.06
336.991	52.86
337.456	54.76
337.921	50.66
338.386	46.66
338.851	44.46
339.316	47.66
339.781	49.96
340.246	53.36
340.711	47.36
341.175	54.76
341.64	48.66
342.105	51.16
342.569	60.56
343.034	63.86
343.499	53.76
343.963	59.46
344.428	69.36
344.893	59.96
345.357	60.26
345.822	62.06
346.286	68.16
346.751	73.56
347.215	66.46
347.679	80.06
348.144	98.76
348.608	81.96
349.073	69.16
349.537	82.06
350.001	82.46
350.465	90.76
350.93	78.66
351.394	84.26
351.858	68.56
352.322	84.26
352.786	84.26
353.25	100.06
353.715	112.36
354.179	102.96
354.643	116.66
355.107	125.76
355.571	107.26
356.035	105.46
356.498	119.26
356.962	119.56
357.426	132.36
357.89	115.16
358.354	93.56
358.818	83.66
359.281	78.86
359.745	79.46
360.209	79.16
360.673	76.26
361.136	80.96
361.6	80.16
362.064	87.96
362.527	88.06
362.991	95.96
363.454	87.36
363.918	77.36
364.381	77.66
364.845	71.66
365.308	84.86
365.772	84.96
366.235	87.96
366.698	80.36
367.162	87.16
367.625	81.36
368.088	86.96
368.552	86.66
369.015	89.26
369.478	95.46
369.941	94.86
370.404	90.06
370.867	101.56
371.331	107.16
371.794	115.16
372.257	117.76
372.72	111.46
373.183	117.66
373.646	101.96
374.109	97.76
374.572	101.06
375.035	108.56
375.497	108.26
375.96	102.96
376.423	97.16
376.886	114.06
377.349	108.96
377.811	99.26
378.274	102.06
378.737	105.16
379.199	106.76
379.662	111.26
380.125	113.66
380.587	114.16
381.05	115.86
381.512	120.56
381.975	127.66
382.437	126.86
382.9	123.66
383.362	128.16
383.825	140.86
384.287	137.26
384.75	134.86
385.212	134.46
385.674	138.56
386.136	129.56
386.599	114.76
387.061	123.66
387.523	128.76
387.985	132.86
388.447	138.36
388.91	138.56
389.372	151.16
389.834	147.26
390.296	143.16
390.758	147.36
391.22	159.26
391.682	201.36
392.144	273.46
392.606	214.46
393.068	160.76
393.529	159.16
393.991	148.46
394.453	141.36
394.915	148.76
395.377	181.76
395.838	197.96
396.3	151.36
396.762	130.06
397.224	124.16
397.685	127.16
398.147	119.76
398.608	122.66
399.07	123.06
399.531	130.46
399.993	136.96
400.454	142.36
400.916	139.06
401.377	138.56
401.839	153.56
402.3	147.66
402.762	156.26
403.223	171.96
403.684	165.36
404.145	158.66
404.607	153.96
405.068	156.96
405.529	161.46
405.99	178.26
406.451	172.56
406.913	168.86
407.374	154.16
407.835	158.16
408.296	155.46
408.757	167.16
409.218	177.76
409.679	174.86
410.14	166.36
410.601	164.96
411.062	170.16
411.522	186.86
411.983	177.66
412.444	162.96
412.905	174.36
413.366	173.56
413.826	185.46
414.287	208.26
414.748	251.46
415.208	240.16
415.669	202.36
416.13	199.16
416.59	194.06
417.051	196.26
417.511	204.56
417.972	227.46
418.432	239.26
418.893	276.36
419.353	239.16
419.814	188.06
420.274	177.66
420.734	167.36
421.195	184.26
421.655	186.76
422.115	181.46
422.576	182.96
423.036	191.56
423.496	200.96
423.956	212.86
424.416	217.56
424.876	262.36
425.336	246.66
425.797	254.26
426.257	233.66
426.717	226.96
427.177	220.66
427.637	214.76
428.097	222.56
428.556	238.16
429.016	259.36
429.476	256.16
429.936	257.26
430.396	260.56
430.856	279.96
431.315	304.46
431.775	329.46
432.235	358.46
432.694	330.96
433.154	351.06
433.614	372.36
434.073	319.16
434.533	271.96
434.993	245.86
435.452	264.06
435.912	269.56
436.371	279.36
436.83	264.06
437.29	252.66
437.749	232.96
438.209	235.26
438.668	261.86
439.127	266.76
439.587	249.16
440.046	233.86
440.505	242.96
440.964	264.16
441.424	303.36
441.883	294.86
442.342	246.76
442.801	213.26
443.26	207.06
443.719	208.56
444.178	203.76
444.637	192.96
445.096	205.66
445.555	210.06
446.014	216.06
446.473	215.06
446.932	217.76
447.391	214.16
447.849	218.96
448.308	202.76
448.767	212.86
449.226	224.76
449.685	225.46
450.143	235.06
450.602	226.46
451.061	219.76
451.519	215.26
451.978	219.96
452.436	222.96
452.895	227.56
453.353	236.56
453.812	229.16
454.27	223.56
454.729	222.46
455.187	228.16
455.646	221.26
456.104	239.46
456.562	244.16
457.021	254.76
457.479	242.46
457.937	261.56
458.395	247.76
458.854	228.16
459.312	241.86
459.77	257.56
460.228	238.36
460.686	239.56
461.144	238.56
461.602	232.96
462.06	232.66
462.518	235.46
462.976	240.46
463.434	247.86
463.892	246.06
464.35	259.86
464.808	272.96
465.266	249.16
465.724	253.76
466.181	261.36
466.639	260.56
467.097	271.66
467.555	282.76
468.012	286.96
468.47	286.26
468.928	310.96
469.385	324.36
469.843	327.86
470.3	331.06
470.758	340.26
471.215	367.66
471.673	382.96
472.13	379.56
472.588	386.76
473.045	351.36
473.503	365.26
473.96	366.06
474.417	388.76
474.875	410.86
475.332	440.96
475.789	437.06
476.246	440.46
476.704	463.66
477.161	477.66
477.618	495.16
478.075	535.06
478.532	579.36
478.989	651.76
479.446	759.46
479.903	721.26
480.36	764.36
480.817	819.86
481.274	928.76
481.731	1030.16
482.188	1104.76
482.645	1236.66
483.102	1339.26
483.558	1471.46
484.015	1517.86
484.472	1503.56
484.929	1458.16
485.385	1410.76
485.842	1369.36
486.299	1302.66
486.755	1240.86
487.212	1033.56
487.668	878.46
488.125	802.96
488.582	748.06
489.038	710.46
489.494	676.36
489.951	646.26
490.407	632.86
490.864	610.66
491.32	616.16
491.776	597.76
492.233	613.16
492.689	576.46
493.145	561.56
493.602	563.76
494.058	574.96
494.514	573.36
494.97	601.96
495.426	614.56
495.882	593.86
496.338	592.66
496.794	606.46
497.251	591.26
497.707	596.36
498.163	591.26
498.618	612.66
499.074	611.36
499.53	637.96
499.986	637.46
500.442	614.16
500.898	594.16
501.354	591.76
501.809	593.36
502.265	593.86
502.721	626.86
503.177	637.36
503.632	625.86
504.088	632.96
504.543	672.16
504.999	662.76
505.455	616.06
505.91	596.56
506.366	601.16
506.821	598.36
507.277	585.36
507.732	580.26
508.187	585.16
508.643	604.96
509.098	592.96
509.553	616.56
510.009	632.66
510.464	631.66
510.919	649.26
511.375	638.16
511.83	668.96
512.285	683.06
512.74	726.96
513.195	736.66
513.65	726.16
514.105	725.46
514.56	723.26
515.015	747.06
515.47	761.46
515.925	744.16
516.38	742.16
516.835	743.16
517.29	740.86
517.745	729.96
518.2	721.56
518.655	716.96
519.109	692.86
519.564	698.46
520.019	690.56
520.474	675.76
520.928	683.76
521.383	678.56
521.838	668.06
522.292	679.86
522.747	668.46
523.201	659.06
523.656	651.26
524.11	647.26
524.565	653.46
525.019	642.56
525.474	658.16
525.928	652.56
526.382	658.66
526.837	652.66
527.291	656.96
527.745	650.46
528.2	650.36
528.654	650.76
529.108	644.86
529.562	647.66
530.016	650.06
530.47	654.96
530.925	641.56
531.379	652.66
531.833	662.16
532.287	667.56
532.741	658.86
533.195	657.06
533.649	676.86
534.103	675.56
534.556	665.96
535.01	677.46
535.464	669.36
535.918	682.96
536.372	677.46
536.826	666.86
537.279	656.56
537.733	679.36
538.187	673.96
538.64	671.86
539.094	679.46
539.548	688.06
540.001	677.96
540.455	676.06
540.908	681.86
541.362	681.06
541.815	694.16
542.269	705.76
542.722	709.96
543.175	723.26
543.629	712.26
544.082	739.36
544.536	737.46
544.989	724.56
545.442	741.66
545.895	735.96
546.349	741.16
546.802	734.46
547.255	736.86
547.708	751.96
548.161	751.66
548.614	751.76
549.067	761.36
549.52	753.66
549.973	751.56
550.426	756.26
550.879	737.26
551.332	739.46
551.785	745.66
552.238	749.86
552.691	757.56
553.144	772.26
553.596	779.56
554.049	791.96
554.502	831.76
554.955	856.26
555.407	833.96
555.86	839.16
556.313	832.06
556.765	819.76
557.218	819.06
557.67	822.86
558.123	810.36
558.576	808.36
559.028	812.76
559.48	809.86
559.933	818.56
560.385	774.56
560.838	743.96
561.29	720.06
561.742	712.76
562.195	704.66
562.647	707.56
563.099	709.86
563.551	713.76
564.004	725.86
564.456	713.46
564.908	704.66
565.36	696.76
565.812	677.86
566.264	666.66
566.716	662.76
567.168	659.96
567.62	668.46
568.072	647.36
568.524	635.56
568.976	635.16
569.428	613.06
569.88	624.06
570.332	627.96
570.784	618.86
571.235	628.06
571.687	638.56
572.139	653.86
572.59	656.46
573.042	651.06
573.494	658.16
573.945	652.66
574.397	630.86
574.849	635.46
575.3	631.06
575.752	622.06
576.203	620.66
576.655	632.06
577.106	622.66
577.557	610.36
578.009	611.26
578.46	602.56
578.912	605.96
579.363	605.66
579.814	609.16
580.265	608.76
580.717	598.66
581.168	605.76
581.619	615.66
582.07	619.56
582.521	619.86
582.972	616.06
583.423	615.36
583.875	615.56
584.326	638.56
584.777	671.26
585.227	753.06
585.678	829.36
586.129	917.36
586.58	989.16
587.031	1078.26
587.482	1232.26
587.933	1388.36
588.384	1211.06
588.834	906.76
589.285	736.46
589.736	711.06
590.186	706.76
590.637	687.26
591.088	677.56
591.538	665.46
591.989	665.06
592.439	660.36
592.89	650.56
593.34	647.66
593.791	641.46
594.241	642.46
594.692	644.06
595.142	628.86
595.593	637.96
596.043	633.26
596.493	629.26
596.943	646.16
597.394	640.66
597.844	630.66
598.294	649.26
598.744	670.76
599.195	691.06
599.645	731.16
600.095	778.36
600.545	816.16
600.995	870.66
601.445	919.36
601.895	965.86
602.345	1012.36
602.795	1003.36
603.245	960.16
603.695	903.76
604.145	856.66
604.594	818.96
605.044	766.56
605.494	713.46
605.944	667.56
606.393	652.26
606.843	654.26
607.293	654.06
607.743	660.86
608.192	664.66
608.642	678.16
609.091	690.56
609.541	691.86
609.99	684.56
610.44	683.86
610.889	638.36
611.339	623.56
611.788	611.96
612.238	613.76
612.687	644.66
613.136	648.46
613.586	664.06
614.035	650.56
614.484	676.06
614.933	683.46
615.383	676.16
615.832	657.26
616.281	649.56
616.73	614.46
617.179	593.16
617.628	574.06
618.077	560.36
618.526	556.66
618.975	545.96
619.424	542.16
619.873	538.96
620.322	552.36
620.771	530.46
621.22	529.16
621.669	530.66
622.118	519.16
622.567	516.56
623.015	499.06
623.464	504.06
623.913	493.76
624.361	494.66
624.81	489.26
625.259	490.86
625.707	492.96
626.156	486.06
626.604	508.36
627.053	497.96
627.501	496.76
627.95	502.56
628.398	506.76
628.847	491.06
629.295	497.86
629.744	507.56
630.192	504.26
630.64	511.26
631.089	488.46
631.537	503.26
631.985	507.96
632.433	529.66
632.881	533.36
633.33	579.06
633.778	556.56
634.226	486.46
634.674	509.36
635.122	508.76
635.57	525.76
636.018	554.16
636.466	514.06
636.914	485.66
637.362	494.26
637.81	505.66
638.258	503.66
638.705	511.76
639.153	531.46
639.601	543.06
640.049	566.86
640.497	585.96
640.944	611.76
641.392	572.66
641.84	540.46
642.287	505.56
642.735	494.36
643.182	498.96
643.63	508.26
644.078	509.86
644.525	520.16
644.973	518.76
645.42	531.76
645.867	542.26
646.315	561.96
646.762	580.16
647.21	601.26
647.657	634.96
648.104	661.56
648.551	689.96
648.999	727.96
649.446	794.56
649.893	879.76
650.34	1009.96
650.787	1193.06
651.234	1486.46
651.682	1946.36
652.129	2674.56
652.576	3836.66
653.023	5664.96
653.47	7831.46
653.917	9915.06
654.363	11588.56
654.81	13004.66
655.257	12336.66
655.704	7986.56
656.151	4717.76
656.598	3038.46
657.044	2152.06
657.491	1647.66
657.938	1322.76
658.385	1094.76
658.831	953.06
659.278	845.76
659.724	750.66
660.171	690.76
660.618	626.66
661.064	599.16
661.511	581.26
661.957	567.86
662.404	552.26
662.85	559.46
663.296	545.66
663.743	481.36
664.189	467.46
664.635	470.86
665.082	457.06
665.528	454.86
665.974	445.46
666.42	439.26
666.867	445.16
667.313	432.76
667.759	420.66
668.205	416.56
668.651	418.96
669.097	420.86
669.543	438.96
669.989	407.06
670.435	394.26
670.881	382.96
671.327	379.76
671.773	407.46
672.219	427.46
672.665	470.86
673.11	497.36
673.556	542.36
674.002	574.66
674.448	561.66
674.893	478.76
675.339	405.16
675.785	373.86
676.23	358.06
676.676	333.06
677.122	318.36
677.567	322.46
678.013	314.86
678.458	300.36
678.904	307.46
679.349	287.96
679.794	312.16
680.24	295.16
680.685	299.46
681.131	301.26
681.576	299.96
682.021	303.96
682.466	295.76
682.912	295.76
683.357	302.16
683.802	325.56
684.247	349.06
684.692	396.46
685.137	430.06
685.583	465.86
686.028	479.26
686.473	444.36
686.918	377.76
687.363	363.06
687.807	336.76
688.252	317.36
688.697	300.86
689.142	291.26
689.587	281.66
690.032	272.46
690.477	295.76
690.921	291.16
691.366	312.26
691.811	346.56
692.255	368.06
692.7	395.26
693.145	423.86
693.589	588.46
694.034	939.76
694.478	1301.46
694.923	1495.96
695.367	1992.26
695.812	1045.66
696.256	426.06
696.701	318.46
697.145	293.76
697.59	279.26
698.034	274.96
698.478	284.56
698.922	279.36
699.367	281.66
699.811	287.66
700.255	304.46
700.699	329.16
701.143	357.76
701.588	407.66
702.032	445.86
702.476	445.06
702.92	418.46
703.364	413.86
703.808	533.36
704.252	867.46
704.696	1235.46
705.14	1444.26
705.584	1874.26
706.027	913.66
706.471	445.96
706.915	339.36
707.359	297.06
707.803	266.86
708.246	259.16
708.69	263.16
709.134	272.96
709.577	264.66
710.021	266.26
710.465	260.86
710.908	258.46
711.352	260.16
711.795	261.26
712.239	301.66
712.682	336.26
713.126	357.56
713.569	396.16
714.012	321.26
714.456	277.46
714.899	253.36
715.342	238.36
715.786	223.56
716.229	213.76
716.672	221.06
717.115	216.36
717.558	212.96
718.002	212.66
718.445	227.86
718.888	244.76
719.331	249.06
719.774	258.86
720.217	265.16
720.66	240.46
721.103	228.66
721.546	211.16
721.989	211.16
722.432	201.96
722.874	203.16
723.317	199.86
723.76	201.96
724.203	216.06
724.645	263.66
725.088	372.36
725.531	482.46
725.974	553.16
726.416	468.56
726.859	265.16
727.301	209.46
727.744	194.66
728.187	198.26
728.629	200.36
729.071	208.96
729.514	222.06
729.956	227.86
730.399	243.16
730.841	244.66
731.283	222.46
731.726	229.66
732.168	219.26
732.61	228.86
733.053	232.96
733.495	258.46
733.937	295.56
734.379	339.16
734.821	366.76
735.263	452.36
735.705	686.96
736.148	1309.96
736.59	2188.36
737.032	2673.06
737.474	2167.16
737.916	693.26
738.357	358.06
738.799	276.66
739.241	256.26
739.683	232.76
740.125	237.46
740.567	251.36
741.008	266.46
741.45	266.56
741.892	265.46
742.334	298.26
742.775	300.06
743.217	298.76
743.658	228.96
744.1	217.56
744.542	220.86
744.983	262.26
745.425	292.86
745.866	295.76
746.307	243.86
746.749	235.46
747.19	273.36
747.632	381.16
748.073	710.66
748.514	1547.56
748.956	2431.26
749.397	3041.36
749.838	2551.06
750.279	2598.86
750.72	1300.16
751.162	470.26
751.603	273.66
752.044	219.16
752.485	180.46
752.926	179.86
753.367	173.46
753.808	163.96
754.249	159.36
754.69	155.46
755.131	151.96
755.572	152.46
756.013	149.26
756.453	152.06
756.894	156.56
757.335	152.16
757.776	162.76
758.216	169.26
758.657	167.56
759.098	166.46
759.538	186.86
759.979	217.26
760.42	313.06
760.86	570.06
761.301	1461.86
761.741	3679.86
762.182	5659.76
762.622	3974.86
