Data from 20171114-ORNL-Ar_H_NY_Subt18_08-06-29-196.txt Node
Date: Tue Nov 14 08:06:29 EST 2017
User: Ender
Spectrometer: HR+D1039
Trigger mode: 0
Integration Time (sec): 2.730000E-2
Scans to average: 10
Electric dark correction enabled: true
Nonlinearity correction enabled: false
Boxcar width: 0
XAxis mode: Wavelengths
Number of Pixels in Spectrum: 2048
>>>>>Begin Spectral Data<<<<<
187.836	-5.06
188.309	-5.06
188.782	-5.06
189.255	-1.46
189.728	1.94
190.201	6.74
190.674	0.44
191.147	1.44
191.619	-9.36
192.092	-1.96
192.565	8.04
193.038	-1.46
193.511	3.04
193.984	2.64
194.456	-0.76
194.929	0.44
195.402	-1.26
195.874	-3.46
196.347	-2.36
196.82	-5.56
197.292	6.14
197.765	-2.36
198.237	-7.66
198.71	-4.46
199.182	-4.76
199.655	1.84
200.127	8.84
200.6	-1.16
201.072	-5.86
201.544	-2.76
202.017	-4.86
202.489	0.54
202.961	-2.16
203.433	0.44
203.906	-2.56
204.378	-3.46
204.85	-6.96
205.322	-8.06
205.794	-8.26
206.266	1.14
206.739	-6.76
207.211	4.04
207.683	-13.56
208.155	-9.96
208.627	-11.16
209.099	-2.86
209.57	-7.06
210.042	-2.96
210.514	-3.96
210.986	-3.26
211.458	-8.86
211.93	-2.26
212.402	4.64
212.873	-3.56
213.345	-9.16
213.817	-10.86
214.288	-5.76
214.76	-7.16
215.232	-6.46
215.703	-2.06
216.175	-2.66
216.646	-10.86
217.118	-10.96
217.589	-6.16
218.061	-1.96
218.532	-4.06
219.004	0.84
219.475	-3.96
219.946	-4.76
220.418	-6.46
220.889	-3.86
221.36	-1.56
221.832	-6.96
222.303	-5.86
222.774	1.54
223.245	-6.26
223.717	-0.06
224.188	-1.26
224.659	-6.36
225.13	-7.46
225.601	-2.26
226.072	4.24
226.543	-2.46
227.014	-6.16
227.485	-2.66
227.956	-5.06
228.427	-2.36
228.898	1.44
229.369	2.84
229.839	-2.06
230.31	-6.46
230.781	2.64
231.252	-5.36
231.722	-0.26
232.193	-1.86
232.664	-1.36
233.135	-2.56
233.605	-2.56
234.076	-2.06
234.546	1.94
235.017	0.14
235.487	-2.16
235.958	3.94
236.428	-3.96
236.899	2.94
237.369	3.04
237.84	-1.66
238.31	8.14
238.78	1.44
239.251	1.24
239.721	4.84
240.191	2.34
240.662	-2.86
241.132	-0.76
241.602	-3.16
242.072	12.44
242.542	6.14
243.013	1.94
243.483	-1.46
243.953	4.44
244.423	0.14
244.893	0.24
245.363	2.14
245.833	-0.06
246.303	-3.46
246.773	8.04
247.243	5.74
247.712	-1.06
248.182	11.24
248.652	8.54
249.122	-1.56
249.592	11.14
250.061	21.44
250.531	24.04
251.001	6.74
251.471	22.84
251.94	22.24
252.41	7.84
252.879	0.74
253.349	16.44
253.818	9.24
254.288	7.54
254.757	5.14
255.227	1.24
255.696	4.34
256.166	8.04
256.635	3.54
257.105	3.54
257.574	6.14
258.043	9.14
258.513	15.14
258.982	17.94
259.451	9.34
259.92	10.64
260.389	7.14
260.859	19.84
261.328	10.94
261.797	18.04
262.266	7.44
262.735	7.84
263.204	8.14
263.673	6.34
264.142	3.64
264.611	1.14
265.08	2.34
265.549	-2.46
266.018	2.94
266.487	1.04
266.955	-2.56
267.424	3.74
267.893	10.24
268.362	1.24
268.83	1.14
269.299	5.24
269.768	8.94
270.236	10.54
270.705	-3.36
271.174	2.14
271.642	4.54
272.111	11.44
272.579	13.84
273.048	21.14
273.516	29.74
273.985	25.04
274.453	24.14
274.922	20.54
275.39	9.34
275.858	-2.86
276.327	14.04
276.795	17.74
277.263	8.94
277.731	30.44
278.2	61.64
278.668	63.24
279.136	51.34
279.604	16.54
280.072	18.74
280.54	12.04
281.008	12.04
281.477	14.94
281.945	7.84
282.413	10.94
282.881	13.44
283.348	4.84
283.816	13.94
284.284	13.64
284.752	24.44
285.22	12.44
285.688	14.94
286.156	23.94
286.623	49.34
287.091	50.34
287.559	29.04
288.026	19.64
288.494	19.74
288.962	5.44
289.429	8.84
289.897	20.74
290.364	9.64
290.832	14.24
291.3	12.04
291.767	15.94
292.234	19.44
292.702	14.94
293.169	24.64
293.637	22.24
294.104	17.94
294.571	10.14
295.039	14.84
295.506	16.14
295.973	20.24
296.44	11.84
296.908	19.24
297.375	23.34
297.842	25.64
298.309	18.84
298.776	13.84
299.243	22.04
299.71	14.44
300.177	24.04
300.644	23.44
301.111	26.84
301.578	24.24
302.045	15.44
302.512	18.94
302.979	21.54
303.446	18.34
303.913	17.14
304.379	21.54
304.846	21.84
305.313	25.94
305.78	21.54
306.246	25.64
306.713	29.74
307.18	23.64
307.646	28.04
308.113	29.34
308.579	23.34
309.046	30.64
309.512	26.34
309.979	12.84
310.445	29.54
310.912	32.34
311.378	33.94
311.845	25.84
312.311	29.74
312.777	35.14
313.244	34.34
313.71	38.94
314.176	33.24
314.642	34.04
315.109	30.44
315.575	33.94
316.041	47.04
316.507	37.94
316.973	32.04
317.439	31.54
317.905	35.24
318.371	30.84
318.837	39.14
319.303	38.14
319.769	36.14
320.235	35.84
320.701	38.54
321.167	35.84
321.633	36.44
322.099	42.24
322.564	43.24
323.03	35.04
323.496	33.74
323.962	37.14
324.427	35.14
324.893	38.04
325.359	40.14
325.824	42.74
326.29	31.94
326.755	38.44
327.221	40.34
327.686	35.14
328.152	45.84
328.617	40.94
329.083	47.64
329.548	52.14
330.014	48.34
330.479	43.34
330.944	48.04
331.41	41.94
331.875	48.24
332.34	45.14
332.805	45.34
333.271	42.24
333.736	48.04
334.201	52.24
334.666	50.14
335.131	51.84
335.596	54.34
336.061	52.04
336.526	43.14
336.991	48.94
337.456	54.54
337.921	50.74
338.386	53.44
338.851	43.14
339.316	48.04
339.781	36.94
340.246	53.34
340.711	48.84
341.175	46.14
341.64	46.74
342.105	57.34
342.569	57.34
343.034	58.84
343.499	58.84
343.963	53.74
344.428	64.74
344.893	60.54
345.357	61.54
345.822	62.54
346.286	73.14
346.751	73.34
347.215	61.54
347.679	71.14
348.144	101.14
348.608	84.54
349.073	72.54
349.537	81.54
350.001	83.44
350.465	91.04
350.93	81.24
351.394	78.14
351.858	68.44
352.322	87.64
352.786	88.64
353.25	105.54
353.715	107.64
354.179	101.84
354.643	126.74
355.107	128.24
355.571	111.84
356.035	104.14
356.498	118.74
356.962	129.94
357.426	134.44
357.89	119.04
358.354	89.64
358.818	83.54
359.281	85.04
359.745	82.54
360.209	78.34
360.673	73.34
361.136	81.04
361.6	81.84
362.064	83.94
362.527	87.84
362.991	94.74
363.454	82.64
363.918	79.54
364.381	78.24
364.845	82.94
365.308	83.84
365.772	83.84
366.235	88.74
366.698	90.44
367.162	89.24
367.625	91.44
368.088	90.14
368.552	93.44
369.015	91.84
369.478	98.64
369.941	99.44
370.404	99.64
370.867	101.24
371.331	109.44
371.794	120.64
372.257	119.84
372.72	118.44
373.183	112.84
373.646	105.34
374.109	103.94
374.572	120.64
375.035	119.14
375.497	115.64
375.96	107.24
376.423	101.14
376.886	111.54
377.349	114.84
377.811	102.64
378.274	109.84
378.737	111.34
379.199	115.94
379.662	117.24
380.125	119.94
380.587	119.34
381.05	124.84
381.512	126.34
381.975	143.14
382.437	138.44
382.9	131.14
383.362	138.24
383.825	142.24
384.287	148.44
384.75	141.84
385.212	142.34
385.674	146.74
386.136	144.34
386.599	129.34
387.061	127.14
387.523	130.34
387.985	134.74
388.447	150.14
388.91	146.34
389.372	164.04
389.834	164.64
390.296	147.84
390.758	166.34
391.22	180.14
391.682	221.24
392.144	321.44
392.606	233.74
393.068	175.04
393.529	178.24
393.991	161.74
394.453	159.74
394.915	165.34
395.377	201.94
395.838	228.84
396.3	163.04
396.762	146.54
397.224	135.64
397.685	130.14
398.147	140.44
398.608	132.94
399.07	131.94
399.531	137.34
399.993	147.94
400.454	151.34
400.916	150.94
401.377	145.64
401.839	152.44
402.3	162.44
402.762	179.44
403.223	186.34
403.684	178.14
404.145	168.04
404.607	166.04
405.068	168.94
405.529	176.44
405.99	191.64
406.451	183.74
406.913	182.54
407.374	168.74
407.835	168.24
408.296	171.54
408.757	179.04
409.218	190.44
409.679	185.54
410.14	181.54
410.601	181.04
411.062	191.64
411.522	196.44
411.983	198.34
412.444	182.04
412.905	183.14
413.366	183.74
413.826	199.44
414.287	224.04
414.748	273.34
415.208	250.94
415.669	227.94
416.13	212.14
416.59	204.74
417.051	220.64
417.511	226.74
417.972	244.24
418.432	248.44
418.893	295.04
419.353	254.04
419.814	205.34
420.274	191.34
420.734	188.64
421.195	205.14
421.655	202.24
422.115	198.74
422.576	201.44
423.036	205.24
423.496	218.14
423.956	218.94
424.416	242.24
424.876	271.74
425.336	264.84
425.797	273.24
426.257	266.54
426.717	245.94
427.177	240.84
427.637	228.24
428.097	242.74
428.556	255.54
429.016	273.94
429.476	271.84
429.936	280.64
430.396	285.34
430.856	303.64
431.315	325.34
431.775	359.64
432.235	395.54
432.694	362.54
433.154	379.64
433.614	399.74
434.073	349.14
434.533	295.14
434.993	279.64
435.452	293.94
435.912	310.64
436.371	302.64
436.83	292.44
437.29	271.34
437.749	257.04
438.209	255.54
438.668	275.14
439.127	294.14
439.587	267.94
440.046	249.74
440.505	266.84
440.964	282.04
441.424	333.54
441.883	324.24
442.342	267.94
442.801	228.24
443.26	228.24
443.719	223.64
444.178	225.24
444.637	216.14
445.096	225.44
445.555	229.24
446.014	234.44
446.473	232.04
446.932	242.14
447.391	229.94
447.849	239.34
448.308	224.14
448.767	226.04
449.226	242.24
449.685	246.34
450.143	258.64
450.602	243.74
451.061	236.44
451.519	232.04
451.978	233.94
452.436	245.54
452.895	246.04
453.353	259.64
453.812	244.34
454.27	245.34
454.729	238.34
455.187	242.04
455.646	250.64
456.104	257.74
456.562	273.14
457.021	281.54
457.479	268.34
457.937	273.24
458.395	269.04
458.854	257.24
459.312	257.64
459.77	282.84
460.228	258.34
460.686	250.24
461.144	253.84
461.602	251.64
462.06	245.54
462.518	262.84
462.976	259.14
463.434	261.94
463.892	271.14
464.35	281.94
464.808	298.24
465.266	272.14
465.724	277.44
466.181	275.24
466.639	275.54
467.097	301.34
467.555	307.34
468.012	317.44
468.47	311.14
468.928	331.24
469.385	346.24
469.843	360.94
470.3	358.24
470.758	370.04
471.215	388.44
471.673	420.14
472.13	420.84
472.588	429.94
473.045	380.24
473.503	381.54
473.96	402.34
474.417	420.64
474.875	446.54
475.332	484.84
475.789	476.24
476.246	480.44
476.704	499.44
477.161	523.14
477.618	542.24
478.075	579.54
478.532	634.74
478.989	707.54
479.446	840.04
479.903	797.84
480.36	826.64
480.817	894.54
481.274	1003.34
481.731	1113.14
482.188	1211.54
482.645	1348.84
483.102	1460.84
483.558	1600.04
484.015	1664.64
484.472	1640.74
484.929	1581.54
485.385	1525.44
485.842	1472.14
486.299	1399.74
486.755	1342.44
487.212	1134.74
487.668	953.24
488.125	874.04
488.582	804.64
489.038	761.54
489.494	738.64
489.951	706.84
490.407	682.04
490.864	669.44
491.32	653.84
491.776	650.94
492.233	655.24
492.689	625.54
493.145	614.94
493.602	606.94
494.058	632.84
494.514	632.74
494.97	652.74
495.426	670.24
495.882	638.54
496.338	627.54
496.794	642.14
497.251	628.74
497.707	637.84
498.163	650.04
498.618	654.84
499.074	654.84
499.53	682.74
499.986	685.94
500.442	663.54
500.898	645.54
501.354	639.14
501.809	649.74
502.265	654.34
502.721	675.84
503.177	689.54
503.632	679.94
504.088	697.34
504.543	728.24
504.999	714.04
505.455	672.24
505.91	643.94
506.366	636.54
506.821	646.24
507.277	634.94
507.732	641.44
508.187	638.14
508.643	643.74
509.098	652.34
509.553	671.84
510.009	679.04
510.464	690.44
510.919	707.44
511.375	709.84
511.83	722.64
512.285	735.04
512.74	779.44
513.195	803.04
513.65	794.94
514.105	787.84
514.56	780.34
515.015	806.74
515.47	829.64
515.925	810.14
516.38	806.74
516.835	815.84
517.29	794.74
517.745	786.24
518.2	777.14
518.655	761.24
519.109	761.04
519.564	750.84
520.019	750.04
520.474	741.94
520.928	751.24
521.383	741.04
521.838	720.94
522.292	720.74
522.747	725.34
523.201	728.34
523.656	709.84
524.11	711.54
524.565	711.24
525.019	701.94
525.474	712.14
525.928	706.44
526.382	718.64
526.837	714.34
527.291	709.64
527.745	707.74
528.2	705.44
528.654	705.34
529.108	704.94
529.562	703.94
530.016	700.64
530.47	707.64
530.925	703.04
531.379	709.24
531.833	725.94
532.287	717.34
532.741	706.74
533.195	718.54
533.649	725.24
534.103	739.04
534.556	726.04
535.01	718.04
535.464	716.64
535.918	735.14
536.372	736.04
536.826	726.44
537.279	714.24
537.733	730.84
538.187	731.64
538.64	721.04
539.094	737.24
539.548	747.14
540.001	740.94
540.455	741.04
540.908	747.44
541.362	743.34
541.815	752.24
542.269	774.44
542.722	776.54
543.175	782.34
543.629	787.64
544.082	790.24
544.536	794.24
544.989	802.44
545.442	800.94
545.895	801.24
546.349	806.34
546.802	808.44
547.255	807.94
547.708	817.04
548.161	833.34
548.614	845.54
549.067	833.44
549.52	836.34
549.973	819.04
550.426	832.84
550.879	816.74
551.332	812.64
551.785	817.34
552.238	813.44
552.691	828.74
553.144	843.04
553.596	866.34
554.049	872.84
554.502	905.44
554.955	926.64
555.407	924.64
555.86	911.64
556.313	906.14
556.765	904.84
557.218	896.64
557.67	894.14
558.123	878.94
558.576	884.04
559.028	890.54
559.48	893.74
559.933	894.14
560.385	854.84
560.838	822.84
561.29	804.84
561.742	784.74
562.195	780.34
562.647	780.74
563.099	786.94
563.551	787.64
564.004	799.24
564.456	786.24
564.908	770.74
565.36	764.14
565.812	747.44
566.264	735.04
566.716	739.34
567.168	729.74
567.62	740.04
568.072	711.54
568.524	710.94
568.976	701.94
569.428	692.24
569.88	687.54
570.332	692.64
570.784	701.14
571.235	695.34
571.687	703.84
572.139	711.54
572.59	726.14
573.042	715.84
573.494	716.24
573.945	714.64
574.397	692.14
574.849	704.94
575.3	698.34
575.752	691.74
576.203	684.24
576.655	692.04
577.106	688.84
577.557	676.54
578.009	683.14
578.46	677.34
578.912	682.24
579.363	677.94
579.814	685.74
580.265	674.94
580.717	668.94
581.168	676.74
581.619	681.04
582.07	686.54
582.521	691.14
582.972	680.64
583.423	684.34
583.875	696.74
584.326	713.24
584.777	767.24
585.227	845.44
585.678	952.74
586.129	1043.94
586.58	1121.34
587.031	1224.14
587.482	1388.54
587.933	1585.54
588.384	1380.54
588.834	999.04
589.285	819.24
589.736	800.14
590.186	790.44
590.637	782.64
591.088	750.34
591.538	748.84
591.989	737.54
592.439	744.24
592.89	730.14
593.34	723.04
593.791	720.94
594.241	719.04
594.692	722.14
595.142	720.94
595.593	714.84
596.043	722.64
596.493	728.94
596.943	729.24
597.394	731.34
597.844	729.74
598.294	738.04
598.744	765.34
599.195	789.04
599.645	836.84
600.095	860.24
600.545	930.04
600.995	991.84
601.445	1041.04
601.895	1099.34
602.345	1148.74
602.795	1138.34
603.245	1073.14
603.695	1025.74
604.145	968.64
604.594	917.24
605.044	864.84
605.494	801.94
605.944	754.24
606.393	754.04
606.843	732.74
607.293	745.64
607.743	747.14
608.192	748.64
608.642	762.24
609.091	774.74
609.541	784.54
609.99	783.44
610.44	779.64
610.889	725.14
611.339	712.44
611.788	705.74
612.238	708.94
612.687	723.64
613.136	731.14
613.586	748.84
614.035	747.94
614.484	775.74
614.933	774.84
615.383	769.14
615.832	758.04
616.281	740.44
616.73	702.94
617.179	683.94
617.628	662.14
618.077	637.24
618.526	634.74
618.975	625.14
619.424	626.14
619.873	615.84
620.322	627.94
620.771	622.04
621.22	609.14
621.669	602.24
622.118	591.84
622.567	580.34
623.015	583.54
623.464	581.34
623.913	564.14
624.361	557.94
624.81	561.14
625.259	564.74
625.707	550.54
626.156	576.64
626.604	574.74
627.053	563.74
627.501	568.14
627.95	572.64
628.398	577.34
628.847	575.14
629.295	575.44
629.744	583.44
630.192	576.64
630.64	583.24
631.089	570.54
631.537	591.44
631.985	587.64
632.433	603.44
632.881	623.04
633.33	664.84
633.778	644.54
634.226	575.74
634.674	584.64
635.122	590.04
635.57	607.54
636.018	630.24
636.466	580.84
636.914	562.54
637.362	569.94
637.81	579.04
638.258	584.64
638.705	578.44
639.153	624.04
639.601	618.04
640.049	648.94
640.497	681.24
640.944	694.74
641.392	645.54
641.84	621.14
642.287	594.34
642.735	564.24
643.182	577.04
643.63	587.24
644.078	577.14
644.525	603.84
644.973	610.64
645.42	609.04
645.867	626.44
646.315	641.84
646.762	668.84
647.21	707.64
647.657	728.24
648.104	763.54
648.551	789.84
648.999	848.64
649.446	923.74
649.893	1030.54
650.34	1181.84
650.787	1407.44
651.234	1760.04
651.682	2320.04
652.129	3174.14
652.576	4588.74
653.023	6789.14
653.47	9301.34
653.917	11649.34
654.363	13420.24
654.81	14804.44
655.257	14120.54
655.704	9184.74
656.151	5429.54
656.598	3512.34
657.044	2475.44
657.491	1905.34
657.938	1529.54
658.385	1268.94
658.831	1092.54
659.278	984.74
659.724	871.24
660.171	793.94
660.618	741.34
661.064	694.84
661.511	674.94
661.957	662.64
662.404	657.64
662.85	667.54
663.296	627.34
663.743	575.64
664.189	551.14
664.635	536.54
665.082	532.74
665.528	528.84
665.974	514.74
666.42	521.04
666.867	514.64
667.313	498.04
667.759	494.24
668.205	491.74
668.651	496.84
669.097	495.34
669.543	512.54
669.989	478.94
670.435	455.04
670.881	448.04
671.327	454.04
671.773	473.74
672.219	490.74
672.665	542.44
673.11	588.74
673.556	630.84
674.002	673.34
674.448	656.74
674.893	551.44
675.339	483.04
675.785	441.64
676.23	416.44
676.676	398.44
677.122	383.54
677.567	372.24
678.013	367.94
678.458	357.54
678.904	363.24
679.349	354.84
679.794	357.34
680.24	351.94
680.685	353.24
681.131	345.44
681.576	351.04
682.021	365.84
682.466	347.24
682.912	355.54
683.357	355.44
683.802	379.54
684.247	416.34
684.692	458.14
685.137	497.14
685.583	537.94
686.028	568.44
686.473	515.34
686.918	445.74
687.363	421.94
687.807	392.44
688.252	370.94
688.697	360.84
689.142	334.74
689.587	332.74
690.032	329.14
690.477	345.24
690.921	354.84
691.366	383.04
691.811	401.94
692.255	439.14
692.7	463.34
693.145	498.44
693.589	702.64
694.034	1134.34
694.478	1528.84
694.923	1725.64
695.367	2258.84
695.812	1184.64
696.256	502.64
696.701	375.84
697.145	348.44
697.59	334.64
698.034	317.14
698.478	328.04
698.922	326.54
699.367	331.14
699.811	349.34
700.255	355.64
700.699	386.84
701.143	413.94
701.588	473.84
702.032	516.44
702.476	514.94
702.92	489.94
703.364	485.44
703.808	633.24
704.252	1048.34
704.696	1454.64
705.14	1658.24
705.584	2132.94
706.027	1061.14
706.471	517.44
706.915	394.04
707.359	346.24
707.803	325.24
708.246	311.84
708.69	317.14
709.134	317.54
709.577	313.84
710.021	319.04
710.465	311.44
710.908	308.34
711.352	294.64
711.795	309.74
712.239	353.34
712.682	384.44
713.126	401.54
713.569	463.24
714.012	376.94
714.456	330.14
714.899	299.24
715.342	275.44
715.786	261.04
716.229	263.44
716.672	257.54
717.115	254.84
717.558	254.94
718.002	252.14
718.445	263.54
718.888	284.94
719.331	289.14
719.774	300.14
720.217	304.44
720.66	289.24
721.103	270.24
721.546	255.54
721.989	265.74
722.432	237.44
722.874	244.54
723.317	222.44
723.76	241.74
724.203	253.54
724.645	316.04
725.088	443.64
725.531	580.14
725.974	638.44
726.416	547.14
726.859	297.44
727.301	246.54
727.744	233.24
728.187	234.24
728.629	235.94
729.071	235.94
729.514	259.64
729.956	269.34
730.399	285.94
730.841	290.04
731.283	273.34
731.726	265.74
732.168	266.64
732.61	266.94
733.053	286.94
733.495	312.24
733.937	352.64
734.379	394.84
734.821	428.14
735.263	542.74
735.705	822.04
736.148	1579.64
736.59	2575.24
737.032	3027.14
737.474	2480.24
737.916	809.64
738.357	428.54
738.799	322.74
739.241	300.94
739.683	282.64
740.125	294.54
740.567	295.64
741.008	313.74
741.45	310.24
741.892	314.34
742.334	343.84
742.775	357.14
743.217	334.94
743.658	268.24
744.1	250.54
744.542	259.84
744.983	308.54
745.425	337.74
745.866	342.84
746.307	276.74
746.749	284.84
747.19	318.24
747.632	455.64
748.073	877.64
748.514	1857.64
748.956	2843.84
749.397	3549.64
749.838	2940.74
750.279	2962.34
750.72	1478.64
751.162	546.44
751.603	317.64
752.044	246.94
752.485	217.14
752.926	210.24
753.367	203.54
753.808	188.54
754.249	196.14
754.69	185.44
755.131	182.14
755.572	183.04
756.013	178.64
756.453	180.34
756.894	192.34
757.335	190.84
757.776	199.54
758.216	194.54
758.657	196.34
759.098	209.54
759.538	226.64
759.979	262.74
760.42	374.44
760.86	697.54
761.301	1824.44
761.741	4393.34
762.182	6405.94
