Data from 20171114-ORNL-Ar_H_NY_Subt18_08-05-27-231.txt Node
Date: Tue Nov 14 08:05:27 EST 2017
User: Ender
Spectrometer: HR+D1039
Trigger mode: 0
Integration Time (sec): 2.730000E-2
Scans to average: 10
Electric dark correction enabled: true
Nonlinearity correction enabled: false
Boxcar width: 0
XAxis mode: Wavelengths
Number of Pixels in Spectrum: 2048
>>>>>Begin Spectral Data<<<<<
187.836	0
188.309	0
188.782	0
189.255	-1.3
189.728	-0.8
190.201	7.1
190.674	-1.7
191.147	0.7
191.619	-8.3
192.092	-0.3
192.565	8.9
193.038	-1.2
193.511	-2.9
193.984	0.8
194.456	-5.2
194.929	0.7
195.402	-0.1
195.874	3.6
196.347	-1.4
196.82	-3.3
197.292	3.8
197.765	1
198.237	-1
198.71	2
199.182	-5
199.655	2.5
200.127	3.8
200.6	-1.1
201.072	4.6
201.544	-2.7
202.017	-2.6
202.489	4.6
202.961	1.3
203.433	-2.5
203.906	-4.2
204.378	-2.4
204.85	-3.9
205.322	-7
205.794	1.1
206.266	-1.5
206.739	-4.8
207.211	1.8
207.683	-4
208.155	-4.3
208.627	-4.6
209.099	0.6
209.57	-6.7
210.042	-1.5
210.514	-2
210.986	1.5
211.458	-5.3
211.93	-3.9
212.402	-2.2
212.873	-6.4
213.345	0.2
213.817	-7.5
214.288	-4.4
214.76	-5.2
215.232	-3.9
215.703	0.7
216.175	-0.4
216.646	-6.5
217.118	-3.2
217.589	-0.6
218.061	-0.5
218.532	-4.3
219.004	1.3
219.475	-4.5
219.946	-3.6
220.418	-9
220.889	4.9
221.36	6.1
221.832	0.6
222.303	-9.9
222.774	-3.3
223.245	-5.2
223.717	-2.1
224.188	1.8
224.659	-6.8
225.13	-6.1
225.601	2.3
226.072	-1.5
226.543	-1
227.014	2.1
227.485	-1.5
227.956	-8.2
228.427	-1.7
228.898	3.6
229.369	3.1
229.839	2.7
230.31	-4.8
230.781	4.8
231.252	3.7
231.722	0.6
232.193	-1.3
232.664	-2.7
233.135	2.4
233.605	-2.2
234.076	-3.3
234.546	2.8
235.017	9.2
235.487	1.6
235.958	-3.8
236.428	0.4
236.899	2.8
237.369	13.1
237.84	-2.8
238.31	6.4
238.78	6.1
239.251	0.2
239.721	2.6
240.191	1.7
240.662	-1.6
241.132	5.2
241.602	-2.8
242.072	2.7
242.542	0.1
243.013	-0.4
243.483	5.9
243.953	6.7
244.423	-3.6
244.893	2.8
245.363	5.7
245.833	3.7
246.303	0
246.773	4.6
247.243	10.1
247.712	0.3
248.182	13.9
248.652	10.7
249.122	-0.2
249.592	7
250.061	24.2
250.531	36.5
251.001	22.6
251.471	21.6
251.94	24.6
252.41	9.4
252.879	1.9
253.349	10
253.818	7.4
254.288	5.3
254.757	7
255.227	-4.4
255.696	0.9
256.166	4.5
256.635	10.8
257.105	2.4
257.574	10.1
258.043	10.2
258.513	7.2
258.982	20.9
259.451	13.9
259.92	20.4
260.389	12.3
260.859	17
261.328	17.4
261.797	13.9
262.266	3.8
262.735	13.1
263.204	5.1
263.673	-0.6
264.142	9.4
264.611	-0.1
265.08	3.7
265.549	2.8
266.018	11.2
266.487	-1.1
266.955	2.7
267.424	5.4
267.893	10.7
268.362	6.8
268.83	6.7
269.299	10.9
269.768	8.7
270.236	10.4
270.705	2.9
271.174	7.7
271.642	6.5
272.111	11
272.579	20.1
273.048	24.2
273.516	32.1
273.985	31.7
274.453	28.5
274.922	22.5
275.39	14
275.858	8.3
276.327	11.2
276.795	20.1
277.263	7
277.731	35.6
278.2	58.4
278.668	62.6
279.136	50.7
279.604	16.4
280.072	22.5
280.54	17.4
281.008	18.2
281.477	14.1
281.945	12.3
282.413	10.9
282.881	17.2
283.348	10.1
283.816	22.4
284.284	11.6
284.752	22.2
285.22	20.3
285.688	24.5
286.156	19.1
286.623	46.8
287.091	54.3
287.559	28.8
288.026	18.7
288.494	12.3
288.962	8.2
289.429	14.5
289.897	16.1
290.364	7.6
290.832	22.4
291.3	13.6
291.767	23.1
292.234	24.2
292.702	18.7
293.169	21.8
293.637	20
294.104	22.9
294.571	12.4
295.039	15.1
295.506	17.3
295.973	21.8
296.44	16.2
296.908	19.6
297.375	18.2
297.842	25.7
298.309	18.2
298.776	19.9
299.243	22.4
299.71	11.4
300.177	25
300.644	21.1
301.111	27.4
301.578	29.5
302.045	22.8
302.512	22.4
302.979	28.6
303.446	22.8
303.913	26.9
304.379	23.2
304.846	30.2
305.313	26.7
305.78	23.3
306.246	32.1
306.713	30.8
307.18	32.6
307.646	26.2
308.113	32
308.579	27
309.046	30.1
309.512	29
309.979	25.5
310.445	26.8
310.912	31.4
311.378	40.8
311.845	31.3
312.311	35.9
312.777	32.3
313.244	34.8
313.71	39.6
314.176	35.8
314.642	30.7
315.109	34.2
315.575	39.3
316.041	42.5
316.507	37.4
316.973	41.9
317.439	39.3
317.905	40.8
318.371	37.6
318.837	43.5
319.303	33.8
319.769	39.6
320.235	45.1
320.701	38.8
321.167	38.9
321.633	38.9
322.099	41.8
322.564	49.9
323.03	39.1
323.496	42.6
323.962	43.3
324.427	40.3
324.893	44.7
325.359	41.1
325.824	40.4
326.29	36.3
326.755	40.7
327.221	36.8
327.686	40.6
328.152	47.4
328.617	39
329.083	45.7
329.548	55.6
330.014	49.2
330.479	46.2
330.944	49.6
331.41	44.4
331.875	46
332.34	41.3
332.805	40
333.271	52.9
333.736	48.5
334.201	57.8
334.666	53
335.131	53.8
335.596	58
336.061	58.7
336.526	46.4
336.991	57.7
337.456	51.8
337.921	50.2
338.386	44.6
338.851	51.8
339.316	46.7
339.781	49.3
340.246	50.4
340.711	50.7
341.175	53.1
341.64	42.8
342.105	54.3
342.569	58.6
343.034	62
343.499	60.7
343.963	61.4
344.428	64.3
344.893	62
345.357	61.1
345.822	61.9
346.286	64.3
346.751	76.6
347.215	74.3
347.679	79.2
348.144	94.6
348.608	85.9
349.073	77.2
349.537	79.7
350.001	84.9
350.465	90.9
350.93	87.9
351.394	85.1
351.858	74.1
352.322	92.8
352.786	84.8
353.25	106.7
353.715	112.9
354.179	107.2
354.643	121
355.107	129.8
355.571	110.8
356.035	108.4
356.498	113
356.962	118.2
357.426	126.1
357.89	118.1
358.354	94.9
358.818	83.6
359.281	81.8
359.745	87.2
360.209	77.7
360.673	81
361.136	78.4
361.6	84.5
362.064	83.1
362.527	83.5
362.991	88.3
363.454	87.2
363.918	82
364.381	72.9
364.845	89.8
365.308	86
365.772	82.7
366.235	82.8
366.698	81.5
367.162	84.6
367.625	86.6
368.088	91.3
368.552	96.3
369.015	91.2
369.478	101.5
369.941	104.1
370.404	94.7
370.867	102.9
371.331	109.2
371.794	120
372.257	117.7
372.72	124.8
373.183	111.1
373.646	110.1
374.109	103
374.572	113.2
375.035	111.1
375.497	109.1
375.96	108
376.423	106.8
376.886	117.7
377.349	113.8
377.811	102.6
378.274	116.3
378.737	109.4
379.199	108.9
379.662	111.5
380.125	119.2
380.587	116.7
381.05	125.9
381.512	132.8
381.975	134.9
382.437	127.5
382.9	132
383.362	129.8
383.825	140.5
384.287	142.7
384.75	144.6
385.212	141.9
385.674	141.9
386.136	137.2
386.599	122.7
387.061	129.9
387.523	129.2
387.985	134.5
388.447	143.3
388.91	142.4
389.372	155.8
389.834	150.6
390.296	143.6
390.758	149.6
391.22	165.5
391.682	210.1
392.144	291.9
392.606	226.2
393.068	164.3
393.529	169.5
393.991	155.5
394.453	143.6
394.915	155.7
395.377	192.2
395.838	213.3
396.3	151.7
396.762	146.1
397.224	133.7
397.685	129.6
398.147	135.1
398.608	133.7
399.07	131.7
399.531	139.6
399.993	138.9
400.454	153.1
400.916	148.4
401.377	143.6
401.839	149
402.3	152.5
402.762	156.7
403.223	176
403.684	170.4
404.145	164.2
404.607	156.1
405.068	156.6
405.529	167.5
405.99	186.3
406.451	178.8
406.913	169.1
407.374	158
407.835	159.8
408.296	165.1
408.757	168.8
409.218	186.4
409.679	180.8
410.14	180.8
410.601	175.9
411.062	183.7
411.522	188.6
411.983	186.8
412.444	183.2
412.905	185.1
413.366	182.1
413.826	185.3
414.287	221.2
414.748	260.9
415.208	244.4
415.669	212.4
416.13	208.4
416.59	199.5
417.051	213.3
417.511	208.4
417.972	237.6
418.432	242.2
418.893	289.5
419.353	252.9
419.814	199
420.274	182.3
420.734	182.8
421.195	196.5
421.655	191.8
422.115	195.7
422.576	186.8
423.036	197.2
423.496	208.2
423.956	211.7
424.416	230.6
424.876	264.7
425.336	252.8
425.797	259.6
426.257	250.3
426.717	239.6
427.177	228.3
427.637	220.5
428.097	229.3
428.556	252.1
429.016	269
429.476	261.5
429.936	276.9
430.396	272.1
430.856	297.8
431.315	319.8
431.775	345.2
432.235	376.7
432.694	347.9
433.154	350.7
433.614	389.7
434.073	331.9
434.533	289.7
434.993	270.1
435.452	274.7
435.912	284.1
436.371	284.6
436.83	282.7
437.29	271.8
437.749	246.9
438.209	236
438.668	278.5
439.127	287.4
439.587	267.2
440.046	249.6
440.505	264.2
440.964	280.3
441.424	323.9
441.883	304.9
442.342	255.6
442.801	224.8
443.26	221.4
443.719	214.1
444.178	217.3
444.637	207.9
445.096	214.3
445.555	222.2
446.014	222.5
446.473	221.3
446.932	222.8
447.391	223.2
447.849	222.5
448.308	221.2
448.767	223.3
449.226	239
449.685	236.3
450.143	239.1
450.602	239.6
451.061	223.4
451.519	232.6
451.978	229.5
452.436	233.6
452.895	244.4
453.353	255.9
453.812	240.4
454.27	237.9
454.729	238.2
455.187	237.3
455.646	241
456.104	245.8
456.562	256.5
457.021	263.8
457.479	260
457.937	266.3
458.395	262.8
458.854	246.3
459.312	245.8
459.77	277.6
460.228	258.5
460.686	238.2
461.144	249
461.602	244.3
462.06	247.5
462.518	253.9
462.976	258.2
463.434	252.4
463.892	258.8
464.35	277
464.808	292.2
465.266	267.5
465.724	269.3
466.181	273.7
466.639	263.5
467.097	282.1
467.555	299.5
468.012	304
468.47	311.7
468.928	330.8
469.385	345
469.843	346.4
470.3	354.6
470.758	358.8
471.215	384
471.673	409.4
472.13	400.4
472.588	418.1
473.045	372.3
473.503	373.7
473.96	390.7
474.417	404.9
474.875	423.4
475.332	470.1
475.789	465.2
476.246	465.1
476.704	484.5
477.161	493.1
477.618	521.4
478.075	562.4
478.532	621.7
478.989	690.8
479.446	795.7
479.903	764.6
480.36	801.7
480.817	859.3
481.274	970.9
481.731	1069.4
482.188	1177.3
482.645	1325.7
483.102	1407.2
483.558	1543.7
484.015	1600.4
484.472	1570
484.929	1527.6
485.385	1475.2
485.842	1440.5
486.299	1362.6
486.755	1295.3
487.212	1099.4
487.668	914.6
488.125	853.4
488.582	778
489.038	750.9
489.494	710.7
489.951	683.9
490.407	665.2
490.864	647.4
491.32	647.4
491.776	632.8
492.233	643.8
492.689	607.4
493.145	607.8
493.602	603.3
494.058	611.6
494.514	620.6
494.97	639.8
495.426	644.3
495.882	624.7
496.338	620.9
496.794	632.8
497.251	619.5
497.707	639.3
498.163	637
498.618	645
499.074	649.3
499.53	690.6
499.986	677.3
500.442	653.3
500.898	643.5
501.354	625.3
501.809	640.1
502.265	646.5
502.721	669.6
503.177	667.9
503.632	666.1
504.088	673.2
504.543	716.7
504.999	711
505.455	660.3
505.91	627.3
506.366	636.7
506.821	629
507.277	614.8
507.732	621.7
508.187	624.1
508.643	635
509.098	628.8
509.553	661.8
510.009	651.4
510.464	668.1
510.919	688.1
511.375	690.4
511.83	709
512.285	724.3
512.74	763.7
513.195	788.9
513.65	768.4
514.105	771
514.56	783.8
515.015	796.8
515.47	811
515.925	792.1
516.38	791
516.835	792.5
517.29	784.5
517.745	781.5
518.2	765
518.655	753.4
519.109	735.9
519.564	745
520.019	738.4
520.474	727.5
520.928	727.4
521.383	718.5
521.838	711.6
522.292	713.5
522.747	718
523.201	699.3
523.656	693.8
524.11	694.7
524.565	691.6
525.019	691.7
525.474	696.5
525.928	707.8
526.382	687.2
526.837	695
527.291	694.9
527.745	689.4
528.2	694.2
528.654	688.4
529.108	683.6
529.562	685.7
530.016	694.1
530.47	697
530.925	687.9
531.379	696.6
531.833	699
532.287	702.5
532.741	696.8
533.195	709.8
533.649	716.9
534.103	723.5
534.556	709
535.01	715
535.464	714.1
535.918	717.2
536.372	719.4
536.826	722.3
537.279	697.3
537.733	723.7
538.187	715.4
538.64	710.1
539.094	717.2
539.548	723.7
540.001	715.9
540.455	718.7
540.908	730.7
541.362	731.8
541.815	729.3
542.269	747.9
542.722	750.3
543.175	763.2
543.629	768.3
544.082	784.1
544.536	795.7
544.989	781.3
545.442	796.1
545.895	777.1
546.349	787.1
546.802	789.6
547.255	803.6
547.708	803.9
548.161	806.7
548.614	820.8
549.067	817.6
549.52	809.8
549.973	810
550.426	808.3
550.879	783.6
551.332	792.3
551.785	803.6
552.238	803.8
552.691	808.3
553.144	830.4
553.596	834.3
554.049	855
554.502	881.3
554.955	912.8
555.407	895.1
555.86	898.8
556.313	895.5
556.765	872.7
557.218	871.8
557.67	876.2
558.123	866.8
558.576	872.5
559.028	878.4
559.48	870.4
559.933	869.2
560.385	844.7
560.838	797.6
561.29	782.7
561.742	775.1
562.195	752.9
562.647	754.9
563.099	771
563.551	761.6
564.004	770.4
564.456	769.5
564.908	751.7
565.36	747.6
565.812	722.4
566.264	716.1
566.716	714.6
567.168	705.4
567.62	712.7
568.072	695.2
568.524	693
568.976	677.4
569.428	664
569.88	672
570.332	674.8
570.784	679.5
571.235	666.3
571.687	687.4
572.139	691.7
572.59	705.4
573.042	702
573.494	698
573.945	700.2
574.397	683.2
574.849	685.7
575.3	684.3
575.752	668.2
576.203	668.1
576.655	675.3
577.106	669.9
577.557	653.3
578.009	661.1
578.46	655.9
578.912	652
579.363	656.7
579.814	660.4
580.265	651.4
580.717	658.5
581.168	666.5
581.619	663
582.07	672
582.521	668.7
582.972	658.6
583.423	664.9
583.875	666.3
584.326	688.8
584.777	731.7
585.227	802.1
585.678	888.5
586.129	980.1
586.58	1047.6
587.031	1134.5
587.482	1291.6
587.933	1457.2
588.384	1265.4
588.834	965.3
589.285	793.9
589.736	775.4
590.186	757.7
590.637	752.1
591.088	727
591.538	717.1
591.989	711
592.439	714.2
592.89	707.8
593.34	693.4
593.791	691.2
594.241	689.3
594.692	698.9
595.142	684.8
595.593	686.5
596.043	695.5
596.493	703.6
596.943	700
597.394	706.6
597.844	693.7
598.294	711.2
598.744	737.5
599.195	755.6
599.645	787.8
600.095	825.9
600.545	887.6
600.995	946.9
601.445	1003.6
601.895	1071.3
602.345	1107.4
602.795	1088.4
603.245	1044.3
603.695	994.7
604.145	946.3
604.594	886.5
605.044	831.5
605.494	779.7
605.944	748.1
606.393	720.6
606.843	704.7
607.293	719.2
607.743	715.2
608.192	712.4
608.642	737.5
609.091	751.3
609.541	748.1
609.99	750
610.44	741.7
610.889	704.1
611.339	683.4
611.788	672.4
612.238	686
612.687	710.1
613.136	699.8
613.586	718.1
614.035	711.7
614.484	742.3
614.933	733.2
615.383	726.2
615.832	707.5
616.281	705.7
616.73	677.3
617.179	652.2
617.628	630.7
618.077	618.3
618.526	608.3
618.975	609.1
619.424	605.5
619.873	590.7
620.322	593.9
620.771	585.4
621.22	589.2
621.669	573.7
622.118	575
622.567	561.4
623.015	551.6
623.464	552.6
623.913	544.8
624.361	534.9
624.81	534.7
625.259	535.8
625.707	540.4
626.156	537.2
626.604	547.7
627.053	544.1
627.501	539.7
627.95	545.4
628.398	557
628.847	549
629.295	546.8
629.744	561.7
630.192	555.1
630.64	544.6
631.089	540.2
631.537	556.2
631.985	560.2
632.433	573.6
632.881	577.8
633.33	628.2
633.778	617.2
634.226	542
634.674	546.2
635.122	561.3
635.57	573
636.018	608.9
636.466	556.9
636.914	537.5
637.362	555.3
637.81	552.7
638.258	558.7
638.705	553.4
639.153	581.9
639.601	593.6
640.049	611.6
640.497	640.5
640.944	672.8
641.392	615.5
641.84	586.2
642.287	564.4
642.735	545.1
643.182	550.1
643.63	550.9
644.078	559.5
644.525	560.9
644.973	569.5
645.42	576.9
645.867	591.8
646.315	614.3
646.762	637.7
647.21	660.6
647.657	681
648.104	726.3
648.551	752.3
648.999	810.6
649.446	884.8
649.893	964.5
650.34	1108.9
650.787	1327.8
651.234	1659.5
651.682	2145
652.129	2942.5
652.576	4249
653.023	6252.2
653.47	8614
653.917	10818.4
654.363	12554.7
654.81	13946.5
655.257	13299.5
655.704	8650
656.151	5124.6
656.598	3313.1
657.044	2343.6
657.491	1798.9
657.938	1431.5
658.385	1198.7
658.831	1037
659.278	926.1
659.724	835.1
660.171	759
660.618	690.5
661.064	667.3
661.511	634.2
661.957	628.9
662.404	620.9
662.85	625
663.296	592.1
663.743	533.2
664.189	512.6
664.635	512.2
665.082	506.5
665.528	505.7
665.974	493.7
666.42	488.9
666.867	491.1
667.313	469.1
667.759	460.9
668.205	454.7
668.651	460.6
669.097	465.5
669.543	484.3
669.989	449.2
670.435	430.8
670.881	421.9
671.327	430.3
671.773	445.2
672.219	464.6
672.665	514.4
673.11	553.6
673.556	590.7
674.002	638.2
674.448	631.9
674.893	525.3
675.339	454.8
675.785	423.1
676.23	397
676.676	381.4
677.122	374.1
677.567	361.6
678.013	353.9
678.458	345.7
678.904	339.8
679.349	333.5
679.794	339.3
680.24	347.7
680.685	336.3
681.131	329
681.576	340.9
682.021	335.5
682.466	334.8
682.912	333.9
683.357	341.1
683.802	356.7
684.247	380.3
684.692	424.7
685.137	466.9
685.583	514.6
686.028	529.9
686.473	486.9
686.918	422.1
687.363	398.9
687.807	374.7
688.252	341.3
688.697	331.4
689.142	320.3
689.587	313
690.032	315.2
690.477	323.1
690.921	342.8
691.366	369.9
691.811	383.2
692.255	411.2
692.7	441.8
693.145	477.7
693.589	639.4
694.034	1057.2
694.478	1446.7
694.923	1654.9
695.367	2156.7
695.812	1136.3
696.256	472.5
696.701	350.2
697.145	318.2
697.59	315.5
698.034	309.6
698.478	310.2
698.922	312
699.367	310.3
699.811	316.4
700.255	340.8
700.699	369.6
701.143	403.4
701.588	450.6
702.032	489.6
702.476	484.6
702.92	470.2
703.364	459.6
703.808	582.8
704.252	965.7
704.696	1372.7
705.14	1591.7
705.584	2037.1
706.027	996.7
706.471	490.6
706.915	378
707.359	330.5
707.803	305.2
708.246	283.3
708.69	300.7
709.134	294.4
709.577	291.4
710.021	303.3
710.465	291.8
710.908	289.6
711.352	275.8
711.795	297.8
712.239	330
712.682	359.9
713.126	388.5
713.569	440.1
714.012	357.2
714.456	308.5
714.899	285.3
715.342	258.7
715.786	244.6
716.229	247.2
716.672	243.8
717.115	235.3
717.558	237.6
718.002	235.7
718.445	238.6
718.888	267.3
719.331	280.2
719.774	289.8
720.217	292.4
720.66	267
721.103	254
721.546	248
721.989	239.5
722.432	213.5
722.874	227.2
723.317	218.9
723.76	220.5
724.203	243
724.645	296.8
725.088	420.7
725.531	536.7
725.974	607.1
726.416	511.3
726.859	283.9
727.301	240.5
727.744	225.9
728.187	224.1
728.629	231.9
729.071	228.9
729.514	243.6
729.956	253.2
730.399	264.8
730.841	278.5
731.283	252.8
731.726	249.5
732.168	241.9
732.61	252.2
733.053	271.3
733.495	299.9
733.937	323.7
734.379	370.8
734.821	400.4
735.263	511.8
735.705	770.1
736.148	1456.2
736.59	2416.3
737.032	2899.9
737.474	2368.1
737.916	757.9
738.357	402.1
738.799	309.7
739.241	284.6
739.683	265.7
740.125	280.6
740.567	274.6
741.008	301.3
741.45	292.3
741.892	296.5
742.334	328.9
742.775	344
743.217	322.9
743.658	258.7
744.1	232.4
744.542	246.7
744.983	292.8
745.425	324.7
745.866	328.3
746.307	265.8
746.749	262.7
747.19	304.5
747.632	420
748.073	788.8
748.514	1714.3
748.956	2661.6
749.397	3353
749.838	2794.4
750.279	2824.3
750.72	1423.5
751.162	520.7
751.603	302
752.044	239.3
752.485	205.8
752.926	199.5
753.367	187.8
753.808	188.3
754.249	176.3
754.69	178.2
755.131	171.1
755.572	170.8
756.013	175.9
756.453	173.9
756.894	180.3
757.335	181.3
757.776	177
758.216	183.1
758.657	181.4
759.098	189.7
759.538	211.1
759.979	248.7
760.42	344.7
760.86	641.9
761.301	1660.9
761.741	4068.8
762.182	6125.3
762.622	4311.5
763.063	1236.1
763.503	504.3
763.943	331
764.384	313.3
764.824	375.8
765.264	421
765.705	290.4
766.145	198
766.585	172.6
767.025	164.6
767.465	176.9
767.906	217.2
768.346	294.6
768.786	322.3
769.226	250.8
769.666	295.4
770.106	557.5
770.546	1429
770.986	2496.8
771.426	2269.1
771.866	750.2
772.306	306.1
772.745	197
773.185	164.3
773.625	157.1
774.065	160.2
774.505	185.7
774.944	286.9
775.384	629.6
775.824	1162.7
776.263	1146.1
776.703	477.3
777.142	206.8
777.582	157.1
778.021	125.4
778.461	130.5
778.9	122.9
779.34	124
779.779	113.4
780.219	105.4
780.658	102.9
781.097	103
781.537	110.6
781.976	102
782.415	108.6
782.855	97.7
783.294	99.8
783.733	103.1
784.172	100.8
784.611	101.6
785.05	100.5
785.489	106.6
785.928	111.4
786.367	111.2
786.806	117
787.245	122
787.684	126.7
788.123	138.4
788.562	123.1
789.001	120.1
789.44	112.5
789.879	112.8
790.317	112.7
790.756	117.1
791.195	124.1
791.634	134.6
792.072	185
792.511	336.4
792.95	913.9
793.388	1990.2
793.827	1841.6
794.265	631.4
794.704	263.7
795.142	171.9
795.581	136.9
796.019	125.8
796.458	124.1
796.896	113
797.334	124.2
797.773	149.6
798.211	199.9
798.649	401.8
799.087	944
799.526	1494.4
799.964	1881.7
800.402	1908.4
800.84	708.6
801.278	280.1
801.716	179.9
802.154	147.8
802.592	136.8
803.03	133.5
803.468	124.7
803.906	131.5
804.344	141.5
804.782	131.8
805.22	131.3
805.658	127.2
806.096	133.5
806.533	149.9
806.971	161
807.409	207.1
