Data from 20171114-ORNL-Ar_H_NY_Subt18_08-06-11-453.txt Node
Date: Tue Nov 14 08:06:11 EST 2017
User: Ender
Spectrometer: HR+D1039
Trigger mode: 0
Integration Time (sec): 2.730000E-2
Scans to average: 10
Electric dark correction enabled: true
Nonlinearity correction enabled: false
Boxcar width: 0
XAxis mode: Wavelengths
Number of Pixels in Spectrum: 2048
>>>>>Begin Spectral Data<<<<<
187.836	-2.55
188.309	-2.55
188.782	-2.55
189.255	1.65
189.728	2.75
190.201	7.05
190.674	-0.35
191.147	-2.65
191.619	-8.05
192.092	-2.15
192.565	3.85
193.038	-0.45
193.511	1.05
193.984	-1.85
194.456	-1.45
194.929	0.95
195.402	2.45
195.874	-0.25
196.347	-2.65
196.82	-6.95
197.292	3.05
197.765	3.45
198.237	-2.75
198.71	3.95
199.182	-1.65
199.655	2.25
200.127	3.05
200.6	2.75
201.072	-0.85
201.544	-2.25
202.017	-1.95
202.489	2.25
202.961	3.55
203.433	1.55
203.906	-6.65
204.378	-8.15
204.85	-5.95
205.322	-4.35
205.794	-5.75
206.266	-1.05
206.739	-8.35
207.211	6.25
207.683	-6.55
208.155	-3.55
208.627	-4.15
209.099	-3.95
209.57	-4.65
210.042	-3.95
210.514	-1.45
210.986	-1.45
211.458	-7.15
211.93	-8.45
212.402	5.75
212.873	-6.55
213.345	-6.05
213.817	-10.15
214.288	0.95
214.76	-9.35
215.232	3.15
215.703	-4.05
216.175	-2.55
216.646	0.15
217.118	-6.95
217.589	-5.25
218.061	0.15
218.532	-4.05
219.004	0.85
219.475	-2.35
219.946	-2.45
220.418	-5.05
220.889	5.55
221.36	-2.15
221.832	-9.05
222.303	-8.85
222.774	-0.75
223.245	-8.35
223.717	-7.45
224.188	-4.05
224.659	-6.45
225.13	-6.55
225.601	0.35
226.072	2.95
226.543	-1.55
227.014	-4.25
227.485	-1.65
227.956	-5.95
228.427	-6.65
228.898	2.65
229.369	-0.05
229.839	-2.35
230.31	-2.05
230.781	6.85
231.252	-2.85
231.722	-5.65
232.193	-5.85
232.664	4.55
233.135	0.25
233.605	1.35
234.076	-10.45
234.546	2.95
235.017	4.85
235.487	5.75
235.958	-0.95
236.428	-3.05
236.899	12.65
237.369	6.05
237.84	-2.75
238.31	4.75
238.78	5.25
239.251	3.05
239.721	4.85
240.191	0.15
240.662	-2.05
241.132	-0.55
241.602	-1.45
242.072	4.55
242.542	8.95
243.013	1.15
243.483	1.65
243.953	2.05
244.423	-1.05
244.893	-6.45
245.363	-0.45
245.833	8.65
246.303	-0.35
246.773	1.45
247.243	-0.55
247.712	5.35
248.182	8.15
248.652	7.45
249.122	-4.75
249.592	14.75
250.061	20.35
250.531	35.75
251.001	15.55
251.471	18.75
251.94	23.75
252.41	6.45
252.879	5.55
253.349	11.25
253.818	10.55
254.288	3.55
254.757	15.05
255.227	1.45
255.696	1.45
256.166	9.35
256.635	13.65
257.105	14.95
257.574	3.65
258.043	12.25
258.513	12.25
258.982	15.75
259.451	12.35
259.92	15.35
260.389	17.95
260.859	14.95
261.328	13.65
261.797	22.75
262.266	12.75
262.735	8.65
263.204	9.35
263.673	-0.15
264.142	9.65
264.611	-5.35
265.08	-0.05
265.549	-2.75
266.018	2.85
266.487	-5.85
266.955	-4.95
267.424	2.45
267.893	9.65
268.362	7.55
268.83	4.35
269.299	10.25
269.768	9.25
270.236	4.15
270.705	4.05
271.174	3.55
271.642	4.15
272.111	16.15
272.579	18.85
273.048	26.45
273.516	34.45
273.985	31.25
274.453	26.65
274.922	20.45
275.39	14.85
275.858	5.75
276.327	8.25
276.795	17.55
277.263	10.15
277.731	32.95
278.2	51.85
278.668	58.55
279.136	50.05
279.604	20.55
280.072	15.15
280.54	14.85
281.008	10.75
281.477	14.45
281.945	15.85
282.413	14.85
282.881	14.45
283.348	9.95
283.816	14.75
284.284	17.25
284.752	22.35
285.22	14.65
285.688	21.75
286.156	16.45
286.623	42.85
287.091	61.35
287.559	30.95
288.026	20.85
288.494	17.85
288.962	8.45
289.429	11.75
289.897	15.75
290.364	13.55
290.832	22.05
291.3	16.85
291.767	21.85
292.234	19.65
292.702	17.95
293.169	19.25
293.637	26.55
294.104	21.25
294.571	7.25
295.039	15.45
295.506	21.05
295.973	21.25
296.44	16.05
296.908	18.25
297.375	17.75
297.842	19.55
298.309	17.35
298.776	14.85
299.243	16.55
299.71	16.85
300.177	25.25
300.644	27.45
301.111	33.15
301.578	28.65
302.045	21.35
302.512	26.55
302.979	30.05
303.446	23.45
303.913	23.85
304.379	18.25
304.846	32.15
305.313	28.55
305.78	20.35
306.246	25.15
306.713	28.15
307.18	27.95
307.646	32.75
308.113	31.85
308.579	23.05
309.046	24.15
309.512	32.05
309.979	18.15
310.445	26.55
310.912	25.65
311.378	31.85
311.845	30.75
312.311	32.35
312.777	33.65
313.244	35.75
313.71	42.85
314.176	29.95
314.642	34.95
315.109	28.05
315.575	43.15
316.041	43.05
316.507	38.35
316.973	40.85
317.439	40.95
317.905	39.75
318.371	36.95
318.837	34.85
319.303	34.95
319.769	36.45
320.235	37.35
320.701	36.35
321.167	44.55
321.633	33.25
322.099	44.65
322.564	44.15
323.03	40.45
323.496	37.45
323.962	43.75
324.427	38.25
324.893	52.05
325.359	39.95
325.824	41.45
326.29	33.05
326.755	42.25
327.221	42.85
327.686	40.05
328.152	45.45
328.617	47.75
329.083	49.45
329.548	50.85
330.014	49.45
330.479	49.35
330.944	46.05
331.41	51.95
331.875	44.35
332.34	48.15
332.805	42.75
333.271	50.75
333.736	43.65
334.201	55.45
334.666	51.35
335.131	58.15
335.596	43.65
336.061	48.85
336.526	38.45
336.991	48.15
337.456	54.45
337.921	47.65
338.386	40.45
338.851	47.05
339.316	53.35
339.781	49.95
340.246	51.65
340.711	42.65
341.175	52.85
341.64	47.85
342.105	55.65
342.569	62.85
343.034	56.45
343.499	52.95
343.963	56.05
344.428	66.25
344.893	58.95
345.357	66.55
345.822	60.25
346.286	69.15
346.751	74.45
347.215	70.45
347.679	70.15
348.144	106.65
348.608	83.75
349.073	68.45
349.537	78.65
350.001	81.25
350.465	87.85
350.93	87.25
351.394	83.85
351.858	72.35
352.322	92.45
352.786	89.95
353.25	102.75
353.715	112.15
354.179	101.25
354.643	126.75
355.107	136.15
355.571	114.75
356.035	108.35
356.498	122.65
356.962	127.95
357.426	134.05
357.89	119.65
358.354	89.55
358.818	87.55
359.281	76.95
359.745	83.15
360.209	80.15
360.673	83.85
361.136	86.45
361.6	85.35
362.064	87.65
362.527	91.35
362.991	89.85
363.454	78.45
363.918	81.55
364.381	80.45
364.845	88.95
365.308	88.65
365.772	87.35
366.235	79.95
366.698	84.35
367.162	87.35
367.625	83.75
368.088	87.35
368.552	82.85
369.015	94.35
369.478	102.05
369.941	102.85
370.404	105.35
370.867	108.35
371.331	115.85
371.794	118.75
372.257	114.45
372.72	114.85
373.183	108.25
373.646	102.85
374.109	107.05
374.572	106.05
375.035	111.25
375.497	109.65
375.96	106.45
376.423	103.15
376.886	118.55
377.349	111.55
377.811	109.85
378.274	108.75
378.737	107.25
379.199	112.45
379.662	118.75
380.125	119.15
380.587	118.35
381.05	122.25
381.512	134.65
381.975	138.55
382.437	131.35
382.9	130.45
383.362	130.95
383.825	140.35
384.287	149.55
384.75	147.45
385.212	147.35
385.674	147.05
386.136	136.35
386.599	134.45
387.061	125.75
387.523	130.85
387.985	130.25
388.447	142.35
388.91	143.45
389.372	170.55
389.834	159.35
390.296	145.25
390.758	159.55
391.22	173.25
391.682	216.65
392.144	298.15
392.606	237.15
393.068	171.35
393.529	168.35
393.991	159.55
394.453	156.45
394.915	155.85
395.377	195.65
395.838	207.35
396.3	159.65
396.762	150.95
397.224	138.05
397.685	138.15
398.147	139.95
398.608	131.85
399.07	130.85
399.531	140.25
399.993	145.35
400.454	160.35
400.916	151.45
401.377	147.25
401.839	157.85
402.3	155.95
402.762	172.35
403.223	187.65
403.684	178.15
404.145	173.05
404.607	160.75
405.068	169.95
405.529	169.35
405.99	185.25
406.451	180.55
406.913	178.05
407.374	170.85
407.835	166.45
408.296	169.05
408.757	179.25
409.218	187.65
409.679	185.75
410.14	180.45
410.601	179.55
411.062	191.15
411.522	192.55
411.983	196.25
412.444	178.45
412.905	190.25
413.366	189.05
413.826	196.85
414.287	222.75
414.748	266.15
415.208	253.75
415.669	216.45
416.13	214.55
416.59	199.25
417.051	221.45
417.511	221.15
417.972	236.45
418.432	252.65
418.893	296.45
419.353	260.45
419.814	201.95
420.274	182.55
420.734	185.25
421.195	206.45
421.655	206.45
422.115	201.15
422.576	189.85
423.036	195.65
423.496	210.15
423.956	226.55
424.416	237.65
424.876	272.95
425.336	267.85
425.797	274.15
426.257	258.25
426.717	242.05
427.177	242.55
427.637	232.75
428.097	240.75
428.556	257.25
429.016	276.75
429.476	276.45
429.936	289.05
430.396	287.35
430.856	304.35
431.315	323.75
431.775	361.25
432.235	386.95
432.694	363.65
433.154	369.15
433.614	407.65
434.073	340.35
434.533	290.95
434.993	287.15
435.452	290.65
435.912	296.25
436.371	295.65
436.83	290.65
437.29	274.45
437.749	248.75
438.209	249.25
438.668	287.75
439.127	289.55
439.587	267.15
440.046	252.35
440.505	269.65
440.964	284.85
441.424	332.25
441.883	312.35
442.342	268.55
442.801	235.25
443.26	229.15
443.719	230.15
444.178	224.15
444.637	212.35
445.096	225.25
445.555	223.95
446.014	228.95
446.473	236.45
446.932	236.65
447.391	234.15
447.849	228.25
448.308	220.65
448.767	225.65
449.226	243.85
449.685	237.85
450.143	249.85
450.602	238.85
451.061	234.35
451.519	246.15
451.978	231.15
452.436	240.25
452.895	246.85
453.353	256.15
453.812	246.75
454.27	246.05
454.729	247.65
455.187	249.15
455.646	259.45
456.104	248.65
456.562	261.25
457.021	273.85
457.479	266.85
457.937	277.95
458.395	262.95
458.854	254.95
459.312	262.85
459.77	280.55
460.228	250.55
460.686	248.35
461.144	251.95
461.602	245.05
462.06	243.95
462.518	263.25
462.976	261.55
463.434	263.75
463.892	274.05
464.35	284.45
464.808	293.65
465.266	275.45
465.724	279.05
466.181	280.65
466.639	280.45
467.097	288.25
467.555	307.15
468.012	307.25
468.47	308.05
468.928	337.35
469.385	352.95
469.843	355.85
470.3	354.75
470.758	369.65
471.215	389.05
471.673	416.35
472.13	409.25
472.588	424.95
473.045	387.15
473.503	378.55
473.96	401.95
474.417	407.95
474.875	446.95
475.332	488.25
475.789	470.95
476.246	479.05
476.704	495.85
477.161	521.75
477.618	538.65
478.075	568.75
478.532	630.55
478.989	707.65
479.446	824.75
479.903	792.35
480.36	821.85
480.817	884.45
481.274	994.35
481.731	1110.65
482.188	1186.75
482.645	1338.75
483.102	1443.35
483.558	1585.95
484.015	1622.35
484.472	1611.65
484.929	1560.55
485.385	1510.65
485.842	1445.85
486.299	1393.85
486.755	1338.55
487.212	1114.15
487.668	944.45
488.125	867.05
488.582	794.15
489.038	758.95
489.494	720.85
489.951	698.75
490.407	675.95
490.864	658.25
491.32	655.65
491.776	656.25
492.233	665.75
492.689	623.55
493.145	619.95
493.602	605.05
494.058	621.55
494.514	625.95
494.97	652.95
495.426	672.95
495.882	634.05
496.338	624.55
496.794	633.65
497.251	631.35
497.707	638.05
498.163	657.75
498.618	654.95
499.074	667.25
499.53	690.55
499.986	695.75
500.442	657.85
500.898	647.35
501.354	638.55
501.809	653.05
502.265	653.75
502.721	675.15
503.177	682.95
503.632	675.35
504.088	687.25
504.543	721.45
504.999	725.55
505.455	670.85
505.91	645.55
506.366	648.05
506.821	625.85
507.277	631.35
507.732	635.65
508.187	635.45
508.643	644.05
509.098	642.25
509.553	668.55
510.009	667.55
510.464	674.05
510.919	701.85
511.375	707.55
511.83	717.85
512.285	735.25
512.74	773.15
513.195	800.85
513.65	782.75
514.105	774.85
514.56	785.55
515.015	801.85
515.47	825.95
515.925	798.15
516.38	807.45
516.835	816.25
517.29	804.15
517.745	792.85
518.2	783.65
518.655	760.45
519.109	758.25
519.564	750.35
520.019	749.15
520.474	723.45
520.928	741.65
521.383	732.35
521.838	721.85
522.292	717.75
522.747	727.05
523.201	724.65
523.656	706.35
524.11	705.45
524.565	703.75
525.019	700.55
525.474	713.65
525.928	718.75
526.382	701.65
526.837	713.05
527.291	712.75
527.745	710.75
528.2	715.25
528.654	712.65
529.108	696.15
529.562	698.25
530.016	698.85
530.47	700.05
530.925	702.95
531.379	704.75
531.833	710.65
532.287	702.05
532.741	708.55
533.195	712.05
533.649	729.05
534.103	731.75
534.556	715.45
535.01	729.45
535.464	726.65
535.918	716.65
536.372	723.25
536.826	725.25
537.279	714.95
537.733	720.75
538.187	725.95
538.64	722.65
539.094	726.65
539.548	734.15
540.001	738.35
540.455	730.75
540.908	744.35
541.362	744.65
541.815	751.35
542.269	766.55
542.722	767.95
543.175	775.15
543.629	777.65
544.082	785.55
544.536	803.45
544.989	792.65
545.442	804.75
545.895	791.25
546.349	790.55
546.802	801.25
547.255	809.65
547.708	816.05
548.161	816.75
548.614	829.65
549.067	836.05
549.52	837.25
549.973	822.25
550.426	816.35
550.879	800.35
551.332	805.45
551.785	806.55
552.238	815.85
552.691	831.15
553.144	847.25
553.596	860.55
554.049	869.05
554.502	900.15
554.955	915.35
555.407	908.55
555.86	914.95
556.313	909.95
556.765	898.75
557.218	898.65
557.67	895.05
558.123	884.45
558.576	885.45
559.028	889.25
559.48	897.95
559.933	879.85
560.385	842.25
560.838	819.75
561.29	780.55
561.742	787.35
562.195	776.75
562.647	773.15
563.099	795.45
563.551	779.85
564.004	790.55
564.456	774.55
564.908	770.75
565.36	756.75
565.812	747.45
566.264	723.65
566.716	740.05
567.168	729.15
567.62	730.95
568.072	705.05
568.524	688.55
568.976	701.35
569.428	681.95
569.88	671.65
570.332	693.15
570.784	694.95
571.235	693.75
571.687	700.85
572.139	704.95
572.59	714.55
573.042	715.55
573.494	720.05
573.945	715.65
574.397	697.45
574.849	690.35
575.3	693.55
575.752	690.25
576.203	681.65
576.655	690.85
577.106	679.85
577.557	665.95
578.009	673.95
578.46	666.25
578.912	660.65
579.363	672.25
579.814	678.75
580.265	666.75
580.717	668.05
581.168	678.15
581.619	683.15
582.07	681.45
582.521	678.05
582.972	672.45
583.423	685.45
583.875	684.45
584.326	710.65
584.777	745.65
585.227	823.85
585.678	927.85
586.129	1005.45
586.58	1066.55
587.031	1159.45
587.482	1324.75
587.933	1501.75
588.384	1306.05
588.834	969.85
589.285	806.25
589.736	777.85
590.186	777.75
590.637	773.55
591.088	748.55
591.538	733.55
591.989	732.35
592.439	732.85
592.89	719.25
593.34	716.95
593.791	715.85
594.241	713.15
594.692	718.65
595.142	707.55
595.593	702.35
596.043	719.15
596.493	717.45
596.943	712.95
597.394	728.25
597.844	719.95
598.294	729.75
598.744	756.75
599.195	775.85
599.645	818.85
600.095	857.75
600.545	917.65
600.995	966.05
601.445	1024.15
601.895	1094.95
602.345	1130.55
602.795	1115.85
603.245	1079.25
603.695	1023.45
604.145	967.95
604.594	918.25
605.044	861.55
605.494	805.45
605.944	759.55
606.393	740.55
606.843	727.45
607.293	734.15
607.743	738.35
608.192	752.85
608.642	758.25
609.091	767.45
609.541	772.35
609.99	769.95
610.44	764.85
610.889	725.35
611.339	702.05
611.788	690.05
612.238	703.95
612.687	721.15
613.136	721.75
613.586	741.35
614.035	737.35
614.484	751.45
614.933	763.65
615.383	751.95
615.832	751.65
616.281	733.85
616.73	695.45
617.179	668.35
617.628	652.05
618.077	639.95
618.526	623.05
618.975	623.95
619.424	610.15
619.873	615.05
620.322	617.75
620.771	611.65
621.22	607.05
621.669	600.25
622.118	584.35
622.567	577.85
623.015	569.15
623.464	563.55
623.913	561.45
624.361	550.15
624.81	556.55
625.259	547.85
625.707	563.95
626.156	563.35
626.604	557.95
627.053	572.45
627.501	567.75
627.95	568.15
628.398	580.95
628.847	569.45
629.295	576.75
629.744	578.55
630.192	558.65
630.64	568.05
631.089	567.55
631.537	577.25
631.985	587.05
632.433	601.55
632.881	604.75
633.33	666.05
633.778	643.25
634.226	579.55
634.674	591.15
635.122	575.25
635.57	602.45
636.018	628.75
636.466	582.65
636.914	556.35
637.362	566.05
637.81	572.15
638.258	575.55
638.705	575.45
639.153	613.15
639.601	621.75
640.049	646.85
640.497	674.25
640.944	687.95
641.392	643.95
641.84	603.45
642.287	583.25
642.735	572.15
643.182	567.05
643.63	567.65
644.078	571.65
644.525	587.25
644.973	587.85
645.42	601.15
645.867	617.15
646.315	638.65
646.762	663.05
647.21	683.95
647.657	709.55
648.104	745.15
648.551	778.35
648.999	835.05
649.446	911.85
649.893	1000.55
650.34	1158.65
650.787	1385.85
651.234	1731.05
651.682	2270.05
652.129	3083.85
652.576	4472.95
653.023	6603.35
653.47	9042.45
653.917	11326.55
654.363	13047.85
654.81	14477.45
655.257	13791.45
655.704	9008.05
656.151	5308.75
656.598	3421.95
657.044	2435.25
657.491	1863.35
657.938	1490.95
658.385	1245.25
658.831	1078.55
659.278	960.25
659.724	845.25
660.171	788.95
660.618	729.05
661.064	697.35
661.511	663.75
661.957	646.45
662.404	632.95
662.85	652.15
663.296	616.05
663.743	568.85
664.189	540.75
664.635	537.25
665.082	531.75
665.528	531.95
665.974	519.05
666.42	508.35
666.867	508.15
667.313	500.95
667.759	476.65
668.205	467.35
668.651	482.95
669.097	474.65
669.543	502.05
669.989	463.85
670.435	446.55
670.881	434.95
671.327	444.55
671.773	466.95
672.219	491.05
672.665	541.05
673.11	575.25
673.556	628.75
674.002	668.75
674.448	651.65
674.893	539.55
675.339	462.85
675.785	428.35
676.23	415.05
676.676	392.25
677.122	383.55
677.567	364.95
678.013	364.85
678.458	362.35
678.904	353.45
679.349	345.95
679.794	348.25
680.24	354.55
680.685	350.75
681.131	346.75
681.576	349.65
682.021	352.95
682.466	340.75
682.912	347.65
683.357	342.35
683.802	374.25
684.247	406.75
684.692	446.05
685.137	496.35
685.583	531.95
686.028	558.15
686.473	506.55
686.918	440.45
687.363	409.25
687.807	386.95
688.252	364.95
688.697	359.95
689.142	337.95
689.587	326.55
690.032	321.65
690.477	340.05
690.921	350.35
691.366	378.15
691.811	399.75
692.255	428.95
692.7	458.65
693.145	492.15
693.589	689.65
694.034	1101.65
694.478	1514.95
694.923	1721.55
695.367	2225.35
695.812	1183.75
696.256	485.05
696.701	367.75
697.145	342.35
697.59	326.25
698.034	314.75
698.478	324.35
698.922	321.65
699.367	325.25
699.811	335.85
700.255	343.65
700.699	381.95
701.143	423.15
701.588	468.25
702.032	511.55
702.476	497.25
702.92	482.05
703.364	482.65
703.808	626.55
704.252	1004.35
704.696	1405.45
705.14	1637.75
705.584	2090.45
706.027	1042.95
706.471	516.85
706.915	398.35
707.359	347.75
707.803	320.75
708.246	312.65
708.69	298.05
709.134	307.75
709.577	310.55
710.021	311.75
710.465	306.25
710.908	292.25
711.352	296.45
711.795	306.35
712.239	346.45
712.682	376.55
713.126	419.15
713.569	459.95
714.012	359.35
714.456	327.05
714.899	302.75
715.342	270.05
715.786	261.05
716.229	257.95
716.672	252.35
717.115	244.65
717.558	250.05
718.002	248.25
718.445	258.55
718.888	288.65
719.331	294.75
719.774	306.45
720.217	297.55
720.66	277.15
721.103	268.35
721.546	245.65
721.989	250.75
722.432	229.65
722.874	231.85
723.317	222.05
723.76	229.05
724.203	253.75
724.645	315.55
725.088	430.95
725.531	553.95
725.974	634.15
726.416	538.75
726.859	301.25
727.301	240.05
727.744	235.25
728.187	227.05
728.629	232.15
729.071	237.75
729.514	256.85
729.956	272.15
730.399	280.45
730.841	287.95
731.283	268.15
731.726	266.15
732.168	249.65
732.61	263.25
733.053	266.05
733.495	303.35
733.937	343.55
734.379	388.75
734.821	421.95
735.263	542.95
735.705	822.35
736.148	1541.85
736.59	2532.75
737.032	3005.95
737.474	2424.95
737.916	786.05
738.357	417.55
738.799	320.25
739.241	293.05
739.683	281.55
740.125	294.95
740.567	291.75
741.008	305.45
741.45	313.05
741.892	302.75
742.334	351.05
742.775	355.65
743.217	341.95
743.658	262.35
744.1	248.25
744.542	259.95
744.983	301.05
745.425	336.05
745.866	339.55
746.307	275.25
746.749	281.85
747.19	316.25
747.632	441.45
748.073	851.95
748.514	1803.75
748.956	2762.15
749.397	3486.75
749.838	2910.35
750.279	2897.05
750.72	1481.65
751.162	531.25
751.603	320.25
752.044	248.05
752.485	215.45
752.926	210.25
753.367	206.15
753.808	194.05
754.249	185.65
754.69	178.65
755.131	181.95
755.572	181.15
756.013	182.15
756.453	180.55
756.894	182.95
757.335	183.75
757.776	199.15
758.216	196.25
758.657	189.95
759.098	199.45
759.538	220.75
759.979	258.15
760.42	371.35
760.86	688.95
761.301	1765.75
761.741	4299.85
762.182	6289.05
