Data from 20171114-ORNL-Ar_H_NY_Subt18_08-07-18-059.txt Node
Date: Tue Nov 14 08:07:18 EST 2017
User: Ender
Spectrometer: HR+D1039
Trigger mode: 0
Integration Time (sec): 2.730000E-2
Scans to average: 10
Electric dark correction enabled: true
Nonlinearity correction enabled: false
Boxcar width: 0
XAxis mode: Wavelengths
Number of Pixels in Spectrum: 2048
>>>>>Begin Spectral Data<<<<<
187.836	-3.46
188.309	-3.46
188.782	-3.46
189.255	-0.46
189.728	-6.16
190.201	8.04
190.674	-1.56
191.147	6.04
191.619	-7.86
192.092	3.04
192.565	4.64
193.038	2.24
193.511	3.64
193.984	-2.56
194.456	-2.66
194.929	0.84
195.402	-3.36
195.874	-0.46
196.347	-6.26
196.82	-5.36
197.292	2.24
197.765	-3.66
198.237	-7.46
198.71	-1.46
199.182	-3.46
199.655	2.04
200.127	8.64
200.6	-3.06
201.072	-1.96
201.544	-5.86
202.017	-3.36
202.489	2.44
202.961	-0.86
203.433	-2.66
203.906	-6.56
204.378	-10.96
204.85	-4.16
205.322	-7.56
205.794	-2.46
206.266	-0.66
206.739	-6.36
207.211	-3.16
207.683	-6.06
208.155	-10.06
208.627	-11.56
209.099	-2.36
209.57	-12.96
210.042	-9.76
210.514	-1.86
210.986	-4.06
211.458	-5.06
211.93	-1.86
212.402	2.64
212.873	-1.56
213.345	-7.16
213.817	-13.66
214.288	-8.36
214.76	-9.56
215.232	-5.46
215.703	-3.56
216.175	-3.76
216.646	-5.26
217.118	-8.56
217.589	-7.66
218.061	-4.36
218.532	-10.26
219.004	-1.16
219.475	-6.66
219.946	-4.56
220.418	-8.56
220.889	7.14
221.36	-0.96
221.832	-8.36
222.303	-15.16
222.774	-1.96
223.245	-13.06
223.717	0.04
224.188	-1.26
224.659	-6.26
225.13	-8.36
225.601	-6.06
226.072	-2.96
226.543	-2.76
227.014	-5.96
227.485	-6.46
227.956	-8.36
228.427	-0.16
228.898	-0.16
229.369	0.74
229.839	-4.36
230.31	-8.06
230.781	-0.76
231.252	-6.26
231.722	-8.46
232.193	0.34
232.664	-3.36
233.135	-9.46
233.605	-4.56
234.076	-5.76
234.546	-3.26
235.017	-2.16
235.487	-4.76
235.958	-7.16
236.428	-10.46
236.899	-1.26
237.369	-3.66
237.84	-9.16
238.31	-2.56
238.78	-6.56
239.251	-9.66
239.721	-3.06
240.191	-0.06
240.662	-5.56
241.132	-3.26
241.602	-1.76
242.072	-3.96
242.542	-2.26
243.013	-6.46
243.483	-1.36
243.953	-2.16
244.423	-6.76
244.893	-7.06
245.363	5.04
245.833	-5.66
246.303	-11.56
246.773	-0.36
247.243	-4.76
247.712	-4.66
248.182	1.94
248.652	2.54
249.122	-9.56
249.592	3.84
250.061	-3.76
250.531	3.04
251.001	-4.16
251.471	0.64
251.94	1.44
252.41	-6.06
252.879	-7.76
253.349	7.74
253.818	-0.06
254.288	-0.56
254.757	-4.26
255.227	-3.56
255.696	1.94
256.166	-3.46
256.635	-0.86
257.105	4.34
257.574	-7.66
258.043	4.04
258.513	-9.46
258.982	0.24
259.451	-7.96
259.92	2.14
260.389	-1.46
260.859	4.34
261.328	-2.46
261.797	1.94
262.266	-1.76
262.735	-0.16
263.204	0.14
263.673	0.24
264.142	1.04
264.611	-5.46
265.08	-2.36
265.549	-3.16
266.018	0.94
266.487	-10.16
266.955	-7.46
267.424	-3.06
267.893	4.64
268.362	0.94
268.83	-0.16
269.299	1.84
269.768	-5.56
270.236	6.04
270.705	-0.46
271.174	3.74
271.642	-2.26
272.111	-1.36
272.579	-4.36
273.048	0.54
273.516	-2.76
273.985	6.64
274.453	2.84
274.922	9.14
275.39	3.74
275.858	-4.96
276.327	4.74
276.795	6.74
277.263	3.64
277.731	9.54
278.2	2.24
278.668	0.54
279.136	4.14
279.604	2.64
280.072	8.64
280.54	5.34
281.008	3.14
281.477	7.84
281.945	7.64
282.413	7.24
282.881	8.44
283.348	3.94
283.816	3.74
284.284	9.14
284.752	15.34
285.22	1.54
285.688	2.74
286.156	2.44
286.623	11.64
287.091	0.04
287.559	10.04
288.026	12.14
288.494	5.84
288.962	-3.16
289.429	4.94
289.897	9.84
290.364	3.64
290.832	10.04
291.3	7.14
291.767	8.44
292.234	11.84
292.702	8.44
293.169	7.04
293.637	14.04
294.104	17.94
294.571	1.04
295.039	6.74
295.506	7.84
295.973	9.64
296.44	4.24
296.908	11.04
297.375	10.34
297.842	12.64
298.309	11.74
298.776	1.34
299.243	9.84
299.71	2.54
300.177	9.74
300.644	7.94
301.111	16.04
301.578	18.34
302.045	12.24
302.512	21.04
302.979	19.64
303.446	14.94
303.913	11.84
304.379	9.54
304.846	21.04
305.313	10.94
305.78	6.84
306.246	22.04
306.713	21.54
307.18	19.64
307.646	17.64
308.113	20.44
308.579	21.94
309.046	15.54
309.512	20.04
309.979	8.24
310.445	15.94
310.912	25.04
311.378	22.14
311.845	22.64
312.311	20.44
312.777	23.24
313.244	17.44
313.71	28.94
314.176	19.14
314.642	21.34
315.109	16.84
315.575	23.04
316.041	26.14
316.507	18.34
316.973	23.34
317.439	18.44
317.905	24.34
318.371	20.24
318.837	28.74
319.303	20.34
319.769	23.14
320.235	19.44
320.701	21.34
321.167	24.74
321.633	20.04
322.099	29.04
322.564	28.74
323.03	22.84
323.496	23.74
323.962	21.14
324.427	27.74
324.893	32.24
325.359	29.64
325.824	28.24
326.29	26.94
326.755	29.54
327.221	30.64
327.686	26.74
328.152	36.14
328.617	31.24
329.083	36.84
329.548	39.24
330.014	36.74
330.479	29.24
330.944	37.94
331.41	34.24
331.875	29.64
332.34	33.14
332.805	29.64
333.271	35.74
333.736	31.34
334.201	37.34
334.666	38.54
335.131	43.14
335.596	41.04
336.061	39.94
336.526	32.74
336.991	31.84
337.456	47.64
337.921	37.14
338.386	34.34
338.851	36.04
339.316	39.14
339.781	38.44
340.246	42.44
340.711	40.44
341.175	43.74
341.64	39.84
342.105	44.34
342.569	48.14
343.034	44.54
343.499	44.44
343.963	40.84
344.428	49.44
344.893	50.14
345.357	48.64
345.822	45.24
346.286	48.04
346.751	55.34
347.215	52.64
347.679	53.84
348.144	79.44
348.608	65.14
349.073	49.84
349.537	56.84
350.001	62.04
350.465	65.04
350.93	63.14
351.394	62.04
351.858	65.44
352.322	65.44
352.786	67.24
353.25	77.94
353.715	85.74
354.179	78.64
354.643	95.44
355.107	97.44
355.571	86.84
356.035	77.64
356.498	80.34
356.962	84.34
357.426	103.54
357.89	92.04
358.354	74.84
358.818	73.94
359.281	65.94
359.745	67.54
360.209	63.54
360.673	65.04
361.136	68.94
361.6	74.54
362.064	69.94
362.527	71.04
362.991	78.44
363.454	70.34
363.918	60.14
364.381	71.74
364.845	71.84
365.308	81.44
365.772	74.64
366.235	70.54
366.698	67.04
367.162	74.94
367.625	70.44
368.088	71.04
368.552	82.44
369.015	74.04
369.478	78.34
369.941	85.94
370.404	72.64
370.867	79.84
371.331	87.34
371.794	94.04
372.257	84.04
372.72	86.04
373.183	86.94
373.646	83.04
374.109	82.14
374.572	83.94
375.035	86.64
375.497	91.04
375.96	85.54
376.423	88.54
376.886	98.84
377.349	94.24
377.811	86.14
378.274	91.74
378.737	97.04
379.199	93.74
379.662	92.24
380.125	101.24
380.587	92.04
381.05	96.04
381.512	101.64
381.975	110.34
382.437	108.04
382.9	99.44
383.362	110.74
383.825	111.04
384.287	113.74
384.75	99.74
385.212	107.34
385.674	114.64
386.136	119.24
386.599	106.14
387.061	112.54
387.523	107.64
387.985	107.64
388.447	118.74
388.91	109.64
389.372	118.64
389.834	114.34
390.296	119.24
390.758	119.14
391.22	124.84
391.682	128.64
392.144	133.24
392.606	129.14
393.068	127.84
393.529	134.14
393.991	124.14
394.453	118.14
394.915	119.84
395.377	121.54
395.838	122.24
396.3	126.54
396.762	129.44
397.224	126.74
397.685	117.34
398.147	125.04
398.608	123.74
399.07	127.44
399.531	133.84
399.993	129.24
400.454	144.44
400.916	134.34
401.377	134.74
401.839	140.04
402.3	141.14
402.762	153.54
403.223	164.04
403.684	158.34
404.145	154.74
404.607	154.14
405.068	152.04
405.529	156.24
405.99	169.64
406.451	165.74
406.913	163.44
407.374	153.14
407.835	150.84
408.296	160.74
408.757	155.84
409.218	177.04
409.679	164.64
410.14	163.24
410.601	168.74
411.062	166.44
411.522	173.94
411.983	162.84
412.444	162.44
412.905	177.24
413.366	175.64
413.826	188.64
414.287	211.54
414.748	252.34
415.208	242.34
415.669	211.14
416.13	198.04
416.59	205.14
417.051	211.44
417.511	211.14
417.972	232.74
418.432	241.34
418.893	285.64
419.353	247.14
419.814	191.44
420.274	182.14
420.734	181.04
421.195	190.44
421.655	186.84
422.115	187.94
422.576	188.94
423.036	198.54
423.496	208.14
423.956	213.24
424.416	228.34
424.876	264.64
425.336	259.34
425.797	252.04
426.257	248.14
426.717	230.54
427.177	230.74
427.637	218.84
428.097	232.74
428.556	237.04
429.016	259.54
429.476	251.24
429.936	262.14
430.396	264.14
430.856	266.44
431.315	296.84
431.775	329.64
432.235	361.94
432.694	328.84
433.154	340.84
433.614	366.44
434.073	318.24
434.533	270.64
434.993	263.44
435.452	269.54
435.912	279.54
436.371	277.44
436.83	266.94
437.29	245.04
437.749	241.14
438.209	244.84
438.668	267.24
439.127	278.54
439.587	258.24
440.046	244.44
440.505	253.54
440.964	272.74
441.424	310.04
441.883	299.24
442.342	257.84
442.801	224.44
443.26	223.54
443.719	222.74
444.178	224.44
444.637	210.84
445.096	222.34
445.555	221.84
446.014	225.94
446.473	227.74
446.932	242.04
447.391	220.24
447.849	225.44
448.308	219.94
448.767	224.84
449.226	241.84
449.685	241.44
450.143	249.34
450.602	239.44
451.061	228.84
451.519	239.74
451.978	232.64
452.436	236.34
452.895	233.14
453.353	252.14
453.812	239.74
454.27	233.24
454.729	239.94
455.187	244.14
455.646	245.64
456.104	250.04
456.562	256.94
457.021	263.24
457.479	262.54
457.937	278.64
458.395	263.54
458.854	253.34
459.312	250.24
459.77	275.24
460.228	259.44
460.686	244.94
461.144	247.84
461.602	247.04
462.06	251.24
462.518	257.44
462.976	258.54
463.434	260.84
463.892	263.74
464.35	274.04
464.808	292.54
465.266	271.54
465.724	273.54
466.181	274.64
466.639	274.24
467.097	284.64
467.555	303.84
468.012	309.14
468.47	323.24
468.928	331.44
469.385	350.74
469.843	348.54
470.3	354.84
470.758	372.64
471.215	389.54
471.673	412.14
472.13	409.74
472.588	429.84
473.045	380.34
473.503	385.64
473.96	409.24
474.417	417.54
474.875	437.64
475.332	482.04
475.789	463.94
476.246	469.34
476.704	488.24
477.161	503.84
477.618	526.14
478.075	553.14
478.532	607.64
478.989	678.14
479.446	784.14
479.903	746.84
480.36	780.34
480.817	829.94
481.274	912.74
481.731	1015.84
482.188	1092.74
482.645	1194.04
483.102	1282.64
483.558	1417.24
484.015	1440.24
484.472	1423.04
484.929	1379.24
485.385	1353.24
485.842	1312.14
486.299	1267.74
486.755	1228.44
487.212	1044.94
487.668	911.44
488.125	832.74
488.582	764.74
489.038	738.64
489.494	706.64
489.951	685.04
490.407	663.04
490.864	645.64
491.32	649.14
491.776	649.04
492.233	648.64
492.689	619.74
493.145	612.74
493.602	606.14
494.058	620.54
494.514	619.14
494.97	632.54
495.426	648.74
495.882	619.54
496.338	616.14
496.794	629.64
497.251	616.24
497.707	643.34
498.163	641.14
498.618	654.44
499.074	652.54
499.53	677.64
499.986	671.14
500.442	649.04
500.898	628.94
501.354	625.24
501.809	628.94
502.265	628.64
502.721	646.34
503.177	640.34
503.632	651.94
504.088	659.84
504.543	683.24
504.999	696.04
505.455	669.04
505.91	647.24
506.366	654.44
506.821	651.44
507.277	638.84
507.732	640.04
508.187	645.74
508.643	659.34
509.098	653.94
509.553	683.84
510.009	678.24
510.464	691.64
510.919	697.04
511.375	714.34
511.83	726.14
512.285	745.54
512.74	783.74
513.195	800.94
513.65	783.14
514.105	785.84
514.56	781.24
515.015	806.44
515.47	812.74
515.925	789.04
516.38	793.94
516.835	800.14
517.29	787.14
517.745	795.34
518.2	783.74
518.655	774.14
519.109	772.04
519.564	767.54
520.019	745.64
520.474	739.04
520.928	744.94
521.383	741.44
521.838	727.74
522.292	729.94
522.747	732.74
523.201	714.34
523.656	716.04
524.11	720.04
524.565	711.94
525.019	700.74
525.474	712.74
525.928	713.44
526.382	714.74
526.837	710.84
527.291	711.84
527.745	713.44
528.2	715.74
528.654	707.64
529.108	703.64
529.562	704.44
530.016	701.84
530.47	708.04
530.925	704.14
531.379	703.54
531.833	714.64
532.287	714.94
532.741	714.54
533.195	715.64
533.649	728.84
534.103	737.64
534.556	724.24
535.01	720.34
535.464	720.24
535.918	735.64
536.372	733.54
536.826	736.34
537.279	727.84
537.733	728.24
538.187	726.64
538.64	724.44
539.094	743.64
539.548	753.84
540.001	735.14
540.455	742.64
540.908	746.14
541.362	750.24
541.815	763.14
542.269	779.84
542.722	776.74
543.175	792.44
543.629	788.34
544.082	810.14
544.536	804.34
544.989	799.94
545.442	817.24
545.895	818.04
546.349	804.64
546.802	814.74
547.255	815.84
547.708	841.74
548.161	837.34
548.614	853.74
549.067	851.84
549.52	852.44
549.973	832.24
550.426	830.34
550.879	810.74
551.332	812.64
551.785	829.34
552.238	821.44
552.691	851.14
553.144	853.64
553.596	882.64
554.049	880.34
554.502	917.54
554.955	934.04
555.407	934.74
555.86	920.74
556.313	924.54
556.765	899.14
557.218	898.74
557.67	906.14
558.123	906.44
558.576	896.44
559.028	906.04
559.48	909.14
559.933	900.34
560.385	869.44
560.838	830.24
561.29	813.94
561.742	810.54
562.195	785.64
562.647	788.74
563.099	798.74
563.551	808.54
564.004	803.04
564.456	784.84
564.908	782.24
565.36	770.34
565.812	746.84
566.264	727.64
566.716	734.04
567.168	717.34
567.62	727.54
568.072	726.24
568.524	716.64
568.976	707.94
569.428	694.44
569.88	686.94
570.332	700.14
570.784	701.34
571.235	705.14
571.687	716.04
572.139	724.64
572.59	735.34
573.042	734.14
573.494	730.44
573.945	724.84
574.397	695.84
574.849	711.14
575.3	718.24
575.752	696.94
576.203	700.34
576.655	702.34
577.106	695.64
577.557	689.84
578.009	693.24
578.46	688.04
578.912	679.74
579.363	689.64
579.814	696.04
580.265	676.94
580.717	693.44
581.168	689.94
581.619	698.04
582.07	697.14
582.521	692.04
582.972	690.74
583.423	699.74
583.875	697.74
584.326	691.64
584.777	710.44
585.227	714.34
585.678	729.64
586.129	741.84
586.58	763.64
587.031	771.04
587.482	803.74
587.933	824.94
588.384	820.24
588.834	792.64
589.285	789.74
589.736	790.74
590.186	789.54
590.637	777.64
591.088	750.44
591.538	752.54
591.989	745.94
592.439	739.74
592.89	733.14
593.34	721.54
593.791	711.24
594.241	714.64
594.692	712.34
595.142	717.44
595.593	712.04
596.043	715.84
596.493	725.34
596.943	714.04
597.394	731.74
597.844	737.84
598.294	740.74
598.744	774.54
599.195	798.34
599.645	840.34
600.095	870.24
600.545	937.74
600.995	980.44
601.445	1051.64
601.895	1111.44
602.345	1152.24
602.795	1136.54
603.245	1080.64
603.695	1027.04
604.145	986.64
604.594	943.54
605.044	890.54
605.494	819.64
605.944	767.34
606.393	748.04
606.843	742.74
607.293	745.54
607.743	746.34
608.192	756.74
608.642	772.54
609.091	765.14
609.541	768.14
609.99	785.04
610.44	780.04
610.889	730.74
611.339	713.24
611.788	692.24
612.238	700.94
612.687	711.64
613.136	710.84
613.586	717.04
614.035	711.44
614.484	720.54
614.933	719.34
615.383	716.64
615.832	717.24
616.281	709.14
616.73	683.64
617.179	656.44
617.628	659.74
618.077	637.64
618.526	628.74
618.975	616.54
619.424	625.84
619.873	621.44
620.322	623.34
620.771	614.24
621.22	612.54
621.669	599.14
622.118	602.94
622.567	585.94
623.015	575.04
623.464	583.24
623.913	568.54
624.361	549.54
624.81	554.44
625.259	556.94
625.707	572.34
626.156	566.54
626.604	565.84
627.053	564.04
627.501	575.54
627.95	579.74
628.398	592.34
628.847	577.24
629.295	580.54
629.744	580.94
630.192	576.94
630.64	568.64
631.089	547.54
631.537	547.94
631.985	532.54
632.433	538.64
632.881	532.14
633.33	536.34
633.778	528.04
634.226	531.34
634.674	542.24
635.122	548.04
635.57	553.14
636.018	557.44
636.466	560.14
636.914	568.74
637.362	582.14
637.81	579.54
638.258	586.84
638.705	590.94
639.153	617.14
639.601	624.34
640.049	652.84
640.497	690.04
640.944	697.34
641.392	661.04
641.84	624.14
642.287	591.04
642.735	570.74
643.182	576.84
643.63	559.44
644.078	569.74
644.525	575.24
644.973	587.64
645.42	601.94
645.867	624.64
646.315	631.94
646.762	652.24
647.21	687.34
647.657	705.04
648.104	738.34
648.551	762.84
648.999	810.54
649.446	879.74
649.893	970.24
650.34	1107.64
650.787	1298.44
651.234	1614.24
651.682	2087.74
652.129	2811.74
652.576	3999.54
653.023	5836.84
653.47	7864.14
653.917	9814.94
654.363	11278.74
654.81	12458.94
655.257	11805.84
655.704	7790.54
656.151	4703.84
656.598	3086.24
657.044	2214.44
657.491	1718.14
657.938	1400.64
658.385	1177.04
658.831	1034.44
659.278	921.64
659.724	828.44
660.171	776.24
660.618	711.54
661.064	676.04
661.511	658.74
661.957	641.64
662.404	636.84
662.85	645.64
663.296	615.44
663.743	562.84
664.189	538.34
664.635	537.24
665.082	535.34
665.528	523.84
665.974	521.74
666.42	514.74
666.867	504.54
667.313	485.14
667.759	469.54
668.205	454.24
668.651	458.04
669.097	447.64
669.543	451.14
669.989	447.54
670.435	453.94
670.881	454.54
671.327	455.94
671.773	486.34
672.219	502.24
672.665	563.74
673.11	589.94
673.556	654.64
674.002	678.14
674.448	662.04
674.893	557.64
675.339	489.44
675.785	455.24
676.23	422.64
676.676	392.64
677.122	397.84
677.567	385.04
678.013	371.04
678.458	366.64
678.904	365.84
679.349	352.74
679.794	356.64
680.24	349.84
680.685	353.44
681.131	359.44
681.576	358.74
682.021	358.54
682.466	351.44
682.912	352.74
683.357	357.34
683.802	394.24
684.247	420.64
684.692	467.14
685.137	507.34
685.583	553.44
686.028	581.34
686.473	529.34
686.918	454.24
687.363	424.54
687.807	395.24
688.252	374.34
688.697	368.44
689.142	343.74
689.587	337.74
690.032	338.74
690.477	347.64
690.921	357.64
691.366	382.64
691.811	416.94
692.255	438.24
692.7	473.04
693.145	513.94
693.589	719.34
694.034	1167.34
694.478	1589.24
694.923	1782.54
695.367	2326.34
695.812	1223.84
696.256	511.74
696.701	373.74
697.145	349.54
697.59	338.54
698.034	321.04
698.478	331.74
698.922	326.54
699.367	327.14
699.811	341.44
700.255	354.84
700.699	384.34
701.143	420.64
701.588	478.74
702.032	522.84
702.476	520.34
702.92	496.24
703.364	504.64
703.808	659.14
704.252	1058.54
704.696	1514.14
705.14	1710.24
705.584	2191.34
706.027	1087.64
706.471	539.44
706.915	409.54
707.359	357.44
707.803	331.54
708.246	313.44
708.69	326.04
709.134	316.84
709.577	311.84
710.021	314.54
710.465	311.44
710.908	301.14
711.352	308.54
711.795	308.64
712.239	362.34
712.682	390.14
713.126	424.04
713.569	466.34
714.012	362.94
714.456	307.74
714.899	294.74
715.342	281.84
715.786	270.74
716.229	263.84
716.672	257.64
717.115	253.34
717.558	252.94
718.002	254.24
718.445	265.64
718.888	293.54
719.331	299.64
719.774	311.44
720.217	310.14
720.66	293.34
721.103	270.74
721.546	256.44
721.989	248.94
722.432	235.74
722.874	241.84
723.317	231.84
723.76	235.04
724.203	259.84
724.645	325.94
725.088	456.94
725.531	580.94
725.974	653.24
726.416	558.74
726.859	314.64
727.301	243.24
727.744	237.74
728.187	240.84
728.629	244.94
729.071	247.44
729.514	266.54
729.956	280.64
730.399	292.24
730.841	294.94
731.283	289.14
731.726	272.74
732.168	266.24
732.61	273.94
733.053	296.54
733.495	320.44
733.937	358.04
734.379	407.34
734.821	446.74
735.263	563.44
735.705	877.24
736.148	1645.64
736.59	2678.74
737.032	3142.14
737.474	2569.04
737.916	839.74
738.357	440.84
738.799	335.04
739.241	307.74
739.683	290.84
740.125	299.34
740.567	302.84
741.008	324.24
741.45	319.84
741.892	320.34
742.334	358.04
742.775	371.84
743.217	350.84
743.658	275.64
744.1	262.24
744.542	276.84
744.983	322.94
745.425	357.44
745.866	354.64
746.307	285.14
746.749	281.54
747.19	331.04
747.632	480.74
748.073	924.04
748.514	1936.44
748.956	2935.94
749.397	3693.14
749.838	3073.34
750.279	3047.74
750.72	1543.94
751.162	564.44
751.603	340.04
752.044	253.44
752.485	220.04
752.926	216.84
753.367	212.44
753.808	200.44
754.249	197.44
754.69	190.64
755.131	187.64
755.572	189.64
756.013	180.74
756.453	200.54
756.894	190.44
757.335	201.54
757.776	203.54
758.216	194.84
758.657	200.44
759.098	206.24
759.538	228.94
759.979	271.64
760.42	385.64
760.86	741.04
761.301	1925.34
761.741	4619.24
762.182	6640.64
762.622	4677.34
763.063	1351.64
763.503	556.04
