Data from 20171114-ORNL-Ar_H_NY_Subt18_08-08-59-119.txt Node
Date: Tue Nov 14 08:08:59 EST 2017
User: Ender
Spectrometer: HR+D1039
Trigger mode: 0
Integration Time (sec): 2.730000E-2
Scans to average: 10
Electric dark correction enabled: true
Nonlinearity correction enabled: false
Boxcar width: 0
XAxis mode: Wavelengths
Number of Pixels in Spectrum: 2048
>>>>>Begin Spectral Data<<<<<
187.836	-2.76
188.309	-2.76
188.782	-2.76
189.255	5.14
189.728	-1.26
190.201	5.24
190.674	-1.36
191.147	0.04
191.619	-8.56
192.092	1.44
192.565	3.94
193.038	-0.56
193.511	4.54
193.984	1.94
194.456	-7.26
194.929	-0.26
195.402	0.34
195.874	-0.66
196.347	-4.76
196.82	-6.76
197.292	7.94
197.765	-7.26
198.237	-8.76
198.71	1.94
199.182	-4.06
199.655	2.94
200.127	6.24
200.6	0.94
201.072	1.84
201.544	-2.96
202.017	2.84
202.489	4.44
202.961	-5.96
203.433	-4.26
203.906	-2.86
204.378	0.04
204.85	-5.96
205.322	-11.06
205.794	-3.66
206.266	5.14
206.739	-10.56
207.211	-0.36
207.683	-4.76
208.155	-1.86
208.627	-6.86
209.099	-1.56
209.57	-11.46
210.042	-4.06
210.514	-9.56
210.986	-7.26
211.458	-8.36
211.93	-4.26
212.402	4.84
212.873	-4.36
213.345	-8.36
213.817	-10.76
214.288	-7.86
214.76	-13.06
215.232	-5.56
215.703	-6.06
216.175	-5.86
216.646	-4.06
217.118	-6.06
217.589	-6.96
218.061	-3.06
218.532	-9.76
219.004	-3.76
219.475	-5.16
219.946	-7.96
220.418	-5.06
220.889	-2.26
221.36	-1.56
221.832	-4.96
222.303	-5.36
222.774	-3.96
223.245	-9.66
223.717	-6.66
224.188	-1.86
224.659	-4.76
225.13	-10.26
225.601	-5.36
226.072	1.04
226.543	0.14
227.014	-2.06
227.485	-4.16
227.956	-3.06
228.427	-5.56
228.898	-5.06
229.369	-3.56
229.839	-3.36
230.31	-5.56
230.781	6.84
231.252	-4.86
231.722	-9.66
232.193	-3.86
232.664	-4.96
233.135	-5.46
233.605	-11.16
234.076	-11.56
234.546	-3.16
235.017	1.64
235.487	-2.66
235.958	-5.36
236.428	-7.26
236.899	-4.36
237.369	-0.56
237.84	-9.16
238.31	8.64
238.78	-2.76
239.251	-4.56
239.721	-3.56
240.191	-4.96
240.662	-5.16
241.132	-5.76
241.602	-6.76
242.072	-5.06
242.542	2.74
243.013	-7.36
243.483	6.74
243.953	1.24
244.423	-4.26
244.893	-7.36
245.363	3.24
245.833	-1.96
246.303	-5.16
246.773	1.84
247.243	-5.36
247.712	-6.86
248.182	4.94
248.652	-0.06
249.122	-11.46
249.592	-1.46
250.061	2.24
250.531	4.34
251.001	-9.36
251.471	7.14
251.94	7.44
252.41	-9.76
252.879	-6.76
253.349	10.44
253.818	2.34
254.288	0.14
254.757	2.94
255.227	-3.46
255.696	-6.96
256.166	4.84
256.635	0.14
257.105	-0.96
257.574	-4.96
258.043	-0.66
258.513	-7.06
258.982	2.34
259.451	-2.06
259.92	-4.96
260.389	-0.36
260.859	6.04
261.328	3.54
261.797	0.54
262.266	1.84
262.735	6.54
263.204	-2.06
263.673	-1.56
264.142	-1.36
264.611	-8.06
265.08	0.04
265.549	-4.06
266.018	0.54
266.487	-0.96
266.955	-0.86
267.424	-0.46
267.893	3.54
268.362	2.54
268.83	-1.76
269.299	5.64
269.768	1.34
270.236	-1.26
270.705	-6.96
271.174	2.64
271.642	4.94
272.111	1.94
272.579	6.14
273.048	5.14
273.516	1.14
273.985	4.94
274.453	11.24
274.922	13.74
275.39	3.24
275.858	0.74
276.327	10.04
276.795	13.44
277.263	-1.46
277.731	6.54
278.2	6.24
278.668	9.84
279.136	8.64
279.604	0.54
280.072	6.84
280.54	6.14
281.008	3.24
281.477	9.54
281.945	3.84
282.413	10.54
282.881	2.34
283.348	-2.76
283.816	8.34
284.284	9.74
284.752	18.44
285.22	5.74
285.688	5.24
286.156	9.84
286.623	13.44
287.091	3.34
287.559	8.14
288.026	7.64
288.494	4.84
288.962	0.14
289.429	1.94
289.897	13.64
290.364	3.14
290.832	9.44
291.3	8.24
291.767	10.74
292.234	11.44
292.702	4.84
293.169	10.44
293.637	12.14
294.104	14.14
294.571	-1.56
295.039	1.74
295.506	2.84
295.973	8.24
296.44	11.44
296.908	11.84
297.375	10.74
297.842	8.44
298.309	13.44
298.776	3.14
299.243	15.64
299.71	8.74
300.177	17.44
300.644	14.84
301.111	17.14
301.578	17.94
302.045	7.04
302.512	15.44
302.979	17.44
303.446	11.74
303.913	8.44
304.379	13.04
304.846	17.74
305.313	20.74
305.78	16.84
306.246	16.54
306.713	25.74
307.18	17.44
307.646	18.04
308.113	21.34
308.579	10.14
309.046	14.74
309.512	14.74
309.979	11.54
310.445	18.14
310.912	20.64
311.378	22.04
311.845	21.34
312.311	21.04
312.777	23.94
313.244	21.54
313.71	28.74
314.176	18.04
314.642	20.54
315.109	20.54
315.575	21.34
316.041	30.74
316.507	17.74
316.973	23.04
317.439	24.14
317.905	26.44
318.371	28.74
318.837	21.34
319.303	24.44
319.769	25.44
320.235	25.64
320.701	22.74
321.167	31.14
321.633	24.24
322.099	26.24
322.564	28.94
323.03	25.14
323.496	27.84
323.962	32.44
324.427	32.34
324.893	35.04
325.359	30.64
325.824	32.54
326.29	27.44
326.755	27.64
327.221	28.94
327.686	25.04
328.152	30.34
328.617	30.34
329.083	36.04
329.548	46.54
330.014	33.14
330.479	29.84
330.944	34.14
331.41	33.54
331.875	33.74
332.34	33.24
332.805	29.74
333.271	33.14
333.736	33.34
334.201	34.64
334.666	41.94
335.131	39.44
335.596	35.94
336.061	33.54
336.526	29.64
336.991	36.54
337.456	41.34
337.921	45.34
338.386	36.64
338.851	37.74
339.316	38.74
339.781	41.24
340.246	45.94
340.711	37.74
341.175	44.14
341.64	39.74
342.105	46.34
342.569	44.34
343.034	44.74
343.499	40.14
343.963	36.74
344.428	52.94
344.893	49.74
345.357	55.44
345.822	53.64
346.286	60.14
346.751	59.74
347.215	58.34
347.679	56.24
348.144	73.14
348.608	59.04
349.073	56.94
349.537	63.84
350.001	66.24
350.465	72.94
350.93	65.94
351.394	68.04
351.858	63.34
352.322	72.54
352.786	67.74
353.25	80.84
353.715	87.64
354.179	77.04
354.643	95.84
355.107	99.84
355.571	89.64
356.035	78.54
356.498	86.54
356.962	94.94
357.426	103.14
357.89	94.34
358.354	70.54
358.818	68.34
359.281	65.14
359.745	57.74
360.209	64.04
360.673	67.04
361.136	68.94
361.6	76.84
362.064	71.44
362.527	66.64
362.991	77.64
363.454	66.54
363.918	61.54
364.381	70.54
364.845	69.04
365.308	76.34
365.772	84.84
366.235	75.64
366.698	70.94
367.162	72.44
367.625	68.04
368.088	76.74
368.552	74.44
369.015	80.34
369.478	90.94
369.941	80.44
370.404	75.74
370.867	82.74
371.331	93.74
371.794	89.34
372.257	84.24
372.72	95.64
373.183	89.74
373.646	76.34
374.109	81.74
374.572	94.04
375.035	87.24
375.497	87.84
375.96	89.34
376.423	95.64
376.886	101.04
377.349	93.34
377.811	89.04
378.274	89.14
378.737	92.44
379.199	88.34
379.662	90.14
380.125	101.94
380.587	91.64
381.05	96.04
381.512	99.04
381.975	109.24
382.437	104.74
382.9	102.74
383.362	112.64
383.825	119.74
384.287	114.24
384.75	106.54
385.212	112.24
385.674	122.54
386.136	124.74
386.599	106.24
387.061	113.04
387.523	112.34
387.985	107.84
388.447	121.24
388.91	117.34
389.372	125.14
389.834	119.24
390.296	118.04
390.758	122.94
391.22	131.14
391.682	138.14
392.144	145.14
392.606	137.64
393.068	129.14
393.529	141.24
393.991	134.84
394.453	126.54
394.915	123.64
395.377	130.54
395.838	130.14
396.3	127.04
396.762	133.64
397.224	118.74
397.685	125.24
398.147	123.34
398.608	113.54
399.07	124.04
399.531	126.84
399.993	134.84
400.454	149.74
400.916	140.94
401.377	135.94
401.839	147.74
402.3	138.74
402.762	160.64
403.223	168.54
403.684	159.64
404.145	154.94
404.607	154.14
405.068	151.74
405.529	155.84
405.99	174.34
406.451	164.34
406.913	166.64
407.374	155.14
407.835	156.14
408.296	160.94
408.757	161.14
409.218	181.14
409.679	171.54
410.14	166.84
410.601	169.14
411.062	169.04
411.522	173.74
411.983	174.84
412.444	166.44
412.905	173.54
413.366	180.14
413.826	188.84
414.287	213.94
414.748	264.34
415.208	248.34
415.669	209.64
416.13	203.94
416.59	202.84
417.051	217.14
417.511	216.84
417.972	243.44
418.432	242.94
418.893	294.04
419.353	246.94
419.814	195.04
420.274	183.44
420.734	174.44
421.195	198.24
421.655	192.04
422.115	193.84
422.576	193.04
423.036	199.64
423.496	203.34
423.956	212.94
424.416	228.54
424.876	259.74
425.336	262.74
425.797	254.44
426.257	247.84
426.717	234.04
427.177	232.24
427.637	219.44
428.097	227.64
428.556	234.54
429.016	264.34
429.476	250.44
429.936	265.44
430.396	260.24
430.856	279.74
431.315	298.74
431.775	328.54
432.235	365.74
432.694	339.14
433.154	342.54
433.614	374.24
434.073	319.04
434.533	272.24
434.993	266.34
435.452	275.54
435.912	284.74
436.371	279.34
436.83	279.14
437.29	261.34
437.749	245.34
438.209	236.14
438.668	263.44
439.127	279.54
439.587	256.94
440.046	246.64
440.505	256.14
440.964	271.24
441.424	314.14
441.883	302.14
442.342	250.54
442.801	223.14
443.26	219.94
443.719	221.94
444.178	219.54
444.637	214.94
445.096	224.04
445.555	225.74
446.014	230.34
446.473	227.24
446.932	230.14
447.391	230.44
447.849	236.44
448.308	225.14
448.767	236.64
449.226	241.94
449.685	240.14
450.143	251.24
450.602	246.34
451.061	235.94
451.519	236.44
451.978	234.34
452.436	239.54
452.895	235.14
453.353	253.94
453.812	240.64
454.27	241.74
454.729	244.24
455.187	240.64
455.646	243.94
456.104	251.24
456.562	267.54
457.021	277.94
457.479	261.04
457.937	272.44
458.395	264.64
458.854	248.84
459.312	262.54
459.77	279.84
460.228	257.34
460.686	244.74
461.144	262.64
461.602	253.94
462.06	253.54
462.518	255.54
462.976	261.74
463.434	271.94
463.892	263.74
464.35	279.34
464.808	291.74
465.266	276.04
465.724	273.34
466.181	282.64
466.639	278.64
467.097	296.14
467.555	305.84
468.012	303.24
468.47	313.84
468.928	345.04
469.385	348.84
469.843	362.84
470.3	359.24
470.758	373.04
471.215	389.74
471.673	410.34
472.13	407.64
472.588	426.44
473.045	380.14
473.503	384.14
473.96	396.74
474.417	404.64
474.875	433.84
475.332	482.64
475.789	464.54
476.246	472.64
476.704	485.54
477.161	515.24
477.618	536.14
478.075	562.24
478.532	617.34
478.989	687.64
479.446	779.04
479.903	755.64
480.36	791.84
480.817	842.54
481.274	935.54
481.731	1027.34
482.188	1087.64
482.645	1198.54
483.102	1292.94
483.558	1412.74
484.015	1441.34
484.472	1426.04
484.929	1384.44
485.385	1346.14
485.842	1308.64
486.299	1263.14
486.755	1239.94
487.212	1048.74
487.668	893.94
488.125	836.74
488.582	763.74
489.038	732.44
489.494	713.34
489.951	690.54
490.407	676.24
490.864	645.64
491.32	636.74
491.776	635.44
492.233	639.14
492.689	612.64
493.145	611.64
493.602	606.54
494.058	623.54
494.514	614.74
494.97	642.54
495.426	660.74
495.882	629.64
496.338	617.44
496.794	629.14
497.251	623.04
497.707	637.24
498.163	642.94
498.618	654.44
499.074	646.64
499.53	679.64
499.986	681.64
500.442	660.04
500.898	628.24
501.354	625.64
501.809	641.94
502.265	632.74
502.721	643.64
503.177	651.84
503.632	648.64
504.088	648.64
504.543	676.84
504.999	696.14
505.455	655.94
505.91	650.14
506.366	649.94
506.821	644.94
507.277	645.54
507.732	652.64
508.187	657.84
508.643	655.54
509.098	646.44
509.553	666.74
510.009	678.94
510.464	694.64
510.919	709.14
511.375	711.54
511.83	722.04
512.285	729.64
512.74	770.54
513.195	795.94
513.65	781.54
514.105	782.74
514.56	783.54
515.015	800.94
515.47	808.34
515.925	799.64
516.38	802.84
516.835	811.14
517.29	800.74
517.745	777.74
518.2	779.74
518.655	762.04
519.109	764.64
519.564	757.64
520.019	742.04
520.474	741.94
520.928	754.34
521.383	736.24
521.838	721.54
522.292	736.84
522.747	724.14
523.201	725.54
523.656	709.74
524.11	719.94
524.565	717.14
525.019	712.34
525.474	713.94
525.928	710.24
526.382	707.94
526.837	718.04
527.291	724.84
527.745	717.04
528.2	718.54
528.654	701.54
529.108	707.04
529.562	710.64
530.016	710.34
530.47	705.04
530.925	704.04
531.379	700.24
531.833	724.94
532.287	719.94
532.741	711.64
533.195	722.84
533.649	720.24
534.103	739.44
534.556	724.04
535.01	725.34
535.464	720.54
535.918	731.74
536.372	733.84
536.826	726.04
537.279	719.24
537.733	736.34
538.187	732.54
538.64	728.34
539.094	742.74
539.548	750.74
540.001	747.04
540.455	742.04
540.908	756.44
541.362	758.14
541.815	762.24
542.269	791.34
542.722	784.44
543.175	787.54
543.629	787.74
544.082	808.94
544.536	814.74
544.989	804.14
545.442	821.84
545.895	811.54
546.349	816.84
546.802	823.64
547.255	834.94
547.708	835.84
548.161	843.34
548.614	853.64
549.067	860.14
549.52	845.74
549.973	832.54
550.426	830.64
550.879	818.54
551.332	834.14
551.785	830.44
552.238	836.04
552.691	840.54
553.144	849.34
553.596	873.84
554.049	909.14
554.502	925.74
554.955	941.14
555.407	941.04
555.86	920.14
556.313	914.04
556.765	901.54
557.218	921.34
557.67	910.04
558.123	899.44
558.576	893.94
559.028	907.74
559.48	910.04
559.933	901.64
560.385	860.84
560.838	844.44
561.29	823.24
561.742	809.24
562.195	794.24
562.647	799.94
563.099	797.64
563.551	795.64
564.004	810.44
564.456	798.84
564.908	790.24
565.36	762.84
565.812	753.74
566.264	743.34
566.716	734.74
567.168	734.14
567.62	737.64
568.072	722.44
568.524	723.24
568.976	706.24
569.428	704.04
569.88	712.24
570.332	715.94
570.784	720.54
571.235	716.94
571.687	723.44
572.139	729.94
572.59	743.04
573.042	730.74
573.494	733.64
573.945	730.84
574.397	715.64
574.849	719.44
575.3	712.44
575.752	702.84
576.203	707.14
576.655	706.94
577.106	692.84
577.557	696.24
578.009	689.44
578.46	684.84
578.912	690.74
579.363	691.54
579.814	697.14
580.265	678.14
580.717	691.34
581.168	698.24
581.619	698.54
582.07	705.54
582.521	698.74
582.972	695.14
583.423	701.54
583.875	697.94
584.326	713.74
584.777	725.64
585.227	745.94
585.678	767.24
586.129	784.64
586.58	816.94
587.031	827.54
587.482	856.44
587.933	906.44
588.384	872.14
588.834	826.24
589.285	803.14
589.736	803.64
590.186	800.44
590.637	800.54
591.088	773.14
591.538	765.74
591.989	756.84
592.439	753.34
592.89	742.04
593.34	732.14
593.791	734.94
594.241	717.64
594.692	730.54
595.142	720.64
595.593	720.14
596.043	738.44
596.493	723.84
596.943	734.34
597.394	741.54
597.844	742.54
598.294	764.14
598.744	794.54
599.195	810.44
599.645	858.44
600.095	903.94
600.545	959.14
600.995	1008.14
601.445	1065.24
601.895	1132.74
602.345	1186.24
602.795	1164.54
603.245	1126.74
603.695	1058.94
604.145	991.74
604.594	949.34
605.044	902.94
605.494	832.84
605.944	787.64
606.393	770.24
606.843	755.44
607.293	758.54
607.743	759.64
608.192	762.94
608.642	778.34
609.091	777.74
609.541	783.74
609.99	799.04
610.44	779.44
610.889	736.74
611.339	729.44
611.788	709.34
612.238	714.74
612.687	728.84
613.136	728.14
613.586	732.24
614.035	730.54
614.484	745.34
614.933	738.14
615.383	727.54
615.832	735.74
616.281	734.04
616.73	690.14
617.179	676.14
617.628	677.14
618.077	659.74
618.526	640.34
618.975	647.34
619.424	639.04
619.873	624.74
620.322	643.64
620.771	633.24
621.22	624.74
621.669	613.74
622.118	614.84
622.567	602.14
623.015	595.44
623.464	592.54
623.913	585.04
624.361	575.44
624.81	580.04
625.259	577.94
625.707	578.74
626.156	580.94
626.604	590.24
627.053	587.44
627.501	597.34
627.95	596.44
628.398	613.74
628.847	602.34
629.295	587.74
629.744	593.94
630.192	577.34
630.64	585.54
631.089	572.74
631.537	570.84
631.985	558.64
632.433	561.94
632.881	546.84
633.33	564.64
633.778	554.64
634.226	544.04
634.674	552.54
635.122	560.44
635.57	576.84
636.018	576.24
636.466	590.04
636.914	580.34
637.362	588.14
637.81	600.24
638.258	603.34
638.705	612.04
639.153	638.44
639.601	647.04
640.049	674.94
640.497	698.74
640.944	724.94
641.392	679.94
641.84	632.84
642.287	603.64
642.735	588.54
643.182	597.04
643.63	581.84
644.078	581.64
644.525	597.44
644.973	604.74
645.42	607.54
645.867	642.54
646.315	662.74
646.762	680.14
647.21	706.34
647.657	727.34
648.104	761.64
648.551	782.84
648.999	843.74
649.446	920.74
649.893	1016.04
650.34	1157.84
650.787	1376.14
651.234	1697.64
651.682	2180.04
652.129	2957.14
652.576	4223.04
653.023	6130.54
653.47	8293.74
653.917	10211.84
654.363	11686.64
654.81	12832.94
655.257	12141.94
655.704	8066.44
656.151	4866.24
656.598	3178.84
657.044	2289.04
657.491	1779.64
657.938	1449.84
658.385	1216.54
658.831	1064.54
659.278	957.44
659.724	852.34
660.171	799.84
660.618	736.94
661.064	699.04
661.511	681.64
661.957	675.14
662.404	661.44
662.85	672.74
663.296	647.44
663.743	573.84
664.189	561.64
664.635	555.04
665.082	552.24
665.528	552.24
665.974	540.24
666.42	529.84
666.867	525.54
667.313	506.24
667.759	482.34
668.205	474.24
668.651	473.94
669.097	464.14
669.543	461.84
669.989	471.24
670.435	470.24
670.881	465.04
671.327	467.74
671.773	490.54
672.219	521.84
672.665	578.54
673.11	620.64
673.556	662.94
674.002	701.94
674.448	692.24
674.893	584.34
675.339	512.34
675.785	473.24
676.23	436.94
676.676	412.54
677.122	402.04
677.567	391.24
678.013	383.94
678.458	380.74
678.904	382.24
679.349	368.74
679.794	377.04
680.24	377.64
680.685	369.04
681.131	367.84
681.576	372.24
682.021	373.64
682.466	371.64
682.912	371.44
683.357	370.84
683.802	401.04
684.247	431.44
684.692	480.24
685.137	525.04
685.583	560.74
686.028	591.64
686.473	555.84
686.918	475.44
687.363	442.14
687.807	416.34
688.252	388.64
688.697	375.84
689.142	359.14
689.587	358.34
690.032	346.64
690.477	363.94
690.921	368.14
691.366	403.94
691.811	423.74
692.255	457.94
692.7	488.44
693.145	543.54
693.589	761.64
694.034	1235.74
694.478	1656.04
694.923	1826.64
695.367	2377.84
695.812	1260.54
696.256	534.94
696.701	395.24
697.145	364.94
697.59	338.54
698.034	342.84
698.478	346.34
698.922	343.14
699.367	351.04
699.811	355.94
700.255	362.94
700.699	411.04
701.143	445.94
701.588	502.94
702.032	546.74
702.476	537.34
702.92	523.44
703.364	525.84
703.808	703.54
704.252	1156.04
704.696	1578.34
705.14	1779.04
705.584	2253.64
706.027	1132.34
706.471	558.14
706.915	427.94
707.359	375.74
707.803	341.34
708.246	336.34
708.69	324.34
709.134	335.44
709.577	334.14
710.021	340.34
710.465	324.04
710.908	315.14
711.352	314.84
711.795	327.54
712.239	379.74
712.682	409.04
713.126	434.54
713.569	484.14
714.012	378.04
714.456	327.74
714.899	301.74
715.342	286.94
715.786	276.64
716.229	270.54
716.672	265.24
717.115	268.04
717.558	260.84
718.002	261.74
718.445	279.64
718.888	298.74
719.331	309.24
719.774	318.64
720.217	321.84
720.66	302.84
721.103	285.14
721.546	278.44
721.989	264.54
722.432	248.44
722.874	251.14
723.317	246.94
723.76	250.44
724.203	276.74
724.645	344.44
725.088	483.74
725.531	606.54
725.974	665.94
726.416	573.54
726.859	325.34
727.301	265.54
727.744	249.74
728.187	247.44
728.629	261.04
729.071	265.84
729.514	270.54
729.956	287.14
730.399	299.84
730.841	304.34
731.283	294.74
731.726	286.04
732.168	281.44
732.61	292.44
733.053	308.84
733.495	340.54
733.937	386.04
734.379	426.94
734.821	467.54
735.263	604.84
735.705	925.54
736.148	1765.34
736.59	2809.94
737.032	3212.04
737.474	2630.24
737.916	880.04
738.357	464.74
738.799	348.64
739.241	311.34
739.683	302.04
740.125	312.84
740.567	316.44
741.008	338.54
741.45	334.24
741.892	346.64
742.334	367.64
742.775	387.14
743.217	365.34
743.658	291.74
744.1	278.74
744.542	284.24
744.983	346.34
745.425	367.84
745.866	368.84
746.307	296.24
746.749	301.44
747.19	351.74
747.632	508.04
748.073	997.34
748.514	2076.04
748.956	3067.74
749.397	3877.04
749.838	3209.84
750.279	3115.94
750.72	1595.24
751.162	593.74
751.603	348.84
752.044	270.44
752.485	234.94
752.926	230.14
753.367	214.34
753.808	206.64
754.249	203.74
754.69	201.44
755.131	193.94
755.572	198.14
756.013	189.64
756.453	189.44
756.894	199.84
757.335	203.24
757.776	206.64
758.216	208.04
758.657	216.34
759.098	212.04
759.538	243.64
759.979	291.94
760.42	416.94
760.86	794.34
761.301	2091.04
761.741	4902.94
762.182	6778.24
762.622	4791.34
763.063	1405.84
763.503	573.14
