Data from 20171114-ORNL-Ar_H_NY_Subt18_08-08-24-665.txt Node
Date: Tue Nov 14 08:08:24 EST 2017
User: Ender
Spectrometer: HR+D1039
Trigger mode: 0
Integration Time (sec): 2.730000E-2
Scans to average: 10
Electric dark correction enabled: true
Nonlinearity correction enabled: false
Boxcar width: 0
XAxis mode: Wavelengths
Number of Pixels in Spectrum: 2048
>>>>>Begin Spectral Data<<<<<
187.836	-3.49
188.309	-3.49
188.782	-3.49
189.255	-1.89
189.728	-4.59
190.201	1.61
190.674	-1.49
191.147	7.51
191.619	-10.39
192.092	-1.59
192.565	7.01
193.038	-0.19
193.511	5.31
193.984	4.71
194.456	-0.99
194.929	1.11
195.402	-1.69
195.874	-0.99
196.347	-3.29
196.82	-5.29
197.292	5.01
197.765	-3.09
198.237	-7.29
198.71	-4.79
199.182	-2.09
199.655	0.11
200.127	-1.89
200.6	-1.89
201.072	-2.79
201.544	-5.89
202.017	-6.19
202.489	-2.19
202.961	-6.09
203.433	-2.69
203.906	-4.69
204.378	-6.99
204.85	-8.99
205.322	-9.59
205.794	-1.09
206.266	-2.29
206.739	-10.49
207.211	3.11
207.683	-7.19
208.155	-5.69
208.627	-6.99
209.099	-7.09
209.57	-10.59
210.042	-12.79
210.514	-7.89
210.986	-8.49
211.458	-12.49
211.93	-4.39
212.402	-2.19
212.873	-7.29
213.345	-8.49
213.817	-12.69
214.288	-6.59
214.76	-13.49
215.232	-4.29
215.703	-5.49
216.175	-8.99
216.646	-9.19
217.118	-4.09
217.589	-5.19
218.061	-8.89
218.532	-4.69
219.004	-1.49
219.475	-10.09
219.946	-7.99
220.418	-9.39
220.889	5.51
221.36	0.01
221.832	-3.99
222.303	-4.79
222.774	-2.19
223.245	-8.39
223.717	-10.19
224.188	-0.59
224.659	-12.19
225.13	-13.29
225.601	-2.19
226.072	2.51
226.543	-5.79
227.014	-2.99
227.485	-7.89
227.956	-6.09
228.427	-1.39
228.898	-1.19
229.369	2.21
229.839	-1.89
230.31	-8.29
230.781	1.41
231.252	-0.39
231.722	-2.89
232.193	-0.39
232.664	-3.09
233.135	-4.39
233.605	0.81
234.076	-6.99
234.546	1.41
235.017	3.61
235.487	-1.09
235.958	-0.79
236.428	-4.49
236.899	-0.29
237.369	-0.59
237.84	-4.59
238.31	-4.59
238.78	-4.59
239.251	-8.59
239.721	-1.49
240.191	4.71
240.662	1.01
241.132	0.71
241.602	-3.59
242.072	-0.79
242.542	2.11
243.013	-6.09
243.483	-2.59
243.953	1.01
244.423	0.61
244.893	-5.09
245.363	0.31
245.833	-0.99
246.303	-3.99
246.773	3.01
247.243	-2.79
247.712	1.31
248.182	5.51
248.652	-2.29
249.122	-12.09
249.592	-2.79
250.061	2.71
250.531	5.81
251.001	0.31
251.471	12.41
251.94	6.91
252.41	2.91
252.879	-1.39
253.349	3.41
253.818	3.01
254.288	-2.19
254.757	-0.99
255.227	-0.39
255.696	-1.49
256.166	7.91
256.635	7.31
257.105	6.11
257.574	0.81
258.043	2.31
258.513	-7.39
258.982	5.11
259.451	-2.39
259.92	2.71
260.389	3.41
260.859	8.71
261.328	3.71
261.797	8.51
262.266	3.11
262.735	7.61
263.204	-1.49
263.673	-0.69
264.142	1.51
264.611	-0.69
265.08	4.31
265.549	2.61
266.018	7.91
266.487	-1.99
266.955	-8.19
267.424	2.41
267.893	7.01
268.362	-2.79
268.83	2.51
269.299	7.01
269.768	4.41
270.236	6.91
270.705	1.01
271.174	5.91
271.642	1.21
272.111	7.61
272.579	8.41
273.048	4.81
273.516	9.61
273.985	11.21
274.453	10.91
274.922	15.01
275.39	8.51
275.858	-0.89
276.327	9.91
276.795	10.81
277.263	2.01
277.731	15.01
278.2	12.41
278.668	16.61
279.136	17.01
279.604	4.51
280.072	10.41
280.54	9.81
281.008	4.21
281.477	16.71
281.945	10.21
282.413	16.21
282.881	14.31
283.348	8.91
283.816	17.31
284.284	11.41
284.752	14.11
285.22	8.01
285.688	10.11
286.156	12.41
286.623	24.11
287.091	10.51
287.559	16.01
288.026	12.21
288.494	9.61
288.962	-0.19
289.429	13.01
289.897	18.41
290.364	14.21
290.832	21.81
291.3	12.41
291.767	16.71
292.234	16.51
292.702	15.81
293.169	12.81
293.637	20.41
294.104	12.11
294.571	7.51
295.039	8.71
295.506	16.91
295.973	18.91
296.44	16.71
296.908	16.71
297.375	12.31
297.842	22.31
298.309	14.71
298.776	11.71
299.243	21.71
299.71	11.51
300.177	22.91
300.644	17.61
301.111	22.51
301.578	24.11
302.045	20.31
302.512	24.71
302.979	24.51
303.446	17.21
303.913	22.41
304.379	15.01
304.846	27.51
305.313	19.91
305.78	22.61
306.246	26.01
306.713	27.51
307.18	25.21
307.646	30.81
308.113	27.51
308.579	26.31
309.046	23.91
309.512	27.41
309.979	18.11
310.445	19.11
310.912	23.71
311.378	34.11
311.845	27.61
312.311	31.11
312.777	29.61
313.244	33.41
313.71	42.41
314.176	22.61
314.642	34.61
315.109	32.91
315.575	37.81
316.041	35.91
316.507	25.81
316.973	31.11
317.439	33.91
317.905	37.81
318.371	25.51
318.837	34.01
319.303	29.21
319.769	32.21
320.235	35.41
320.701	38.01
321.167	33.41
321.633	36.61
322.099	39.31
322.564	42.71
323.03	41.61
323.496	34.41
323.962	40.81
324.427	38.51
324.893	38.91
325.359	35.61
325.824	34.61
326.29	39.91
326.755	31.81
327.221	39.91
327.686	39.41
328.152	49.51
328.617	43.21
329.083	49.21
329.548	47.41
330.014	48.01
330.479	38.51
330.944	44.21
331.41	45.61
331.875	44.01
332.34	40.31
332.805	33.51
333.271	45.31
333.736	40.31
334.201	52.11
334.666	55.31
335.131	47.11
335.596	48.91
336.061	45.51
336.526	43.61
336.991	50.11
337.456	57.81
337.921	45.31
338.386	41.91
338.851	49.21
339.316	51.61
339.781	47.71
340.246	55.41
340.711	50.21
341.175	46.21
341.64	54.41
342.105	48.01
342.569	53.51
343.034	59.61
343.499	62.51
343.963	57.21
344.428	66.11
344.893	59.61
345.357	58.31
345.822	68.41
346.286	66.01
346.751	73.11
347.215	73.01
347.679	74.41
348.144	103.71
348.608	90.51
349.073	68.81
349.537	80.81
350.001	84.31
350.465	93.11
350.93	78.41
351.394	87.61
351.858	79.61
352.322	92.81
352.786	86.41
353.25	102.11
353.715	117.31
354.179	106.41
354.643	121.91
355.107	125.91
355.571	110.81
356.035	104.81
356.498	113.71
356.962	119.71
357.426	129.11
357.89	110.71
358.354	92.81
358.818	88.21
359.281	80.01
359.745	78.51
360.209	77.11
360.673	73.81
361.136	82.41
361.6	89.91
362.064	84.01
362.527	80.71
362.991	94.31
363.454	85.01
363.918	80.31
364.381	81.31
364.845	88.71
365.308	87.01
365.772	89.61
366.235	91.01
366.698	84.61
367.162	93.61
367.625	81.71
368.088	94.11
368.552	91.01
369.015	92.61
369.478	97.71
369.941	104.61
370.404	97.31
370.867	106.81
371.331	105.01
371.794	118.41
372.257	105.81
372.72	108.81
373.183	102.21
373.646	93.71
374.109	95.91
374.572	100.91
375.035	108.31
375.497	109.31
375.96	110.61
376.423	112.41
376.886	117.81
377.349	118.81
377.811	106.91
378.274	110.31
378.737	113.11
379.199	114.71
379.662	110.51
380.125	117.71
380.587	112.31
381.05	117.81
381.512	117.91
381.975	124.21
382.437	127.11
382.9	120.81
383.362	130.61
383.825	137.01
384.287	138.01
384.75	127.81
385.212	130.11
385.674	140.91
386.136	141.31
386.599	128.11
387.061	125.21
387.523	127.51
387.985	130.51
388.447	145.91
388.91	129.01
389.372	129.91
389.834	141.81
390.296	134.61
390.758	143.01
391.22	139.11
391.682	158.41
392.144	176.91
392.606	161.21
393.068	151.61
393.529	156.61
393.991	144.71
394.453	136.11
394.915	137.71
395.377	146.21
395.838	148.81
396.3	145.61
396.762	152.41
397.224	141.31
397.685	136.11
398.147	141.71
398.608	137.51
399.07	142.31
399.531	145.11
399.993	153.01
400.454	168.91
400.916	160.31
401.377	151.51
401.839	160.71
402.3	171.11
402.762	176.81
403.223	188.21
403.684	177.71
404.145	169.31
404.607	170.11
405.068	176.31
405.529	178.21
405.99	192.41
406.451	185.81
406.913	184.41
407.374	180.91
407.835	166.21
408.296	179.01
408.757	185.51
409.218	191.41
409.679	185.11
410.14	184.41
410.601	189.81
411.062	194.71
411.522	192.21
411.983	179.01
412.444	183.91
412.905	191.21
413.366	203.21
413.826	210.41
414.287	230.21
414.748	285.71
415.208	271.91
415.669	231.51
416.13	226.11
416.59	214.11
417.051	229.21
417.511	237.21
417.972	255.41
418.432	274.31
418.893	321.61
419.353	264.91
419.814	217.41
420.274	196.01
420.734	199.01
421.195	216.31
421.655	211.51
422.115	206.31
422.576	218.81
423.036	215.61
423.496	221.61
423.956	236.81
424.416	245.31
424.876	282.61
425.336	283.01
425.797	286.01
426.257	270.31
426.717	259.21
427.177	254.51
427.637	239.91
428.097	245.71
428.556	258.81
429.016	281.31
429.476	283.01
429.936	285.91
430.396	291.01
430.856	303.01
431.315	326.91
431.775	369.51
432.235	398.51
432.694	364.71
433.154	378.41
433.614	414.81
434.073	357.11
434.533	304.11
434.993	286.81
435.452	301.61
435.912	315.51
436.371	312.41
436.83	294.71
437.29	280.71
437.749	264.91
438.209	267.21
438.668	298.01
439.127	308.81
439.587	281.91
440.046	267.71
440.505	291.51
440.964	297.81
441.424	343.91
441.883	344.21
442.342	285.71
442.801	243.91
443.26	247.71
443.719	242.51
444.178	241.61
444.637	240.11
445.096	240.81
445.555	247.21
446.014	241.91
446.473	251.61
446.932	247.21
447.391	253.51
447.849	248.51
448.308	230.91
448.767	241.71
449.226	258.91
449.685	260.81
450.143	267.21
450.602	259.41
451.061	253.81
451.519	249.11
451.978	251.31
452.436	254.71
452.895	258.81
453.353	275.01
453.812	256.41
454.27	258.11
454.729	260.61
455.187	274.11
455.646	268.01
456.104	271.21
456.562	285.81
457.021	295.31
457.479	285.11
457.937	302.01
458.395	292.91
458.854	277.01
459.312	273.21
459.77	307.31
460.228	280.41
460.686	268.01
461.144	273.11
461.602	263.81
462.06	268.11
462.518	280.11
462.976	279.71
463.434	282.11
463.892	277.91
464.35	299.31
464.808	318.41
465.266	285.91
465.724	283.21
466.181	295.41
466.639	293.11
467.097	313.91
467.555	322.21
468.012	330.81
468.47	341.51
468.928	360.41
469.385	366.31
469.843	377.51
470.3	385.21
470.758	388.81
471.215	416.31
471.673	443.81
472.13	448.91
472.588	462.51
473.045	410.41
473.503	411.91
473.96	429.41
474.417	437.91
474.875	473.21
475.332	511.31
475.789	498.81
476.246	505.41
476.704	536.11
477.161	550.91
477.618	562.41
478.075	587.91
478.532	647.21
478.989	730.41
479.446	860.71
479.903	810.31
480.36	836.61
480.817	884.71
481.274	973.21
481.731	1060.71
482.188	1151.51
482.645	1279.01
483.102	1369.31
483.558	1514.21
484.015	1536.81
484.472	1514.81
484.929	1457.51
485.385	1427.01
485.842	1399.51
486.299	1338.01
486.755	1311.91
487.212	1114.11
487.668	951.81
488.125	881.61
488.582	814.11
489.038	778.71
489.494	750.71
489.951	727.31
490.407	702.31
490.864	690.51
491.32	689.31
491.776	693.71
492.233	690.11
492.689	660.51
493.145	648.91
493.602	648.81
494.058	664.01
494.514	662.21
494.97	684.41
495.426	693.91
495.882	660.81
496.338	656.21
496.794	669.21
497.251	656.21
497.707	679.01
498.163	680.81
498.618	688.81
499.074	680.91
499.53	716.91
499.986	725.11
500.442	691.21
500.898	667.61
501.354	658.01
501.809	661.91
502.265	662.81
502.721	677.21
503.177	683.81
503.632	682.71
504.088	692.51
504.543	722.91
504.999	745.61
505.455	707.11
505.91	687.51
506.366	694.41
506.821	680.31
507.277	677.21
507.732	675.31
508.187	675.91
508.643	694.91
509.098	687.41
509.553	708.91
510.009	717.11
510.464	729.91
510.919	741.41
511.375	758.01
511.83	762.71
512.285	781.81
512.74	814.81
513.195	835.51
513.65	843.21
514.105	821.71
514.56	825.91
515.015	841.51
515.47	852.01
515.925	840.71
516.38	842.41
516.835	844.61
517.29	842.71
517.745	834.31
518.2	814.81
518.655	802.61
519.109	798.31
519.564	794.51
520.019	779.61
520.474	778.81
520.928	775.71
521.383	768.51
521.838	758.41
522.292	764.51
522.747	756.91
523.201	765.51
523.656	745.81
524.11	743.61
524.565	736.11
525.019	749.01
525.474	749.31
525.928	742.81
526.382	758.71
526.837	756.01
527.291	757.01
527.745	751.61
528.2	753.41
528.654	747.61
529.108	743.41
529.562	738.61
530.016	739.81
530.47	743.01
530.925	748.81
531.379	738.81
531.833	748.11
532.287	746.41
532.741	752.31
533.195	751.51
533.649	766.11
534.103	766.41
534.556	752.61
535.01	753.41
535.464	757.11
535.918	770.81
536.372	769.81
536.826	767.51
537.279	766.71
537.733	763.71
538.187	763.61
538.64	764.11
539.094	782.51
539.548	784.41
540.001	774.21
540.455	774.61
540.908	791.41
541.362	792.71
541.815	800.51
542.269	808.61
542.722	807.81
543.175	830.91
543.629	827.01
544.082	841.71
544.536	842.91
544.989	846.01
545.442	863.31
545.895	852.81
546.349	849.91
546.802	851.51
547.255	868.71
547.708	879.51
548.161	887.41
548.614	885.21
549.067	895.61
549.52	884.51
549.973	889.61
550.426	873.81
550.879	855.91
551.332	870.51
551.785	881.81
552.238	865.31
552.691	887.21
553.144	908.31
553.596	919.31
554.049	928.21
554.502	954.21
554.955	984.61
555.407	970.51
555.86	971.11
556.313	950.11
556.765	940.01
557.218	953.11
557.67	952.21
558.123	948.61
558.576	936.81
559.028	942.11
559.48	945.81
559.933	946.61
560.385	911.01
560.838	872.31
561.29	849.11
561.742	851.31
562.195	829.21
562.647	829.61
563.099	839.51
563.551	834.01
564.004	841.81
564.456	832.81
564.908	818.71
565.36	802.11
565.812	785.71
566.264	781.61
566.716	773.81
567.168	759.01
567.62	767.01
568.072	761.61
568.524	752.81
568.976	756.31
569.428	731.61
569.88	730.51
570.332	743.51
570.784	744.41
571.235	749.71
571.687	742.71
572.139	759.01
572.59	781.71
573.042	773.51
573.494	765.11
573.945	766.41
574.397	748.71
574.849	745.21
575.3	753.01
575.752	738.41
576.203	735.91
576.655	742.11
577.106	726.71
577.557	717.11
578.009	724.21
578.46	718.51
578.912	710.01
579.363	718.81
579.814	726.61
580.265	717.21
580.717	716.71
581.168	731.41
581.619	729.31
582.07	736.61
582.521	725.71
582.972	725.81
583.423	734.21
583.875	729.61
584.326	743.41
584.777	750.31
585.227	782.11
585.678	804.21
586.129	825.61
586.58	858.41
587.031	887.51
587.482	921.61
587.933	973.21
588.384	929.71
588.834	854.11
589.285	836.31
589.736	830.11
590.186	821.41
590.637	829.71
591.088	805.41
591.538	789.61
591.989	784.21
592.439	781.01
592.89	764.41
593.34	771.41
593.791	750.21
594.241	751.91
594.692	752.31
595.142	750.31
595.593	754.31
596.043	754.11
596.493	753.71
596.943	758.41
597.394	777.11
597.844	777.11
598.294	795.11
598.744	818.11
599.195	844.71
599.645	886.81
600.095	932.61
600.545	987.81
600.995	1052.81
601.445	1098.01
601.895	1170.31
602.345	1219.31
602.795	1199.01
603.245	1161.41
603.695	1093.91
604.145	1046.11
604.594	990.01
605.044	930.71
605.494	871.91
605.944	813.41
606.393	813.31
606.843	781.01
607.293	777.31
607.743	788.31
608.192	800.51
608.642	813.41
609.091	817.11
609.541	813.31
609.99	810.81
610.44	810.51
610.889	762.41
611.339	741.51
611.788	736.81
612.238	741.81
612.687	751.81
613.136	750.11
613.586	763.71
614.035	750.31
614.484	764.21
614.933	772.81
615.383	755.51
615.832	750.01
616.281	758.51
616.73	714.91
617.179	711.81
617.628	692.61
618.077	670.91
618.526	673.41
618.975	671.71
619.424	670.61
619.873	663.51
620.322	675.91
620.771	659.91
621.22	648.21
621.669	635.21
622.118	635.31
622.567	623.71
623.015	610.31
623.464	613.61
623.913	608.61
624.361	600.21
624.81	595.81
625.259	594.21
625.707	596.61
626.156	597.21
626.604	605.71
627.053	613.51
627.501	605.31
627.95	619.31
628.398	622.41
628.847	620.41
629.295	613.11
629.744	618.51
630.192	611.81
630.64	603.51
631.089	579.91
631.537	584.61
631.985	574.21
632.433	576.91
632.881	571.61
633.33	578.11
633.778	566.81
634.226	568.61
634.674	586.61
635.122	583.51
635.57	600.81
636.018	614.01
636.466	603.71
636.914	600.61
637.362	612.01
637.81	620.71
638.258	620.91
638.705	638.61
639.153	658.51
639.601	663.81
640.049	694.51
640.497	725.81
640.944	750.21
641.392	688.71
641.84	669.91
642.287	631.61
642.735	602.91
643.182	602.41
643.63	601.01
644.078	616.11
644.525	615.91
644.973	628.51
645.42	635.81
645.867	658.01
646.315	673.71
646.762	697.01
647.21	732.31
647.657	757.31
648.104	782.21
648.551	801.91
648.999	868.61
649.446	953.51
649.893	1032.51
650.34	1185.71
650.787	1405.81
651.234	1737.41
651.682	2242.71
652.129	3026.71
652.576	4316.61
653.023	6280.01
653.47	8476.01
653.917	10437.11
654.363	11985.21
654.81	13141.51
655.257	12477.01
655.704	8277.51
656.151	5018.81
656.598	3310.61
657.044	2362.21
657.491	1827.01
657.938	1495.81
658.385	1258.81
658.831	1106.71
659.278	986.11
659.724	901.11
660.171	819.21
660.618	759.91
661.064	727.21
661.511	705.71
661.957	694.91
662.404	672.51
662.85	698.61
663.296	660.61
663.743	607.51
664.189	580.01
664.635	578.11
665.082	559.31
665.528	562.71
665.974	557.81
666.42	540.11
666.867	554.71
667.313	528.31
667.759	501.91
668.205	481.71
668.651	492.51
669.097	487.81
669.543	483.61
669.989	479.71
670.435	476.21
670.881	484.11
671.327	486.31
671.773	502.41
672.219	527.81
672.665	592.01
673.11	641.41
673.556	687.81
674.002	726.01
674.448	704.71
674.893	604.51
675.339	524.21
675.785	481.21
676.23	445.11
676.676	421.01
677.122	405.31
677.567	406.01
678.013	396.41
678.458	389.91
678.904	401.21
679.349	379.31
679.794	386.81
680.24	380.31
680.685	378.91
681.131	383.31
681.576	374.41
682.021	384.91
682.466	382.71
682.912	381.61
683.357	384.71
683.802	428.51
684.247	451.31
684.692	498.51
685.137	538.81
685.583	585.11
686.028	606.61
686.473	562.91
686.918	486.41
687.363	457.01
687.807	426.81
688.252	406.71
688.697	387.71
689.142	370.31
689.587	363.81
690.032	356.51
690.477	375.51
690.921	385.21
691.366	420.11
691.811	440.21
692.255	470.01
692.7	494.41
693.145	552.11
693.589	773.41
694.034	1271.71
694.478	1688.41
694.923	1886.81
695.367	2454.51
695.812	1299.81
696.256	541.71
696.701	408.01
697.145	376.51
697.59	357.11
698.034	354.91
698.478	344.71
698.922	352.11
699.367	347.91
699.811	365.81
700.255	376.41
700.699	414.21
701.143	466.61
701.588	508.21
702.032	556.71
702.476	556.41
702.92	535.11
703.364	542.81
703.808	715.51
704.252	1158.41
704.696	1611.81
705.14	1806.01
705.584	2290.01
706.027	1163.41
706.471	567.41
706.915	436.21
707.359	385.41
707.803	350.01
708.246	335.21
708.69	343.01
709.134	339.91
709.577	339.81
710.021	344.61
710.465	332.31
710.908	324.61
711.352	320.21
711.795	350.11
712.239	387.71
712.682	419.41
713.126	444.21
713.569	492.11
714.012	390.91
714.456	332.91
714.899	322.11
715.342	296.21
715.786	287.81
716.229	276.71
716.672	290.11
717.115	267.01
717.558	277.91
718.002	272.81
718.445	285.71
718.888	313.31
719.331	314.21
719.774	340.51
720.217	321.11
720.66	308.01
721.103	297.61
721.546	283.81
721.989	268.61
722.432	251.01
722.874	260.41
723.317	247.81
723.76	258.51
724.203	281.61
724.645	352.91
725.088	492.11
725.531	615.51
725.974	685.71
726.416	589.31
726.859	334.81
727.301	276.11
727.744	260.71
728.187	261.81
728.629	264.41
729.071	259.71
729.514	277.71
729.956	295.31
730.399	307.41
730.841	318.11
731.283	304.21
731.726	297.51
732.168	286.21
732.61	296.61
733.053	306.61
733.495	342.91
733.937	386.11
734.379	431.81
734.821	484.01
735.263	611.61
735.705	940.81
736.148	1773.11
736.59	2843.51
737.032	3278.91
737.474	2689.61
737.916	897.51
738.357	468.61
738.799	358.51
739.241	324.31
739.683	315.31
740.125	324.21
740.567	317.41
741.008	341.61
741.45	345.21
741.892	350.91
742.334	380.01
742.775	400.11
743.217	378.31
743.658	303.51
744.1	282.91
744.542	295.31
744.983	348.21
745.425	373.91
745.866	383.81
746.307	310.51
746.749	308.81
747.19	362.91
747.632	511.61
748.073	1005.11
748.514	2091.81
748.956	3112.71
749.397	3931.01
749.838	3261.11
750.279	3183.91
750.72	1626.61
751.162	596.71
751.603	358.01
752.044	277.41
752.485	241.61
752.926	232.21
753.367	222.81
753.808	214.71
754.249	207.41
754.69	202.51
755.131	194.81
755.572	199.41
756.013	201.21
756.453	206.31
756.894	208.31
757.335	214.41
757.776	208.21
758.216	212.51
758.657	214.01
759.098	213.11
759.538	251.51
759.979	289.11
760.42	426.51
760.86	794.11
761.301	2079.91
761.741	4946.41
762.182	6851.01
