Data from 20171114-ORNL-Ar_H_NY_Subt18_08-08-43-528.txt Node
Date: Tue Nov 14 08:08:43 EST 2017
User: Ender
Spectrometer: HR+D1039
Trigger mode: 0
Integration Time (sec): 2.730000E-2
Scans to average: 10
Electric dark correction enabled: true
Nonlinearity correction enabled: false
Boxcar width: 0
XAxis mode: Wavelengths
Number of Pixels in Spectrum: 2048
>>>>>Begin Spectral Data<<<<<
187.836	0.49
188.309	0.49
188.782	0.49
189.255	-0.71
189.728	-5.11
190.201	9.89
190.674	0.89
191.147	0.89
191.619	-9.11
192.092	3.79
192.565	6.49
193.038	-6.91
193.511	3.09
193.984	-1.31
194.456	5.79
194.929	-1.31
195.402	-1.41
195.874	-5.41
196.347	-1.21
196.82	-9.61
197.292	3.89
197.765	-1.01
198.237	-8.81
198.71	-2.21
199.182	-2.91
199.655	-0.21
200.127	2.09
200.6	-6.81
201.072	-2.81
201.544	-6.21
202.017	-6.11
202.489	-0.11
202.961	-1.31
203.433	-4.51
203.906	-5.81
204.378	-11.31
204.85	-1.41
205.322	-11.01
205.794	-2.51
206.266	-5.91
206.739	-8.61
207.211	2.79
207.683	-10.71
208.155	-6.61
208.627	-9.11
209.099	-4.21
209.57	-9.21
210.042	-8.41
210.514	-4.91
210.986	-0.81
211.458	-8.61
211.93	-5.41
212.402	-2.31
212.873	-13.81
213.345	-13.51
213.817	-11.41
214.288	-3.51
214.76	-13.41
215.232	-4.41
215.703	-6.41
216.175	-8.01
216.646	-8.51
217.118	-10.51
217.589	-1.91
218.061	-2.81
218.532	-8.61
219.004	-7.01
219.475	-4.31
219.946	-2.91
220.418	-9.11
220.889	0.99
221.36	-0.11
221.832	-7.31
222.303	-8.91
222.774	1.79
223.245	-9.61
223.717	-9.31
224.188	-7.11
224.659	-7.31
225.13	-9.31
225.601	-5.81
226.072	-4.41
226.543	1.89
227.014	-3.21
227.485	-2.11
227.956	-5.81
228.427	-6.01
228.898	-3.51
229.369	-2.61
229.839	-5.41
230.31	-7.21
230.781	-0.21
231.252	-9.41
231.722	-11.21
232.193	-6.21
232.664	-2.61
233.135	-1.21
233.605	-4.71
234.076	-11.71
234.546	-1.91
235.017	2.79
235.487	-1.21
235.958	-8.61
236.428	-5.61
236.899	-3.01
237.369	-2.11
237.84	-9.21
238.31	-2.81
238.78	-1.11
239.251	-2.41
239.721	-1.91
240.191	-3.21
240.662	-5.01
241.132	-2.91
241.602	-6.01
242.072	-2.21
242.542	0.99
243.013	-4.51
243.483	-2.31
243.953	-0.31
244.423	-2.21
244.893	-6.71
245.363	-0.71
245.833	4.19
246.303	-2.01
246.773	1.29
247.243	-1.01
247.712	0.69
248.182	5.09
248.652	4.59
249.122	-7.51
249.592	6.79
250.061	11.89
250.531	12.79
251.001	2.39
251.471	10.49
251.94	9.59
252.41	2.49
252.879	-5.11
253.349	7.19
253.818	2.49
254.288	-2.91
254.757	-1.11
255.227	-1.41
255.696	-1.61
256.166	-0.11
256.635	1.89
257.105	-1.61
257.574	-4.61
258.043	4.29
258.513	4.49
258.982	3.49
259.451	-0.21
259.92	2.59
260.389	5.49
260.859	11.59
261.328	8.09
261.797	7.69
262.266	-3.81
262.735	5.29
263.204	-5.31
263.673	1.49
264.142	-1.51
264.611	-2.41
265.08	-10.61
265.549	-3.81
266.018	-1.21
266.487	-8.61
266.955	-5.11
267.424	-1.21
267.893	0.19
268.362	-0.31
268.83	0.79
269.299	4.29
269.768	0.89
270.236	-1.51
270.705	-1.11
271.174	-1.31
271.642	-4.51
272.111	-1.71
272.579	2.89
273.048	7.09
273.516	9.89
273.985	9.59
274.453	9.29
274.922	9.49
275.39	5.59
275.858	1.99
276.327	4.89
276.795	12.19
277.263	5.19
277.731	17.89
278.2	20.89
278.668	27.49
279.136	24.79
279.604	5.39
280.072	4.29
280.54	10.69
281.008	8.59
281.477	2.39
281.945	7.89
282.413	8.19
282.881	9.09
283.348	1.59
283.816	5.69
284.284	6.09
284.752	14.49
285.22	11.49
285.688	3.79
286.156	8.99
286.623	19.49
287.091	22.79
287.559	13.69
288.026	11.29
288.494	11.49
288.962	3.59
289.429	2.39
289.897	10.09
290.364	6.29
290.832	12.29
291.3	6.49
291.767	14.29
292.234	10.59
292.702	10.89
293.169	7.59
293.637	17.49
294.104	14.99
294.571	4.09
295.039	7.69
295.506	12.19
295.973	3.89
296.44	7.69
296.908	9.59
297.375	11.39
297.842	15.49
298.309	6.89
298.776	2.29
299.243	16.29
299.71	8.59
300.177	19.09
300.644	13.59
301.111	12.09
301.578	16.39
302.045	9.79
302.512	20.19
302.979	25.89
303.446	14.59
303.913	11.29
304.379	9.89
304.846	19.59
305.313	14.49
305.78	16.49
306.246	17.29
306.713	17.39
307.18	17.69
307.646	19.09
308.113	19.29
308.579	13.99
309.046	15.69
309.512	10.39
309.979	8.89
310.445	16.29
310.912	16.99
311.378	27.39
311.845	23.19
312.311	20.39
312.777	26.09
313.244	21.59
313.71	29.09
314.176	25.79
314.642	25.09
315.109	19.69
315.575	25.49
316.041	29.89
316.507	26.69
316.973	25.69
317.439	26.79
317.905	29.89
318.371	25.79
318.837	20.09
319.303	20.49
319.769	24.19
320.235	19.69
320.701	24.19
321.167	26.19
321.633	24.79
322.099	32.59
322.564	30.69
323.03	30.69
323.496	29.19
323.962	29.59
324.427	25.69
324.893	35.09
325.359	32.59
325.824	28.79
326.29	24.09
326.755	30.49
327.221	33.99
327.686	28.69
328.152	40.09
328.617	31.49
329.083	35.99
329.548	39.39
330.014	36.79
330.479	31.39
330.944	37.79
331.41	31.79
331.875	28.79
332.34	34.09
332.805	30.59
333.271	36.89
333.736	34.19
334.201	35.89
334.666	40.79
335.131	45.49
335.596	42.19
336.061	40.69
336.526	33.09
336.991	36.69
337.456	44.59
337.921	35.79
338.386	35.29
338.851	40.69
339.316	37.59
339.781	41.19
340.246	41.79
340.711	40.79
341.175	38.29
341.64	37.09
342.105	41.39
342.569	38.69
343.034	49.89
343.499	39.99
343.963	40.09
344.428	57.79
344.893	50.49
345.357	51.69
345.822	46.59
346.286	57.39
346.751	62.39
347.215	58.79
347.679	61.69
348.144	75.39
348.608	72.29
349.073	60.09
349.537	60.09
350.001	71.69
350.465	73.49
350.93	74.19
351.394	70.99
351.858	64.09
352.322	79.69
352.786	67.09
353.25	81.99
353.715	88.49
354.179	83.99
354.643	96.89
355.107	99.39
355.571	84.79
356.035	87.89
356.498	95.19
356.962	99.59
357.426	103.19
357.89	94.69
358.354	78.59
358.818	72.29
359.281	69.59
359.745	70.59
360.209	62.29
360.673	71.59
361.136	68.49
361.6	76.79
362.064	76.69
362.527	69.79
362.991	79.99
363.454	68.49
363.918	66.99
364.381	68.89
364.845	74.69
365.308	69.59
365.772	71.39
366.235	71.19
366.698	73.09
367.162	72.29
367.625	71.39
368.088	78.39
368.552	83.59
369.015	79.29
369.478	87.79
369.941	86.29
370.404	77.89
370.867	89.99
371.331	95.89
371.794	101.19
372.257	95.49
372.72	97.29
373.183	95.89
373.646	84.49
374.109	85.59
374.572	97.19
375.035	95.99
375.497	95.49
375.96	95.99
376.423	102.39
376.886	93.99
377.349	94.29
377.811	89.29
378.274	101.09
378.737	91.79
379.199	104.49
379.662	96.69
380.125	105.79
380.587	99.49
381.05	109.59
381.512	111.79
381.975	112.99
382.437	115.99
382.9	114.49
383.362	109.19
383.825	122.49
384.287	122.29
384.75	114.89
385.212	127.49
385.674	127.99
386.136	128.69
386.599	112.09
387.061	117.89
387.523	117.99
387.985	117.29
388.447	129.99
388.91	124.39
389.372	129.89
389.834	132.69
390.296	122.59
390.758	135.89
391.22	139.49
391.682	173.69
392.144	220.79
392.606	181.99
393.068	147.89
393.529	146.79
393.991	140.19
394.453	136.79
394.915	139.59
395.377	153.19
395.838	171.89
396.3	141.09
396.762	136.49
397.224	123.99
397.685	121.89
398.147	123.89
398.608	120.59
399.07	124.59
399.531	133.69
399.993	133.09
400.454	143.49
400.916	141.19
401.377	141.99
401.839	147.59
402.3	137.39
402.762	165.19
403.223	168.89
403.684	165.09
404.145	153.39
404.607	156.89
405.068	156.59
405.529	155.89
405.99	175.09
406.451	164.89
406.913	162.59
407.374	157.49
407.835	157.99
408.296	162.09
408.757	163.79
409.218	175.59
409.679	175.59
410.14	165.69
410.601	167.09
411.062	182.29
411.522	181.29
411.983	176.69
412.444	166.39
412.905	168.59
413.366	176.99
413.826	185.99
414.287	212.89
414.748	260.09
415.208	238.79
415.669	207.89
416.13	200.59
416.59	198.09
417.051	210.29
417.511	212.29
417.972	230.19
418.432	240.79
418.893	287.29
419.353	247.79
419.814	191.19
420.274	175.79
420.734	177.09
421.195	191.09
421.655	193.59
422.115	191.69
422.576	193.09
423.036	195.19
423.496	205.49
423.956	217.19
424.416	226.09
424.876	261.79
425.336	251.19
425.797	260.29
426.257	248.09
426.717	232.79
427.177	224.29
427.637	217.19
428.097	237.79
428.556	240.69
429.016	263.79
429.476	256.79
429.936	265.49
430.396	265.49
430.856	280.99
431.315	307.29
431.775	337.59
432.235	368.79
432.694	345.69
433.154	348.49
433.614	379.09
434.073	329.29
434.533	284.59
434.993	260.29
435.452	273.79
435.912	282.69
436.371	273.29
436.83	265.89
437.29	258.79
437.749	239.09
438.209	242.19
438.668	267.89
439.127	278.49
439.587	259.09
440.046	239.79
440.505	254.39
440.964	265.79
441.424	316.19
441.883	296.99
442.342	258.89
442.801	219.29
443.26	224.19
443.719	213.59
444.178	220.59
444.637	214.89
445.096	224.49
445.555	218.99
446.014	224.79
446.473	235.09
446.932	234.39
447.391	228.89
447.849	231.59
448.308	217.29
448.767	227.29
449.226	234.59
449.685	238.29
450.143	248.99
450.602	237.89
451.061	225.89
451.519	223.99
451.978	232.19
452.436	226.99
452.895	238.89
453.353	252.89
453.812	236.39
454.27	237.59
454.729	241.89
455.187	237.39
455.646	241.99
456.104	247.69
456.562	256.29
457.021	272.19
457.479	262.19
457.937	273.49
458.395	262.19
458.854	245.29
459.312	252.29
459.77	273.19
460.228	253.09
460.686	248.69
461.144	248.79
461.602	242.09
462.06	247.99
462.518	248.59
462.976	254.19
463.434	253.89
463.892	260.19
464.35	266.69
464.808	285.69
465.266	264.19
465.724	262.39
466.181	273.99
466.639	274.69
467.097	290.89
467.555	299.19
468.012	299.79
468.47	312.59
468.928	331.39
469.385	347.59
469.843	346.29
470.3	357.29
470.758	357.89
471.215	389.09
471.673	407.59
472.13	399.59
472.588	419.89
473.045	373.89
473.503	372.19
473.96	395.09
474.417	407.69
474.875	443.89
475.332	475.69
475.789	454.29
476.246	463.89
476.704	487.99
477.161	509.99
477.618	525.19
478.075	566.39
478.532	615.09
478.989	685.89
479.446	783.89
479.903	753.39
480.36	798.59
480.817	845.09
481.274	942.29
481.731	1030.99
482.188	1116.69
482.645	1241.49
483.102	1321.49
483.558	1455.79
484.015	1489.29
484.472	1479.19
484.929	1413.09
485.385	1385.79
485.842	1342.79
486.299	1296.49
486.755	1240.79
487.212	1069.99
487.668	906.69
488.125	834.59
488.582	774.39
489.038	742.49
489.494	702.19
489.951	674.59
490.407	658.79
490.864	644.79
491.32	639.69
491.776	639.79
492.233	655.49
492.689	613.99
493.145	604.19
493.602	592.39
494.058	618.09
494.514	609.99
494.97	634.59
495.426	641.09
495.882	619.09
496.338	612.99
496.794	619.19
497.251	617.19
497.707	631.49
498.163	624.49
498.618	640.79
499.074	645.59
499.53	671.29
499.986	670.19
500.442	650.49
500.898	634.49
501.354	630.39
501.809	639.99
502.265	646.59
502.721	651.49
503.177	657.59
503.632	661.39
504.088	670.69
504.543	698.79
504.999	703.49
505.455	671.99
505.91	637.09
506.366	642.69
506.821	634.99
507.277	636.29
507.732	633.69
508.187	638.39
508.643	638.39
509.098	648.09
509.553	662.29
510.009	675.79
510.464	676.89
510.919	688.29
511.375	704.19
511.83	709.89
512.285	722.99
512.74	757.59
513.195	792.79
513.65	778.79
514.105	762.99
514.56	774.09
515.015	795.39
515.47	793.49
515.925	781.99
516.38	792.79
516.835	788.29
517.29	791.29
517.745	782.79
518.2	762.29
518.655	753.49
519.109	746.39
519.564	750.29
520.019	735.39
520.474	717.09
520.928	720.19
521.383	725.09
521.838	714.99
522.292	716.99
522.747	713.29
523.201	708.29
523.656	709.69
524.11	704.79
524.565	706.09
525.019	693.59
525.474	701.79
525.928	700.99
526.382	702.89
526.837	697.39
527.291	707.09
527.745	694.19
528.2	699.59
528.654	698.59
529.108	686.89
529.562	686.09
530.016	694.59
530.47	690.29
530.925	690.09
531.379	706.29
531.833	707.79
532.287	712.29
532.741	701.99
533.195	702.49
533.649	704.09
534.103	717.89
534.556	714.09
535.01	712.69
535.464	711.69
535.918	722.69
536.372	723.79
536.826	716.99
537.279	716.99
537.733	717.99
538.187	719.29
538.64	721.59
539.094	737.79
539.548	729.69
540.001	729.89
540.455	732.29
540.908	739.19
541.362	747.99
541.815	764.19
542.269	766.19
542.722	769.09
543.175	776.89
543.629	782.59
544.082	801.09
544.536	795.39
544.989	791.39
545.442	803.89
545.895	809.69
546.349	800.99
546.802	804.69
547.255	808.69
547.708	817.99
548.161	825.89
548.614	827.19
549.067	841.99
549.52	829.29
549.973	817.59
550.426	806.59
550.879	808.89
551.332	813.59
551.785	816.39
552.238	808.99
552.691	827.79
553.144	843.99
553.596	861.99
554.049	877.89
554.502	910.79
554.955	923.09
555.407	926.69
555.86	909.79
556.313	905.19
556.765	883.59
557.218	893.69
557.67	880.79
558.123	884.19
558.576	883.49
559.028	879.39
559.48	897.29
559.933	893.69
560.385	850.59
560.838	822.99
561.29	805.39
561.742	792.19
562.195	778.59
562.647	772.69
563.099	789.39
563.551	787.49
564.004	783.49
564.456	778.69
564.908	769.69
565.36	760.89
565.812	737.29
566.264	735.59
566.716	729.29
567.168	727.29
567.62	729.59
568.072	707.69
568.524	706.29
568.976	703.49
569.428	692.99
569.88	683.09
570.332	699.99
570.784	697.49
571.235	690.59
571.687	705.39
572.139	717.79
572.59	736.49
573.042	724.29
573.494	726.59
573.945	713.69
574.397	696.99
574.849	698.69
575.3	701.29
575.752	694.69
576.203	690.29
576.655	701.09
577.106	685.59
577.557	672.69
578.009	683.49
578.46	685.19
578.912	674.09
579.363	676.89
579.814	680.39
580.265	674.29
580.717	675.29
581.168	676.29
581.619	684.89
582.07	684.39
582.521	690.49
582.972	683.19
583.423	685.59
583.875	689.29
584.326	710.69
584.777	733.99
585.227	779.59
585.678	839.79
586.129	895.39
586.58	938.79
587.031	983.69
587.482	1080.09
587.933	1185.19
588.384	1082.79
588.834	889.79
589.285	810.39
589.736	796.39
590.186	782.69
590.637	785.29
591.088	753.49
591.538	747.49
591.989	749.49
592.439	746.69
592.89	731.09
593.34	727.79
593.791	722.29
594.241	710.39
594.692	720.49
595.142	716.89
595.593	706.99
596.043	730.09
596.493	734.39
596.943	735.59
597.394	734.39
597.844	732.59
598.294	746.49
598.744	769.59
599.195	795.29
599.645	843.69
600.095	884.19
600.545	939.29
600.995	1002.59
601.445	1053.39
601.895	1119.29
602.345	1156.89
602.795	1140.19
603.245	1085.29
603.695	1032.09
604.145	985.79
604.594	927.39
605.044	875.09
605.494	826.59
605.944	772.29
606.393	752.79
606.843	739.49
607.293	744.49
607.743	744.29
608.192	752.59
608.642	781.69
609.091	777.19
609.541	777.09
609.99	785.69
610.44	777.09
610.889	729.99
611.339	722.29
611.788	707.09
612.238	718.69
612.687	720.99
613.136	727.29
613.586	736.49
614.035	733.79
614.484	752.59
614.933	750.79
615.383	740.99
615.832	739.29
616.281	724.09
616.73	684.79
617.179	666.49
617.628	660.89
618.077	647.89
618.526	633.29
618.975	628.99
619.424	630.69
619.873	629.59
620.322	622.99
620.771	627.89
621.22	614.19
621.669	602.69
622.118	597.99
622.567	591.29
623.015	582.39
623.464	579.19
623.913	573.39
624.361	563.49
624.81	560.59
625.259	563.49
625.707	566.29
626.156	570.39
626.604	584.89
627.053	572.69
627.501	573.29
627.95	585.99
628.398	590.99
628.847	574.49
629.295	578.99
629.744	589.59
630.192	584.49
630.64	577.89
631.089	568.29
631.537	575.59
631.985	568.59
632.433	580.49
632.881	584.59
633.33	612.49
633.778	591.99
634.226	565.29
634.674	567.19
635.122	573.29
635.57	592.09
636.018	605.99
636.466	587.29
636.914	560.29
637.362	585.59
637.81	590.09
638.258	594.69
638.705	598.79
639.153	630.29
639.601	633.79
640.049	667.09
640.497	690.29
640.944	710.69
641.392	657.69
641.84	633.19
642.287	594.59
642.735	580.09
643.182	573.49
643.63	578.09
644.078	585.79
644.525	601.09
644.973	599.39
645.42	608.29
645.867	638.29
646.315	657.39
646.762	675.79
647.21	702.49
647.657	717.19
648.104	757.39
648.551	779.19
648.999	851.99
649.446	921.59
649.893	1008.69
650.34	1165.09
650.787	1397.29
651.234	1722.19
651.682	2243.99
652.129	3038.59
652.576	4375.59
653.023	6385.49
653.47	8657.59
653.917	10686.59
654.363	12262.99
654.81	13424.69
655.257	12713.59
655.704	8388.09
656.151	5049.19
656.598	3270.79
657.044	2335.89
657.491	1809.19
657.938	1455.89
658.385	1212.59
658.831	1078.79
659.278	958.59
659.724	853.89
660.171	780.79
660.618	713.09
661.064	701.09
661.511	677.79
661.957	658.79
662.404	659.99
662.85	657.99
663.296	632.09
663.743	576.39
664.189	546.09
664.635	543.49
665.082	538.29
665.528	541.89
665.974	525.39
666.42	523.99
666.867	512.19
667.313	500.89
667.759	479.69
668.205	470.59
668.651	485.09
669.097	478.49
669.543	479.19
669.989	468.29
670.435	458.49
670.881	463.89
671.327	467.29
671.773	480.89
672.219	502.99
672.665	565.99
673.11	599.69
673.556	655.49
674.002	683.49
674.448	671.59
674.893	567.09
675.339	489.59
675.785	457.29
676.23	424.89
676.676	399.29
677.122	393.09
677.567	388.79
678.013	373.29
678.458	358.89
678.904	374.39
679.349	359.59
679.794	358.49
680.24	364.49
680.685	352.89
681.131	355.89
681.576	356.79
682.021	365.29
682.466	354.99
682.912	358.09
683.357	366.69
683.802	388.49
684.247	429.79
684.692	471.49
685.137	520.59
685.583	554.79
686.028	578.19
686.473	528.39
686.918	453.89
687.363	431.09
687.807	405.99
688.252	376.79
688.697	367.79
689.142	352.59
689.587	349.79
690.032	342.29
690.477	351.29
690.921	370.09
691.366	399.69
691.811	406.79
692.255	442.39
692.7	481.59
693.145	525.49
693.589	737.09
694.034	1207.59
694.478	1623.29
694.923	1785.39
695.367	2318.69
695.812	1244.49
696.256	513.89
696.701	385.79
697.145	353.19
697.59	345.89
698.034	331.29
698.478	339.09
698.922	334.29
699.367	331.69
699.811	343.39
700.255	363.29
700.699	410.09
701.143	450.19
701.588	489.19
702.032	540.39
702.476	525.89
702.92	505.89
703.364	514.39
703.808	684.89
704.252	1116.19
704.696	1541.19
705.14	1718.19
705.584	2194.89
706.027	1109.59
706.471	538.79
706.915	415.09
707.359	360.19
707.803	329.39
708.246	316.39
708.69	320.79
709.134	332.99
709.577	323.39
710.021	325.49
710.465	315.19
710.908	308.99
711.352	304.29
711.795	327.69
712.239	365.39
712.682	405.39
713.126	431.29
713.569	477.49
714.012	374.19
714.456	318.79
714.899	305.19
715.342	287.09
715.786	267.09
716.229	269.09
716.672	257.79
717.115	251.79
717.558	262.39
718.002	260.59
718.445	271.19
718.888	293.29
719.331	301.89
719.774	316.49
720.217	312.69
720.66	285.79
721.103	277.19
721.546	267.99
721.989	255.59
722.432	232.19
722.874	250.69
723.317	236.99
723.76	237.59
724.203	264.89
724.645	335.89
725.088	468.59
725.531	600.29
725.974	662.99
726.416	563.39
726.859	314.89
727.301	257.49
727.744	245.99
728.187	246.89
728.629	246.99
729.071	249.89
729.514	259.19
729.956	286.09
730.399	295.39
730.841	305.09
731.283	287.49
731.726	278.09
732.168	264.49
732.61	276.69
733.053	295.39
733.495	326.79
733.937	369.09
734.379	417.29
734.821	453.59
735.263	579.09
735.705	908.09
736.148	1710.29
736.59	2724.39
737.032	3128.69
737.474	2563.09
737.916	849.49
738.357	443.89
738.799	341.29
739.241	316.89
739.683	293.29
740.125	299.59
740.567	303.39
741.008	332.19
741.45	330.69
741.892	332.29
742.334	365.49
742.775	375.59
743.217	359.69
743.658	283.09
744.1	261.19
744.542	279.49
744.983	327.79
745.425	358.79
745.866	352.99
746.307	288.09
746.749	293.39
747.19	339.19
747.632	491.59
748.073	965.49
748.514	2007.39
748.956	2980.89
749.397	3774.79
749.838	3109.59
750.279	3037.79
750.72	1558.09
751.162	575.59
751.603	334.39
752.044	262.09
752.485	224.79
752.926	211.79
753.367	205.19
753.808	205.79
754.249	195.09
754.69	186.39
755.131	187.99
755.572	184.69
756.013	188.89
756.453	187.39
756.894	197.99
757.335	203.69
757.776	203.79
758.216	201.19
758.657	206.79
759.098	206.39
759.538	233.49
759.979	286.39
760.42	404.39
760.86	776.69
761.301	2012.69
761.741	4747.99
762.182	6589.59
762.622	4650.39
763.063	1370.29
