Data from 20171114-ORNL-Ar_H_NY_Subt18_08-09-23-960.txt Node
Date: Tue Nov 14 08:09:23 EST 2017
User: Ender
Spectrometer: HR+D1039
Trigger mode: 0
Integration Time (sec): 2.730000E-2
Scans to average: 10
Electric dark correction enabled: true
Nonlinearity correction enabled: false
Boxcar width: 0
XAxis mode: Wavelengths
Number of Pixels in Spectrum: 2048
>>>>>Begin Spectral Data<<<<<
187.836	-4.15
188.309	-4.15
188.782	-4.15
189.255	0.75
189.728	1.75
190.201	4.65
190.674	-0.65
191.147	7.35
191.619	-10.35
192.092	5.65
192.565	7.85
193.038	1.25
193.511	1.75
193.984	-0.15
194.456	-5.95
194.929	0.95
195.402	-9.25
195.874	-1.45
196.347	-1.85
196.82	-4.75
197.292	5.05
197.765	-0.15
198.237	-6.15
198.71	4.75
199.182	2.25
199.655	4.55
200.127	9.75
200.6	-7.65
201.072	-0.35
201.544	-7.85
202.017	-5.05
202.489	0.75
202.961	0.75
203.433	-4.05
203.906	-4.05
204.378	-5.05
204.85	-7.15
205.322	-11.15
205.794	0.95
206.266	-5.85
206.739	-7.95
207.211	6.25
207.683	-0.55
208.155	0.65
208.627	-4.25
209.099	-2.95
209.57	-13.05
210.042	-4.65
210.514	-5.75
210.986	0.05
211.458	-7.65
211.93	-4.55
212.402	-0.75
212.873	-6.85
213.345	-7.75
213.817	-9.85
214.288	-3.05
214.76	-7.05
215.232	-3.35
215.703	-1.95
216.175	-3.55
216.646	-6.35
217.118	-6.55
217.589	-2.65
218.061	0.75
218.532	-2.75
219.004	0.35
219.475	-0.95
219.946	-0.35
220.418	-3.45
220.889	4.25
221.36	2.35
221.832	-2.95
222.303	-2.15
222.774	1.45
223.245	-3.75
223.717	-8.45
224.188	-2.15
224.659	-4.25
225.13	-3.45
225.601	-3.55
226.072	0.55
226.543	0.35
227.014	-2.65
227.485	-3.25
227.956	-5.35
228.427	-5.55
228.898	-4.45
229.369	1.85
229.839	-2.65
230.31	-5.25
230.781	2.25
231.252	-8.15
231.722	-5.25
232.193	-6.95
232.664	-1.25
233.135	-7.75
233.605	-0.55
234.076	-7.25
234.546	-1.85
235.017	1.45
235.487	-3.65
235.958	-1.05
236.428	-4.05
236.899	-6.25
237.369	-4.75
237.84	-9.35
238.31	-2.05
238.78	-5.75
239.251	1.85
239.721	-4.95
240.191	-6.65
240.662	0.95
241.132	-1.35
241.602	-2.25
242.072	-3.85
242.542	0.95
243.013	-3.75
243.483	0.35
243.953	-2.75
244.423	1.05
244.893	-6.75
245.363	-0.55
245.833	0.55
246.303	-6.35
246.773	-0.45
247.243	0.55
247.712	2.85
248.182	3.55
248.652	5.35
249.122	-10.85
249.592	-1.85
250.061	-3.55
250.531	3.45
251.001	-3.85
251.471	0.65
251.94	7.45
252.41	-3.55
252.879	-5.55
253.349	-0.95
253.818	8.45
254.288	-3.05
254.757	-0.55
255.227	-7.35
255.696	-5.95
256.166	4.55
256.635	2.65
257.105	1.15
257.574	4.05
258.043	-1.15
258.513	-5.05
258.982	-0.35
259.451	-4.25
259.92	-2.25
260.389	0.45
260.859	5.85
261.328	1.15
261.797	3.85
262.266	2.55
262.735	7.65
263.204	-3.55
263.673	-3.95
264.142	1.45
264.611	-8.85
265.08	-6.25
265.549	-11.15
266.018	2.25
266.487	-6.75
266.955	-2.05
267.424	-2.35
267.893	3.35
268.362	-3.05
268.83	0.95
269.299	2.75
269.768	2.45
270.236	-0.55
270.705	-4.95
271.174	-2.25
271.642	-4.85
272.111	-1.85
272.579	1.15
273.048	-2.45
273.516	-3.65
273.985	-0.25
274.453	2.95
274.922	9.45
275.39	5.05
275.858	-3.05
276.327	-2.15
276.795	12.55
277.263	-2.75
277.731	1.45
278.2	1.75
278.668	2.85
279.136	7.85
279.604	-1.15
280.072	5.55
280.54	2.05
281.008	0.75
281.477	6.35
281.945	6.05
282.413	8.05
282.881	5.35
283.348	2.75
283.816	7.95
284.284	9.15
284.752	12.05
285.22	4.95
285.688	1.15
286.156	4.75
286.623	14.25
287.091	-1.95
287.559	11.05
288.026	2.65
288.494	8.65
288.962	-0.05
289.429	2.15
289.897	7.05
290.364	7.15
290.832	10.15
291.3	6.55
291.767	7.15
292.234	6.15
292.702	10.45
293.169	7.95
293.637	12.75
294.104	9.25
294.571	-2.15
295.039	9.65
295.506	6.35
295.973	13.85
296.44	7.85
296.908	11.55
297.375	7.85
297.842	10.85
298.309	7.85
298.776	6.25
299.243	9.65
299.71	1.15
300.177	7.95
300.644	10.95
301.111	10.55
301.578	17.55
302.045	4.85
302.512	12.05
302.979	11.55
303.446	12.45
303.913	9.55
304.379	10.45
304.846	14.05
305.313	15.45
305.78	15.25
306.246	10.85
306.713	18.35
307.18	18.15
307.646	19.35
308.113	18.05
308.579	8.05
309.046	10.85
309.512	22.15
309.979	9.65
310.445	20.55
310.912	18.15
311.378	19.75
311.845	16.05
312.311	16.45
312.777	25.15
313.244	18.65
313.71	23.85
314.176	18.55
314.642	17.55
315.109	21.75
315.575	23.55
316.041	26.95
316.507	18.05
316.973	24.05
317.439	23.85
317.905	20.95
318.371	25.85
318.837	20.55
319.303	23.15
319.769	23.65
320.235	23.55
320.701	20.45
321.167	23.95
321.633	20.05
322.099	26.25
322.564	23.35
323.03	26.55
323.496	26.45
323.962	28.25
324.427	21.65
324.893	32.05
325.359	30.15
325.824	22.75
326.29	22.05
326.755	26.35
327.221	30.75
327.686	26.95
328.152	36.85
328.617	38.75
329.083	34.35
329.548	43.65
330.014	37.85
330.479	26.95
330.944	32.75
331.41	33.75
331.875	27.05
332.34	36.25
332.805	32.55
333.271	30.45
333.736	28.85
334.201	38.35
334.666	34.05
335.131	41.25
335.596	38.15
336.061	38.45
336.526	27.35
336.991	33.25
337.456	38.65
337.921	34.45
338.386	29.95
338.851	35.05
339.316	30.05
339.781	38.05
340.246	41.25
340.711	30.85
341.175	44.45
341.64	31.95
342.105	41.25
342.569	41.55
343.034	42.25
343.499	41.15
343.963	39.15
344.428	50.15
344.893	51.65
345.357	45.75
345.822	46.15
346.286	51.35
346.751	52.25
347.215	47.75
347.679	55.45
348.144	70.25
348.608	60.85
349.073	49.55
349.537	61.95
350.001	58.05
350.465	67.75
350.93	63.65
351.394	66.55
351.858	52.95
352.322	64.25
352.786	56.25
353.25	67.95
353.715	79.25
354.179	74.05
354.643	92.25
355.107	88.55
355.571	80.15
356.035	71.75
356.498	87.75
356.962	76.65
357.426	90.15
357.89	84.35
358.354	69.55
358.818	67.35
359.281	64.85
359.745	63.95
360.209	58.35
360.673	52.95
361.136	60.75
361.6	69.95
362.064	75.05
362.527	66.85
362.991	70.25
363.454	69.45
363.918	59.65
364.381	63.35
364.845	67.15
365.308	70.15
365.772	71.95
366.235	71.55
366.698	69.35
367.162	69.85
367.625	66.95
368.088	74.05
368.552	74.95
369.015	72.25
369.478	78.85
369.941	84.05
370.404	76.05
370.867	81.65
371.331	84.15
371.794	80.75
372.257	86.15
372.72	87.65
373.183	84.35
373.646	75.85
374.109	83.25
374.572	85.75
375.035	80.05
375.497	82.15
375.96	88.45
376.423	84.75
376.886	90.45
377.349	87.85
377.811	90.55
378.274	90.65
378.737	84.95
379.199	93.15
379.662	87.75
380.125	93.35
380.587	82.05
381.05	94.45
381.512	98.25
381.975	103.85
382.437	103.55
382.9	97.35
383.362	106.75
383.825	114.05
384.287	109.25
384.75	99.75
385.212	101.25
385.674	111.45
386.136	110.75
386.599	108.95
387.061	109.95
387.523	104.75
387.985	110.75
388.447	116.65
388.91	109.35
389.372	110.55
389.834	110.55
390.296	109.05
390.758	107.45
391.22	117.95
391.682	129.05
392.144	129.55
392.606	128.75
393.068	120.35
393.529	128.45
393.991	119.15
394.453	118.85
394.915	115.65
395.377	120.95
395.838	117.55
396.3	118.95
396.762	115.25
397.224	120.55
397.685	119.85
398.147	130.55
398.608	116.65
399.07	115.65
399.531	121.95
399.993	121.95
400.454	139.15
400.916	130.35
401.377	132.85
401.839	137.95
402.3	133.95
402.762	155.05
403.223	159.85
403.684	152.85
404.145	152.65
404.607	143.05
405.068	150.45
405.529	153.95
405.99	162.35
406.451	159.75
406.913	165.65
407.374	151.45
407.835	144.35
408.296	151.55
408.757	155.95
409.218	168.95
409.679	156.45
410.14	164.05
410.601	159.35
411.062	166.75
411.522	168.25
411.983	160.15
412.444	164.55
412.905	165.15
413.366	169.45
413.826	185.45
414.287	203.85
414.748	246.25
415.208	232.95
415.669	200.75
416.13	199.25
416.59	186.15
417.051	208.15
417.511	207.15
417.972	230.65
418.432	236.15
418.893	279.45
419.353	239.75
419.814	190.95
420.274	176.95
420.734	171.25
421.195	188.85
421.655	189.35
422.115	187.35
422.576	186.25
423.036	187.65
423.496	203.25
423.956	205.05
424.416	224.25
424.876	250.15
425.336	247.55
425.797	245.95
426.257	243.25
426.717	221.95
427.177	217.25
427.637	214.85
428.097	223.15
428.556	233.75
429.016	257.05
429.476	246.75
429.936	257.55
430.396	263.45
430.856	267.35
431.315	289.05
431.775	314.05
432.235	345.35
432.694	326.75
433.154	330.65
433.614	369.25
434.073	309.55
434.533	262.15
434.993	241.15
435.452	265.05
435.912	267.35
436.371	266.75
436.83	270.95
437.29	250.05
437.749	233.75
438.209	229.85
438.668	255.65
439.127	273.05
439.587	251.45
440.046	232.65
440.505	244.35
440.964	260.65
441.424	291.65
441.883	296.15
442.342	243.45
442.801	219.45
443.26	212.15
443.719	220.95
444.178	215.45
444.637	196.65
445.096	210.25
445.555	215.55
446.014	221.45
446.473	225.45
446.932	229.95
447.391	220.75
447.849	221.55
448.308	217.35
448.767	213.35
449.226	235.55
449.685	235.75
450.143	240.35
450.602	234.75
451.061	221.95
451.519	229.65
451.978	228.05
452.436	234.85
452.895	230.85
453.353	248.15
453.812	232.75
454.27	229.35
454.729	235.05
455.187	237.15
455.646	238.85
456.104	243.65
456.562	252.65
457.021	266.85
457.479	252.75
457.937	265.55
458.395	259.25
458.854	249.15
459.312	251.65
459.77	276.85
460.228	249.45
460.686	239.85
461.144	246.45
461.602	246.45
462.06	237.45
462.518	250.15
462.976	249.15
463.434	251.55
463.892	264.95
464.35	273.25
464.808	285.95
465.266	267.35
465.724	262.75
466.181	275.75
466.639	274.25
467.097	287.35
467.555	291.15
468.012	301.25
468.47	303.45
468.928	328.25
469.385	339.05
469.843	346.45
470.3	338.15
470.758	362.95
471.215	376.65
471.673	401.15
472.13	394.95
472.588	407.85
473.045	368.65
473.503	377.75
473.96	395.25
474.417	398.05
474.875	429.35
475.332	466.05
475.789	449.75
476.246	448.25
476.704	476.05
477.161	495.85
477.618	505.85
478.075	540.85
478.532	586.95
478.989	657.55
479.446	758.05
479.903	735.55
480.36	758.55
480.817	792.85
481.274	888.65
481.731	985.05
482.188	1050.85
482.645	1168.95
483.102	1240.45
483.558	1346.65
484.015	1392.15
484.472	1373.65
484.929	1333.75
485.385	1311.65
485.842	1258.05
486.299	1228.25
486.755	1184.15
487.212	1013.55
487.668	859.75
488.125	805.65
488.582	744.85
489.038	722.65
489.494	685.95
489.951	664.15
490.407	643.05
490.864	619.35
491.32	623.55
491.776	634.95
492.233	636.25
492.689	605.05
493.145	601.35
493.602	590.25
494.058	607.45
494.514	602.45
494.97	615.05
495.426	638.35
495.882	606.25
496.338	596.45
496.794	611.35
497.251	610.65
497.707	614.25
498.163	618.55
498.618	628.45
499.074	632.05
499.53	654.25
499.986	655.55
500.442	625.85
500.898	610.85
501.354	601.35
501.809	602.35
502.265	614.25
502.721	627.95
503.177	629.85
503.632	633.75
504.088	634.95
504.543	657.75
504.999	682.55
505.455	651.65
505.91	627.25
506.366	635.05
506.821	630.15
507.277	624.05
507.732	624.75
508.187	632.55
508.643	630.45
509.098	630.45
509.553	646.15
510.009	671.25
510.464	662.75
510.919	685.15
511.375	677.95
511.83	702.25
512.285	711.75
512.74	745.45
513.195	773.55
513.65	760.75
514.105	752.35
514.56	767.65
515.015	772.55
515.47	795.35
515.925	764.85
516.38	774.25
516.835	787.55
517.29	775.65
517.745	773.85
518.2	760.35
518.655	742.45
519.109	739.75
519.564	734.85
520.019	725.95
520.474	725.15
520.928	720.25
521.383	723.55
521.838	707.15
522.292	713.95
522.747	705.05
523.201	709.95
523.656	700.15
524.11	685.25
524.565	686.75
525.019	698.35
525.474	696.55
525.928	697.95
526.382	689.35
526.837	697.85
527.291	696.45
527.745	691.75
528.2	694.65
528.654	692.85
529.108	695.75
529.562	689.75
530.016	685.35
530.47	681.65
530.925	693.25
531.379	687.75
531.833	679.85
532.287	697.95
532.741	699.15
533.195	700.85
533.649	709.45
534.103	713.25
534.556	703.65
535.01	710.05
535.464	692.75
535.918	708.65
536.372	718.15
536.826	721.35
537.279	707.35
537.733	710.35
538.187	716.15
538.64	710.55
539.094	725.05
539.548	722.65
540.001	723.05
540.455	724.45
540.908	727.95
541.362	738.05
541.815	746.15
542.269	765.15
542.722	761.85
543.175	774.55
543.629	773.65
544.082	779.75
544.536	789.35
544.989	791.55
545.442	799.05
545.895	793.05
546.349	787.35
546.802	801.45
547.255	800.55
547.708	804.15
548.161	817.35
548.614	817.35
549.067	826.95
549.52	822.05
549.973	810.85
550.426	810.15
550.879	799.75
551.332	802.95
551.785	809.85
552.238	815.15
552.691	823.45
553.144	844.55
553.596	848.65
554.049	867.95
554.502	894.85
554.955	923.15
555.407	917.65
555.86	903.15
556.313	890.25
556.765	891.05
557.218	888.35
557.67	886.25
558.123	864.95
558.576	886.55
559.028	875.55
559.48	893.65
559.933	879.05
560.385	844.75
560.838	810.25
561.29	798.25
561.742	791.15
562.195	772.15
562.647	768.75
563.099	782.85
563.551	788.75
564.004	779.85
564.456	776.05
564.908	766.45
565.36	747.55
565.812	732.55
566.264	728.55
566.716	722.25
567.168	714.35
567.62	715.55
568.072	699.45
568.524	693.75
568.976	704.75
569.428	680.75
569.88	689.45
570.332	688.25
570.784	704.95
571.235	686.55
571.687	700.95
572.139	706.35
572.59	718.65
573.042	722.35
573.494	723.85
573.945	706.55
574.397	699.55
574.849	705.75
575.3	696.55
575.752	681.25
576.203	680.05
576.655	701.95
577.106	682.95
577.557	675.35
578.009	672.55
578.46	666.95
578.912	668.85
579.363	667.15
579.814	668.55
580.265	667.05
580.717	667.95
581.168	679.15
581.619	683.75
582.07	689.35
582.521	688.25
582.972	677.35
583.423	686.35
583.875	678.35
584.326	683.35
584.777	699.15
585.227	720.95
585.678	729.35
586.129	739.95
586.58	748.05
587.031	777.05
587.482	788.65
587.933	807.55
588.384	800.85
588.834	785.35
589.285	780.95
589.736	784.95
590.186	784.45
590.637	783.55
591.088	755.15
591.538	745.65
591.989	742.25
592.439	729.45
592.89	723.75
593.34	716.45
593.791	717.75
594.241	708.25
594.692	697.35
595.142	704.65
595.593	695.75
596.043	713.95
596.493	714.65
596.943	720.35
597.394	739.95
597.844	729.95
598.294	748.45
598.744	775.35
599.195	786.45
599.645	826.45
600.095	876.45
600.545	932.05
600.995	988.55
601.445	1037.75
601.895	1109.65
602.345	1146.05
602.795	1123.95
603.245	1096.55
603.695	1029.65
604.145	978.65
604.594	925.55
605.044	876.35
605.494	815.75
605.944	772.95
606.393	756.95
606.843	724.65
607.293	747.95
607.743	737.65
608.192	745.15
608.642	765.55
609.091	771.15
609.541	767.55
609.99	779.15
610.44	768.35
610.889	733.85
611.339	715.35
611.788	686.15
612.238	694.15
612.687	712.45
613.136	704.55
613.586	720.15
614.035	708.95
614.484	718.75
614.933	723.15
615.383	719.95
615.832	712.15
616.281	710.05
616.73	682.65
617.179	666.05
617.628	654.35
618.077	634.45
618.526	623.55
618.975	633.75
619.424	621.45
619.873	623.95
620.322	620.65
620.771	614.15
621.22	607.65
621.669	593.05
622.118	587.75
622.567	585.35
623.015	578.95
623.464	575.85
623.913	568.65
624.361	569.25
624.81	561.55
625.259	563.45
625.707	571.15
626.156	568.75
626.604	581.85
627.053	567.75
627.501	580.15
627.95	576.85
628.398	592.45
628.847	581.95
629.295	581.75
629.744	583.65
630.192	580.85
630.64	568.45
631.089	563.35
631.537	550.45
631.985	531.35
632.433	543.55
632.881	532.65
633.33	535.35
633.778	535.55
634.226	524.85
634.674	545.95
635.122	551.95
635.57	564.45
636.018	567.05
636.466	569.55
636.914	561.35
637.362	580.05
637.81	592.05
638.258	600.25
638.705	586.65
639.153	621.05
639.601	633.35
640.049	654.05
640.497	677.75
640.944	710.55
641.392	657.65
641.84	629.05
642.287	587.75
642.735	572.95
643.182	575.75
643.63	574.35
644.078	566.25
644.525	580.65
644.973	582.85
645.42	600.65
645.867	630.55
646.315	638.75
646.762	660.55
647.21	688.95
647.657	709.25
648.104	738.55
648.551	757.55
648.999	813.45
649.446	898.15
649.893	975.85
650.34	1125.25
650.787	1329.55
651.234	1646.35
651.682	2115.95
652.129	2891.75
652.576	4102.95
653.023	5992.55
653.47	8044.05
653.917	9906.05
654.363	11341.35
654.81	12387.75
655.257	11757.65
655.704	7798.35
656.151	4707.45
656.598	3090.25
657.044	2231.65
657.491	1725.45
657.938	1399.25
658.385	1178.75
658.831	1036.85
659.278	925.25
659.724	833.15
660.171	772.05
660.618	706.05
661.064	676.45
661.511	664.65
661.957	645.65
662.404	637.45
662.85	647.55
663.296	630.55
663.743	568.35
664.189	541.45
664.635	543.45
665.082	544.95
665.528	539.35
665.974	532.05
666.42	523.55
666.867	514.15
667.313	486.15
667.759	476.25
668.205	456.45
668.651	455.55
669.097	447.65
669.543	456.05
669.989	449.95
670.435	455.85
670.881	460.25
671.327	453.95
671.773	484.65
672.219	505.05
672.665	572.55
673.11	604.95
673.556	653.75
674.002	687.15
674.448	675.65
674.893	566.75
675.339	490.65
675.785	450.15
676.23	434.95
676.676	409.95
677.122	393.25
677.567	384.45
678.013	386.85
678.458	376.85
678.904	376.75
679.349	359.25
679.794	367.35
680.24	361.15
680.685	361.75
681.131	357.75
681.576	361.85
682.021	364.35
682.466	369.55
682.912	354.25
683.357	362.15
683.802	391.75
684.247	428.95
684.692	479.15
685.137	514.85
685.583	555.95
686.028	580.95
686.473	540.95
686.918	459.45
687.363	431.15
687.807	414.75
688.252	381.65
688.697	363.35
689.142	346.55
689.587	345.95
690.032	340.05
690.477	352.85
690.921	361.45
691.366	397.45
691.811	420.35
692.255	453.85
692.7	483.35
693.145	531.75
693.589	755.95
694.034	1214.35
694.478	1625.65
694.923	1788.75
695.367	2327.35
695.812	1248.15
696.256	516.85
696.701	384.15
697.145	351.45
697.59	347.65
698.034	328.65
698.478	337.35
698.922	333.15
699.367	335.85
699.811	348.55
700.255	362.15
700.699	396.15
701.143	445.85
701.588	501.25
702.032	529.45
702.476	531.45
702.92	503.75
703.364	512.75
703.808	695.85
704.252	1131.45
704.696	1550.35
705.14	1723.55
705.584	2191.85
706.027	1108.75
706.471	545.45
706.915	419.15
707.359	368.95
707.803	334.95
708.246	323.05
708.69	329.25
709.134	320.55
709.577	318.75
710.021	323.05
710.465	317.15
710.908	305.45
711.352	306.45
711.795	330.65
712.239	364.85
712.682	403.95
713.126	430.45
713.569	476.75
714.012	362.15
714.456	311.65
714.899	297.05
715.342	281.85
715.786	273.75
716.229	269.95
716.672	264.75
717.115	259.95
717.558	253.25
718.002	267.35
718.445	281.25
718.888	290.85
719.331	304.75
719.774	329.15
720.217	314.75
720.66	296.75
721.103	278.15
721.546	264.35
721.989	261.45
722.432	236.95
722.874	249.05
723.317	238.85
723.76	243.85
724.203	263.05
724.645	331.95
725.088	467.75
725.531	590.25
725.974	660.45
726.416	568.65
726.859	315.95
727.301	250.75
727.744	243.55
728.187	243.25
728.629	250.55
729.071	252.05
729.514	266.55
729.956	284.15
730.399	291.35
730.841	299.05
731.283	289.75
731.726	275.55
732.168	268.05
732.61	284.05
733.053	300.25
733.495	333.15
733.937	366.75
734.379	422.05
734.821	468.65
735.263	590.05
735.705	922.35
736.148	1731.25
736.59	2762.95
737.032	3159.25
737.474	2568.75
737.916	856.75
738.357	449.85
738.799	341.25
739.241	315.75
739.683	296.35
740.125	304.55
740.567	310.85
741.008	328.75
741.45	328.35
741.892	337.55
742.334	364.75
742.775	380.85
743.217	368.35
743.658	285.25
744.1	266.45
744.542	280.55
744.983	333.85
745.425	364.15
745.866	356.95
746.307	292.05
746.749	293.25
747.19	340.25
747.632	501.55
748.073	989.05
748.514	2042.15
748.956	3005.65
749.397	3813.05
749.838	3135.15
750.279	3048.95
750.72	1552.65
751.162	577.15
751.603	336.35
752.044	271.55
752.485	224.85
752.926	213.85
753.367	203.85
753.808	202.95
754.249	196.05
754.69	195.75
755.131	189.45
755.572	193.55
756.013	186.35
756.453	186.55
756.894	196.55
757.335	201.75
757.776	203.45
758.216	203.65
758.657	204.45
759.098	215.15
759.538	240.75
759.979	285.55
760.42	409.45
760.86	792.35
761.301	2082.15
761.741	4823.25
762.182	6628.75
762.622	4672.35
763.063	1397.75
763.503	574.45
763.943	335.25
764.384	273.25
