Data from 20171114-ORNL-Ar_H_NY_Subt18_08-05-29-687.txt Node
Date: Tue Nov 14 08:05:29 EST 2017
User: Ender
Spectrometer: HR+D1039
Trigger mode: 0
Integration Time (sec): 2.730000E-2
Scans to average: 10
Electric dark correction enabled: true
Nonlinearity correction enabled: false
Boxcar width: 0
XAxis mode: Wavelengths
Number of Pixels in Spectrum: 2048
>>>>>Begin Spectral Data<<<<<
187.836	-6.13
188.309	-6.13
188.782	-6.13
189.255	3.17
189.728	-2.33
190.201	2.87
190.674	-0.73
191.147	-0.23
191.619	-6.13
192.092	2.67
192.565	6.37
193.038	-0.13
193.511	-0.93
193.984	0.77
194.456	2.07
194.929	2.87
195.402	-0.13
195.874	-4.13
196.347	1.77
196.82	-9.83
197.292	5.17
197.765	2.77
198.237	-6.23
198.71	2.77
199.182	0.37
199.655	3.17
200.127	3.47
200.6	-3.33
201.072	-4.33
201.544	-6.03
202.017	-0.83
202.489	0.87
202.961	-2.53
203.433	-1.93
203.906	-6.33
204.378	-4.83
204.85	0.27
205.322	-5.73
205.794	0.47
206.266	0.77
206.739	-7.53
207.211	2.27
207.683	-5.63
208.155	-4.53
208.627	-6.03
209.099	0.47
209.57	-5.33
210.042	-6.83
210.514	0.17
210.986	-1.83
211.458	-2.73
211.93	-5.73
212.402	-0.13
212.873	-6.93
213.345	-2.83
213.817	-10.03
214.288	-2.03
214.76	-9.13
215.232	-7.83
215.703	-0.03
216.175	-1.93
216.646	-0.13
217.118	-5.53
217.589	-2.73
218.061	1.87
218.532	-2.73
219.004	-2.73
219.475	-6.83
219.946	1.77
220.418	-3.13
220.889	2.47
221.36	-2.33
221.832	-2.73
222.303	-6.33
222.774	0.77
223.245	-4.73
223.717	-8.83
224.188	-4.03
224.659	-7.03
225.13	-2.53
225.601	-6.83
226.072	-0.53
226.543	-0.63
227.014	-0.83
227.485	-1.73
227.956	-5.03
228.427	-1.93
228.898	-1.23
229.369	2.47
229.839	-3.83
230.31	-2.53
230.781	5.57
231.252	2.17
231.722	2.87
232.193	1.37
232.664	3.67
233.135	0.17
233.605	6.17
234.076	-3.43
234.546	-2.33
235.017	1.37
235.487	0.77
235.958	-4.33
236.428	1.77
236.899	2.37
237.369	-0.83
237.84	7.77
238.31	6.77
238.78	7.07
239.251	2.67
239.721	5.47
240.191	1.07
240.662	-1.73
241.132	2.87
241.602	-4.53
242.072	2.07
242.542	7.87
243.013	-2.93
243.483	0.37
243.953	5.37
244.423	5.37
244.893	-4.63
245.363	0.87
245.833	-0.23
246.303	3.17
246.773	10.27
247.243	3.97
247.712	-1.93
248.182	7.87
248.652	11.07
249.122	2.27
249.592	13.37
250.061	16.97
250.531	33.87
251.001	17.67
251.471	27.07
251.94	15.87
252.41	9.77
252.879	5.07
253.349	16.07
253.818	9.57
254.288	2.07
254.757	3.37
255.227	2.77
255.696	10.07
256.166	12.77
256.635	16.07
257.105	13.47
257.574	9.27
258.043	8.77
258.513	17.37
258.982	21.87
259.451	5.57
259.92	15.47
260.389	11.57
260.859	20.87
261.328	18.67
261.797	18.37
262.266	7.77
262.735	11.07
263.204	9.47
263.673	1.77
264.142	19.17
264.611	2.47
265.08	3.37
265.549	2.67
266.018	3.67
266.487	6.17
266.955	-1.13
267.424	4.87
267.893	8.87
268.362	7.17
268.83	7.77
269.299	11.07
269.768	14.47
270.236	12.17
270.705	8.17
271.174	8.37
271.642	13.47
272.111	4.47
272.579	25.67
273.048	25.87
273.516	29.77
273.985	29.07
274.453	31.67
274.922	20.37
275.39	16.37
275.858	10.67
276.327	13.77
276.795	20.67
277.263	12.27
277.731	33.87
278.2	63.77
278.668	60.87
279.136	50.97
279.604	24.57
280.072	17.07
280.54	10.97
281.008	14.37
281.477	11.87
281.945	14.07
282.413	15.27
282.881	19.17
283.348	14.47
283.816	14.47
284.284	18.67
284.752	22.87
285.22	23.87
285.688	22.37
286.156	24.97
286.623	48.37
287.091	58.37
287.559	33.07
288.026	15.77
288.494	21.77
288.962	11.07
289.429	12.77
289.897	20.17
290.364	22.17
290.832	20.97
291.3	20.47
291.767	19.57
292.234	15.17
292.702	14.37
293.169	23.27
293.637	26.17
294.104	24.67
294.571	20.07
295.039	14.47
295.506	12.97
295.973	18.97
296.44	19.67
296.908	20.47
297.375	19.27
297.842	25.07
298.309	17.57
298.776	13.77
299.243	23.77
299.71	15.77
300.177	24.57
300.644	25.87
301.111	23.77
301.578	27.67
302.045	27.47
302.512	24.07
302.979	33.77
303.446	31.17
303.913	22.57
304.379	15.97
304.846	34.87
305.313	22.57
305.78	26.17
306.246	29.37
306.713	28.97
307.18	33.17
307.646	30.37
308.113	33.47
308.579	26.07
309.046	26.67
309.512	34.97
309.979	16.67
310.445	28.77
310.912	30.07
311.378	36.17
311.845	27.47
312.311	30.57
312.777	35.87
313.244	35.87
313.71	42.07
314.176	39.47
314.642	36.67
315.109	33.47
315.575	40.47
316.041	36.97
316.507	40.57
316.973	43.57
317.439	37.47
317.905	37.87
318.371	39.67
318.837	32.97
319.303	38.07
319.769	37.17
320.235	37.67
320.701	43.17
321.167	38.07
321.633	41.57
322.099	38.67
322.564	46.57
323.03	42.47
323.496	36.27
323.962	40.97
324.427	42.67
324.893	44.47
325.359	40.17
325.824	44.57
326.29	39.27
326.755	39.37
327.221	41.47
327.686	46.97
328.152	52.57
328.617	40.87
329.083	53.47
329.548	57.27
330.014	52.67
330.479	41.27
330.944	48.77
331.41	41.47
331.875	49.77
332.34	47.47
332.805	50.97
333.271	49.47
333.736	48.07
334.201	56.07
334.666	57.37
335.131	60.57
335.596	54.17
336.061	50.97
336.526	48.57
336.991	54.47
337.456	58.17
337.921	51.47
338.386	50.97
338.851	45.07
339.316	53.37
339.781	50.17
340.246	54.77
340.711	51.37
341.175	51.97
341.64	54.17
342.105	56.77
342.569	63.07
343.034	62.07
343.499	61.57
343.963	58.77
344.428	62.07
344.893	62.77
345.357	58.97
345.822	73.47
346.286	74.07
346.751	77.67
347.215	67.57
347.679	77.67
348.144	98.77
348.608	93.87
349.073	73.07
349.537	80.67
350.001	88.77
350.465	95.47
350.93	87.57
351.394	84.77
351.858	75.07
352.322	95.27
352.786	82.97
353.25	110.37
353.715	113.37
354.179	106.57
354.643	132.67
355.107	131.97
355.571	112.57
356.035	108.77
356.498	119.07
356.962	129.87
357.426	134.37
357.89	119.87
358.354	101.57
358.818	86.87
359.281	86.67
359.745	79.17
360.209	82.17
360.673	82.87
361.136	85.77
361.6	88.67
362.064	85.07
362.527	80.97
362.991	95.37
363.454	83.67
363.918	82.87
364.381	80.07
364.845	87.67
365.308	86.17
365.772	88.47
366.235	87.87
366.698	86.17
367.162	87.07
367.625	96.97
368.088	92.47
368.552	95.17
369.015	89.57
369.478	105.67
369.941	112.97
370.404	96.87
370.867	109.57
371.331	108.67
371.794	119.57
372.257	108.77
372.72	117.57
373.183	113.37
373.646	114.87
374.109	113.67
374.572	105.67
375.035	105.27
375.497	106.57
375.96	106.17
376.423	106.87
376.886	124.67
377.349	109.97
377.811	104.97
378.274	110.97
378.737	102.97
379.199	110.47
379.662	118.07
380.125	121.77
380.587	114.67
381.05	124.17
381.512	129.17
381.975	138.67
382.437	132.17
382.9	122.47
383.362	132.17
383.825	142.57
384.287	150.77
384.75	137.37
385.212	135.07
385.674	144.77
386.136	140.57
386.599	126.97
387.061	134.67
387.523	138.67
387.985	135.27
388.447	151.57
388.91	151.37
389.372	161.67
389.834	153.27
390.296	145.77
390.758	152.87
391.22	175.07
391.682	208.07
392.144	294.87
392.606	233.57
393.068	169.67
393.529	173.17
393.991	150.57
394.453	146.97
394.915	160.47
395.377	191.27
395.838	211.57
396.3	160.47
396.762	147.87
397.224	135.87
397.685	137.07
398.147	132.27
398.608	139.77
399.07	131.77
399.531	145.27
399.993	142.87
400.454	154.37
400.916	142.77
401.377	140.17
401.839	153.77
402.3	159.47
402.762	172.57
403.223	182.57
403.684	180.67
404.145	169.07
404.607	164.27
405.068	171.67
405.529	165.07
405.99	190.97
406.451	182.67
406.913	182.57
407.374	171.67
407.835	164.27
408.296	168.27
408.757	170.67
409.218	186.77
409.679	175.27
410.14	176.87
410.601	184.57
411.062	193.47
411.522	193.57
411.983	190.17
412.444	179.67
412.905	179.77
413.366	181.47
413.826	195.67
414.287	222.57
414.748	271.37
415.208	256.57
415.669	207.47
416.13	210.57
416.59	206.97
417.051	213.67
417.511	223.87
417.972	237.47
418.432	245.47
418.893	289.57
419.353	251.57
419.814	195.57
420.274	184.37
420.734	190.77
421.195	201.27
421.655	199.87
422.115	194.87
422.576	198.67
423.036	203.67
423.496	204.37
423.956	211.37
424.416	228.67
424.876	268.77
425.336	268.37
425.797	266.17
426.257	265.87
426.717	241.47
427.177	237.97
427.637	225.57
428.097	234.97
428.556	252.67
429.016	277.47
429.476	264.57
429.936	270.47
430.396	271.27
430.856	292.07
431.315	315.57
431.775	348.87
432.235	378.27
432.694	357.77
433.154	364.47
433.614	398.47
434.073	343.37
434.533	290.77
434.993	284.87
435.452	287.27
435.912	298.97
436.371	295.17
436.83	291.97
437.29	272.77
437.749	253.47
438.209	248.07
438.668	280.17
439.127	297.37
439.587	274.57
440.046	261.67
440.505	262.37
440.964	287.27
441.424	326.77
441.883	318.07
442.342	262.77
442.801	231.07
443.26	222.07
443.719	224.97
444.178	217.67
444.637	210.77
445.096	225.07
445.555	219.47
446.014	231.47
446.473	221.87
446.932	233.87
447.391	230.37
447.849	232.97
448.308	223.27
448.767	216.77
449.226	236.57
449.685	236.87
450.143	257.27
450.602	235.17
451.061	223.47
451.519	239.67
451.978	235.57
452.436	239.17
452.895	243.37
453.353	255.77
453.812	248.57
454.27	246.87
454.729	246.27
455.187	246.87
455.646	248.87
456.104	246.67
456.562	261.87
457.021	266.97
457.479	264.47
457.937	276.27
458.395	271.17
458.854	249.87
459.312	269.07
459.77	272.77
460.228	257.17
460.686	243.27
461.144	248.27
461.602	245.77
462.06	243.67
462.518	254.97
462.976	252.07
463.434	259.97
463.892	265.87
464.35	280.47
464.808	293.17
465.266	270.37
465.724	279.17
466.181	272.87
466.639	280.57
467.097	288.77
467.555	307.47
468.012	301.97
468.47	320.37
468.928	341.37
469.385	339.77
469.843	355.97
470.3	362.77
470.758	364.57
471.215	390.47
471.673	415.47
472.13	409.17
472.588	418.87
473.045	371.67
473.503	378.67
473.96	396.07
474.417	418.57
474.875	440.17
475.332	470.67
475.789	472.97
476.246	472.47
476.704	490.57
477.161	513.17
477.618	529.57
478.075	571.87
478.532	620.57
478.989	701.67
479.446	799.87
479.903	776.67
480.36	816.27
480.817	873.07
481.274	975.27
481.731	1073.07
482.188	1185.27
482.645	1309.47
483.102	1413.47
483.558	1552.28
484.015	1609.88
484.472	1575.97
484.929	1546.57
485.385	1487.97
485.842	1446.57
486.299	1386.87
486.755	1315.77
487.212	1106.17
487.668	940.57
488.125	856.37
488.582	781.47
489.038	757.47
489.494	724.27
489.951	702.57
490.407	665.27
490.864	653.87
491.32	651.97
491.776	655.17
492.233	657.17
492.689	610.97
493.145	614.77
493.602	610.07
494.058	616.67
494.514	618.57
494.97	639.57
495.426	660.07
495.882	631.07
496.338	626.17
496.794	631.27
497.251	636.97
497.707	637.47
498.163	648.67
498.618	656.27
499.074	659.67
499.53	687.47
499.986	683.57
500.442	661.17
500.898	644.67
501.354	633.97
501.809	645.77
502.265	645.17
502.721	671.67
503.177	679.97
503.632	663.67
504.088	672.07
504.543	709.67
504.999	718.67
505.455	674.67
505.91	637.97
506.366	645.07
506.821	634.67
507.277	628.57
507.732	631.87
508.187	631.07
508.643	642.97
509.098	635.17
509.553	661.17
510.009	669.07
510.464	676.07
510.919	695.87
511.375	697.07
511.83	707.67
512.285	731.77
512.74	759.47
513.195	786.37
513.65	781.77
514.105	777.97
514.56	776.17
515.015	799.47
515.47	820.57
515.925	801.97
516.38	808.37
516.835	808.07
517.29	788.67
517.745	787.57
518.2	772.17
518.655	752.47
519.109	745.47
519.564	748.67
520.019	743.57
520.474	732.67
520.928	742.17
521.383	727.17
521.838	716.17
522.292	713.47
522.747	725.77
523.201	703.27
523.656	695.17
524.11	700.57
524.565	696.27
525.019	698.07
525.474	699.17
525.928	708.27
526.382	696.37
526.837	701.37
527.291	716.67
527.745	709.87
528.2	705.47
528.654	684.37
529.108	696.87
529.562	697.57
530.016	706.77
530.47	689.87
530.925	705.77
531.379	707.77
531.833	711.57
532.287	704.87
532.741	705.07
533.195	711.37
533.649	712.57
534.103	726.87
534.556	715.37
535.01	723.07
535.464	710.37
535.918	726.57
536.372	729.67
536.826	721.27
537.279	716.77
537.733	711.67
538.187	718.67
538.64	723.87
539.094	731.77
539.548	734.67
540.001	730.77
540.455	729.07
540.908	735.57
541.362	738.47
541.815	746.77
542.269	758.37
542.722	763.67
543.175	769.67
543.629	773.77
544.082	788.67
544.536	791.47
544.989	786.67
545.442	797.17
545.895	793.37
546.349	802.97
546.802	791.37
547.255	791.27
547.708	805.17
548.161	815.27
548.614	814.47
549.067	829.77
549.52	817.57
549.973	809.27
550.426	803.67
550.879	795.37
551.332	807.77
551.785	799.97
552.238	820.37
552.691	809.47
553.144	836.77
553.596	843.77
554.049	857.97
554.502	887.07
554.955	912.47
555.407	923.17
555.86	901.77
556.313	897.77
556.765	879.07
557.218	889.67
557.67	897.47
558.123	879.37
558.576	874.77
559.028	880.47
559.48	887.47
559.933	872.27
560.385	842.67
560.838	814.87
561.29	784.67
561.742	784.37
562.195	767.27
562.647	760.37
563.099	773.27
563.551	771.97
564.004	779.57
564.456	774.67
564.908	758.67
565.36	742.67
565.812	730.57
566.264	721.57
566.716	723.37
567.168	708.17
567.62	718.57
568.072	696.27
568.524	697.67
568.976	686.97
569.428	673.07
569.88	668.07
570.332	684.77
570.784	676.87
571.235	676.97
571.687	695.57
572.139	699.37
572.59	707.57
573.042	711.07
573.494	703.67
573.945	701.07
574.397	676.47
574.849	682.37
575.3	688.17
575.752	684.37
576.203	678.97
576.655	682.27
577.106	665.47
577.557	653.97
578.009	662.47
578.46	658.17
578.912	664.07
579.363	668.27
579.814	657.17
580.265	659.07
580.717	669.57
581.168	655.57
581.619	675.07
582.07	676.87
582.521	677.57
582.972	668.57
583.423	670.37
583.875	672.37
584.326	688.37
584.777	734.47
585.227	813.07
585.678	914.67
586.129	987.27
586.58	1062.47
587.031	1133.97
587.482	1292.17
587.933	1475.38
588.384	1280.47
588.834	958.57
589.285	794.07
589.736	776.87
590.186	769.27
590.637	765.17
591.088	732.67
591.538	728.47
591.989	728.87
592.439	725.87
592.89	721.97
593.34	696.27
593.791	697.37
594.241	704.87
594.692	713.07
595.142	699.47
595.593	686.87
596.043	701.67
596.493	705.77
596.943	706.37
597.394	716.57
597.844	710.87
598.294	722.97
598.744	748.37
599.195	772.87
599.645	815.57
600.095	848.17
600.545	902.17
600.995	959.67
601.445	1017.37
601.895	1074.77
602.345	1113.77
602.795	1097.38
603.245	1054.97
603.695	1007.57
604.145	940.67
604.594	887.87
605.044	843.57
605.494	787.27
605.944	743.57
606.393	738.67
606.843	717.27
607.293	719.77
607.743	718.27
608.192	731.07
608.642	754.67
609.091	744.67
609.541	755.17
609.99	760.27
610.44	752.07
610.889	712.97
611.339	696.87
611.788	670.07
612.238	693.97
612.687	704.67
613.136	702.47
613.586	726.07
614.035	725.37
614.484	737.47
614.933	737.87
615.383	727.97
615.832	718.17
616.281	704.17
616.73	668.97
617.179	653.87
617.628	641.07
618.077	623.37
618.526	617.47
618.975	603.17
619.424	599.47
619.873	612.47
620.322	605.97
620.771	593.17
621.22	602.37
621.669	576.67
622.118	576.37
622.567	563.97
623.015	563.77
623.464	550.77
623.913	544.37
624.361	534.07
624.81	545.87
625.259	538.87
625.707	541.47
626.156	539.97
626.604	552.37
627.053	556.07
627.501	542.67
627.95	559.17
628.398	569.57
628.847	559.77
629.295	555.57
629.744	561.07
630.192	560.07
630.64	547.17
631.089	553.67
631.537	560.27
631.985	571.07
632.433	585.67
632.881	586.07
633.33	630.87
633.778	617.07
634.226	545.57
634.674	554.17
635.122	567.37
635.57	574.87
636.018	599.07
636.466	566.17
636.914	544.97
637.362	557.27
637.81	566.97
638.258	564.77
638.705	556.57
639.153	591.57
639.601	600.77
640.049	630.07
640.497	658.37
640.944	678.97
641.392	628.17
641.84	604.17
642.287	568.67
642.735	555.67
643.182	558.07
643.63	567.87
644.078	556.67
644.525	561.87
644.973	577.57
645.42	589.17
645.867	601.17
646.315	622.97
646.762	642.57
647.21	659.47
647.657	694.07
648.104	730.47
648.551	759.77
648.999	820.37
649.446	893.67
649.893	969.27
650.34	1124.38
650.787	1345.77
651.234	1660.07
651.682	2168.38
652.129	2943.57
652.576	4243.27
653.023	6265.27
653.47	8625.67
653.917	10855.88
654.363	12604.48
654.81	14004.77
655.257	13296.68
655.704	8682.97
656.151	5163.38
656.598	3329.88
657.044	2364.47
657.491	1822.07
657.938	1459.38
658.385	1212.17
658.831	1047.27
659.278	945.27
659.724	832.37
660.171	768.37
660.618	691.27
661.064	670.17
661.511	653.57
661.957	638.17
662.404	609.17
662.85	628.97
663.296	602.97
663.743	539.67
664.189	526.87
664.635	517.17
665.082	506.07
665.528	508.77
665.974	501.37
666.42	493.77
666.867	489.77
667.313	475.47
667.759	465.17
668.205	457.57
668.651	457.97
669.097	460.57
669.543	480.17
669.989	460.97
670.435	440.17
670.881	430.77
671.327	441.77
671.773	451.17
672.219	468.87
672.665	514.07
673.11	561.97
673.556	611.87
674.002	642.37
674.448	633.97
674.893	530.17
675.339	467.57
675.785	427.07
676.23	402.57
676.676	377.57
677.122	371.37
677.567	351.47
678.013	345.97
678.458	354.07
678.904	354.57
679.349	336.07
679.794	336.87
680.24	337.47
680.685	329.27
681.131	338.77
681.576	337.57
682.021	341.37
682.466	330.67
682.912	338.77
683.357	340.77
683.802	362.27
684.247	392.27
684.692	433.27
685.137	473.37
685.583	519.97
686.028	547.57
686.473	498.77
686.918	429.67
687.363	398.47
687.807	376.77
688.252	351.67
688.697	343.57
689.142	330.37
689.587	320.07
690.032	313.57
690.477	325.67
690.921	339.97
691.366	372.77
691.811	380.47
692.255	409.57
692.7	442.17
693.145	477.87
693.589	648.47
694.034	1070.97
694.478	1461.98
694.923	1664.28
695.367	2184.97
695.812	1141.67
696.256	479.17
696.701	357.37
697.145	330.97
697.59	309.77
698.034	310.97
698.478	309.07
698.922	314.17
699.367	317.87
699.811	325.37
700.255	339.87
700.699	367.87
701.143	402.07
701.588	445.87
702.032	500.27
702.476	490.47
702.92	471.97
703.364	464.57
703.808	598.07
704.252	970.27
704.696	1376.58
705.14	1597.88
705.584	2048.07
706.027	1030.07
706.471	499.97
706.915	386.87
707.359	334.37
707.803	304.97
708.246	294.47
708.69	293.47
709.134	301.67
709.577	302.27
710.021	304.47
710.465	294.17
710.908	284.77
711.352	284.17
711.795	295.27
712.239	340.17
712.682	365.77
713.126	396.67
713.569	453.97
714.012	362.67
714.456	304.77
714.899	279.77
715.342	258.07
715.786	253.17
716.229	243.97
716.672	243.27
717.115	241.67
717.558	239.47
718.002	248.97
718.445	248.17
718.888	275.97
719.331	280.37
719.774	288.87
720.217	290.07
720.66	278.27
721.103	259.87
721.546	243.97
721.989	239.47
722.432	220.37
722.874	224.57
723.317	218.97
723.76	236.17
724.203	243.57
724.645	296.17
725.088	427.37
725.531	553.77
725.974	631.17
726.416	529.27
726.859	296.07
727.301	238.77
727.744	229.47
728.187	220.77
728.629	226.97
729.071	230.77
729.514	250.47
729.956	260.27
730.399	272.87
730.841	277.77
731.283	259.27
731.726	251.67
732.168	248.77
732.61	256.37
733.053	278.57
733.495	306.57
733.937	336.47
734.379	373.47
734.821	418.47
735.263	503.77
735.705	776.17
736.148	1460.78
736.59	2419.27
737.032	2921.88
737.474	2386.68
737.916	781.57
738.357	404.37
738.799	306.27
739.241	280.87
739.683	270.47
740.125	281.47
740.567	278.37
741.008	302.77
741.45	301.87
741.892	302.47
742.334	339.87
742.775	340.57
743.217	319.47
743.658	257.57
744.1	240.37
744.542	251.77
744.983	291.97
745.425	330.47
745.866	326.67
746.307	271.77
746.749	275.47
747.19	308.37
747.632	432.97
748.073	806.67
748.514	1732.08
748.956	2693.57
749.397	3380.37
749.838	2810.07
750.279	2849.28
750.72	1423.17
751.162	526.17
751.603	301.07
752.044	244.57
752.485	207.27
752.926	197.67
753.367	191.37
753.808	181.27
754.249	176.77
754.69	184.37
755.131	177.17
755.572	173.57
756.013	170.17
756.453	174.17
756.894	178.07
757.335	186.57
757.776	192.17
758.216	184.17
758.657	187.87
759.098	186.77
759.538	209.37
759.979	245.87
760.42	344.17
760.86	651.27
761.301	1666.47
761.741	4106.18
762.182	6184.58
