Data from 20171114-ORNL-Ar_H_NY_Subt18_08-09-25-325.txt Node
Date: Tue Nov 14 08:09:25 EST 2017
User: Ender
Spectrometer: HR+D1039
Trigger mode: 0
Integration Time (sec): 2.730000E-2
Scans to average: 10
Electric dark correction enabled: true
Nonlinearity correction enabled: false
Boxcar width: 0
XAxis mode: Wavelengths
Number of Pixels in Spectrum: 2048
>>>>>Begin Spectral Data<<<<<
187.836	1.85
188.309	1.85
188.782	1.85
189.255	-3.05
189.728	0.15
190.201	8.95
190.674	0.45
191.147	4.45
191.619	-6.85
192.092	2.05
192.565	1.85
193.038	-2.15
193.511	-2.75
193.984	1.35
194.456	-4.75
194.929	1.95
195.402	-2.45
195.874	-1.05
196.347	6.55
196.82	-7.15
197.292	8.35
197.765	1.05
198.237	-4.45
198.71	3.85
199.182	-1.95
199.655	5.85
200.127	-1.05
200.6	-0.55
201.072	-4.25
201.544	-2.05
202.017	-5.55
202.489	1.75
202.961	1.95
203.433	-6.95
203.906	-2.65
204.378	-11.25
204.85	-1.55
205.322	-5.05
205.794	1.95
206.266	-5.75
206.739	-5.75
207.211	3.95
207.683	-7.35
208.155	-8.85
208.627	-11.05
209.099	-5.45
209.57	-3.95
210.042	-0.15
210.514	-4.85
210.986	-3.05
211.458	-4.95
211.93	-3.95
212.402	0.45
212.873	-1.75
213.345	-9.15
213.817	-12.05
214.288	-2.05
214.76	-4.05
215.232	-9.65
215.703	-0.05
216.175	-7.25
216.646	-9.25
217.118	-11.35
217.589	-3.45
218.061	-1.35
218.532	-5.45
219.004	1.55
219.475	-2.05
219.946	0.95
220.418	-3.65
220.889	3.45
221.36	-0.05
221.832	-1.75
222.303	-4.15
222.774	-1.45
223.245	-10.55
223.717	-11.65
224.188	-4.25
224.659	-8.75
225.13	-4.45
225.601	-5.85
226.072	0.75
226.543	-2.95
227.014	-2.55
227.485	1.05
227.956	-4.45
228.427	-4.05
228.898	2.65
229.369	-1.65
229.839	-1.95
230.31	-6.85
230.781	-0.95
231.252	-3.55
231.722	-4.35
232.193	-9.55
232.664	-4.55
233.135	2.15
233.605	-2.45
234.076	-8.05
234.546	-4.85
235.017	-0.05
235.487	-4.25
235.958	-9.75
236.428	-10.45
236.899	-3.65
237.369	-5.15
237.84	-0.05
238.31	-0.85
238.78	-6.45
239.251	-8.05
239.721	-8.15
240.191	-2.75
240.662	-1.95
241.132	-5.55
241.602	-2.55
242.072	-2.35
242.542	1.55
243.013	-5.75
243.483	0.35
243.953	-2.75
244.423	0.85
244.893	-3.35
245.363	-3.25
245.833	-5.05
246.303	-5.75
246.773	0.05
247.243	-3.45
247.712	-2.65
248.182	2.65
248.652	0.35
249.122	-5.35
249.592	-0.75
250.061	0.15
250.531	9.95
251.001	-7.45
251.471	0.55
251.94	9.45
252.41	-2.65
252.879	-8.45
253.349	6.25
253.818	6.05
254.288	3.65
254.757	1.45
255.227	-8.25
255.696	-2.45
256.166	-1.45
256.635	0.15
257.105	-2.55
257.574	-0.15
258.043	3.35
258.513	-3.85
258.982	-2.75
259.451	-8.85
259.92	-1.35
260.389	-1.55
260.859	4.55
261.328	4.05
261.797	-0.55
262.266	0.55
262.735	7.45
263.204	0.55
263.673	-4.75
264.142	6.85
264.611	-2.35
265.08	-1.55
265.549	-3.55
266.018	4.55
266.487	-12.35
266.955	-2.45
267.424	-1.05
267.893	-4.85
268.362	-7.25
268.83	-4.85
269.299	6.55
269.768	-1.05
270.236	-0.45
270.705	-2.25
271.174	-0.45
271.642	1.95
272.111	-2.15
272.579	3.15
273.048	2.75
273.516	2.25
273.985	-0.55
274.453	4.85
274.922	8.75
275.39	-0.35
275.858	-4.15
276.327	-2.15
276.795	11.65
277.263	-1.15
277.731	7.75
278.2	3.15
278.668	1.45
279.136	2.85
279.604	1.05
280.072	9.15
280.54	2.65
281.008	8.65
281.477	6.45
281.945	9.25
282.413	3.55
282.881	12.55
283.348	-1.95
283.816	13.75
284.284	11.35
284.752	17.15
285.22	3.75
285.688	1.45
286.156	11.95
286.623	8.95
287.091	6.05
287.559	10.15
288.026	6.55
288.494	8.75
288.962	-0.85
289.429	10.55
289.897	10.85
290.364	11.55
290.832	12.85
291.3	5.65
291.767	10.45
292.234	13.45
292.702	8.95
293.169	5.55
293.637	12.85
294.104	8.95
294.571	5.75
295.039	1.95
295.506	3.65
295.973	8.25
296.44	3.75
296.908	10.85
297.375	7.05
297.842	12.65
298.309	7.75
298.776	5.05
299.243	12.05
299.71	5.65
300.177	12.45
300.644	12.25
301.111	18.65
301.578	12.15
302.045	6.95
302.512	9.95
302.979	16.05
303.446	11.05
303.913	9.25
304.379	8.45
304.846	14.45
305.313	14.75
305.78	11.45
306.246	19.25
306.713	14.25
307.18	15.25
307.646	13.85
308.113	14.25
308.579	12.05
309.046	17.15
309.512	22.75
309.979	8.25
310.445	19.95
310.912	11.95
311.378	21.85
311.845	19.95
312.311	22.85
312.777	22.35
313.244	15.45
313.71	27.35
314.176	22.35
314.642	21.65
315.109	18.75
315.575	19.35
316.041	27.25
316.507	20.25
316.973	23.85
317.439	22.85
317.905	23.25
318.371	24.65
318.837	25.65
319.303	23.65
319.769	23.85
320.235	24.85
320.701	26.15
321.167	23.55
321.633	18.85
322.099	24.95
322.564	27.95
323.03	28.25
323.496	22.15
323.962	26.15
324.427	24.65
324.893	30.25
325.359	24.55
325.824	25.85
326.29	28.45
326.755	30.05
327.221	33.05
327.686	31.65
328.152	35.55
328.617	31.65
329.083	35.85
329.548	35.75
330.014	33.15
330.479	25.15
330.944	30.45
331.41	32.75
331.875	35.15
332.34	32.95
332.805	27.15
333.271	31.65
333.736	25.15
334.201	45.55
334.666	41.85
335.131	41.05
335.596	38.55
336.061	35.15
336.526	32.35
336.991	34.35
337.456	45.15
337.921	40.95
338.386	34.05
338.851	36.45
339.316	35.35
339.781	36.05
340.246	42.25
340.711	42.15
341.175	39.05
341.64	30.75
342.105	39.15
342.569	42.85
343.034	42.95
343.499	48.25
343.963	38.65
344.428	44.55
344.893	49.65
345.357	48.95
345.822	46.75
346.286	54.45
346.751	54.85
347.215	56.15
347.679	51.55
348.144	76.25
348.608	59.45
349.073	52.55
349.537	53.65
350.001	64.05
350.465	67.55
350.93	60.15
351.394	67.35
351.858	50.45
352.322	65.85
352.786	60.85
353.25	77.75
353.715	81.25
354.179	75.35
354.643	93.15
355.107	94.05
355.571	77.15
356.035	76.35
356.498	83.95
356.962	91.35
357.426	93.95
357.89	86.35
358.354	70.15
358.818	68.95
359.281	71.15
359.745	61.95
360.209	62.65
360.673	59.75
361.136	67.35
361.6	72.55
362.064	61.85
362.527	71.35
362.991	78.05
363.454	64.85
363.918	66.95
364.381	66.55
364.845	74.05
365.308	73.75
365.772	74.65
366.235	74.05
366.698	69.75
367.162	75.05
367.625	70.65
368.088	72.35
368.552	80.45
369.015	74.45
369.478	73.95
369.941	85.45
370.404	79.35
370.867	86.25
371.331	78.65
371.794	86.75
372.257	81.35
372.72	86.15
373.183	89.15
373.646	75.45
374.109	81.85
374.572	94.25
375.035	84.45
375.497	92.95
375.96	94.35
376.423	92.45
376.886	95.35
377.349	90.45
377.811	83.35
378.274	93.95
378.737	85.05
379.199	98.55
379.662	95.45
380.125	93.35
380.587	93.35
381.05	91.45
381.512	104.65
381.975	113.65
382.437	107.05
382.9	96.45
383.362	110.75
383.825	109.75
384.287	111.95
384.75	108.35
385.212	109.75
385.674	117.85
386.136	115.55
386.599	109.55
387.061	104.35
387.523	111.05
387.985	105.45
388.447	121.35
388.91	118.85
389.372	119.55
389.834	122.15
390.296	118.75
390.758	114.05
391.22	117.05
391.682	133.25
392.144	134.55
392.606	133.45
393.068	128.05
393.529	140.95
393.991	124.55
394.453	117.55
394.915	127.05
395.377	122.75
395.838	125.15
396.3	120.35
396.762	123.15
397.224	121.25
397.685	122.85
398.147	129.15
398.608	118.85
399.07	119.05
399.531	129.85
399.993	136.95
400.454	142.95
400.916	135.45
401.377	132.45
401.839	141.05
402.3	137.05
402.762	147.75
403.223	167.65
403.684	157.05
404.145	153.25
404.607	147.35
405.068	153.05
405.529	157.55
405.99	173.65
406.451	158.95
406.913	161.05
407.374	160.95
407.835	152.15
408.296	159.35
408.757	163.45
409.218	177.75
409.679	165.95
410.14	167.45
410.601	160.55
411.062	175.45
411.522	166.45
411.983	171.85
412.444	160.65
412.905	169.85
413.366	177.65
413.826	185.35
414.287	211.35
414.748	257.95
415.208	244.75
415.669	209.05
416.13	199.85
416.59	198.15
417.051	214.75
417.511	221.95
417.972	231.75
418.432	244.55
418.893	282.65
419.353	245.45
419.814	193.95
420.274	182.65
420.734	171.75
421.195	185.95
421.655	181.15
422.115	184.35
422.576	187.45
423.036	195.85
423.496	197.55
423.956	204.95
424.416	221.45
424.876	258.35
425.336	248.45
425.797	260.05
426.257	247.15
426.717	235.45
427.177	232.05
427.637	215.75
428.097	230.05
428.556	239.25
429.016	257.85
429.476	245.15
429.936	260.35
430.396	264.55
430.856	275.65
431.315	293.05
431.775	325.05
432.235	357.35
432.694	332.35
433.154	340.55
433.614	359.25
434.073	315.65
434.533	274.65
434.993	251.25
435.452	264.55
435.912	275.55
436.371	273.45
436.83	271.05
437.29	250.55
437.749	237.85
438.209	237.55
438.668	259.95
439.127	276.05
439.587	253.25
440.046	238.45
440.505	254.65
440.964	259.45
441.424	305.15
441.883	293.85
442.342	252.55
442.801	224.85
443.26	226.25
443.719	226.15
444.178	216.85
444.637	212.75
445.096	219.95
445.555	227.65
446.014	218.35
446.473	224.55
446.932	227.05
447.391	224.75
447.849	235.75
448.308	222.15
448.767	225.95
449.226	237.35
449.685	235.55
450.143	249.85
450.602	242.95
451.061	223.45
451.519	235.95
451.978	231.45
452.436	233.65
452.895	247.75
453.353	250.85
453.812	249.25
454.27	238.35
454.729	243.95
455.187	246.25
455.646	241.25
456.104	251.05
456.562	267.25
457.021	265.75
457.479	258.45
457.937	276.15
458.395	265.25
458.854	251.15
459.312	265.15
459.77	276.65
460.228	256.15
460.686	246.35
461.144	247.95
461.602	248.25
462.06	252.05
462.518	254.55
462.976	252.45
463.434	254.85
463.892	261.35
464.35	283.55
464.808	289.65
465.266	273.55
465.724	274.85
466.181	271.05
466.639	273.05
467.097	292.35
467.555	300.45
468.012	299.55
468.47	313.05
468.928	327.55
469.385	350.35
469.843	350.15
470.3	349.55
470.758	368.55
471.215	393.85
471.673	405.25
472.13	409.15
472.588	417.75
473.045	377.95
473.503	377.95
473.96	402.65
474.417	408.25
474.875	435.45
475.332	478.35
475.789	467.65
476.246	467.05
476.704	489.45
477.161	511.05
477.618	525.65
478.075	557.25
478.532	611.95
478.989	668.25
479.446	775.85
479.903	743.15
480.36	785.45
480.817	826.45
481.274	921.05
481.731	1004.85
482.188	1077.65
482.645	1176.95
483.102	1270.15
483.558	1388.75
484.015	1432.25
484.472	1416.15
484.929	1374.95
485.385	1324.45
485.842	1303.35
486.299	1247.95
486.755	1210.85
487.212	1041.05
487.668	892.45
488.125	820.15
488.582	762.65
489.038	730.25
489.494	704.15
489.951	682.15
490.407	654.35
490.864	631.25
491.32	634.35
491.776	648.25
492.233	639.25
492.689	608.25
493.145	605.65
493.602	600.35
494.058	611.55
494.514	616.65
494.97	650.25
495.426	634.15
495.882	622.95
496.338	604.65
496.794	630.45
497.251	612.05
497.707	625.75
498.163	635.25
498.618	644.95
499.074	646.65
499.53	670.55
499.986	670.65
500.442	643.45
500.898	629.15
501.354	614.05
501.809	618.85
502.265	632.05
502.721	632.55
503.177	643.35
503.632	644.15
504.088	653.25
504.543	673.75
504.999	688.55
505.455	669.95
505.91	637.95
506.366	646.55
506.821	645.15
507.277	648.45
507.732	649.75
508.187	640.05
508.643	645.35
509.098	650.75
509.553	668.15
510.009	683.55
510.464	687.85
510.919	711.35
511.375	709.75
511.83	719.85
512.285	731.35
512.74	758.35
513.195	787.35
513.65	779.65
514.105	784.05
514.56	780.45
515.015	804.85
515.47	819.95
515.925	792.75
516.38	794.45
516.835	809.95
517.29	794.95
517.745	787.05
518.2	779.05
518.655	768.15
519.109	757.45
519.564	752.85
520.019	735.85
520.474	745.35
520.928	734.85
521.383	733.25
521.838	719.45
522.292	727.75
522.747	733.55
523.201	724.45
523.656	712.65
524.11	706.95
524.565	707.15
525.019	715.55
525.474	710.55
525.928	713.65
526.382	713.85
526.837	715.45
527.291	707.25
527.745	717.85
528.2	716.75
528.654	712.85
529.108	701.65
529.562	701.05
530.016	701.55
530.47	708.65
530.925	697.55
531.379	712.25
531.833	717.45
532.287	707.05
532.741	715.95
533.195	711.75
533.649	728.95
534.103	737.35
534.556	725.95
535.01	718.25
535.464	727.25
535.918	730.05
536.372	735.25
536.826	739.25
537.279	717.25
537.733	724.65
538.187	726.85
538.64	731.15
539.094	745.45
539.548	739.05
540.001	741.65
540.455	743.45
540.908	747.05
541.362	757.65
541.815	756.85
542.269	773.55
542.722	785.75
543.175	789.95
543.629	795.75
544.082	804.65
544.536	802.05
544.989	822.15
545.442	816.45
545.895	818.65
546.349	816.15
546.802	817.15
547.255	831.85
547.708	833.75
548.161	842.85
548.614	855.95
549.067	855.65
549.52	849.35
549.973	847.75
550.426	831.05
550.879	831.05
551.332	824.25
551.785	836.85
552.238	832.75
552.691	842.85
553.144	856.55
553.596	878.25
554.049	895.75
554.502	917.55
554.955	937.65
555.407	940.15
555.86	934.55
556.313	921.75
556.765	913.25
557.218	913.65
557.67	899.85
558.123	910.25
558.576	898.65
559.028	896.25
559.48	916.85
559.933	908.35
560.385	862.55
560.838	844.75
561.29	827.55
561.742	824.55
562.195	801.25
562.647	804.25
563.099	808.95
563.551	797.55
564.004	811.45
564.456	799.95
564.908	787.85
565.36	768.35
565.812	749.35
566.264	753.55
566.716	742.65
567.168	731.85
567.62	733.35
568.072	725.85
568.524	723.55
568.976	720.85
569.428	698.25
569.88	704.55
570.332	715.15
570.784	714.65
571.235	714.05
571.687	718.05
572.139	722.65
572.59	739.95
573.042	741.85
573.494	735.75
573.945	730.95
574.397	719.95
574.849	712.95
575.3	723.35
575.752	718.65
576.203	706.15
576.655	715.85
577.106	698.15
577.557	692.35
578.009	689.55
578.46	692.35
578.912	688.25
579.363	679.75
579.814	697.55
580.265	690.45
580.717	694.25
581.168	703.55
581.619	697.65
582.07	704.75
582.521	701.65
582.972	698.95
583.423	703.55
583.875	697.55
584.326	711.25
584.777	718.75
585.227	739.65
585.678	745.95
586.129	756.65
586.58	779.55
587.031	793.75
587.482	830.55
587.933	833.45
588.384	830.85
588.834	806.15
589.285	800.85
589.736	807.95
590.186	802.25
590.637	798.25
591.088	774.65
591.538	778.85
591.989	751.25
592.439	744.95
592.89	749.35
593.34	737.95
593.791	739.35
594.241	719.35
594.692	720.05
595.142	723.15
595.593	723.75
596.043	724.25
596.493	732.95
596.943	729.95
597.394	748.05
597.844	738.95
598.294	762.15
598.744	784.15
599.195	811.35
599.645	854.95
600.095	901.15
600.545	963.85
600.995	1000.75
601.445	1074.25
601.895	1130.35
602.345	1172.05
602.795	1161.95
603.245	1110.65
603.695	1053.45
604.145	1001.75
604.594	952.75
605.044	896.85
605.494	833.15
605.944	783.55
606.393	769.15
606.843	763.35
607.293	767.85
607.743	760.25
608.192	770.85
608.642	783.85
609.091	786.45
609.541	796.25
609.99	782.35
610.44	795.25
610.889	745.85
611.339	713.55
611.788	702.45
612.238	724.15
612.687	735.15
613.136	720.45
613.586	739.75
614.035	724.35
614.484	737.15
614.933	740.95
615.383	735.35
615.832	737.75
616.281	728.35
616.73	697.05
617.179	677.05
617.628	664.55
618.077	663.45
618.526	641.55
618.975	636.15
619.424	647.65
619.873	633.65
620.322	640.05
620.771	635.75
621.22	626.45
621.669	614.25
622.118	609.55
622.567	604.95
623.015	596.55
623.464	602.35
623.913	589.15
624.361	579.55
624.81	570.35
625.259	578.05
625.707	585.75
626.156	580.95
626.604	588.55
627.053	586.05
627.501	582.95
627.95	598.25
628.398	602.75
628.847	590.75
629.295	599.35
629.744	601.45
630.192	597.85
630.64	587.45
631.089	570.85
631.537	563.35
631.985	545.75
632.433	555.05
632.881	555.85
633.33	552.05
633.778	553.45
634.226	542.65
634.674	556.85
635.122	561.45
635.57	569.05
636.018	572.85
636.466	589.25
636.914	582.35
637.362	595.25
637.81	603.75
638.258	604.55
638.705	615.85
639.153	643.45
639.601	656.85
640.049	677.85
640.497	710.45
640.944	733.95
641.392	679.25
641.84	641.35
642.287	611.25
642.735	584.95
643.182	584.65
643.63	578.75
644.078	584.55
644.525	603.15
644.973	597.95
645.42	617.25
645.867	634.05
646.315	657.75
646.762	682.35
647.21	710.25
647.657	721.15
648.104	758.75
648.551	790.05
648.999	842.25
649.446	915.85
649.893	1002.05
650.34	1150.15
650.787	1364.75
651.234	1689.55
651.682	2189.35
652.129	2954.65
652.576	4208.05
653.023	6150.35
653.47	8240.85
653.917	10187.85
654.363	11650.25
654.81	12714.85
655.257	12081.75
655.704	7988.15
656.151	4812.35
656.598	3153.95
657.044	2272.15
657.491	1772.95
657.938	1436.15
658.385	1221.35
658.831	1066.65
659.278	951.75
659.724	845.75
660.171	785.05
660.618	723.95
661.064	703.45
661.511	682.45
661.957	668.75
662.404	652.25
662.85	669.55
663.296	631.35
663.743	583.95
664.189	560.55
664.635	549.65
665.082	545.15
665.528	541.65
665.974	535.45
666.42	530.75
666.867	523.35
667.313	500.55
667.759	492.55
668.205	475.25
668.651	469.05
669.097	474.55
669.543	460.85
669.989	464.15
670.435	465.95
670.881	468.05
671.327	471.85
671.773	497.95
672.219	527.15
672.665	582.85
673.11	623.75
673.556	657.15
674.002	704.55
674.448	688.55
674.893	578.65
675.339	502.35
675.785	470.65
676.23	439.45
676.676	416.25
677.122	399.75
677.567	402.35
678.013	397.75
678.458	384.95
678.904	393.75
679.349	372.15
679.794	372.15
680.24	376.15
680.685	371.35
681.131	367.05
681.576	365.85
682.021	372.45
682.466	370.25
682.912	365.65
683.357	375.65
683.802	407.35
684.247	435.65
684.692	481.65
685.137	528.45
685.583	567.05
686.028	602.85
686.473	555.05
686.918	476.35
687.363	443.45
687.807	417.85
688.252	396.35
688.697	379.45
689.142	361.55
689.587	348.25
690.032	347.55
690.477	372.35
690.921	371.45
691.366	411.85
691.811	423.95
692.255	468.65
692.7	497.75
693.145	559.25
693.589	775.45
694.034	1252.45
694.478	1668.85
694.923	1838.25
695.367	2381.35
695.812	1271.85
696.256	529.65
696.701	390.45
697.145	364.05
697.59	343.65
698.034	342.95
698.478	348.85
698.922	346.55
699.367	342.25
699.811	358.75
700.255	378.95
700.699	407.85
701.143	454.25
701.588	509.05
702.032	544.25
702.476	546.05
702.92	525.35
703.364	538.55
703.808	706.55
704.252	1155.15
704.696	1588.75
705.14	1786.15
705.584	2261.15
706.027	1138.35
706.471	553.15
706.915	427.25
707.359	374.65
707.803	341.35
708.246	325.85
708.69	331.95
709.134	335.85
709.577	318.35
710.021	337.55
710.465	324.35
710.908	315.25
711.352	318.35
711.795	332.95
712.239	372.05
712.682	416.75
713.126	437.05
713.569	485.25
714.012	388.05
714.456	321.25
714.899	305.05
715.342	288.55
715.786	268.25
716.229	271.75
716.672	268.25
717.115	258.75
717.558	264.15
718.002	266.55
718.445	278.25
718.888	304.35
719.331	308.95
719.774	330.45
720.217	325.75
720.66	298.75
721.103	284.55
721.546	268.15
721.989	261.75
722.432	252.15
722.874	261.75
723.317	244.65
723.76	252.55
724.203	274.55
724.645	346.85
725.088	489.85
725.531	606.95
725.974	674.25
726.416	576.55
726.859	328.05
727.301	264.95
727.744	250.25
728.187	248.85
728.629	254.05
729.071	263.85
729.514	278.65
729.956	290.25
730.399	305.35
730.841	312.55
731.283	288.65
731.726	288.05
732.168	282.55
732.61	292.55
733.053	309.45
733.495	343.65
733.937	384.35
734.379	430.05
734.821	473.65
735.263	597.45
735.705	935.15
736.148	1781.15
736.59	2847.05
737.032	3229.75
737.474	2633.75
737.916	879.55
738.357	462.45
738.799	354.35
739.241	321.65
739.683	303.75
740.125	311.15
740.567	322.55
741.008	349.75
741.45	332.75
741.892	347.45
742.334	378.85
742.775	385.55
743.217	368.15
743.658	290.85
744.1	273.75
744.542	287.65
744.983	343.05
745.425	369.75
745.866	366.65
746.307	295.55
746.749	296.05
747.19	357.05
747.632	518.05
748.073	1020.75
748.514	2106.25
748.956	3077.45
749.397	3902.45
749.838	3204.75
750.279	3123.25
750.72	1600.55
751.162	596.25
751.603	351.65
752.044	272.25
752.485	236.65
752.926	233.65
753.367	219.65
753.808	210.05
754.249	203.85
754.69	206.35
755.131	204.15
755.572	194.25
756.013	198.55
756.453	199.15
756.894	197.15
757.335	207.95
757.776	210.55
758.216	207.45
758.657	211.35
759.098	216.05
759.538	242.85
759.979	295.15
760.42	416.45
760.86	808.25
761.301	2112.45
761.741	4970.95
762.182	6763.85
762.622	4812.75
763.063	1414.95
763.503	585.85
