Data from 20171114-ORNL-Ar_H_NY_Subt18_08-07-49-724.txt Node
Date: Tue Nov 14 08:07:49 EST 2017
User: Ender
Spectrometer: HR+D1039
Trigger mode: 0
Integration Time (sec): 2.730000E-2
Scans to average: 10
Electric dark correction enabled: true
Nonlinearity correction enabled: false
Boxcar width: 0
XAxis mode: Wavelengths
Number of Pixels in Spectrum: 2048
>>>>>Begin Spectral Data<<<<<
187.836	-5.45
188.309	-5.45
188.782	-5.45
189.255	-0.25
189.728	-0.85
190.201	1.95
190.674	2.25
191.147	5.65
191.619	-8.75
192.092	-0.15
192.565	6.65
193.038	-5.45
193.511	3.55
193.984	7.05
194.456	-7.05
194.929	2.35
195.402	2.65
195.874	-4.15
196.347	-0.85
196.82	-2.05
197.292	3.25
197.765	-2.85
198.237	-11.35
198.71	0.95
199.182	-0.85
199.655	4.65
200.127	4.55
200.6	-2.25
201.072	-2.05
201.544	-4.35
202.017	-4.95
202.489	2.05
202.961	-4.15
203.433	-3.25
203.906	-5.45
204.378	-7.45
204.85	-6.65
205.322	-7.15
205.794	-1.05
206.266	-4.15
206.739	-9.15
207.211	-0.05
207.683	-13.95
208.155	-4.15
208.627	-1.85
209.099	-2.45
209.57	-6.35
210.042	-4.55
210.514	-3.05
210.986	-4.25
211.458	-4.35
211.93	-0.65
212.402	0.75
212.873	-6.55
213.345	-12.65
213.817	-13.45
214.288	-9.85
214.76	-7.75
215.232	2.75
215.703	-3.55
216.175	-3.25
216.646	-0.15
217.118	-2.85
217.589	1.15
218.061	1.25
218.532	-4.65
219.004	-1.75
219.475	-7.85
219.946	-3.35
220.418	-8.65
220.889	1.95
221.36	-1.05
221.832	-5.45
222.303	-2.25
222.774	1.25
223.245	-9.65
223.717	-3.45
224.188	-4.55
224.659	-7.15
225.13	-5.55
225.601	-2.15
226.072	-1.75
226.543	-0.85
227.014	2.05
227.485	0.15
227.956	-7.05
228.427	-0.95
228.898	0.25
229.369	5.85
229.839	-2.45
230.31	-4.95
230.781	0.85
231.252	-3.35
231.722	1.45
232.193	-3.95
232.664	-6.55
233.135	3.05
233.605	3.95
234.076	-3.25
234.546	7.95
235.017	9.25
235.487	-0.05
235.958	-2.35
236.428	-6.65
236.899	-1.45
237.369	7.95
237.84	-3.65
238.31	7.25
238.78	-2.95
239.251	1.15
239.721	3.25
240.191	-1.25
240.662	-4.55
241.132	-0.95
241.602	-5.65
242.072	3.25
242.542	4.95
243.013	-0.05
243.483	3.95
243.953	4.15
244.423	-1.95
244.893	-9.45
245.363	3.75
245.833	2.15
246.303	-1.15
246.773	8.75
247.243	-2.05
247.712	-2.35
248.182	9.55
248.652	5.75
249.122	-1.65
249.592	10.95
250.061	23.35
250.531	31.95
251.001	16.45
251.471	21.75
251.94	18.65
252.41	7.15
252.879	-0.15
253.349	14.05
253.818	7.25
254.288	1.35
254.757	2.15
255.227	-1.85
255.696	-2.75
256.166	1.15
256.635	2.95
257.105	9.05
257.574	9.35
258.043	7.35
258.513	12.85
258.982	23.15
259.451	7.85
259.92	14.15
260.389	10.35
260.859	18.35
261.328	8.65
261.797	10.65
262.266	4.75
262.735	8.15
263.204	2.35
263.673	-4.35
264.142	1.35
264.611	-4.75
265.08	3.15
265.549	3.15
266.018	4.95
266.487	0.15
266.955	-3.75
267.424	4.35
267.893	10.25
268.362	-6.55
268.83	0.55
269.299	11.35
269.768	7.05
270.236	7.95
270.705	1.95
271.174	1.15
271.642	9.65
272.111	12.85
272.579	16.05
273.048	21.55
273.516	27.25
273.985	31.65
274.453	15.95
274.922	20.45
275.39	10.25
275.858	2.35
276.327	14.95
276.795	16.25
277.263	5.95
277.731	27.05
278.2	50.25
278.668	54.05
279.136	46.85
279.604	22.05
280.072	15.65
280.54	13.85
281.008	10.95
281.477	16.25
281.945	10.35
282.413	14.85
282.881	13.95
283.348	6.75
283.816	18.15
284.284	13.35
284.752	16.85
285.22	14.15
285.688	12.95
286.156	18.85
286.623	43.55
287.091	47.05
287.559	30.65
288.026	16.95
288.494	16.85
288.962	1.45
289.429	11.95
289.897	15.05
290.364	10.05
290.832	10.55
291.3	8.15
291.767	16.35
292.234	16.15
292.702	12.05
293.169	14.15
293.637	25.25
294.104	21.55
294.571	3.95
295.039	12.25
295.506	14.05
295.973	18.15
296.44	8.45
296.908	13.95
297.375	16.95
297.842	18.55
298.309	19.75
298.776	7.15
299.243	10.75
299.71	8.15
300.177	23.75
300.644	21.35
301.111	14.55
301.578	23.35
302.045	14.85
302.512	22.45
302.979	26.75
303.446	22.15
303.913	14.55
304.379	14.85
304.846	31.75
305.313	21.85
305.78	21.25
306.246	24.75
306.713	22.35
307.18	25.05
307.646	28.65
308.113	26.65
308.579	21.45
309.046	19.65
309.512	28.15
309.979	16.35
310.445	24.85
310.912	25.55
311.378	35.35
311.845	21.15
312.311	30.85
312.777	27.15
313.244	29.75
313.71	36.65
314.176	28.95
314.642	26.95
315.109	26.65
315.575	37.95
316.041	35.55
316.507	39.35
316.973	37.65
317.439	32.75
317.905	35.65
318.371	30.05
318.837	30.05
319.303	29.55
319.769	29.15
320.235	29.55
320.701	33.25
321.167	33.95
321.633	32.25
322.099	40.35
322.564	44.45
323.03	35.95
323.496	35.35
323.962	36.65
324.427	33.05
324.893	37.15
325.359	32.35
325.824	36.45
326.29	31.15
326.755	30.85
327.221	37.65
327.686	36.05
328.152	43.65
328.617	38.35
329.083	44.55
329.548	48.95
330.014	38.05
330.479	37.75
330.944	37.95
331.41	41.15
331.875	42.55
332.34	39.85
332.805	40.85
333.271	36.95
333.736	40.05
334.201	48.35
334.666	50.35
335.131	51.65
335.596	52.15
336.061	56.65
336.526	39.55
336.991	48.05
337.456	55.65
337.921	50.35
338.386	49.25
338.851	44.75
339.316	48.45
339.781	43.75
340.246	50.75
340.711	46.95
341.175	45.65
341.64	40.25
342.105	54.65
342.569	51.65
343.034	60.15
343.499	54.15
343.963	47.65
344.428	57.85
344.893	62.35
345.357	58.25
345.822	57.15
346.286	66.95
346.751	70.55
347.215	60.05
347.679	66.55
348.144	95.15
348.608	80.85
349.073	62.45
349.537	70.05
350.001	77.25
350.465	88.65
350.93	74.15
351.394	72.55
351.858	63.95
352.322	86.65
352.786	76.25
353.25	94.25
353.715	107.95
354.179	96.55
354.643	112.85
355.107	118.15
355.571	101.65
356.035	99.25
356.498	115.65
356.962	114.15
357.426	128.25
357.89	110.85
358.354	85.05
358.818	75.35
359.281	77.65
359.745	76.05
360.209	76.85
360.673	70.15
361.136	79.75
361.6	81.15
362.064	82.75
362.527	85.75
362.991	90.05
363.454	75.95
363.918	76.05
364.381	77.25
364.845	80.55
365.308	82.45
365.772	81.75
366.235	83.05
366.698	88.65
367.162	84.65
367.625	79.95
368.088	82.15
368.552	87.25
369.015	88.85
369.478	94.45
369.941	92.15
370.404	95.25
370.867	105.55
371.331	105.15
371.794	112.15
372.257	106.55
372.72	111.45
373.183	111.85
373.646	101.45
374.109	98.75
374.572	108.15
375.035	105.75
375.497	103.55
375.96	103.35
376.423	105.65
376.886	110.85
377.349	103.85
377.811	103.75
378.274	106.25
378.737	106.75
379.199	111.95
379.662	109.25
380.125	119.55
380.587	114.25
381.05	124.95
381.512	126.15
381.975	137.55
382.437	128.55
382.9	129.85
383.362	128.15
383.825	142.05
384.287	145.95
384.75	139.25
385.212	143.45
385.674	140.65
386.136	132.25
386.599	124.25
387.061	129.75
387.523	128.25
387.985	135.35
388.447	146.95
388.91	150.35
389.372	161.25
389.834	158.25
390.296	138.95
390.758	159.15
391.22	173.05
391.682	208.15
392.144	305.45
392.606	226.25
393.068	169.35
393.529	166.25
393.991	155.05
394.453	142.35
394.915	152.35
395.377	192.45
395.838	213.05
396.3	156.65
396.762	143.55
397.224	135.05
397.685	129.95
398.147	136.15
398.608	126.35
399.07	127.65
399.531	133.85
399.993	146.05
400.454	150.35
400.916	141.35
401.377	136.75
401.839	141.75
402.3	152.55
402.762	167.25
403.223	180.15
403.684	168.85
404.145	156.55
404.607	167.45
405.068	159.05
405.529	166.95
405.99	182.75
406.451	178.55
406.913	167.85
407.374	164.05
407.835	163.85
408.296	171.25
408.757	170.85
409.218	188.75
409.679	181.15
410.14	165.85
410.601	176.95
411.062	184.75
411.522	194.45
411.983	193.05
412.444	181.35
412.905	175.35
413.366	180.05
413.826	192.05
414.287	217.35
414.748	261.75
415.208	249.25
415.669	211.85
416.13	207.05
416.59	200.05
417.051	215.85
417.511	210.15
417.972	235.75
418.432	243.65
418.893	286.25
419.353	241.55
419.814	194.25
420.274	176.75
420.734	177.65
421.195	193.05
421.655	202.05
422.115	200.25
422.576	193.05
423.036	190.95
423.496	202.75
423.956	218.55
424.416	228.65
424.876	274.75
425.336	260.95
425.797	257.65
426.257	250.75
426.717	237.35
427.177	230.85
427.637	223.15
428.097	227.05
428.556	245.35
429.016	268.45
429.476	263.25
429.936	277.05
430.396	271.85
430.856	288.25
431.315	322.35
431.775	349.15
432.235	388.85
432.694	355.65
433.154	368.95
433.614	396.75
434.073	340.55
434.533	290.35
434.993	273.95
435.452	281.85
435.912	292.85
436.371	294.05
436.83	283.05
437.29	275.45
437.749	240.65
438.209	249.35
438.668	273.95
439.127	286.25
439.587	265.15
440.046	249.55
440.505	260.45
440.964	276.45
441.424	324.05
441.883	311.75
442.342	261.55
442.801	223.45
443.26	221.25
443.719	227.25
444.178	225.85
444.637	212.35
445.096	218.05
445.555	220.45
446.014	230.75
446.473	227.75
446.932	231.05
447.391	217.15
447.849	223.05
448.308	214.45
448.767	220.55
449.226	231.95
449.685	241.25
450.143	242.75
450.602	235.85
451.061	231.95
451.519	230.05
451.978	233.65
452.436	243.95
452.895	240.05
453.353	254.25
453.812	237.15
454.27	236.25
454.729	245.55
455.187	236.55
455.646	248.05
456.104	245.65
456.562	262.75
457.021	268.05
457.479	261.75
457.937	273.95
458.395	262.95
458.854	249.65
459.312	255.05
459.77	271.25
460.228	257.25
460.686	238.25
461.144	248.45
461.602	245.65
462.06	243.35
462.518	253.25
462.976	247.45
463.434	253.95
463.892	258.25
464.35	275.65
464.808	283.95
465.266	266.95
465.724	269.35
466.181	268.75
466.639	264.85
467.097	284.15
467.555	297.65
468.012	302.75
468.47	310.85
468.928	330.85
469.385	338.85
469.843	342.85
470.3	346.35
470.758	357.05
471.215	383.75
471.673	405.05
472.13	406.95
472.588	421.05
473.045	369.55
473.503	378.05
473.96	392.85
474.417	404.35
474.875	437.85
475.332	471.05
475.789	455.75
476.246	472.35
476.704	488.65
477.161	507.35
477.618	529.75
478.075	565.35
478.532	618.75
478.989	698.25
479.446	803.15
479.903	772.35
480.36	803.95
480.817	867.45
481.274	975.35
481.731	1086.45
482.188	1174.35
482.645	1299.35
483.102	1420.25
483.558	1548.95
484.015	1608.55
484.472	1578.65
484.929	1536.25
485.385	1484.25
485.842	1444.75
486.299	1363.55
486.755	1296.25
487.212	1093.05
487.668	937.75
488.125	847.85
488.582	776.25
489.038	746.05
489.494	716.75
489.951	685.45
490.407	660.35
490.864	651.75
491.32	647.75
491.776	634.05
492.233	640.95
492.689	612.55
493.145	605.05
493.602	592.85
494.058	616.55
494.514	608.45
494.97	629.15
495.426	645.65
495.882	613.05
496.338	600.75
496.794	624.35
497.251	610.15
497.707	626.85
498.163	625.45
498.618	647.95
499.074	640.85
499.53	668.85
499.986	673.55
500.442	646.05
500.898	630.35
501.354	619.15
501.809	631.25
502.265	636.05
502.721	659.25
503.177	674.55
503.632	660.95
504.088	667.15
504.543	714.25
504.999	706.85
505.455	657.25
505.91	630.35
506.366	625.95
506.821	619.65
507.277	617.45
507.732	619.85
508.187	617.15
508.643	618.35
509.098	638.15
509.553	659.75
510.009	655.75
510.464	669.35
510.919	688.85
511.375	695.85
511.83	709.75
512.285	718.05
512.74	753.55
513.195	770.75
513.65	764.35
514.105	764.75
514.56	760.95
515.015	786.85
515.47	803.85
515.925	781.95
516.38	783.75
516.835	788.65
517.29	776.45
517.745	780.95
518.2	761.85
518.655	734.85
519.109	732.25
519.564	733.55
520.019	723.05
520.474	724.15
520.928	717.45
521.383	717.95
521.838	694.65
522.292	696.25
522.747	707.75
523.201	705.45
523.656	685.65
524.11	692.95
524.565	692.05
525.019	692.65
525.474	699.95
525.928	705.65
526.382	689.65
526.837	690.55
527.291	694.95
527.745	698.55
528.2	694.75
528.654	688.65
529.108	688.75
529.562	685.15
530.016	686.75
530.47	680.35
530.925	679.55
531.379	690.85
531.833	697.35
532.287	693.35
532.741	692.85
533.195	705.05
533.649	708.05
534.103	712.85
534.556	707.35
535.01	708.45
535.464	698.05
535.918	715.45
536.372	716.55
536.826	706.15
537.279	690.15
537.733	705.55
538.187	722.45
538.64	706.05
539.094	717.65
539.548	728.75
540.001	708.85
540.455	716.15
540.908	736.75
541.362	731.15
541.815	741.15
542.269	750.85
542.722	756.55
543.175	765.95
543.629	766.35
544.082	789.85
544.536	780.05
544.989	778.85
545.442	782.85
545.895	789.55
546.349	776.45
546.802	798.75
547.255	792.55
547.708	801.85
548.161	816.75
548.614	827.15
549.067	822.75
549.52	824.85
549.973	816.65
550.426	799.25
550.879	790.45
551.332	792.25
551.785	801.35
552.238	802.15
552.691	817.85
553.144	830.45
553.596	844.15
554.049	854.85
554.502	887.25
554.955	899.45
555.407	894.25
555.86	897.05
556.313	881.55
556.765	886.95
557.218	879.55
557.67	877.55
558.123	870.15
558.576	874.35
559.028	872.85
559.48	873.55
559.933	856.15
560.385	832.15
560.838	791.55
561.29	779.75
561.742	779.25
562.195	755.35
562.647	761.25
563.099	762.85
563.551	769.45
564.004	772.45
564.456	763.85
564.908	766.65
565.36	740.05
565.812	739.35
566.264	731.05
566.716	731.65
567.168	720.55
567.62	730.15
568.072	716.75
568.524	701.15
568.976	699.15
569.428	668.35
569.88	664.25
570.332	675.55
570.784	680.65
571.235	673.75
571.687	694.85
572.139	695.55
572.59	708.55
573.042	705.65
573.494	708.55
573.945	694.35
574.397	675.55
574.849	679.75
575.3	685.95
575.752	677.55
576.203	674.45
576.655	682.25
577.106	665.55
577.557	666.15
578.009	665.95
578.46	672.15
578.912	663.45
579.363	668.05
579.814	661.15
580.265	652.65
580.717	663.55
581.168	666.45
581.619	670.75
582.07	685.25
582.521	668.85
582.972	664.85
583.423	675.95
583.875	674.25
584.326	714.75
584.777	756.45
585.227	831.35
585.678	920.65
586.129	1017.05
586.58	1091.65
587.031	1185.75
587.482	1337.05
587.933	1531.05
588.384	1333.65
588.834	993.15
589.285	804.55
589.736	780.25
590.186	774.65
590.637	765.85
591.088	745.05
591.538	739.35
591.989	734.45
592.439	730.35
592.89	718.15
593.34	710.55
593.791	707.85
594.241	700.55
594.692	709.95
595.142	691.35
595.593	698.95
596.043	713.25
596.493	706.05
596.943	716.85
597.394	723.65
597.844	726.05
598.294	725.25
598.744	750.35
599.195	778.35
599.645	829.85
600.095	850.45
600.545	918.65
600.995	966.35
601.445	1021.85
601.895	1085.85
602.345	1133.25
602.795	1109.65
603.245	1064.35
603.695	1005.25
604.145	964.05
604.594	913.45
605.044	864.15
605.494	796.25
605.944	752.75
606.393	742.05
606.843	721.85
607.293	735.15
607.743	738.15
608.192	749.45
608.642	764.15
609.091	775.15
609.541	771.55
609.99	780.15
610.44	764.15
610.889	724.85
611.339	699.25
611.788	694.25
612.238	703.05
612.687	718.55
613.136	713.55
613.586	745.45
614.035	744.25
614.484	761.25
614.933	757.95
615.383	758.65
615.832	745.25
616.281	731.45
616.73	695.55
617.179	675.45
617.628	649.75
618.077	641.65
618.526	626.65
618.975	615.45
619.424	613.85
619.873	619.75
620.322	620.75
620.771	608.15
621.22	596.35
621.669	600.65
622.118	583.05
622.567	578.05
623.015	568.15
623.464	576.95
623.913	564.05
624.361	548.15
624.81	558.95
625.259	549.95
625.707	559.75
626.156	551.45
626.604	570.95
627.053	557.05
627.501	561.75
627.95	570.45
628.398	583.15
628.847	563.65
629.295	566.65
629.744	577.65
630.192	575.05
630.64	573.65
631.089	567.95
631.537	582.75
631.985	593.25
632.433	613.75
632.881	612.85
633.33	672.95
633.778	644.85
634.226	568.25
634.674	587.35
635.122	578.85
635.57	606.25
636.018	629.95
636.466	585.05
636.914	561.45
637.362	569.45
637.81	573.35
638.258	584.45
638.705	584.05
639.153	607.85
639.601	616.75
640.049	644.75
640.497	667.65
640.944	695.95
641.392	644.55
641.84	622.45
642.287	593.35
642.735	579.75
643.182	581.85
643.63	575.55
644.078	568.95
644.525	591.25
644.973	598.15
645.42	606.55
645.867	631.25
646.315	642.05
646.762	664.65
647.21	699.55
647.657	723.05
648.104	751.65
648.551	782.35
648.999	846.55
649.446	934.15
649.893	1018.85
650.34	1171.65
650.787	1426.95
651.234	1777.05
651.682	2311.35
652.129	3197.45
652.576	4591.75
653.023	6811.85
653.47	9305.15
653.917	11551.85
654.363	13228.05
654.81	14541.75
655.257	13873.65
655.704	9053.75
656.151	5342.85
656.598	3456.55
657.044	2448.85
657.491	1880.35
657.938	1512.65
658.385	1255.45
658.831	1090.55
659.278	965.75
659.724	869.85
660.171	793.95
660.618	732.95
661.064	694.45
661.511	667.75
661.957	656.35
662.404	639.65
662.85	653.15
663.296	621.85
663.743	568.15
664.189	548.65
664.635	539.05
665.082	529.75
665.528	528.75
665.974	522.85
666.42	502.65
666.867	502.95
667.313	501.45
667.759	488.55
668.205	485.95
668.651	484.05
669.097	491.35
669.543	508.55
669.989	474.55
670.435	448.35
670.881	450.85
671.327	447.75
671.773	475.25
672.219	496.55
672.665	548.75
673.11	584.95
673.556	622.45
674.002	668.85
674.448	651.35
674.893	553.55
675.339	479.25
675.785	444.55
676.23	417.95
676.676	393.55
677.122	381.85
677.567	376.65
678.013	374.05
678.458	353.45
678.904	363.45
679.349	346.85
679.794	353.25
680.24	357.35
680.685	355.15
681.131	348.65
681.576	350.05
682.021	349.45
682.466	351.55
682.912	345.85
683.357	349.35
683.802	376.15
684.247	409.55
684.692	456.65
685.137	499.15
685.583	538.95
686.028	558.15
686.473	521.85
686.918	442.15
687.363	421.95
687.807	397.75
688.252	363.95
688.697	367.45
689.142	329.85
689.587	332.25
690.032	333.35
690.477	339.65
690.921	354.85
691.366	383.75
691.811	399.35
692.255	430.75
692.7	463.95
693.145	511.35
693.589	717.25
694.034	1159.25
694.478	1536.95
694.923	1722.55
695.367	2240.45
695.812	1185.95
696.256	497.05
696.701	376.45
697.145	347.65
697.59	334.55
698.034	322.35
698.478	336.15
698.922	330.85
699.367	328.75
699.811	341.95
700.255	353.95
700.699	382.75
701.143	432.15
701.588	487.25
702.032	524.25
702.476	515.85
702.92	491.85
703.364	490.25
703.808	654.65
704.252	1053.85
704.696	1479.25
705.14	1655.65
705.584	2108.85
706.027	1046.85
706.471	524.65
706.915	401.55
707.359	356.35
707.803	323.15
708.246	308.75
708.69	313.35
709.134	317.15
709.577	315.65
710.021	317.55
710.465	302.55
710.908	309.05
711.352	299.95
711.795	312.45
712.239	352.55
712.682	382.05
713.126	416.65
713.569	468.85
714.012	366.65
714.456	321.85
714.899	297.35
715.342	273.55
715.786	259.75
716.229	252.25
716.672	250.25
717.115	251.55
717.558	252.35
718.002	255.35
718.445	252.35
718.888	291.95
719.331	301.85
719.774	306.85
720.217	301.65
720.66	276.15
721.103	267.65
721.546	249.45
721.989	247.15
722.432	234.05
722.874	244.45
723.317	231.75
723.76	238.65
724.203	260.15
724.645	319.95
725.088	453.45
725.531	565.15
725.974	638.15
726.416	537.45
726.859	304.45
727.301	245.35
727.744	235.55
728.187	223.35
728.629	237.85
729.071	242.75
729.514	259.95
729.956	273.05
730.399	284.25
730.841	284.75
731.283	269.15
731.726	271.95
732.168	258.05
732.61	266.85
733.053	283.95
733.495	310.65
733.937	347.85
734.379	402.05
734.821	439.45
735.263	555.75
735.705	851.75
736.148	1611.15
736.59	2597.25
737.032	2999.25
737.474	2437.45
737.916	800.35
738.357	427.95
738.799	327.65
739.241	291.65
739.683	283.55
740.125	287.35
740.567	301.55
741.008	310.85
741.45	311.85
741.892	317.45
742.334	344.05
742.775	361.45
743.217	330.85
743.658	279.15
744.1	251.55
744.542	258.75
744.983	303.35
745.425	333.75
745.866	337.45
746.307	287.65
746.749	280.15
747.19	318.45
747.632	463.35
748.073	905.35
748.514	1892.85
748.956	2846.65
749.397	3570.45
749.838	2947.55
750.279	2906.25
750.72	1474.75
751.162	546.55
751.603	331.05
752.044	258.45
752.485	216.05
752.926	208.75
753.367	200.65
753.808	191.35
754.249	192.35
754.69	188.45
755.131	183.75
755.572	184.35
756.013	181.55
756.453	184.35
756.894	190.15
757.335	194.85
757.776	195.75
758.216	190.95
758.657	200.95
759.098	208.05
759.538	218.95
759.979	261.85
760.42	382.55
760.86	731.25
761.301	1877.75
761.741	4495.25
762.182	6307.85
