Data from 20171114-ORNL-Ar_H_NY_Subt18_08-08-28-214.txt Node
Date: Tue Nov 14 08:08:28 EST 2017
User: Ender
Spectrometer: HR+D1039
Trigger mode: 0
Integration Time (sec): 2.730000E-2
Scans to average: 10
Electric dark correction enabled: true
Nonlinearity correction enabled: false
Boxcar width: 0
XAxis mode: Wavelengths
Number of Pixels in Spectrum: 2048
>>>>>Begin Spectral Data<<<<<
187.836	4.14
188.309	4.14
188.782	4.14
189.255	-1.66
189.728	-1.16
190.201	1.24
190.674	1.84
191.147	-0.76
191.619	-3.46
192.092	2.74
192.565	4.74
193.038	-2.66
193.511	0.74
193.984	-0.06
194.456	0.44
194.929	0.04
195.402	-3.96
195.874	-2.16
196.347	-3.86
196.82	-8.26
197.292	2.94
197.765	1.34
198.237	-4.16
198.71	1.14
199.182	4.14
199.655	3.34
200.127	7.04
200.6	-4.66
201.072	-0.56
201.544	-1.86
202.017	-1.36
202.489	4.54
202.961	-2.26
203.433	-0.66
203.906	-4.76
204.378	-1.76
204.85	-0.36
205.322	-3.66
205.794	-1.26
206.266	-10.46
206.739	-5.36
207.211	0.54
207.683	-1.56
208.155	-5.76
208.627	-4.26
209.099	-6.56
209.57	-8.96
210.042	-3.96
210.514	-0.26
210.986	-3.66
211.458	-10.56
211.93	-6.36
212.402	-2.26
212.873	-0.76
213.345	-6.66
213.817	-9.46
214.288	-6.46
214.76	-6.26
215.232	2.54
215.703	-1.36
216.175	-1.86
216.646	-4.66
217.118	-4.76
217.589	-4.66
218.061	4.44
218.532	-5.76
219.004	1.64
219.475	-0.36
219.946	-0.66
220.418	-3.86
220.889	-3.66
221.36	1.54
221.832	-4.26
222.303	-6.76
222.774	0.14
223.245	-5.26
223.717	-0.46
224.188	-1.26
224.659	-3.46
225.13	-4.66
225.601	-0.76
226.072	2.24
226.543	1.94
227.014	1.14
227.485	1.34
227.956	-10.76
228.427	-1.96
228.898	5.54
229.369	6.04
229.839	-3.56
230.31	-11.36
230.781	2.84
231.252	-6.06
231.722	-2.56
232.193	-6.66
232.664	-2.56
233.135	-7.56
233.605	-8.86
234.076	-7.76
234.546	-2.26
235.017	3.44
235.487	-7.26
235.958	-0.86
236.428	-4.06
236.899	-4.66
237.369	-2.46
237.84	-6.36
238.31	2.74
238.78	0.14
239.251	0.34
239.721	-0.26
240.191	-0.86
240.662	-0.16
241.132	1.94
241.602	-5.26
242.072	-2.86
242.542	6.14
243.013	0.44
243.483	-2.06
243.953	-0.76
244.423	6.54
244.893	-6.66
245.363	-3.86
245.833	-1.46
246.303	-2.16
246.773	10.04
247.243	-3.26
247.712	-0.46
248.182	2.54
248.652	0.74
249.122	-6.06
249.592	-2.96
250.061	7.64
250.531	12.64
251.001	0.44
251.471	4.84
251.94	6.34
252.41	2.14
252.879	0.34
253.349	6.34
253.818	8.64
254.288	-0.16
254.757	-1.56
255.227	9.14
255.696	2.04
256.166	3.44
256.635	-2.86
257.105	3.94
257.574	1.54
258.043	0.34
258.513	-6.96
258.982	6.34
259.451	1.04
259.92	3.04
260.389	2.14
260.859	12.84
261.328	2.04
261.797	7.74
262.266	-0.96
262.735	6.14
263.204	-0.76
263.673	-1.26
264.142	4.04
264.611	-0.86
265.08	1.34
265.549	-0.06
266.018	6.54
266.487	-0.56
266.955	-0.86
267.424	-1.16
267.893	2.14
268.362	4.34
268.83	2.34
269.299	4.94
269.768	1.34
270.236	5.54
270.705	4.54
271.174	6.64
271.642	7.74
272.111	7.34
272.579	6.64
273.048	13.24
273.516	9.04
273.985	10.24
274.453	10.64
274.922	12.24
275.39	6.74
275.858	0.94
276.327	3.34
276.795	13.14
277.263	9.74
277.731	15.84
278.2	17.74
278.668	17.74
279.136	15.74
279.604	11.64
280.072	5.94
280.54	6.34
281.008	6.54
281.477	13.54
281.945	7.54
282.413	15.64
282.881	17.04
283.348	9.44
283.816	11.64
284.284	14.24
284.752	24.34
285.22	10.84
285.688	12.84
286.156	7.74
286.623	27.84
287.091	15.34
287.559	16.24
288.026	16.94
288.494	14.14
288.962	13.64
289.429	6.64
289.897	22.14
290.364	13.54
290.832	14.54
291.3	15.04
291.767	20.24
292.234	18.84
292.702	11.64
293.169	18.14
293.637	16.94
294.104	14.24
294.571	7.54
295.039	14.14
295.506	13.94
295.973	24.94
296.44	12.64
296.908	15.64
297.375	14.04
297.842	20.34
298.309	18.64
298.776	12.34
299.243	23.94
299.71	11.24
300.177	15.04
300.644	21.04
301.111	19.24
301.578	26.04
302.045	14.04
302.512	27.94
302.979	24.64
303.446	25.74
303.913	22.94
304.379	17.44
304.846	28.54
305.313	31.44
305.78	18.34
306.246	16.74
306.713	22.44
307.18	29.54
307.646	21.94
308.113	23.64
308.579	27.34
309.046	21.64
309.512	25.04
309.979	18.74
310.445	27.04
310.912	32.44
311.378	35.64
311.845	30.44
312.311	33.14
312.777	36.74
313.244	28.34
313.71	40.04
314.176	28.64
314.642	27.64
315.109	30.34
315.575	28.24
316.041	37.44
316.507	27.24
316.973	33.74
317.439	37.34
317.905	38.04
318.371	34.34
318.837	30.04
319.303	34.14
319.769	31.54
320.235	39.64
320.701	36.74
321.167	36.74
321.633	28.44
322.099	36.24
322.564	39.84
323.03	35.14
323.496	37.84
323.962	41.64
324.427	35.94
324.893	42.84
325.359	41.54
325.824	38.54
326.29	31.24
326.755	40.04
327.221	41.84
327.686	39.24
328.152	45.14
328.617	49.54
329.083	50.24
329.548	53.34
330.014	46.84
330.479	42.64
330.944	48.74
331.41	45.44
331.875	48.44
332.34	43.94
332.805	41.74
333.271	42.94
333.736	43.84
334.201	44.64
334.666	55.84
335.131	52.84
335.596	51.54
336.061	54.24
336.526	37.64
336.991	44.94
337.456	55.64
337.921	46.54
338.386	46.54
338.851	45.94
339.316	52.04
339.781	46.54
340.246	54.84
340.711	47.34
341.175	53.94
341.64	44.74
342.105	54.84
342.569	51.34
343.034	63.24
343.499	54.74
343.963	55.94
344.428	72.44
344.893	72.04
345.357	65.14
345.822	64.14
346.286	68.64
346.751	74.44
347.215	73.64
347.679	74.84
348.144	102.34
348.608	86.04
349.073	75.64
349.537	83.94
350.001	83.34
350.465	90.24
350.93	84.94
351.394	90.24
351.858	75.84
352.322	88.14
352.786	92.54
353.25	102.84
353.715	114.14
354.179	107.24
354.643	130.44
355.107	125.24
355.571	107.44
356.035	101.44
356.498	122.44
356.962	127.14
357.426	128.24
357.89	118.34
358.354	95.34
358.818	86.64
359.281	83.44
359.745	82.04
360.209	84.14
360.673	77.04
361.136	78.74
361.6	89.84
362.064	79.04
362.527	86.44
362.991	100.64
363.454	80.24
363.918	79.94
364.381	79.34
364.845	90.34
365.308	89.04
365.772	87.44
366.235	92.04
366.698	87.34
367.162	85.64
367.625	87.44
368.088	99.64
368.552	95.54
369.015	95.64
369.478	102.94
369.941	108.04
370.404	94.24
370.867	100.14
371.331	104.44
371.794	113.84
372.257	109.34
372.72	111.64
373.183	103.44
373.646	102.24
374.109	106.34
374.572	106.84
375.035	98.24
375.497	115.94
375.96	108.74
376.423	110.44
376.886	120.54
377.349	115.14
377.811	105.34
378.274	109.34
378.737	109.44
379.199	115.64
379.662	120.34
380.125	117.24
380.587	116.94
381.05	109.14
381.512	120.34
381.975	126.04
382.437	128.64
382.9	125.84
383.362	128.14
383.825	139.34
384.287	135.54
384.75	125.94
385.212	131.54
385.674	141.74
386.136	138.94
386.599	128.34
387.061	127.34
387.523	125.14
387.985	130.14
388.447	142.04
388.91	137.94
389.372	138.04
389.834	138.64
390.296	135.14
390.758	140.84
391.22	145.24
391.682	163.94
392.144	165.64
392.606	157.34
393.068	146.34
393.529	157.04
393.991	151.34
394.453	138.84
394.915	144.24
395.377	148.44
395.838	147.24
396.3	148.04
396.762	142.34
397.224	144.94
397.685	142.64
398.147	145.24
398.608	143.54
399.07	140.74
399.531	149.14
399.993	153.04
400.454	165.94
400.916	158.84
401.377	161.64
401.839	158.64
402.3	162.14
402.762	180.34
403.223	196.74
403.684	185.54
404.145	176.64
404.607	173.14
405.068	174.94
405.529	181.14
405.99	196.14
406.451	192.64
406.913	191.34
407.374	184.44
407.835	180.54
408.296	176.74
408.757	193.04
409.218	195.64
409.679	194.54
410.14	184.34
410.601	193.44
411.062	193.34
411.522	192.24
411.983	190.94
412.444	192.74
412.905	198.44
413.366	201.64
413.826	214.84
414.287	233.84
414.748	290.54
415.208	271.24
415.669	242.84
416.13	225.64
416.59	223.34
417.051	237.94
417.511	239.64
417.972	262.14
418.432	272.54
418.893	318.44
419.353	280.24
419.814	225.84
420.274	203.54
420.734	199.64
421.195	213.24
421.655	209.74
422.115	213.54
422.576	208.44
423.036	226.14
423.496	226.14
423.956	240.64
424.416	254.84
424.876	291.24
425.336	284.74
425.797	286.04
426.257	281.84
426.717	266.34
427.177	256.74
427.637	241.24
428.097	251.64
428.556	263.74
429.016	294.34
429.476	281.74
429.936	288.04
430.396	298.94
430.856	310.94
431.315	334.44
431.775	369.34
432.235	405.74
432.694	383.34
433.154	389.54
433.614	419.84
434.073	356.14
434.533	303.84
434.993	290.64
435.452	302.34
435.912	314.64
436.371	308.04
436.83	307.74
437.29	287.84
437.749	271.24
438.209	264.74
438.668	302.04
439.127	305.14
439.587	285.24
440.046	266.34
440.505	288.64
440.964	301.24
441.424	351.94
441.883	330.34
442.342	287.94
442.801	247.74
443.26	242.04
443.719	250.14
444.178	244.64
444.637	235.74
445.096	244.84
445.555	248.24
446.014	247.74
446.473	254.04
446.932	258.34
447.391	254.64
447.849	255.24
448.308	249.14
448.767	249.24
449.226	264.54
449.685	260.24
450.143	278.34
450.602	262.24
451.061	249.54
451.519	263.04
451.978	260.24
452.436	263.14
452.895	264.14
453.353	277.14
453.812	263.04
454.27	271.54
454.729	266.44
455.187	270.34
455.646	270.54
456.104	274.34
456.562	286.04
457.021	300.94
457.479	285.84
457.937	299.34
458.395	293.64
458.854	273.84
459.312	285.84
459.77	309.34
460.228	282.44
460.686	269.94
461.144	278.34
461.602	272.04
462.06	269.04
462.518	279.44
462.976	286.14
463.434	285.74
463.892	286.84
464.35	300.04
464.808	320.64
465.266	297.84
465.724	298.34
466.181	300.24
466.639	299.44
467.097	322.44
467.555	328.34
468.012	340.24
468.47	345.04
468.928	361.54
469.385	376.74
469.843	373.64
470.3	371.74
470.758	393.64
471.215	416.94
471.673	439.84
472.13	443.24
472.588	460.64
473.045	409.34
473.503	416.14
473.96	435.14
474.417	438.84
474.875	461.84
475.332	504.54
475.789	504.34
476.246	497.54
476.704	528.54
477.161	542.94
477.618	569.54
478.075	600.94
478.532	661.14
478.989	733.14
479.446	852.64
479.903	808.54
480.36	843.64
480.817	888.74
481.274	977.84
481.731	1073.94
482.188	1159.04
482.645	1290.84
483.102	1380.94
483.558	1502.04
484.015	1547.84
484.472	1511.74
484.929	1467.94
485.385	1425.84
485.842	1397.24
486.299	1357.94
486.755	1306.44
487.212	1110.24
487.668	958.14
488.125	885.94
488.582	815.14
489.038	797.04
489.494	752.24
489.951	718.74
490.407	715.64
490.864	691.84
491.32	687.14
491.776	692.34
492.233	703.04
492.689	661.64
493.145	650.64
493.602	642.24
494.058	653.84
494.514	661.44
494.97	691.54
495.426	706.24
495.882	668.94
496.338	662.34
496.794	673.74
497.251	663.14
497.707	682.14
498.163	685.54
498.618	686.14
499.074	688.14
499.53	722.04
499.986	717.54
500.442	694.94
500.898	671.04
501.354	660.44
501.809	664.94
502.265	675.14
502.721	683.24
503.177	693.24
503.632	691.54
504.088	695.54
504.543	722.14
504.999	750.14
505.455	699.84
505.91	682.74
506.366	693.64
506.821	673.74
507.277	676.64
507.732	683.64
508.187	684.64
508.643	691.84
509.098	689.24
509.553	711.14
510.009	717.84
510.464	734.94
510.919	735.24
511.375	759.44
511.83	764.64
512.285	784.64
512.74	822.14
513.195	839.04
513.65	827.74
514.105	822.84
514.56	831.24
515.015	846.34
515.47	860.24
515.925	832.24
516.38	847.44
516.835	843.84
517.29	831.34
517.745	832.74
518.2	819.14
518.655	803.04
519.109	804.34
519.564	792.74
520.019	788.94
520.474	781.44
520.928	775.24
521.383	767.94
521.838	757.84
522.292	758.34
522.747	756.54
523.201	758.54
523.656	754.44
524.11	754.54
524.565	760.74
525.019	747.04
525.474	751.04
525.928	758.44
526.382	756.44
526.837	756.44
527.291	755.94
527.745	745.84
528.2	757.84
528.654	751.24
529.108	747.04
529.562	743.84
530.016	738.04
530.47	740.24
530.925	743.14
531.379	742.94
531.833	748.24
532.287	753.84
532.741	750.84
533.195	759.64
533.649	764.04
534.103	768.44
534.556	744.74
535.01	765.84
535.464	758.64
535.918	770.54
536.372	769.64
536.826	766.84
537.279	756.64
537.733	763.24
538.187	766.04
538.64	765.24
539.094	771.44
539.548	780.74
540.001	780.14
540.455	773.34
540.908	783.84
541.362	793.04
541.815	802.24
542.269	812.44
542.722	813.04
543.175	825.94
543.629	837.34
544.082	852.74
544.536	843.84
544.989	850.34
545.442	862.84
545.895	839.64
546.349	861.54
546.802	852.64
547.255	859.54
547.708	856.54
548.161	880.94
548.614	888.24
549.067	897.94
549.52	879.64
549.973	885.74
550.426	873.74
550.879	860.74
551.332	863.84
551.785	873.24
552.238	872.64
552.691	880.74
553.144	906.64
553.596	925.04
554.049	935.34
554.502	968.64
554.955	985.44
555.407	970.04
555.86	962.24
556.313	966.04
556.765	948.14
557.218	957.34
557.67	945.24
558.123	945.94
558.576	934.64
559.028	949.84
559.48	939.34
559.933	937.14
560.385	912.44
560.838	877.94
561.29	851.34
561.742	849.84
562.195	826.14
562.647	835.44
563.099	831.04
563.551	830.14
564.004	843.54
564.456	840.24
564.908	817.44
565.36	801.64
565.812	783.04
566.264	769.64
566.716	767.64
567.168	757.74
567.62	763.14
568.072	754.94
568.524	753.74
568.976	736.94
569.428	731.74
569.88	731.14
570.332	735.24
570.784	731.24
571.235	730.64
571.687	755.64
572.139	752.74
572.59	765.94
573.042	759.64
573.494	765.94
573.945	758.04
574.397	741.74
574.849	749.54
575.3	749.94
575.752	742.94
576.203	722.74
576.655	733.84
577.106	732.84
577.557	723.14
578.009	720.04
578.46	716.94
578.912	726.04
579.363	714.04
579.814	725.54
580.265	720.24
580.717	724.24
581.168	722.64
581.619	734.54
582.07	733.34
582.521	727.44
582.972	727.34
583.423	733.64
583.875	735.14
584.326	737.94
584.777	757.94
585.227	766.84
585.678	795.44
586.129	812.34
586.58	843.84
587.031	860.84
587.482	893.64
587.933	949.64
588.384	916.24
588.834	851.14
589.285	834.04
589.736	826.44
590.186	831.44
590.637	814.54
591.088	795.24
591.538	792.04
591.989	778.04
592.439	785.44
592.89	777.14
593.34	767.34
593.791	756.44
594.241	745.34
594.692	759.04
595.142	744.94
595.593	750.24
596.043	749.04
596.493	757.14
596.943	757.84
597.394	774.84
597.844	783.24
598.294	793.84
598.744	819.94
599.195	846.44
599.645	879.94
600.095	928.64
600.545	991.74
600.995	1050.24
601.445	1098.44
601.895	1162.74
602.345	1217.24
602.795	1184.54
603.245	1129.74
603.695	1088.64
604.145	1031.94
604.594	982.74
605.044	927.54
605.494	860.64
605.944	829.04
606.393	798.94
606.843	788.84
607.293	785.84
607.743	789.24
608.192	804.94
608.642	804.74
609.091	810.54
609.541	817.54
609.99	823.44
610.44	822.14
610.889	777.04
611.339	753.84
611.788	736.84
612.238	730.54
612.687	751.94
613.136	748.94
613.586	757.14
614.035	748.04
614.484	764.24
614.933	766.54
615.383	764.64
615.832	754.94
616.281	740.84
616.73	723.04
617.179	700.34
617.628	694.64
618.077	686.24
618.526	665.34
618.975	660.54
619.424	652.34
619.873	651.34
620.322	666.34
620.771	649.14
621.22	653.84
621.669	640.44
622.118	631.64
622.567	619.54
623.015	615.34
623.464	619.94
623.913	601.44
624.361	595.84
624.81	588.64
625.259	592.94
625.707	598.14
626.156	600.84
626.604	616.64
627.053	604.84
627.501	603.34
627.95	617.84
628.398	617.74
628.847	614.64
629.295	609.04
629.744	621.04
630.192	618.94
630.64	605.14
631.089	593.64
631.537	582.94
631.985	574.34
632.433	582.94
632.881	564.94
633.33	571.04
633.778	565.54
634.226	559.94
634.674	578.24
635.122	584.04
635.57	590.74
636.018	600.54
636.466	602.24
636.914	597.14
637.362	611.74
637.81	619.34
638.258	626.94
638.705	627.84
639.153	667.14
639.601	666.54
640.049	696.54
640.497	723.14
640.944	746.64
641.392	697.44
641.84	663.54
642.287	622.14
642.735	604.74
643.182	617.04
643.63	602.74
644.078	600.44
644.525	621.44
644.973	628.14
645.42	631.84
645.867	665.44
646.315	682.54
646.762	700.64
647.21	728.74
647.657	745.44
648.104	792.74
648.551	802.74
648.999	872.44
649.446	951.14
649.893	1033.84
650.34	1186.14
650.787	1409.84
651.234	1726.64
651.682	2236.04
652.129	3027.64
652.576	4307.84
653.023	6260.74
653.47	8419.34
653.917	10429.34
654.363	11921.84
654.81	13072.94
655.257	12361.54
655.704	8233.14
656.151	4973.04
656.598	3283.64
657.044	2368.44
657.491	1836.84
657.938	1481.54
658.385	1248.24
658.831	1081.84
659.278	995.34
659.724	873.84
660.171	817.74
660.618	740.44
661.064	721.84
661.511	697.14
661.957	705.74
662.404	683.54
662.85	684.34
663.296	664.44
663.743	586.54
664.189	566.94
664.635	561.64
665.082	570.44
665.528	571.54
665.974	551.04
666.42	546.04
666.867	543.94
667.313	519.94
667.759	493.54
668.205	495.04
668.651	486.04
669.097	479.34
669.543	481.94
669.989	482.14
670.435	481.14
670.881	479.54
671.327	488.34
671.773	506.94
672.219	532.64
672.665	597.54
673.11	630.24
673.556	678.44
674.002	718.54
674.448	712.54
674.893	597.74
675.339	518.04
675.785	478.34
676.23	456.34
676.676	421.44
677.122	420.94
677.567	403.34
678.013	403.64
678.458	394.94
678.904	400.24
679.349	386.34
679.794	387.64
680.24	382.54
680.685	381.84
681.131	387.44
681.576	378.14
682.021	383.14
682.466	372.44
682.912	371.84
683.357	382.14
683.802	413.94
684.247	448.04
684.692	500.74
685.137	542.74
685.583	586.04
686.028	606.54
686.473	557.44
686.918	482.74
687.363	460.94
687.807	424.94
688.252	399.74
688.697	389.24
689.142	359.84
689.587	357.84
690.032	357.24
690.477	366.64
690.921	380.04
691.366	418.74
691.811	442.24
692.255	474.14
692.7	498.34
693.145	561.24
693.589	773.14
694.034	1268.34
694.478	1695.94
694.923	1871.84
695.367	2422.64
695.812	1301.24
696.256	542.74
696.701	412.34
697.145	386.34
697.59	355.64
698.034	349.04
698.478	347.34
698.922	347.64
699.367	353.94
699.811	366.34
700.255	390.04
700.699	413.84
701.143	458.24
701.588	514.04
702.032	557.44
702.476	551.94
702.92	533.14
703.364	542.54
703.808	721.34
704.252	1157.54
704.696	1600.14
705.14	1803.34
705.584	2289.14
706.027	1154.54
706.471	573.54
706.915	436.44
707.359	389.54
707.803	354.14
708.246	342.64
708.69	338.94
709.134	344.04
709.577	342.64
710.021	350.94
710.465	335.24
710.908	325.14
711.352	331.34
711.795	345.74
712.239	388.94
712.682	412.24
713.126	445.54
713.569	482.94
714.012	387.14
714.456	331.14
714.899	317.64
715.342	301.94
715.786	290.14
716.229	289.14
716.672	281.54
717.115	269.94
717.558	270.94
718.002	276.54
718.445	283.94
718.888	311.54
719.331	307.14
719.774	331.64
720.217	332.64
720.66	308.04
721.103	296.64
721.546	279.94
721.989	268.84
722.432	260.24
722.874	260.84
723.317	250.84
723.76	258.34
724.203	285.94
724.645	356.34
725.088	490.54
725.531	613.24
725.974	696.74
726.416	585.24
726.859	337.54
727.301	273.44
727.744	255.04
728.187	256.24
728.629	263.74
729.071	273.54
729.514	283.14
729.956	296.84
730.399	307.54
730.841	317.74
731.283	306.04
731.726	292.24
732.168	296.14
732.61	294.04
733.053	316.64
733.495	346.94
733.937	389.64
734.379	436.94
734.821	490.84
735.263	596.14
735.705	936.44
736.148	1777.54
736.59	2841.94
737.032	3267.14
737.474	2668.44
737.916	893.54
738.357	469.44
738.799	361.04
739.241	332.34
739.683	315.64
740.125	324.74
740.567	329.54
741.008	348.34
741.45	350.84
741.892	351.24
742.334	387.54
742.775	394.34
743.217	375.84
743.658	302.94
744.1	287.94
744.542	293.74
744.983	351.54
745.425	381.14
745.866	376.94
746.307	307.54
746.749	311.74
747.19	357.34
747.632	506.24
748.073	1004.74
748.514	2089.64
748.956	3116.94
749.397	3908.34
749.838	3244.04
750.279	3167.64
750.72	1628.04
751.162	611.64
751.603	356.34
752.044	281.64
752.485	232.94
752.926	234.44
753.367	229.84
753.808	210.44
754.249	205.64
754.69	202.44
755.131	202.34
755.572	197.04
756.013	204.64
756.453	205.94
756.894	201.04
757.335	201.34
757.776	211.24
758.216	213.34
758.657	217.64
759.098	221.14
759.538	252.94
759.979	299.74
760.42	420.24
760.86	801.34
761.301	2086.14
761.741	4905.94
762.182	6841.44
762.622	4869.74
