Data from 20171114-ORNL-Ar_H_NY_Subt18_08-07-17-513.txt Node
Date: Tue Nov 14 08:07:17 EST 2017
User: Ender
Spectrometer: HR+D1039
Trigger mode: 0
Integration Time (sec): 2.730000E-2
Scans to average: 10
Electric dark correction enabled: true
Nonlinearity correction enabled: false
Boxcar width: 0
XAxis mode: Wavelengths
Number of Pixels in Spectrum: 2048
>>>>>Begin Spectral Data<<<<<
187.836	-0.16
188.309	-0.16
188.782	-0.16
189.255	-1.46
189.728	-5.36
190.201	6.64
190.674	1.04
191.147	-0.36
191.619	-10.46
192.092	-2.06
192.565	7.44
193.038	5.44
193.511	3.14
193.984	1.74
194.456	0.04
194.929	0.54
195.402	-4.56
195.874	-1.56
196.347	0.54
196.82	-3.86
197.292	6.04
197.765	-2.96
198.237	-5.06
198.71	1.54
199.182	0.04
199.655	5.64
200.127	9.04
200.6	-3.26
201.072	0.14
201.544	-7.26
202.017	-1.06
202.489	8.64
202.961	-0.16
203.433	0.64
203.906	-3.46
204.378	0.74
204.85	-2.76
205.322	-8.06
205.794	-3.46
206.266	-2.46
206.739	-10.66
207.211	4.14
207.683	-8.96
208.155	-8.56
208.627	-7.26
209.099	-7.66
209.57	-6.06
210.042	-2.06
210.514	-7.06
210.986	-0.56
211.458	-3.66
211.93	-2.96
212.402	1.54
212.873	-5.16
213.345	-14.46
213.817	-13.16
214.288	-6.26
214.76	-6.86
215.232	-4.66
215.703	-2.96
216.175	-4.96
216.646	-5.76
217.118	-4.46
217.589	-6.56
218.061	-4.66
218.532	-3.46
219.004	-1.46
219.475	-3.56
219.946	-1.86
220.418	-5.96
220.889	0.74
221.36	0.64
221.832	-2.06
222.303	-6.16
222.774	-3.86
223.245	-15.86
223.717	-5.86
224.188	-7.56
224.659	-8.36
225.13	-5.26
225.601	-3.86
226.072	-1.36
226.543	-2.96
227.014	0.54
227.485	-4.16
227.956	-6.36
228.427	-2.16
228.898	-3.26
229.369	-2.46
229.839	-1.96
230.31	-10.56
230.781	6.64
231.252	-6.16
231.722	-1.96
232.193	0.74
232.664	1.34
233.135	-0.46
233.605	-1.16
234.076	-1.46
234.546	-4.76
235.017	2.34
235.487	-5.06
235.958	-3.26
236.428	-13.86
236.899	0.84
237.369	-0.26
237.84	-8.36
238.31	1.64
238.78	-2.56
239.251	-6.36
239.721	-4.86
240.191	-1.16
240.662	-4.06
241.132	-5.86
241.602	-6.16
242.072	-6.76
242.542	0.94
243.013	-3.16
243.483	0.54
243.953	0.14
244.423	2.94
244.893	-4.06
245.363	0.64
245.833	-4.36
246.303	-5.96
246.773	5.04
247.243	-1.26
247.712	-1.46
248.182	1.44
248.652	-0.56
249.122	-8.26
249.592	-1.86
250.061	0.54
250.531	3.94
251.001	-1.26
251.471	5.04
251.94	8.74
252.41	-1.86
252.879	-1.76
253.349	5.64
253.818	2.84
254.288	4.04
254.757	-1.26
255.227	0.14
255.696	-2.16
256.166	-1.66
256.635	2.64
257.105	5.64
257.574	-4.36
258.043	1.84
258.513	-6.26
258.982	-0.06
259.451	-3.36
259.92	0.14
260.389	-2.66
260.859	9.84
261.328	2.44
261.797	13.34
262.266	3.84
262.735	3.34
263.204	-0.66
263.673	-3.46
264.142	5.24
264.611	-6.76
265.08	-3.36
265.549	-1.56
266.018	4.34
266.487	-4.26
266.955	-8.46
267.424	-6.16
267.893	5.54
268.362	-0.86
268.83	-0.56
269.299	6.24
269.768	-2.26
270.236	3.54
270.705	-2.76
271.174	-1.46
271.642	4.24
272.111	3.14
272.579	7.14
273.048	4.14
273.516	3.94
273.985	6.94
274.453	-2.16
274.922	8.44
275.39	6.74
275.858	1.14
276.327	5.94
276.795	9.44
277.263	3.34
277.731	14.44
278.2	5.54
278.668	1.24
279.136	8.34
279.604	-1.86
280.072	5.94
280.54	7.74
281.008	4.04
281.477	12.24
281.945	10.64
282.413	8.24
282.881	14.14
283.348	3.64
283.816	11.84
284.284	12.84
284.752	15.94
285.22	9.44
285.688	6.44
286.156	8.84
286.623	14.44
287.091	5.94
287.559	15.44
288.026	13.34
288.494	13.44
288.962	2.34
289.429	5.54
289.897	18.24
290.364	7.44
290.832	11.94
291.3	5.74
291.767	13.74
292.234	5.34
292.702	11.74
293.169	9.64
293.637	15.74
294.104	19.84
294.571	6.74
295.039	9.34
295.506	6.04
295.973	16.54
296.44	7.94
296.908	13.34
297.375	6.04
297.842	8.04
298.309	7.94
298.776	6.94
299.243	14.24
299.71	8.54
300.177	18.84
300.644	6.64
301.111	13.94
301.578	15.04
302.045	8.64
302.512	17.14
302.979	26.14
303.446	11.04
303.913	12.74
304.379	18.14
304.846	22.84
305.313	16.54
305.78	14.54
306.246	19.74
306.713	14.74
307.18	15.44
307.646	21.94
308.113	20.84
308.579	19.94
309.046	17.34
309.512	17.74
309.979	11.24
310.445	25.54
310.912	25.34
311.378	21.64
311.845	21.14
312.311	26.84
312.777	27.64
313.244	17.84
313.71	28.54
314.176	23.34
314.642	21.94
315.109	24.14
315.575	27.94
316.041	30.84
316.507	18.24
316.973	28.84
317.439	21.84
317.905	27.64
318.371	26.14
318.837	23.04
319.303	20.04
319.769	26.84
320.235	27.44
320.701	23.84
321.167	29.14
321.633	26.54
322.099	24.64
322.564	27.54
323.03	25.44
323.496	24.64
323.962	28.74
324.427	26.54
324.893	32.54
325.359	31.54
325.824	28.64
326.29	31.14
326.755	30.54
327.221	33.44
327.686	28.54
328.152	43.54
328.617	28.74
329.083	35.44
329.548	44.74
330.014	37.14
330.479	29.84
330.944	39.34
331.41	40.74
331.875	31.34
332.34	33.64
332.805	37.74
333.271	40.04
333.736	37.54
334.201	41.84
334.666	41.94
335.131	43.74
335.596	48.74
336.061	40.24
336.526	32.14
336.991	40.44
337.456	47.74
337.921	45.64
338.386	39.34
338.851	46.04
339.316	34.64
339.781	42.64
340.246	42.14
340.711	46.04
341.175	41.24
341.64	38.14
342.105	43.14
342.569	43.74
343.034	50.14
343.499	48.54
343.963	48.54
344.428	56.24
344.893	48.14
345.357	49.54
345.822	51.84
346.286	52.34
346.751	59.14
347.215	53.94
347.679	62.94
348.144	77.44
348.608	66.34
349.073	62.64
349.537	61.34
350.001	67.54
350.465	75.44
350.93	64.24
351.394	70.54
351.858	56.64
352.322	76.94
352.786	66.74
353.25	82.04
353.715	84.04
354.179	80.54
354.643	98.74
355.107	99.64
355.571	85.04
356.035	84.14
356.498	93.94
356.962	99.54
357.426	103.24
357.89	88.34
358.354	79.84
358.818	73.84
359.281	70.74
359.745	64.74
360.209	64.94
360.673	63.64
361.136	74.54
361.6	74.34
362.064	72.74
362.527	68.64
362.991	83.64
363.454	68.44
363.918	60.64
364.381	69.54
364.845	70.04
365.308	80.04
365.772	80.14
366.235	78.64
366.698	71.14
367.162	74.24
367.625	76.14
368.088	80.04
368.552	79.64
369.015	74.24
369.478	79.14
369.941	90.24
370.404	84.84
370.867	88.44
371.331	89.14
371.794	99.04
372.257	90.34
372.72	87.94
373.183	87.44
373.646	89.14
374.109	90.84
374.572	91.44
375.035	95.34
375.497	97.44
375.96	102.54
376.423	95.24
376.886	102.14
377.349	100.64
377.811	93.74
378.274	92.74
378.737	101.44
379.199	102.94
379.662	96.44
380.125	96.34
380.587	97.44
381.05	100.24
381.512	106.14
381.975	118.44
382.437	113.04
382.9	112.44
383.362	114.24
383.825	117.74
384.287	114.34
384.75	109.34
385.212	114.44
385.674	125.94
386.136	118.24
386.599	113.34
387.061	112.44
387.523	111.44
387.985	112.04
388.447	120.84
388.91	115.44
389.372	122.64
389.834	120.74
390.296	112.94
390.758	123.44
391.22	121.44
391.682	135.84
392.144	146.34
392.606	132.04
393.068	131.44
393.529	146.04
393.991	130.24
394.453	125.24
394.915	132.54
395.377	129.74
395.838	129.34
396.3	130.34
396.762	131.04
397.224	124.64
397.685	118.54
398.147	121.94
398.608	126.74
399.07	123.84
399.531	132.24
399.993	139.34
400.454	148.94
400.916	142.64
401.377	134.74
401.839	144.84
402.3	147.04
402.762	162.04
403.223	169.24
403.684	164.44
404.145	162.04
404.607	153.64
405.068	160.74
405.529	159.44
405.99	174.94
406.451	165.74
406.913	166.94
407.374	160.44
407.835	156.94
408.296	163.74
408.757	166.04
409.218	177.24
409.679	175.34
410.14	168.54
410.601	170.14
411.062	171.34
411.522	178.54
411.983	173.64
412.444	177.24
412.905	185.04
413.366	182.34
413.826	190.94
414.287	214.14
414.748	265.64
415.208	248.74
415.669	217.54
416.13	198.04
416.59	200.54
417.051	211.04
417.511	222.34
417.972	240.94
418.432	256.04
418.893	288.34
419.353	255.14
419.814	207.34
420.274	184.64
420.734	181.64
421.195	200.94
421.655	193.74
422.115	194.24
422.576	197.64
423.036	202.64
423.496	206.14
423.956	213.44
424.416	226.34
424.876	264.14
425.336	255.54
425.797	259.54
426.257	250.04
426.717	238.14
427.177	236.84
427.637	224.64
428.097	232.84
428.556	240.24
429.016	263.54
429.476	252.44
429.936	266.84
430.396	271.54
430.856	282.64
431.315	302.84
431.775	340.34
432.235	364.94
432.694	324.14
433.154	350.54
433.614	374.44
434.073	326.94
434.533	272.74
434.993	267.74
435.452	280.24
435.912	286.84
436.371	278.84
436.83	268.64
437.29	261.44
437.749	248.44
438.209	247.44
438.668	267.94
439.127	286.94
439.587	262.94
440.046	251.34
440.505	259.44
440.964	274.44
441.424	319.54
441.883	312.44
442.342	260.24
442.801	233.44
443.26	224.84
443.719	225.54
444.178	223.54
444.637	216.94
445.096	223.14
445.555	232.64
446.014	230.14
446.473	236.84
446.932	244.54
447.391	233.94
447.849	238.24
448.308	223.84
448.767	226.94
449.226	239.64
449.685	249.74
450.143	255.94
450.602	246.74
451.061	232.24
451.519	242.54
451.978	241.94
452.436	236.34
452.895	250.64
453.353	259.34
453.812	248.14
454.27	244.54
454.729	246.34
455.187	250.74
455.646	255.74
456.104	255.74
456.562	268.04
457.021	274.94
457.479	266.24
457.937	279.54
458.395	272.84
458.854	263.44
459.312	264.84
459.77	279.94
460.228	260.94
460.686	256.64
461.144	258.74
461.602	252.74
462.06	258.84
462.518	270.94
462.976	266.94
463.434	271.54
463.892	272.94
464.35	286.14
464.808	301.34
465.266	274.04
465.724	277.44
466.181	287.54
466.639	286.54
467.097	307.74
467.555	309.84
468.012	319.74
468.47	320.44
468.928	333.54
469.385	352.94
469.843	360.44
470.3	357.54
470.758	374.94
471.215	395.14
471.673	420.44
472.13	419.94
472.588	425.44
473.045	385.34
473.503	388.94
473.96	418.64
474.417	416.54
474.875	447.84
475.332	485.64
475.789	477.74
476.246	479.74
476.704	505.34
477.161	517.84
477.618	534.74
478.075	565.14
478.532	625.24
478.989	689.14
479.446	799.64
479.903	764.14
480.36	801.54
480.817	846.84
481.274	933.34
481.731	1029.54
482.188	1100.64
482.645	1228.44
483.102	1312.44
483.558	1431.24
484.015	1478.94
484.472	1442.54
484.929	1409.34
485.385	1378.84
485.842	1330.74
486.299	1286.84
486.755	1244.24
487.212	1046.44
487.668	902.64
488.125	838.94
488.582	777.04
489.038	753.24
489.494	724.44
489.951	697.74
490.407	675.34
490.864	667.24
491.32	649.04
491.776	659.64
492.233	665.74
492.689	635.64
493.145	622.84
493.602	616.94
494.058	638.94
494.514	632.34
494.97	657.84
495.426	663.24
495.882	649.74
496.338	633.84
496.794	635.04
497.251	636.74
497.707	659.04
498.163	652.64
498.618	660.64
499.074	663.94
499.53	689.54
499.986	690.24
500.442	668.54
500.898	635.84
501.354	633.14
501.809	644.54
502.265	646.64
502.721	654.14
503.177	659.54
503.632	672.34
504.088	675.34
504.543	685.84
504.999	716.74
505.455	677.34
505.91	661.44
506.366	664.54
506.821	656.04
507.277	671.54
507.732	657.84
508.187	655.44
508.643	661.74
509.098	669.64
509.553	689.14
510.009	693.94
510.464	706.04
510.919	715.34
511.375	721.84
511.83	732.34
512.285	755.24
512.74	786.54
513.195	819.44
513.65	801.14
514.105	802.14
514.56	790.94
515.015	818.04
515.47	830.54
515.925	809.94
516.38	812.34
516.835	824.94
517.29	822.14
517.745	815.04
518.2	795.94
518.655	783.04
519.109	777.74
519.564	763.44
520.019	756.54
520.474	759.94
520.928	760.54
521.383	749.24
521.838	744.74
522.292	737.74
522.747	746.54
523.201	738.94
523.656	726.94
524.11	728.94
524.565	723.64
525.019	721.94
525.474	719.24
525.928	725.54
526.382	724.94
526.837	725.34
527.291	743.44
527.745	734.24
528.2	733.34
528.654	720.24
529.108	716.74
529.562	728.94
530.016	716.44
530.47	714.74
530.925	714.34
531.379	715.74
531.833	727.84
532.287	726.44
532.741	726.94
533.195	734.44
533.649	743.14
534.103	739.64
534.556	729.94
535.01	734.64
535.464	737.04
535.918	740.64
536.372	750.24
536.826	740.24
537.279	745.64
537.733	746.94
538.187	744.34
538.64	740.84
539.094	757.24
539.548	757.04
540.001	748.54
540.455	753.74
540.908	762.84
541.362	768.34
541.815	773.24
542.269	795.04
542.722	785.74
543.175	802.14
543.629	805.84
544.082	830.24
544.536	834.24
544.989	818.04
545.442	828.34
545.895	827.54
546.349	836.54
546.802	830.94
547.255	834.24
547.708	834.64
548.161	853.04
548.614	862.94
549.067	869.54
549.52	860.84
549.973	859.94
550.426	840.74
550.879	843.14
551.332	838.94
551.785	841.34
552.238	838.84
552.691	861.34
553.144	866.44
553.596	897.64
554.049	898.14
554.502	931.94
554.955	955.84
555.407	941.84
555.86	937.04
556.313	933.44
556.765	917.84
557.218	922.94
557.67	919.94
558.123	919.94
558.576	904.94
559.028	916.24
559.48	924.64
559.933	920.14
560.385	877.34
560.838	848.74
561.29	830.04
561.742	825.04
562.195	800.24
562.647	804.54
563.099	817.14
563.551	806.44
564.004	821.14
564.456	804.24
564.908	792.54
565.36	779.64
565.812	764.84
566.264	755.04
566.716	753.24
567.168	728.74
567.62	740.34
568.072	735.84
568.524	720.04
568.976	727.74
569.428	705.54
569.88	713.54
570.332	719.24
570.784	724.64
571.235	713.34
571.687	721.04
572.139	738.04
572.59	741.84
573.042	745.54
573.494	739.04
573.945	737.74
574.397	717.54
574.849	710.64
575.3	727.34
575.752	717.44
576.203	716.84
576.655	714.64
577.106	695.74
577.557	694.34
578.009	700.14
578.46	696.14
578.912	695.34
579.363	690.74
579.814	698.54
580.265	694.24
580.717	691.64
581.168	694.74
581.619	704.54
582.07	712.34
582.521	709.34
582.972	701.94
583.423	703.04
583.875	696.84
584.326	715.64
584.777	725.24
585.227	744.04
585.678	762.94
586.129	758.74
586.58	785.64
587.031	794.24
587.482	825.04
587.933	850.64
588.384	830.64
588.834	806.24
589.285	799.34
589.736	800.94
590.186	806.84
590.637	795.24
591.088	770.74
591.538	755.14
591.989	759.74
592.439	760.94
592.89	747.34
593.34	730.04
593.791	735.14
594.241	731.24
594.692	722.94
595.142	716.54
595.593	716.84
596.043	724.54
596.493	731.44
596.943	728.64
597.394	750.14
597.844	744.44
598.294	758.54
598.744	784.94
599.195	810.34
599.645	843.64
600.095	894.24
600.545	949.84
600.995	1003.54
601.445	1069.54
601.895	1136.14
602.345	1189.74
602.795	1148.94
603.245	1111.44
603.695	1055.54
604.145	1002.04
604.594	952.94
605.044	908.24
605.494	846.94
605.944	784.04
606.393	769.84
606.843	753.94
607.293	761.54
607.743	756.64
608.192	775.44
608.642	781.44
609.091	784.24
609.541	791.44
609.99	785.24
610.44	787.14
610.889	740.94
611.339	723.94
611.788	702.54
612.238	721.64
612.687	730.24
613.136	723.24
613.586	729.74
614.035	725.34
614.484	732.14
614.933	729.34
615.383	738.14
615.832	733.94
616.281	719.14
616.73	694.44
617.179	669.94
617.628	674.44
618.077	651.04
618.526	640.74
618.975	640.94
619.424	639.14
619.873	635.34
620.322	637.24
620.771	631.14
621.22	630.94
621.669	619.04
622.118	606.24
622.567	594.44
623.015	586.54
623.464	582.84
623.913	581.24
624.361	577.34
624.81	570.04
625.259	575.34
625.707	571.24
626.156	569.14
626.604	591.64
627.053	581.44
627.501	571.44
627.95	578.44
628.398	595.34
628.847	588.44
629.295	598.74
629.744	593.04
630.192	595.64
630.64	581.74
631.089	557.44
631.537	557.64
631.985	543.64
632.433	555.84
632.881	540.44
633.33	539.74
633.778	543.04
634.226	544.54
634.674	552.54
635.122	566.74
635.57	574.04
636.018	576.74
636.466	584.24
636.914	576.04
637.362	588.74
637.81	596.24
638.258	594.14
638.705	595.54
639.153	632.24
639.601	646.24
640.049	667.54
640.497	697.84
640.944	715.34
641.392	675.64
641.84	623.74
642.287	612.54
642.735	585.44
643.182	587.14
643.63	578.34
644.078	570.34
644.525	590.84
644.973	597.94
645.42	602.24
645.867	627.44
646.315	649.74
646.762	670.14
647.21	692.34
647.657	719.54
648.104	761.14
648.551	760.74
648.999	826.84
649.446	898.34
649.893	988.24
650.34	1126.14
650.787	1335.04
651.234	1651.04
651.682	2113.04
652.129	2854.84
652.576	4066.94
653.023	5942.14
653.47	8031.64
653.917	9990.84
654.363	11499.74
654.81	12631.54
655.257	11991.54
655.704	7955.74
656.151	4804.04
656.598	3134.74
657.044	2255.84
657.491	1756.04
657.938	1418.64
658.385	1186.54
658.831	1055.84
659.278	939.64
659.724	843.54
660.171	768.04
660.618	715.64
661.064	684.34
661.511	665.54
661.957	655.84
662.404	648.74
662.85	650.34
663.296	625.34
663.743	570.34
664.189	537.34
664.635	543.54
665.082	532.44
665.528	539.34
665.974	537.24
666.42	516.94
666.867	516.84
667.313	494.94
667.759	480.84
668.205	465.44
668.651	471.54
669.097	459.94
669.543	454.04
669.989	453.94
670.435	453.34
670.881	451.94
671.327	463.24
671.773	487.64
672.219	506.44
672.665	562.94
673.11	604.34
673.556	650.54
674.002	692.14
674.448	689.54
674.893	570.34
675.339	492.84
675.785	456.24
676.23	447.94
676.676	418.54
677.122	392.54
677.567	383.24
678.013	380.84
678.458	375.44
678.904	382.84
679.349	362.34
679.794	373.94
680.24	359.14
680.685	357.44
681.131	362.94
681.576	363.74
682.021	371.54
682.466	363.44
682.912	359.34
683.357	367.84
683.802	395.64
684.247	423.14
684.692	466.34
685.137	515.34
685.583	554.34
686.028	576.74
686.473	544.04
686.918	464.04
687.363	430.84
687.807	414.84
688.252	379.94
688.697	366.34
689.142	345.24
689.587	343.84
690.032	339.44
690.477	349.74
690.921	362.94
691.366	397.24
691.811	421.34
692.255	447.54
692.7	480.04
693.145	526.94
693.589	729.84
694.034	1183.84
694.478	1619.54
694.923	1817.44
695.367	2366.34
695.812	1249.24
696.256	520.04
696.701	384.14
697.145	349.24
697.59	342.84
698.034	333.34
698.478	338.64
698.922	334.84
699.367	325.64
699.811	334.84
700.255	364.44
700.699	404.54
701.143	446.74
701.588	491.04
702.032	524.04
702.476	533.44
702.92	506.24
703.364	516.24
703.808	672.14
704.252	1104.64
704.696	1529.54
705.14	1741.74
705.584	2229.04
706.027	1114.54
706.471	551.14
706.915	413.84
707.359	358.44
707.803	329.94
708.246	326.34
708.69	329.14
709.134	323.44
709.577	320.94
710.021	333.64
710.465	313.34
710.908	314.34
711.352	314.64
711.795	325.24
712.239	365.14
712.682	393.54
713.126	427.94
713.569	468.04
714.012	369.74
714.456	317.74
714.899	305.84
715.342	283.54
715.786	270.34
716.229	266.54
716.672	264.94
717.115	257.64
717.558	262.14
718.002	265.94
718.445	275.24
718.888	295.74
719.331	298.04
719.774	317.84
720.217	317.54
720.66	293.94
721.103	278.84
721.546	266.04
721.989	249.94
722.432	241.24
722.874	247.24
723.317	244.84
723.76	248.74
724.203	268.14
724.645	324.44
725.088	458.44
725.531	594.14
725.974	669.24
726.416	571.94
726.859	321.04
727.301	257.04
727.744	247.64
728.187	240.64
728.629	251.14
729.071	255.44
729.514	274.44
729.956	283.54
730.399	297.44
730.841	299.74
731.283	282.24
731.726	278.04
732.168	268.94
732.61	278.24
733.053	290.34
733.495	331.74
733.937	371.34
734.379	420.34
734.821	457.94
735.263	569.24
735.705	882.94
736.148	1675.14
736.59	2732.54
737.032	3221.14
737.474	2603.54
737.916	853.44
738.357	448.64
738.799	340.64
739.241	313.14
739.683	295.74
740.125	307.84
740.567	312.24
741.008	331.94
741.45	320.54
741.892	328.14
742.334	367.64
742.775	371.94
743.217	365.64
743.658	282.84
744.1	265.84
744.542	281.94
744.983	326.94
745.425	369.44
745.866	356.94
746.307	297.04
746.749	288.84
747.19	343.44
747.632	477.64
748.073	929.94
748.514	1963.64
748.956	2997.24
749.397	3758.24
749.838	3123.64
750.279	3098.64
750.72	1584.24
751.162	579.24
751.603	344.64
752.044	256.74
752.485	222.94
752.926	211.74
753.367	214.94
753.808	199.54
754.249	199.44
754.69	189.54
755.131	191.34
755.572	186.94
756.013	184.54
756.453	190.04
756.894	195.54
757.335	193.24
757.776	202.04
758.216	210.44
758.657	206.14
759.098	205.34
759.538	236.24
759.979	281.84
760.42	395.74
760.86	756.14
761.301	1968.04
761.741	4717.64
762.182	6736.54
762.622	4749.24
763.063	1394.24
763.503	561.14
