Data from 20171114-ORNL-Ar_H_NY_Subt18_08-05-37-877.txt Node
Date: Tue Nov 14 08:05:37 EST 2017
User: Ender
Spectrometer: HR+D1039
Trigger mode: 0
Integration Time (sec): 2.730000E-2
Scans to average: 10
Electric dark correction enabled: true
Nonlinearity correction enabled: false
Boxcar width: 0
XAxis mode: Wavelengths
Number of Pixels in Spectrum: 2048
>>>>>Begin Spectral Data<<<<<
187.836	0.2
188.309	0.2
188.782	0.2
189.255	1.1
189.728	-1.2
190.201	5.2
190.674	-2.1
191.147	5.7
191.619	-8.9
192.092	0.8
192.565	4.5
193.038	2.2
193.511	0.4
193.984	1.9
194.456	-4
194.929	-0.1
195.402	-8.1
195.874	2.4
196.347	-2.1
196.82	-9.8
197.292	5.6
197.765	-6.1
198.237	-6.1
198.71	0.8
199.182	-4.9
199.655	3.4
200.127	-0.4
200.6	-0.7
201.072	-5.2
201.544	-3.4
202.017	-1.6
202.489	3.7
202.961	-4.1
203.433	-2.3
203.906	-5.7
204.378	-2.8
204.85	-1.4
205.322	-2.8
205.794	-3.8
206.266	-6.9
206.739	-5.9
207.211	-1.6
207.683	-7.4
208.155	-1
208.627	-1.6
209.099	-1
209.57	-11
210.042	0.3
210.514	-0.3
210.986	0.2
211.458	-7.2
211.93	-1.7
212.402	-3.1
212.873	-6
213.345	-8.1
213.817	-7.4
214.288	-1.5
214.76	-11.7
215.232	-3.2
215.703	-4.4
216.175	-8.2
216.646	-1.1
217.118	-6.5
217.589	1.5
218.061	-4.7
218.532	-2.6
219.004	0.3
219.475	-2.6
219.946	6.5
220.418	-3.5
220.889	4.2
221.36	0.7
221.832	-0.9
222.303	-2.8
222.774	1.5
223.245	-8
223.717	-5.1
224.188	-7.2
224.659	-7.2
225.13	-6
225.601	-0.1
226.072	-2
226.543	-2
227.014	-0.5
227.485	-4.8
227.956	-2.3
228.427	-3.1
228.898	2.5
229.369	0.2
229.839	-1.7
230.31	-3.9
230.781	-0.8
231.252	0.6
231.722	-5.3
232.193	-1.6
232.664	-5.2
233.135	-0.3
233.605	2
234.076	-4.9
234.546	7.1
235.017	7.3
235.487	5.6
235.958	2.4
236.428	2.2
236.899	2.7
237.369	4.1
237.84	-4.9
238.31	8.9
238.78	7.9
239.251	1.5
239.721	8.7
240.191	3.7
240.662	-2.1
241.132	6.9
241.602	-2.6
242.072	3.8
242.542	9.6
243.013	3.3
243.483	7.7
243.953	3.3
244.423	6
244.893	-4.3
245.363	5.6
245.833	2.1
246.303	4.2
246.773	11.4
247.243	-0.1
247.712	2.5
248.182	7.4
248.652	10
249.122	0.8
249.592	16.2
250.061	21
250.531	35.7
251.001	16.3
251.471	20.4
251.94	19.5
252.41	6.6
252.879	7.4
253.349	14.8
253.818	13.6
254.288	9.3
254.757	3.6
255.227	5.3
255.696	1
256.166	6.6
256.635	7.1
257.105	15.5
257.574	10.2
258.043	12.5
258.513	13.8
258.982	19.5
259.451	13.8
259.92	19.6
260.389	15.2
260.859	21.3
261.328	16.8
261.797	17
262.266	11.2
262.735	12.1
263.204	9
263.673	3.4
264.142	7.9
264.611	-2.6
265.08	3.7
265.549	3.9
266.018	10.1
266.487	5
266.955	0.1
267.424	1.1
267.893	8.3
268.362	6.6
268.83	10.8
269.299	14.7
269.768	17.8
270.236	18.1
270.705	3.8
271.174	7.8
271.642	8.9
272.111	6.1
272.579	16.5
273.048	22.4
273.516	32.9
273.985	31.6
274.453	25.1
274.922	17.7
275.39	12.1
275.858	5.3
276.327	14.6
276.795	17.1
277.263	15.8
277.731	35.8
278.2	57.7
278.668	56.9
279.136	50
279.604	26.1
280.072	22.5
280.54	20.9
281.008	11.6
281.477	21.7
281.945	21.6
282.413	17.9
282.881	13.9
283.348	10.5
283.816	19.2
284.284	28.8
284.752	19.2
285.22	13.8
285.688	22.4
286.156	23.8
286.623	48.5
287.091	57.2
287.559	33.1
288.026	19.5
288.494	22.3
288.962	10.2
289.429	15.2
289.897	19.7
290.364	15.2
290.832	19.8
291.3	18.8
291.767	15.4
292.234	25.5
292.702	11.9
293.169	20.9
293.637	26
294.104	29.4
294.571	18.1
295.039	17.5
295.506	23.1
295.973	18
296.44	22.3
296.908	21.4
297.375	27.6
297.842	22.7
298.309	24.4
298.776	11.9
299.243	24.2
299.71	24.6
300.177	24.1
300.644	29
301.111	23.4
301.578	22.4
302.045	18.1
302.512	29.8
302.979	29.5
303.446	23.4
303.913	22.8
304.379	19.3
304.846	29.8
305.313	29.7
305.78	26.9
306.246	23.1
306.713	30.2
307.18	31.1
307.646	27.6
308.113	36
308.579	28
309.046	29.4
309.512	32
309.979	25.7
310.445	33.3
310.912	33.4
311.378	39.1
311.845	30.3
312.311	33.8
312.777	35.8
313.244	27.3
313.71	40.8
314.176	41.8
314.642	30.4
315.109	32.4
315.575	40
316.041	42.5
316.507	40
316.973	39.6
317.439	39.6
317.905	43.8
318.371	38.8
318.837	37.2
319.303	36.9
319.769	39.6
320.235	40.6
320.701	39.5
321.167	38.6
321.633	36.9
322.099	40.7
322.564	45.2
323.03	43.4
323.496	44.3
323.962	45.6
324.427	38.1
324.893	43.7
325.359	51.3
325.824	41.2
326.29	37.7
326.755	44
327.221	47.8
327.686	42.6
328.152	45.2
328.617	45.1
329.083	52.1
329.548	54.1
330.014	49.2
330.479	42.3
330.944	44.7
331.41	45.6
331.875	46.1
332.34	42.4
332.805	46.7
333.271	53.4
333.736	52.4
334.201	58.7
334.666	60.6
335.131	57.1
335.596	56.5
336.061	53.2
336.526	49.3
336.991	49.4
337.456	54.7
337.921	53.3
338.386	52.3
338.851	53.8
339.316	53.9
339.781	52.6
340.246	57.4
340.711	51.6
341.175	56
341.64	44.1
342.105	56.2
342.569	58.9
343.034	63.6
343.499	56.2
343.963	55.4
344.428	70.1
344.893	58.8
345.357	60
345.822	69.6
346.286	73.3
346.751	83.9
347.215	78.6
347.679	83.7
348.144	103.8
348.608	86.3
349.073	75.4
349.537	75.6
350.001	81.8
350.465	89
350.93	83.5
351.394	86.3
351.858	74
352.322	84.4
352.786	85.2
353.25	103.9
353.715	112.8
354.179	103.1
354.643	122.2
355.107	130.2
355.571	112
356.035	102.6
356.498	116.4
356.962	134.3
357.426	132.1
357.89	119.5
358.354	95.2
358.818	82.9
359.281	85.1
359.745	86.8
360.209	85.3
360.673	81.1
361.136	78
361.6	85.1
362.064	80.9
362.527	88.7
362.991	99.2
363.454	88.2
363.918	83.8
364.381	80.1
364.845	86.5
365.308	91
365.772	95.3
366.235	82.9
366.698	86.1
367.162	88.5
367.625	90.7
368.088	95.4
368.552	95.9
369.015	92.9
369.478	102.9
369.941	99.6
370.404	98.7
370.867	108.1
371.331	113.3
371.794	116.6
372.257	111.8
372.72	121.6
373.183	113.6
373.646	103.9
374.109	106.2
374.572	95.6
375.035	110.4
375.497	112.1
375.96	114.1
376.423	103.9
376.886	108.5
377.349	109.6
377.811	104.4
378.274	110
378.737	105.3
379.199	113.8
379.662	122
380.125	127.1
380.587	121
381.05	122.1
381.512	131.8
381.975	135.3
382.437	137.7
382.9	128.3
383.362	142
383.825	144.6
384.287	153
384.75	138.9
385.212	144.2
385.674	141.4
386.136	141
386.599	126
387.061	132.3
387.523	126.2
387.985	144.7
388.447	146.3
388.91	139.3
389.372	156
389.834	152.4
390.296	143.3
390.758	159.3
391.22	171.7
391.682	210.2
392.144	300.6
392.606	228.4
393.068	165.5
393.529	172.9
393.991	157.8
394.453	152.7
394.915	159.5
395.377	193
395.838	213.3
396.3	154
396.762	144.5
397.224	131.6
397.685	127.4
398.147	136
398.608	131.1
399.07	129.3
399.531	134.2
399.993	145.4
400.454	152.3
400.916	151.6
401.377	151.2
401.839	150.5
402.3	156.6
402.762	168.3
403.223	181
403.684	176.9
404.145	161.3
404.607	164.4
405.068	166.5
405.529	171.2
405.99	186
406.451	183.2
406.913	180.6
407.374	170.6
407.835	166.7
408.296	171.4
408.757	172.8
409.218	189.1
409.679	180.1
410.14	179
410.601	179.1
411.062	188.3
411.522	187.5
411.983	191.8
412.444	176.6
412.905	180.1
413.366	187.4
413.826	192.2
414.287	213.8
414.748	265.8
415.208	243.6
415.669	213.5
416.13	202.2
416.59	207.9
417.051	217
417.511	220.5
417.972	244.5
418.432	245.9
418.893	277
419.353	250.7
419.814	205
420.274	185.5
420.734	179.3
421.195	202
421.655	197.5
422.115	199.4
422.576	194.3
423.036	205.2
423.496	205.2
423.956	222.5
424.416	235.7
424.876	262.3
425.336	266.6
425.797	269.6
426.257	249.9
426.717	243.3
427.177	232.7
427.637	222.3
428.097	237
428.556	245
429.016	272.1
429.476	268.7
429.936	277.7
430.396	280
430.856	295
431.315	315.2
431.775	352.4
432.235	381.7
432.694	355.4
433.154	364.1
433.614	396
434.073	345.9
434.533	286.7
434.993	274.8
435.452	288.8
435.912	304.2
436.371	296.4
436.83	288.2
437.29	271.6
437.749	249.7
438.209	244.2
438.668	278.8
439.127	295.6
439.587	265.7
440.046	247.7
440.505	265
440.964	279.9
441.424	335
441.883	319.4
442.342	264.8
442.801	228.1
443.26	220.7
443.719	229.2
444.178	221.9
444.637	212.5
445.096	227.3
445.555	221.1
446.014	218.6
446.473	226
446.932	241.5
447.391	227.1
447.849	224.8
448.308	219.2
448.767	220.9
449.226	241.9
449.685	239.8
450.143	247.5
450.602	246.9
451.061	228.5
451.519	234.2
451.978	235
452.436	234.3
452.895	240.8
453.353	255.1
453.812	247.6
454.27	241.5
454.729	241.4
455.187	240.5
455.646	244.9
456.104	253
456.562	270.1
457.021	272.5
457.479	258.7
457.937	270.4
458.395	266.9
458.854	247.7
459.312	256.7
459.77	282.7
460.228	255.8
460.686	244.5
461.144	247.1
461.602	240.4
462.06	250.2
462.518	257
462.976	253.6
463.434	254.7
463.892	270.7
464.35	285.9
464.808	284.9
465.266	266.1
465.724	274.1
466.181	274.6
466.639	268.7
467.097	291.1
467.555	301.8
468.012	302.9
468.47	312.2
468.928	336.6
469.385	353.9
469.843	353
470.3	357.9
470.758	363.3
471.215	388.5
471.673	411.2
472.13	411
472.588	424.9
473.045	376.8
473.503	380
473.96	397.9
474.417	411.4
474.875	434.6
475.332	475
475.789	470.3
476.246	472.3
476.704	498.4
477.161	511.1
477.618	527.5
478.075	575.6
478.532	626.7
478.989	697.8
479.446	810.2
479.903	788.1
480.36	817.2
480.817	878.7
481.274	977.8
481.731	1087.3
482.188	1188.3
482.645	1319.3
483.102	1427
483.558	1563.3
484.015	1611.1
484.472	1579.2
484.929	1534.9
485.385	1498.9
485.842	1441.7
486.299	1386
486.755	1306.5
487.212	1102.8
487.668	939.2
488.125	855
488.582	790.8
489.038	753.5
489.494	714.8
489.951	700.6
490.407	683.1
490.864	657.8
491.32	648
491.776	649
492.233	661.6
492.689	615.3
493.145	605.3
493.602	613
494.058	622
494.514	628.7
494.97	641.4
495.426	666.4
495.882	626.4
496.338	617.2
496.794	629.7
497.251	635
497.707	647.3
498.163	642.6
498.618	650.3
499.074	652
499.53	688
499.986	684.6
500.442	653.5
500.898	645.1
501.354	624.2
501.809	636.5
502.265	656.4
502.721	669.8
503.177	674.3
503.632	663.5
504.088	684.2
504.543	718.9
504.999	719.7
505.455	664.1
505.91	632.4
506.366	646.6
506.821	640.4
507.277	629.1
507.732	625.7
508.187	624.3
508.643	641.3
509.098	646.3
509.553	667
510.009	671.7
510.464	676
510.919	692.6
511.375	704.3
511.83	719.9
512.285	737.6
512.74	768.5
513.195	790.8
513.65	782.1
514.105	781.3
514.56	786.6
515.015	800.8
515.47	817.4
515.925	808.6
516.38	803.1
516.835	802.2
517.29	790.9
517.745	780.9
518.2	770.4
518.655	760.5
519.109	749.1
519.564	747.8
520.019	730.5
520.474	731.6
520.928	738.8
521.383	729.8
521.838	714.2
522.292	715.4
522.747	713.7
523.201	709.8
523.656	689.9
524.11	697.7
524.565	688.3
525.019	696.5
525.474	706
525.928	713.8
526.382	706.7
526.837	701.2
527.291	708
527.745	706.4
528.2	703
528.654	694.1
529.108	690.6
529.562	693.7
530.016	697.2
530.47	694.5
530.925	696.1
531.379	699
531.833	711.6
532.287	708.3
532.741	714.1
533.195	710.5
533.649	718.7
534.103	729.7
534.556	714
535.01	719.9
535.464	710.8
535.918	731.6
536.372	733.6
536.826	726.9
537.279	709.6
537.733	719.7
538.187	713.5
538.64	717.1
539.094	732.8
539.548	736
540.001	735.1
540.455	723.4
540.908	735.6
541.362	735.9
541.815	743.5
542.269	755.5
542.722	762.5
543.175	778.6
543.629	776
544.082	788.2
544.536	789.9
544.989	786.3
545.442	792.1
545.895	784.1
546.349	784.2
546.802	793.7
547.255	796.5
547.708	804.8
548.161	813.6
548.614	822.1
549.067	827.7
549.52	828.3
549.973	812.3
550.426	819.3
550.879	792.4
551.332	800.6
551.785	791.4
552.238	804.4
552.691	821.8
553.144	838.6
553.596	846.5
554.049	864
554.502	896.5
554.955	913.2
555.407	905.4
555.86	902.6
556.313	902.8
556.765	877.5
557.218	886.8
557.67	893.6
558.123	883.8
558.576	876.8
559.028	879.4
559.48	890.4
559.933	881.4
560.385	839.8
560.838	807.7
561.29	789.2
561.742	786.8
562.195	766.2
562.647	754
563.099	781.4
563.551	769.6
564.004	780.7
564.456	784.9
564.908	759.3
565.36	740.4
565.812	733.2
566.264	716.3
566.716	724.2
567.168	714.6
567.62	716.9
568.072	703.9
568.524	689
568.976	684.3
569.428	673.4
569.88	670.8
570.332	679.2
570.784	676.7
571.235	680.3
571.687	692.3
572.139	704.6
572.59	708.6
573.042	710
573.494	713.1
573.945	704.1
574.397	685.6
574.849	687.2
575.3	691.4
575.752	688
576.203	679.8
576.655	683
577.106	667.1
577.557	668.8
578.009	667.3
578.46	669.6
578.912	662.5
579.363	658.9
579.814	663.2
580.265	661.2
580.717	665.2
581.168	673.4
581.619	678.7
582.07	686.4
582.521	671.8
582.972	661.8
583.423	680.4
583.875	684
584.326	698.3
584.777	746.2
585.227	819.2
585.678	904.3
586.129	990.3
586.58	1050.7
587.031	1135.6
587.482	1285.9
587.933	1474.9
588.384	1268.1
588.834	966.6
589.285	800
589.736	788.6
590.186	762.6
590.637	765.9
591.088	739.4
591.538	730.5
591.989	730.8
592.439	728.6
592.89	709.6
593.34	708.1
593.791	700.9
594.241	711.1
594.692	694.4
595.142	702.4
595.593	694.9
596.043	700
596.493	712.4
596.943	712.1
597.394	713.7
597.844	717.4
598.294	729
598.744	737.5
599.195	769.1
599.645	801.2
600.095	837
600.545	908.4
600.995	962.1
601.445	1012.5
601.895	1074
602.345	1135.6
602.795	1112.1
603.245	1056.1
603.695	1002.4
604.145	954.2
604.594	904.8
605.044	846.7
605.494	785.8
605.944	743.5
606.393	721.9
606.843	719.3
607.293	729.1
607.743	719.3
608.192	733.2
608.642	746.9
609.091	764.3
609.541	765.3
609.99	755.2
610.44	762.2
610.889	711.8
611.339	685
611.788	674.2
612.238	693.8
612.687	709.9
613.136	708.2
613.586	726.1
614.035	722.6
614.484	742.2
614.933	741.9
615.383	728.9
615.832	732.4
616.281	714.9
616.73	673.8
617.179	660.9
617.628	641.6
618.077	623.4
618.526	601.4
618.975	612.7
619.424	610.1
619.873	604.7
620.322	603.9
620.771	601.7
621.22	594.6
621.669	591.2
622.118	580.5
622.567	575.8
623.015	561.1
623.464	560.9
623.913	549.1
624.361	539.5
624.81	537.2
625.259	548.9
625.707	539.2
626.156	542
626.604	554.5
627.053	552.1
627.501	555.7
627.95	561.5
628.398	567.3
628.847	564
629.295	561.7
629.744	566.2
630.192	559.8
630.64	559.7
631.089	555.3
631.537	567.3
631.985	565.1
632.433	592.2
632.881	587.7
633.33	653.8
633.778	618.3
634.226	552.5
634.674	567.1
635.122	574.4
635.57	573.7
636.018	618.1
636.466	569.9
636.914	546.5
637.362	564.6
637.81	561.9
638.258	569
638.705	565.1
639.153	595.5
639.601	607
640.049	627.3
640.497	659.5
640.944	675.5
641.392	633.6
641.84	596
642.287	574.3
642.735	553.3
643.182	559.6
643.63	561.8
644.078	567.9
644.525	578.2
644.973	583.2
645.42	596.1
645.867	606.3
646.315	627.3
646.762	644.9
647.21	678.8
647.657	698.8
648.104	724.8
648.551	746.2
648.999	815.6
649.446	888.9
649.893	982.1
650.34	1128.3
650.787	1347.8
651.234	1664.4
651.682	2179.8
652.129	2989.3
652.576	4274.3
653.023	6332.4
653.47	8717.2
653.917	10936.7
654.363	12711.6
654.81	14068.5
655.257	13409.6
655.704	8810.2
656.151	5172.4
656.598	3344.7
657.044	2377.5
657.491	1827.4
657.938	1461.9
658.385	1217.1
658.831	1065
659.278	943.1
659.724	842.8
660.171	780.5
660.618	709.4
661.064	666.6
661.511	652.3
661.957	639.8
662.404	628.3
662.85	634.8
663.296	609.1
663.743	543.4
664.189	523.2
664.635	523.7
665.082	514.3
665.528	513.4
665.974	500.8
666.42	492.1
666.867	487.3
667.313	476.4
667.759	460.7
668.205	466.8
668.651	480.8
669.097	467.4
669.543	488
669.989	456.3
670.435	438.3
670.881	425.3
671.327	442.4
671.773	457.8
672.219	475.6
672.665	526.1
673.11	548.3
673.556	603.1
674.002	649.6
674.448	630.1
674.893	535
675.339	458.8
675.785	424
676.23	411.4
676.676	375.1
677.122	372.5
677.567	356
678.013	358.2
678.458	349.1
678.904	349
679.349	332.9
679.794	349
680.24	337.2
680.685	336
681.131	331
681.576	336.5
682.021	343.8
682.466	337.8
682.912	334
683.357	344.6
683.802	365.2
684.247	387
684.692	435.6
685.137	478.8
685.583	524.1
686.028	547.2
686.473	508.5
686.918	435
687.363	407.6
687.807	376.8
688.252	357.5
688.697	341.9
689.142	325.8
689.587	314.8
690.032	318.4
690.477	320.4
690.921	343.6
691.366	372.7
691.811	384.1
692.255	411.5
692.7	435.4
693.145	487
693.589	662.6
694.034	1071.8
694.478	1474.9
694.923	1674.3
695.367	2183.9
695.812	1159.6
696.256	480
696.701	358.6
697.145	331
697.59	321.6
698.034	305.4
698.478	322.4
698.922	313
699.367	315.7
699.811	325.1
700.255	342.6
700.699	367.8
701.143	399.4
701.588	458
702.032	492.8
702.476	496.8
702.92	469.5
703.364	468.2
703.808	602.4
704.252	981.7
704.696	1382.8
705.14	1605.3
705.584	2070.6
706.027	1033.8
706.471	507.2
706.915	378.1
707.359	334.9
707.803	306.2
708.246	303.1
708.69	296.9
709.134	308.2
709.577	297.9
710.021	303.9
710.465	290.7
710.908	289.5
711.352	278.8
711.795	303.4
712.239	333.2
712.682	362.6
713.126	389.6
713.569	444.5
714.012	355.6
714.456	312.3
714.899	284.1
715.342	260.4
715.786	255.1
716.229	241
716.672	246.2
717.115	236.3
717.558	243.8
718.002	247.1
718.445	252.9
718.888	276.3
719.331	280.8
719.774	284.4
720.217	293.9
720.66	270.7
721.103	249.6
721.546	243.2
721.989	243
722.432	232
722.874	232.8
723.317	218.3
723.76	222.9
724.203	246.3
724.645	299.7
725.088	424.5
725.531	541.8
725.974	622.7
726.416	527.6
726.859	290.7
727.301	234.8
727.744	234.1
728.187	224.2
728.629	235.6
729.071	230
729.514	245.4
729.956	256.4
730.399	269.9
730.841	276.7
731.283	262.9
731.726	250.2
732.168	249.3
732.61	259.6
733.053	269.8
733.495	295.2
733.937	340.6
734.379	388.3
734.821	412.1
735.263	513.8
735.705	781.1
736.148	1482.8
736.59	2442.6
737.032	2950.7
737.474	2407.7
737.916	776
738.357	408.1
738.799	312.3
739.241	286.9
739.683	269.6
740.125	278.2
740.567	283.8
741.008	297.9
741.45	305.6
741.892	295.5
742.334	329.6
742.775	344.1
743.217	327.4
743.658	263.9
744.1	239.4
744.542	245.1
744.983	300
745.425	329.3
745.866	331.9
746.307	275
746.749	269
747.19	312.7
747.632	426.8
748.073	820.6
748.514	1752.3
748.956	2714.3
749.397	3381.7
749.838	2806.9
750.279	2852.3
750.72	1436.4
751.162	517.1
751.603	305.4
752.044	235.4
752.485	202.4
752.926	199.3
753.367	189.1
753.808	178.8
754.249	184.3
754.69	174
755.131	177.4
755.572	173.3
756.013	174
756.453	184.2
756.894	181.7
757.335	182.2
757.776	184
758.216	190.7
758.657	192.3
759.098	193.7
759.538	215.5
759.979	258.8
760.42	360.5
760.86	651.1
761.301	1673.1
761.741	4132.4
762.182	6192.3
762.622	4368.1
763.063	1255.3
763.503	513.9
763.943	328.3
764.384	321.2
764.824	376.9
765.264	421.9
765.705	289.2
766.145	199.1
766.585	186.3
767.025	176.5
767.465	177
767.906	221.3
768.346	299.4
768.786	327.2
769.226	242.2
769.666	304
770.106	578.2
770.546	1439.4
770.986	2532.6
771.426	2279.9
771.866	757.9
772.306	311.3
772.745	197.5
773.185	173.2
773.625	159.4
774.065	154.4
774.505	192.5
774.944	286.5
775.384	623.1
775.824	1148.1
776.263	1131.8
776.703	481.1
777.142	206.2
777.582	151.5
778.021	136.2
778.461	135.3
778.9	135.1
779.34	131.8
779.779	116
780.219	104.4
780.658	108.1
781.097	104.8
781.537	109.2
781.976	104.8
782.415	101.2
782.855	106.8
783.294	102.2
783.733	103.8
784.172	103.1
784.611	99.6
785.05	105
785.489	110.6
785.928	113.5
786.367	119.2
786.806	106.7
787.245	126.1
787.684	128.3
788.123	137.3
788.562	132
789.001	120.4
789.44	123.7
789.879	114.3
790.317	114.4
790.756	126.9
791.195	126.5
791.634	142.7
792.072	191.5
792.511	337.8
792.95	937.1
793.388	2033.2
793.827	1866.3
794.265	656.3
794.704	268.4
795.142	169
795.581	146.9
796.019	135.1
796.458	122.4
796.896	111.7
797.334	125.5
797.773	147.7
798.211	208.9
798.649	418.6
799.087	944.1
799.526	1503.5
799.964	1908
800.402	1937.5
800.84	717.5
801.278	289.8
801.716	173
802.154	146.3
802.592	138.4
803.03	129.8
803.468	129.2
803.906	132.4
804.344	142.1
804.782	135.2
805.22	129.4
805.658	130.4
806.096	146.9
806.533	149.8
806.971	167.1
807.409	205.6
