Data from 20171114-ORNL-Ar_H_NY_Subt18_08-06-03-809.txt Node
Date: Tue Nov 14 08:06:03 EST 2017
User: Ender
Spectrometer: HR+D1039
Trigger mode: 0
Integration Time (sec): 2.730000E-2
Scans to average: 10
Electric dark correction enabled: true
Nonlinearity correction enabled: false
Boxcar width: 0
XAxis mode: Wavelengths
Number of Pixels in Spectrum: 2048
>>>>>Begin Spectral Data<<<<<
187.836	-4.95
188.309	-4.95
188.782	-4.95
189.255	-1.95
189.728	-1.55
190.201	4.85
190.674	1.15
191.147	2.45
191.619	-4.75
192.092	2.25
192.565	6.45
193.038	1.95
193.511	-1.15
193.984	-0.35
194.456	-3.65
194.929	1.35
195.402	-4.85
195.874	2.75
196.347	0.75
196.82	-6.55
197.292	5.25
197.765	-9.55
198.237	-5.35
198.71	7.45
199.182	1.45
199.655	6.55
200.127	4.15
200.6	4.25
201.072	3.45
201.544	-2.45
202.017	1.15
202.489	1.55
202.961	-1.25
203.433	5.75
203.906	-5.35
204.378	-2.25
204.85	-0.55
205.322	-2.95
205.794	-5.35
206.266	-4.45
206.739	-3.15
207.211	2.55
207.683	-8.95
208.155	-5.35
208.627	-2.85
209.099	-2.65
209.57	-2.75
210.042	-2.55
210.514	-6.25
210.986	-2.35
211.458	2.05
211.93	1.05
212.402	0.45
212.873	-5.25
213.345	-7.75
213.817	-10.45
214.288	-2.25
214.76	-6.95
215.232	3.35
215.703	-5.25
216.175	0.05
216.646	-3.45
217.118	-5.65
217.589	2.15
218.061	1.15
218.532	-6.95
219.004	-1.55
219.475	-2.25
219.946	-1.65
220.418	-4.05
220.889	1.15
221.36	-1.15
221.832	-1.25
222.303	-6.05
222.774	2.75
223.245	-5.35
223.717	-9.05
224.188	1.75
224.659	-10.35
225.13	-8.55
225.601	-2.75
226.072	-0.55
226.543	3.45
227.014	2.85
227.485	-0.55
227.956	-3.85
228.427	2.85
228.898	5.35
229.369	7.85
229.839	-0.85
230.31	-2.35
230.781	4.35
231.252	-0.45
231.722	-5.15
232.193	-2.25
232.664	5.55
233.135	6.15
233.605	1.95
234.076	-3.55
234.546	7.05
235.017	9.85
235.487	1.55
235.958	2.15
236.428	-1.75
236.899	10.05
237.369	7.95
237.84	3.35
238.31	11.05
238.78	5.35
239.251	0.75
239.721	4.05
240.191	0.95
240.662	0.85
241.132	2.35
241.602	-3.75
242.072	3.95
242.542	9.25
243.013	1.25
243.483	1.75
243.953	9.15
244.423	0.25
244.893	6.65
245.363	7.25
245.833	4.35
246.303	-2.45
246.773	8.45
247.243	2.15
247.712	6.95
248.182	8.55
248.652	10.75
249.122	-4.25
249.592	15.05
250.061	22.15
250.531	32.35
251.001	20.35
251.471	24.95
251.94	24.25
252.41	14.15
252.879	3.25
253.349	18.05
253.818	12.35
254.288	8.65
254.757	7.65
255.227	3.95
255.696	7.55
256.166	9.55
256.635	7.75
257.105	10.25
257.574	10.55
258.043	13.45
258.513	10.85
258.982	14.25
259.451	7.05
259.92	12.35
260.389	15.05
260.859	15.55
261.328	19.45
261.797	16.45
262.266	8.85
262.735	12.85
263.204	7.65
263.673	0.85
264.142	9.65
264.611	-0.05
265.08	4.15
265.549	2.35
266.018	9.35
266.487	-0.35
266.955	-0.35
267.424	2.75
267.893	7.15
268.362	9.65
268.83	2.05
269.299	13.65
269.768	8.95
270.236	10.15
270.705	5.65
271.174	10.85
271.642	7.95
272.111	18.55
272.579	16.55
273.048	25.65
273.516	24.85
273.985	33.25
274.453	29.85
274.922	23.25
275.39	16.45
275.858	5.15
276.327	14.55
276.795	24.65
277.263	12.65
277.731	33.65
278.2	63.15
278.668	60.55
279.136	52.05
279.604	25.65
280.072	13.25
280.54	11.75
281.008	13.25
281.477	20.35
281.945	15.85
282.413	14.15
282.881	19.75
283.348	9.75
283.816	18.05
284.284	21.95
284.752	23.65
285.22	11.25
285.688	22.65
286.156	21.65
286.623	48.15
287.091	60.85
287.559	35.35
288.026	18.65
288.494	18.85
288.962	11.35
289.429	14.95
289.897	21.85
290.364	15.75
290.832	18.95
291.3	17.15
291.767	22.55
292.234	25.85
292.702	17.45
293.169	22.05
293.637	26.15
294.104	22.85
294.571	10.45
295.039	15.35
295.506	19.65
295.973	16.85
296.44	15.75
296.908	24.85
297.375	21.85
297.842	24.65
298.309	16.65
298.776	13.75
299.243	26.55
299.71	21.05
300.177	19.25
300.644	24.95
301.111	26.45
301.578	25.85
302.045	19.45
302.512	28.45
302.979	23.95
303.446	23.55
303.913	19.25
304.379	19.05
304.846	31.65
305.313	28.45
305.78	25.55
306.246	29.75
306.713	36.95
307.18	32.35
307.646	30.85
308.113	27.25
308.579	23.95
309.046	32.35
309.512	32.35
309.979	26.95
310.445	33.05
310.912	30.35
311.378	34.55
311.845	32.75
312.311	30.05
312.777	37.15
313.244	38.35
313.71	39.45
314.176	36.25
314.642	34.35
315.109	35.65
315.575	43.95
316.041	42.85
316.507	40.05
316.973	46.05
317.439	35.05
317.905	37.95
318.371	43.55
318.837	32.75
319.303	30.05
319.769	39.45
320.235	39.05
320.701	48.65
321.167	39.95
321.633	44.75
322.099	39.55
322.564	48.95
323.03	39.55
323.496	40.55
323.962	43.85
324.427	39.15
324.893	44.85
325.359	40.75
325.824	44.45
326.29	40.75
326.755	39.25
327.221	44.55
327.686	44.95
328.152	55.65
328.617	47.35
329.083	49.55
329.548	54.95
330.014	49.75
330.479	47.05
330.944	43.35
331.41	45.85
331.875	48.65
332.34	48.85
332.805	44.35
333.271	51.45
333.736	51.15
334.201	58.65
334.666	55.95
335.131	62.05
335.596	60.55
336.061	56.55
336.526	47.35
336.991	60.65
337.456	58.85
337.921	56.65
338.386	47.15
338.851	46.15
339.316	51.25
339.781	50.05
340.246	55.65
340.711	54.05
341.175	56.85
341.64	42.55
342.105	53.15
342.569	58.85
343.034	60.55
343.499	64.65
343.963	59.55
344.428	68.65
344.893	65.75
345.357	62.95
345.822	68.45
346.286	75.15
346.751	75.85
347.215	77.55
347.679	79.35
348.144	100.15
348.608	90.15
349.073	72.45
349.537	69.15
350.001	86.25
350.465	90.65
350.93	89.85
351.394	86.25
351.858	80.75
352.322	96.65
352.786	88.15
353.25	105.05
353.715	111.95
354.179	109.85
354.643	123.65
355.107	133.35
355.571	111.35
356.035	114.15
356.498	119.75
356.962	129.15
357.426	137.15
357.89	119.55
358.354	94.45
358.818	91.85
359.281	83.65
359.745	82.15
360.209	87.05
360.673	88.05
361.136	88.05
361.6	93.95
362.064	86.35
362.527	88.65
362.991	91.25
363.454	85.75
363.918	80.55
364.381	82.55
364.845	89.65
365.308	93.95
365.772	88.45
366.235	88.85
366.698	90.75
367.162	91.25
367.625	93.55
368.088	93.85
368.552	92.55
369.015	95.25
369.478	99.85
369.941	105.25
370.404	105.35
370.867	111.55
371.331	112.85
371.794	119.55
372.257	111.65
372.72	119.85
373.183	117.45
373.646	109.85
374.109	107.95
374.572	106.75
375.035	107.55
375.497	109.85
375.96	115.75
376.423	107.05
376.886	116.15
377.349	118.35
377.811	104.45
378.274	119.45
378.737	107.75
379.199	125.25
379.662	116.85
380.125	124.75
380.587	121.35
381.05	128.55
381.512	139.35
381.975	144.45
382.437	130.85
382.9	136.85
383.362	137.85
383.825	141.85
384.287	154.75
384.75	147.35
385.212	144.25
385.674	141.35
386.136	143.75
386.599	136.95
387.061	136.15
387.523	142.85
387.985	146.15
388.447	153.05
388.91	148.95
389.372	162.95
389.834	156.65
390.296	153.65
390.758	166.45
391.22	179.65
391.682	217.95
392.144	302.75
392.606	232.85
393.068	173.65
393.529	177.95
393.991	164.35
394.453	155.85
394.915	160.55
395.377	197.75
395.838	221.25
396.3	165.75
396.762	149.65
397.224	139.75
397.685	139.45
398.147	136.65
398.608	140.25
399.07	136.85
399.531	146.95
399.993	154.95
400.454	154.95
400.916	155.55
401.377	154.25
401.839	155.75
402.3	158.35
402.762	175.35
403.223	189.35
403.684	175.85
404.145	167.95
404.607	164.85
405.068	170.55
405.529	176.15
405.99	190.65
406.451	185.85
406.913	180.95
407.374	176.65
407.835	173.85
408.296	179.65
408.757	173.65
409.218	197.15
409.679	189.05
410.14	181.55
410.601	190.25
411.062	196.05
411.522	194.65
411.983	200.85
412.444	189.75
412.905	191.05
413.366	199.95
413.826	200.85
414.287	229.45
414.748	269.75
415.208	259.65
415.669	215.95
416.13	215.25
416.59	209.25
417.051	218.05
417.511	223.35
417.972	242.35
418.432	260.25
418.893	297.75
419.353	259.65
419.814	208.35
420.274	193.25
420.734	186.95
421.195	206.35
421.655	202.55
422.115	201.25
422.576	203.45
423.036	209.55
423.496	222.65
423.956	231.35
424.416	241.05
424.876	270.45
425.336	272.45
425.797	276.25
426.257	262.05
426.717	252.65
427.177	239.65
427.637	231.95
428.097	249.15
428.556	256.45
429.016	293.05
429.476	273.15
429.936	283.15
430.396	296.15
430.856	310.15
431.315	326.45
431.775	366.55
432.235	400.25
432.694	365.85
433.154	377.15
433.614	410.15
434.073	350.55
434.533	296.35
434.993	285.65
435.452	297.25
435.912	310.15
436.371	302.65
436.83	299.45
437.29	282.25
437.749	257.75
438.209	261.05
438.668	281.55
439.127	294.35
439.587	281.75
440.046	257.15
440.505	270.25
440.964	291.25
441.424	347.85
441.883	331.25
442.342	271.85
442.801	236.95
443.26	227.15
443.719	232.85
444.178	233.15
444.637	221.25
445.096	230.25
445.555	231.25
446.014	229.65
446.473	232.25
446.932	239.35
447.391	232.75
447.849	237.05
448.308	229.45
448.767	231.95
449.226	247.05
449.685	236.75
450.143	252.05
450.602	253.05
451.061	242.85
451.519	244.35
451.978	240.55
452.436	240.25
452.895	250.55
453.353	264.85
453.812	250.85
454.27	251.05
454.729	254.05
455.187	252.05
455.646	251.05
456.104	257.05
456.562	263.75
457.021	275.35
457.479	273.85
457.937	284.15
458.395	271.85
458.854	263.95
459.312	265.25
459.77	282.65
460.228	266.05
460.686	254.25
461.144	262.45
461.602	256.85
462.06	253.55
462.518	261.45
462.976	270.55
463.434	265.65
463.892	270.35
464.35	290.15
464.808	300.45
465.266	276.75
465.724	276.45
466.181	281.25
466.639	283.85
467.097	293.65
467.555	307.35
468.012	310.55
468.47	331.05
468.928	338.75
469.385	356.55
469.843	363.05
470.3	355.85
470.758	373.05
471.215	393.95
471.673	425.75
472.13	418.55
472.588	436.95
473.045	396.15
473.503	390.65
473.96	403.65
474.417	409.95
474.875	452.35
475.332	496.45
475.789	472.65
476.246	488.75
476.704	507.75
477.161	531.85
477.618	550.55
478.075	579.15
478.532	642.95
478.989	717.65
479.446	834.45
479.903	807.45
480.36	842.55
480.817	905.05
481.274	995.05
481.731	1102.45
482.188	1210.15
482.645	1347.05
483.102	1461.05
483.558	1598.25
484.015	1660.25
484.472	1620.45
484.929	1574.65
485.385	1518.95
485.842	1467.65
486.299	1412.85
486.755	1352.45
487.212	1146.55
487.668	965.65
488.125	875.95
488.582	805.35
489.038	765.45
489.494	729.15
489.951	704.75
490.407	688.45
490.864	677.15
491.32	670.95
491.776	665.85
492.233	669.35
492.689	627.45
493.145	619.35
493.602	616.45
494.058	644.45
494.514	642.05
494.97	663.35
495.426	674.45
495.882	647.95
496.338	638.15
496.794	645.85
497.251	634.35
497.707	657.45
498.163	662.95
498.618	663.55
499.074	668.05
499.53	704.95
499.986	712.05
500.442	675.05
500.898	656.55
501.354	646.35
501.809	659.15
502.265	655.15
502.721	678.05
503.177	687.45
503.632	685.75
504.088	703.55
504.543	735.65
504.999	731.55
505.455	679.85
505.91	648.85
506.366	656.55
506.821	651.65
507.277	646.85
507.732	639.45
508.187	642.25
508.643	644.55
509.098	650.35
509.553	682.25
510.009	678.85
510.464	690.25
510.919	705.15
511.375	721.15
511.83	726.85
512.285	740.05
512.74	787.55
513.195	812.05
513.65	790.35
514.105	784.65
514.56	791.35
515.015	812.55
515.47	831.55
515.925	813.05
516.38	807.25
516.835	821.95
517.29	804.75
517.745	806.95
518.2	788.85
518.655	780.55
519.109	758.05
519.564	765.15
520.019	764.65
520.474	752.25
520.928	749.25
521.383	738.65
521.838	735.05
522.292	727.55
522.747	723.45
523.201	723.15
523.656	709.95
524.11	712.15
524.565	717.65
525.019	713.55
525.474	721.85
525.928	718.15
526.382	716.85
526.837	713.15
527.291	723.05
527.745	710.35
528.2	717.55
528.654	707.65
529.108	705.85
529.562	713.65
530.016	712.75
530.47	713.05
530.925	717.95
531.379	714.15
531.833	725.05
532.287	716.45
532.741	719.75
533.195	722.65
533.649	732.85
534.103	743.65
534.556	722.15
535.01	734.55
535.464	722.25
535.918	744.35
536.372	740.95
536.826	733.95
537.279	729.65
537.733	731.65
538.187	735.95
538.64	731.85
539.094	746.35
539.548	749.25
540.001	732.55
540.455	739.35
540.908	744.55
541.362	760.85
541.815	778.05
542.269	786.45
542.722	781.25
543.175	788.05
543.629	785.75
544.082	811.45
544.536	806.05
544.989	794.55
545.442	825.45
545.895	818.95
546.349	815.85
546.802	809.25
547.255	812.75
547.708	814.45
548.161	828.05
548.614	844.85
549.067	855.85
549.52	841.25
549.973	838.25
550.426	828.95
550.879	814.65
551.332	812.55
551.785	823.75
552.238	823.25
552.691	834.95
553.144	844.95
553.596	863.85
554.049	884.25
554.502	914.25
554.955	938.25
555.407	920.15
555.86	916.75
556.313	902.85
556.765	902.25
557.218	903.35
557.67	913.95
558.123	906.15
558.576	896.05
559.028	904.35
559.48	907.85
559.933	890.45
560.385	853.45
560.838	818.45
561.29	794.15
561.742	791.75
562.195	779.05
562.647	780.35
563.099	793.15
563.551	792.15
564.004	805.25
564.456	793.75
564.908	773.95
565.36	766.75
565.812	758.25
566.264	734.85
566.716	743.85
567.168	724.45
567.62	748.35
568.072	720.45
568.524	715.85
568.976	708.25
569.428	692.95
569.88	685.55
570.332	703.85
570.784	697.75
571.235	698.45
571.687	720.45
572.139	721.45
572.59	725.95
573.042	725.35
573.494	728.75
573.945	724.35
574.397	692.35
574.849	696.45
575.3	706.75
575.752	707.85
576.203	681.35
576.655	697.55
577.106	684.75
577.557	679.85
578.009	676.75
578.46	672.45
578.912	673.65
579.363	679.25
579.814	680.65
580.265	687.65
580.717	676.65
581.168	687.95
581.619	692.35
582.07	693.75
582.521	689.15
582.972	685.65
583.423	696.15
583.875	697.75
584.326	713.95
584.777	751.55
585.227	837.55
585.678	922.05
586.129	1006.85
586.58	1089.85
587.031	1167.35
587.482	1334.05
587.933	1526.65
588.384	1335.75
588.834	981.05
589.285	824.85
589.736	799.25
590.186	788.05
590.637	780.55
591.088	752.05
591.538	749.65
591.989	747.35
592.439	741.35
592.89	727.65
593.34	721.75
593.791	726.35
594.241	715.95
594.692	733.35
595.142	713.75
595.593	709.75
596.043	718.35
596.493	717.75
596.943	725.55
597.394	729.75
597.844	733.55
598.294	732.95
598.744	770.35
599.195	784.25
599.645	819.65
600.095	861.05
600.545	923.55
600.995	974.15
601.445	1032.85
601.895	1099.85
602.345	1141.65
602.795	1114.25
603.245	1067.55
603.695	1022.15
604.145	973.75
604.594	916.15
605.044	868.55
605.494	808.35
605.944	758.65
606.393	750.75
606.843	738.55
607.293	739.85
607.743	730.95
608.192	761.05
608.642	768.45
609.091	777.35
609.541	784.85
609.99	787.25
610.44	782.05
610.889	726.35
611.339	718.75
611.788	697.25
612.238	704.55
612.687	724.05
613.136	731.05
613.586	739.85
614.035	741.25
614.484	768.25
614.933	759.95
615.383	748.55
615.832	739.55
616.281	731.35
616.73	694.35
617.179	675.35
617.628	654.85
618.077	645.65
618.526	637.75
618.975	626.75
619.424	609.35
619.873	615.25
620.322	627.65
620.771	613.55
621.22	611.65
621.669	599.65
622.118	599.95
622.567	581.15
623.015	576.45
623.464	568.15
623.913	565.05
624.361	557.75
624.81	562.35
625.259	558.25
625.707	563.55
626.156	557.55
626.604	569.45
627.053	567.95
627.501	562.45
627.95	572.05
628.398	589.75
628.847	569.05
629.295	572.25
629.744	584.45
630.192	576.85
630.64	574.25
631.089	567.65
631.537	578.45
631.985	585.55
632.433	601.75
632.881	610.25
633.33	660.45
633.778	642.35
634.226	574.55
634.674	577.75
635.122	582.35
635.57	595.75
636.018	630.45
636.466	579.95
636.914	555.85
637.362	574.65
637.81	580.45
638.258	587.35
638.705	582.25
639.153	603.75
639.601	613.35
640.049	646.05
640.497	674.25
640.944	686.55
641.392	643.15
641.84	607.95
642.287	591.45
642.735	567.15
643.182	576.05
643.63	583.15
644.078	583.75
644.525	591.95
644.973	611.55
645.42	610.65
645.867	634.55
646.315	642.55
646.762	663.65
647.21	707.05
647.657	733.15
648.104	761.55
648.551	770.85
648.999	839.65
649.446	923.15
649.893	1012.65
650.34	1174.75
650.787	1394.85
651.234	1725.15
651.682	2247.75
652.129	3079.75
652.576	4451.05
653.023	6594.65
653.47	9018.45
653.917	11313.55
654.363	13065.15
654.81	14450.05
655.257	13732.55
655.704	8999.15
656.151	5305.75
656.598	3454.95
657.044	2447.55
657.491	1873.65
657.938	1496.15
658.385	1248.65
658.831	1083.55
659.278	961.65
659.724	853.85
660.171	784.25
660.618	734.75
661.064	695.35
661.511	664.75
661.957	654.15
662.404	654.05
662.85	657.05
663.296	639.35
663.743	568.25
664.189	543.05
664.635	527.25
665.082	531.25
665.528	526.45
665.974	519.85
666.42	510.85
666.867	508.45
667.313	494.25
667.759	477.85
668.205	477.05
668.651	490.55
669.097	480.65
669.543	496.55
669.989	471.75
670.435	443.25
670.881	448.65
671.327	450.95
671.773	475.05
672.219	487.35
672.665	545.05
673.11	579.25
673.556	626.75
674.002	670.95
674.448	651.95
674.893	552.45
675.339	468.45
675.785	437.55
676.23	423.25
676.676	390.75
677.122	387.95
677.567	375.35
678.013	362.35
678.458	356.65
678.904	364.45
679.349	343.55
679.794	351.75
680.24	353.85
680.685	340.75
681.131	348.95
681.576	347.65
682.021	355.65
682.466	346.35
682.912	351.05
683.357	356.05
683.802	385.75
684.247	406.45
684.692	455.75
685.137	486.85
685.583	531.15
686.028	563.45
686.473	514.35
686.918	442.55
687.363	417.85
687.807	393.65
688.252	361.65
688.697	361.75
689.142	334.45
689.587	332.65
690.032	322.45
690.477	337.75
690.921	349.45
691.366	377.25
691.811	401.25
692.255	426.55
692.7	461.55
693.145	494.55
693.589	691.55
694.034	1111.15
694.478	1506.55
694.923	1718.75
695.367	2239.45
695.812	1172.15
696.256	492.15
696.701	367.55
697.145	347.55
697.59	329.65
698.034	323.05
698.478	324.95
698.922	323.85
699.367	326.25
699.811	338.55
700.255	359.95
700.699	377.55
701.143	422.15
701.588	475.55
702.032	511.05
702.476	514.85
702.92	477.45
703.364	480.45
703.808	632.95
704.252	1018.15
704.696	1429.05
705.14	1665.75
705.584	2103.75
706.027	1048.95
706.471	512.25
706.915	390.75
707.359	357.05
707.803	317.05
708.246	312.75
708.69	304.05
709.134	312.55
709.577	310.35
710.021	318.15
710.465	314.75
710.908	291.55
711.352	292.35
711.795	310.45
712.239	354.55
712.682	379.95
713.126	417.25
713.569	454.25
714.012	368.25
714.456	323.35
714.899	297.75
715.342	272.55
715.786	262.35
716.229	259.65
716.672	254.75
717.115	249.55
717.558	256.45
718.002	252.95
718.445	259.45
718.888	280.25
719.331	289.45
719.774	309.95
720.217	305.55
720.66	281.55
721.103	257.15
721.546	252.85
721.989	250.75
722.432	231.45
722.874	239.25
723.317	228.85
723.76	235.75
724.203	254.55
724.645	317.15
725.088	445.25
725.531	564.55
725.974	635.65
726.416	541.35
726.859	308.85
727.301	247.45
727.744	238.45
728.187	228.65
728.629	239.65
729.071	233.55
729.514	253.85
729.956	270.25
730.399	274.35
730.841	290.15
731.283	269.15
731.726	266.05
732.168	262.95
732.61	265.95
733.053	286.75
733.495	315.35
733.937	349.45
734.379	398.45
734.821	432.75
735.263	533.55
735.705	808.35
736.148	1541.95
736.59	2525.05
737.032	3044.25
737.474	2453.25
737.916	793.75
738.357	424.75
738.799	330.95
739.241	293.55
739.683	283.85
740.125	290.45
740.567	292.35
741.008	314.25
741.45	305.65
741.892	312.55
742.334	341.95
742.775	355.35
743.217	334.15
743.658	265.95
744.1	242.55
744.542	256.25
744.983	307.55
745.425	341.45
745.866	343.05
746.307	284.75
746.749	281.35
747.19	322.55
747.632	439.45
748.073	862.45
748.514	1803.65
748.956	2799.05
749.397	3516.95
749.838	2929.75
750.279	2925.55
750.72	1482.15
751.162	538.05
751.603	316.45
752.044	246.35
752.485	223.45
752.926	215.25
753.367	202.85
753.808	190.95
754.249	188.05
754.69	181.75
755.131	181.35
755.572	184.85
756.013	182.15
756.453	192.45
756.894	183.95
757.335	188.65
757.776	195.75
758.216	188.55
758.657	199.55
759.098	199.85
759.538	221.45
759.979	256.55
760.42	366.65
760.86	685.05
761.301	1773.35
761.741	4312.25
762.182	6339.45
762.622	4455.85
