Data from 20171114-ORNL-Ar_H_NY_Subt18_08-06-29-742.txt Node
Date: Tue Nov 14 08:06:29 EST 2017
User: Ender
Spectrometer: HR+D1039
Trigger mode: 0
Integration Time (sec): 2.730000E-2
Scans to average: 10
Electric dark correction enabled: true
Nonlinearity correction enabled: false
Boxcar width: 0
XAxis mode: Wavelengths
Number of Pixels in Spectrum: 2048
>>>>>Begin Spectral Data<<<<<
187.836	-4.44
188.309	-4.44
188.782	-4.44
189.255	0.66
189.728	-5.74
190.201	10.06
190.674	-1.44
191.147	5.06
191.619	-6.74
192.092	0.76
192.565	1.96
193.038	5.56
193.511	-3.44
193.984	3.36
194.456	-1.14
194.929	-2.14
195.402	1.96
195.874	-4.24
196.347	-2.94
196.82	-3.94
197.292	3.66
197.765	-3.34
198.237	-5.54
198.71	2.96
199.182	-3.94
199.655	-0.14
200.127	-1.04
200.6	-4.24
201.072	6.46
201.544	-5.34
202.017	-5.64
202.489	2.56
202.961	-3.34
203.433	-8.84
203.906	-2.74
204.378	-9.64
204.85	-0.84
205.322	-12.44
205.794	2.86
206.266	-3.64
206.739	-8.14
207.211	1.56
207.683	-6.64
208.155	-2.94
208.627	-7.74
209.099	-0.84
209.57	-9.74
210.042	-4.84
210.514	-4.04
210.986	-2.64
211.458	-7.74
211.93	-6.44
212.402	3.96
212.873	-6.84
213.345	-7.34
213.817	-11.54
214.288	-4.14
214.76	-7.54
215.232	-5.74
215.703	-9.34
216.175	-3.94
216.646	-6.24
217.118	-1.34
217.589	-2.74
218.061	0.46
218.532	-2.74
219.004	-2.04
219.475	-5.94
219.946	-1.34
220.418	-4.74
220.889	-0.04
221.36	-0.74
221.832	-4.24
222.303	-6.34
222.774	-1.64
223.245	-10.34
223.717	-5.14
224.188	-3.44
224.659	-2.34
225.13	-9.24
225.601	5.66
226.072	0.26
226.543	-3.84
227.014	5.46
227.485	4.56
227.956	-5.44
228.427	1.16
228.898	-1.14
229.369	-3.44
229.839	-2.84
230.31	-9.94
230.781	-3.14
231.252	-0.94
231.722	-9.24
232.193	1.16
232.664	-6.64
233.135	-2.84
233.605	-0.84
234.076	-3.94
234.546	0.76
235.017	5.76
235.487	0.36
235.958	-1.84
236.428	-2.24
236.899	-0.84
237.369	-1.84
237.84	-4.34
238.31	2.66
238.78	4.96
239.251	-3.14
239.721	3.36
240.191	-1.74
240.662	1.66
241.132	-3.34
241.602	-5.54
242.072	1.96
242.542	8.16
243.013	0.76
243.483	2.66
243.953	4.66
244.423	-1.84
244.893	-2.14
245.363	1.96
245.833	4.06
246.303	-2.94
246.773	5.06
247.243	2.86
247.712	-2.24
248.182	7.16
248.652	7.86
249.122	0.16
249.592	16.26
250.061	20.36
250.531	27.36
251.001	12.56
251.471	14.06
251.94	19.86
252.41	2.76
252.879	-0.14
253.349	11.06
253.818	6.96
254.288	6.96
254.757	2.76
255.227	7.16
255.696	0.46
256.166	6.06
256.635	7.86
257.105	6.66
257.574	11.06
258.043	4.66
258.513	5.26
258.982	10.66
259.451	3.86
259.92	10.36
260.389	13.16
260.859	17.26
261.328	7.76
261.797	12.66
262.266	6.26
262.735	13.26
263.204	6.96
263.673	-2.24
264.142	1.76
264.611	-6.24
265.08	3.96
265.549	-2.44
266.018	3.66
266.487	-1.94
266.955	-4.54
267.424	0.26
267.893	8.16
268.362	3.06
268.83	3.56
269.299	10.26
269.768	-0.34
270.236	8.66
270.705	4.86
271.174	4.66
271.642	7.66
272.111	13.06
272.579	20.26
273.048	18.16
273.516	34.76
273.985	26.26
274.453	25.36
274.922	18.16
275.39	18.06
275.858	5.66
276.327	13.66
276.795	13.76
277.263	12.66
277.731	27.86
278.2	45.86
278.668	55.16
279.136	51.36
279.604	17.86
280.072	14.56
280.54	16.56
281.008	9.06
281.477	11.26
281.945	15.96
282.413	17.66
282.881	19.36
283.348	10.26
283.816	12.56
284.284	20.36
284.752	26.66
285.22	12.46
285.688	17.96
286.156	14.16
286.623	44.36
287.091	51.26
287.559	28.56
288.026	18.66
288.494	14.26
288.962	5.16
289.429	9.56
289.897	19.26
290.364	15.36
290.832	26.86
291.3	17.76
291.767	14.16
292.234	16.56
292.702	9.46
293.169	18.96
293.637	22.26
294.104	20.96
294.571	6.76
295.039	11.16
295.506	14.86
295.973	14.26
296.44	12.96
296.908	16.26
297.375	18.06
297.842	16.36
298.309	16.26
298.776	13.66
299.243	19.76
299.71	14.56
300.177	18.06
300.644	22.16
301.111	19.46
301.578	19.66
302.045	12.36
302.512	25.56
302.979	27.16
303.446	19.46
303.913	10.96
304.379	18.76
304.846	28.76
305.313	19.36
305.78	22.36
306.246	19.06
306.713	27.76
307.18	26.26
307.646	26.46
308.113	28.96
308.579	26.56
309.046	25.26
309.512	23.46
309.979	16.16
310.445	22.86
310.912	29.76
311.378	27.26
311.845	32.46
312.311	29.06
312.777	30.96
313.244	34.36
313.71	37.16
314.176	22.76
314.642	31.46
315.109	33.06
315.575	36.86
316.041	38.96
316.507	27.26
316.973	37.06
317.439	35.96
317.905	35.16
318.371	38.56
318.837	31.26
319.303	35.66
319.769	34.66
320.235	33.36
320.701	35.56
321.167	34.06
321.633	33.06
322.099	41.16
322.564	44.26
323.03	42.46
323.496	44.56
323.962	43.06
324.427	36.86
324.893	35.46
325.359	38.76
325.824	33.76
326.29	37.36
326.755	40.76
327.221	44.06
327.686	36.96
328.152	46.86
328.617	42.26
329.083	43.96
329.548	51.56
330.014	48.26
330.479	36.16
330.944	42.36
331.41	39.36
331.875	50.46
332.34	47.56
332.805	44.56
333.271	46.26
333.736	50.56
334.201	55.46
334.666	50.46
335.131	52.36
335.596	54.06
336.061	51.86
336.526	41.96
336.991	53.86
337.456	54.56
337.921	52.56
338.386	41.06
338.851	41.66
339.316	48.26
339.781	47.46
340.246	44.76
340.711	45.06
341.175	47.56
341.64	46.46
342.105	52.16
342.569	56.16
343.034	56.76
343.499	55.26
343.963	52.96
344.428	63.26
344.893	59.56
345.357	64.26
345.822	68.16
346.286	69.26
346.751	75.96
347.215	66.76
347.679	83.56
348.144	97.76
348.608	82.06
349.073	70.86
349.537	75.96
350.001	83.06
350.465	98.56
350.93	76.66
351.394	85.56
351.858	73.66
352.322	91.36
352.786	89.66
353.25	103.26
353.715	116.46
354.179	104.76
354.643	125.66
355.107	131.16
355.571	104.06
356.035	99.06
356.498	118.96
356.962	124.56
357.426	136.56
357.89	119.66
358.354	93.56
358.818	91.36
359.281	75.06
359.745	79.06
360.209	80.46
360.673	75.06
361.136	82.46
361.6	83.26
362.064	85.76
362.527	79.26
362.991	87.96
363.454	82.16
363.918	79.76
364.381	82.36
364.845	80.96
365.308	86.26
365.772	84.46
366.235	89.56
366.698	86.06
367.162	90.06
367.625	88.16
368.088	84.46
368.552	94.46
369.015	89.56
369.478	104.46
369.941	101.16
370.404	105.06
370.867	99.86
371.331	110.26
371.794	119.96
372.257	108.86
372.72	121.46
373.183	110.76
373.646	110.26
374.109	105.26
374.572	111.86
375.035	103.26
375.497	116.76
375.96	110.26
376.423	105.96
376.886	105.76
377.349	106.06
377.811	106.96
378.274	106.96
378.737	110.76
379.199	116.86
379.662	117.26
380.125	116.06
380.587	124.96
381.05	128.66
381.512	131.96
381.975	141.26
382.437	131.96
382.9	128.36
383.362	130.76
383.825	150.16
384.287	149.66
384.75	145.56
385.212	145.56
385.674	146.06
386.136	137.76
386.599	127.76
387.061	132.66
387.523	125.16
387.985	131.06
388.447	152.26
388.91	150.96
389.372	160.56
389.834	160.36
390.296	146.66
390.758	148.86
391.22	176.06
391.682	219.96
392.144	312.76
392.606	233.16
393.068	173.36
393.529	172.96
393.991	160.36
394.453	150.36
394.915	162.26
395.377	198.66
395.838	218.26
396.3	164.16
396.762	148.16
397.224	138.76
397.685	136.96
398.147	137.66
398.608	134.96
399.07	124.56
399.531	136.46
399.993	145.96
400.454	160.56
400.916	152.06
401.377	149.86
401.839	153.06
402.3	153.56
402.762	174.66
403.223	188.46
403.684	175.06
404.145	169.56
404.607	166.26
405.068	168.96
405.529	179.76
405.99	190.56
406.451	183.36
406.913	179.66
407.374	177.66
407.835	171.66
408.296	168.36
408.757	175.46
409.218	190.66
409.679	184.96
410.14	183.36
410.601	180.96
411.062	187.56
411.522	198.26
411.983	205.16
412.444	181.16
412.905	182.96
413.366	188.46
413.826	199.76
414.287	224.86
414.748	275.56
415.208	250.96
415.669	221.76
416.13	210.06
416.59	208.46
417.051	216.56
417.511	221.86
417.972	240.06
418.432	252.56
418.893	290.66
419.353	261.66
419.814	207.26
420.274	187.76
420.734	183.86
421.195	212.36
421.655	208.16
422.115	201.46
422.576	202.06
423.036	202.66
423.496	211.86
423.956	217.06
424.416	234.26
424.876	272.56
425.336	267.46
425.797	269.96
426.257	264.26
426.717	244.76
427.177	242.36
427.637	229.66
428.097	246.26
428.556	253.16
429.016	276.16
429.476	272.06
429.936	282.66
430.396	286.66
430.856	300.66
431.315	326.66
431.775	368.36
432.235	388.46
432.694	358.66
433.154	377.06
433.614	405.76
434.073	352.76
434.533	291.56
434.993	285.06
435.452	290.06
435.912	300.56
436.371	296.96
436.83	294.36
437.29	279.46
437.749	254.86
438.209	255.86
438.668	284.76
439.127	290.86
439.587	270.46
440.046	253.26
440.505	261.16
440.964	291.96
441.424	337.26
441.883	325.16
442.342	276.66
442.801	228.16
443.26	222.26
443.719	227.86
444.178	226.56
444.637	217.26
445.096	225.86
445.555	227.56
446.014	229.56
446.473	231.16
446.932	244.96
447.391	229.16
447.849	236.56
448.308	222.96
448.767	240.46
449.226	245.16
449.685	244.36
450.143	250.16
450.602	240.26
451.061	231.96
451.519	240.06
451.978	238.46
452.436	239.96
452.895	251.76
453.353	251.46
453.812	243.16
454.27	245.56
454.729	250.76
455.187	248.26
455.646	256.46
456.104	251.06
456.562	267.16
457.021	282.36
457.479	264.26
457.937	276.26
458.395	270.96
458.854	256.96
459.312	264.66
459.77	281.46
460.228	263.36
460.686	249.36
461.144	257.36
461.602	253.26
462.06	249.96
462.518	260.76
462.976	262.66
463.434	267.56
463.892	274.16
464.35	283.06
464.808	291.96
465.266	277.16
465.724	267.56
466.181	284.76
466.639	278.96
467.097	298.16
467.555	305.26
468.012	309.26
468.47	309.86
468.928	333.66
469.385	351.86
469.843	361.96
470.3	357.26
470.758	373.56
471.215	393.86
471.673	419.96
472.13	417.06
472.588	437.76
473.045	384.86
473.503	386.56
473.96	402.66
474.417	423.06
474.875	450.26
475.332	491.16
475.789	473.36
476.246	481.26
476.704	498.76
477.161	529.56
477.618	543.06
478.075	584.56
478.532	643.86
478.989	716.56
479.446	836.36
479.903	799.26
480.36	842.96
480.817	906.36
481.274	1007.16
481.731	1109.16
482.188	1209.56
482.645	1355.66
483.102	1451.36
483.558	1607.76
484.015	1666.86
484.472	1645.46
484.929	1589.26
485.385	1513.56
485.842	1473.26
486.299	1416.26
486.755	1349.56
487.212	1126.66
487.668	959.06
488.125	874.26
488.582	803.56
489.038	771.26
489.494	734.96
489.951	706.96
490.407	683.16
490.864	663.56
491.32	666.26
491.776	658.46
492.233	668.36
492.689	636.86
493.145	622.26
493.602	622.16
494.058	639.86
494.514	640.86
494.97	660.36
495.426	675.86
495.882	646.86
496.338	637.36
496.794	644.06
497.251	644.66
497.707	652.26
498.163	658.06
498.618	666.36
499.074	660.06
499.53	696.26
499.986	698.86
500.442	667.86
500.898	651.46
501.354	636.26
501.809	644.66
502.265	655.56
502.721	673.36
503.177	693.26
503.632	687.36
504.088	688.96
504.543	727.26
504.999	726.66
505.455	677.96
505.91	653.46
506.366	646.86
506.821	648.66
507.277	635.16
507.732	642.96
508.187	641.56
508.643	647.86
509.098	651.06
509.553	667.56
510.009	680.06
510.464	695.96
510.919	704.96
511.375	714.16
511.83	728.46
512.285	739.86
512.74	779.46
513.195	809.16
513.65	790.96
514.105	784.36
514.56	792.56
515.015	808.26
515.47	823.76
515.925	811.56
516.38	810.46
516.835	818.86
517.29	813.86
517.745	797.96
518.2	782.36
518.655	765.86
519.109	754.56
519.564	759.06
520.019	740.26
520.474	738.66
520.928	757.46
521.383	729.76
521.838	729.76
522.292	738.66
522.747	730.96
523.201	730.46
523.656	713.16
524.11	721.16
524.565	715.76
525.019	709.56
525.474	720.56
525.928	729.26
526.382	707.96
526.837	719.96
527.291	720.46
527.745	715.26
528.2	712.46
528.654	710.36
529.108	713.66
529.562	705.56
530.016	705.26
530.47	719.76
530.925	713.56
531.379	714.16
531.833	723.86
532.287	717.56
532.741	723.16
533.195	723.66
533.649	729.46
534.103	740.96
534.556	730.96
535.01	731.46
535.464	730.16
535.918	738.36
536.372	738.96
536.826	729.76
537.279	723.36
537.733	736.56
538.187	730.56
538.64	743.26
539.094	754.06
539.548	755.36
540.001	749.46
540.455	746.66
540.908	746.36
541.362	756.26
541.815	761.96
542.269	772.26
542.722	788.76
543.175	786.16
543.629	797.66
544.082	799.46
544.536	807.96
544.989	807.56
545.442	817.66
545.895	816.86
546.349	810.66
546.802	818.16
547.255	803.96
547.708	822.26
548.161	837.06
548.614	841.76
549.067	858.46
549.52	848.56
549.973	842.76
550.426	820.46
550.879	815.66
551.332	815.76
551.785	839.16
552.238	832.06
552.691	838.76
553.144	852.36
553.596	863.06
554.049	890.66
554.502	910.06
554.955	937.46
555.407	927.16
555.86	924.26
556.313	912.26
556.765	906.06
557.218	900.76
557.67	903.86
558.123	902.06
558.576	897.46
559.028	900.46
559.48	898.96
559.933	890.06
560.385	859.46
560.838	824.26
561.29	797.16
561.742	799.56
562.195	780.26
562.647	776.16
563.099	795.06
563.551	796.96
564.004	813.76
564.456	794.66
564.908	785.66
565.36	771.06
565.812	749.56
566.264	747.36
566.716	746.86
567.168	729.56
567.62	747.26
568.072	716.26
568.524	716.16
568.976	698.86
569.428	695.06
569.88	690.76
570.332	705.56
570.784	703.66
571.235	697.86
571.687	714.66
572.139	729.76
572.59	725.56
573.042	728.96
573.494	723.56
573.945	717.26
574.397	703.76
574.849	709.66
575.3	708.06
575.752	708.56
576.203	694.86
576.655	695.76
577.106	683.16
577.557	681.76
578.009	685.76
578.46	691.96
578.912	684.06
579.363	691.06
579.814	688.76
580.265	681.96
580.717	674.46
581.168	693.96
581.619	694.36
582.07	697.56
582.521	689.56
582.972	685.46
583.423	700.16
583.875	697.96
584.326	724.86
584.777	760.56
585.227	846.46
585.678	932.26
586.129	1019.16
586.58	1099.96
587.031	1178.66
587.482	1337.56
587.933	1520.56
588.384	1331.36
588.834	992.26
589.285	837.76
589.736	801.66
590.186	791.66
590.637	787.06
591.088	755.76
591.538	760.66
591.989	743.76
592.439	744.76
592.89	725.76
593.34	735.06
593.791	732.76
594.241	725.26
594.692	728.26
595.142	723.66
595.593	714.86
596.043	720.46
596.493	733.76
596.943	735.66
597.394	739.66
597.844	731.96
598.294	752.86
598.744	772.36
599.195	796.66
599.645	841.76
600.095	882.76
600.545	927.66
600.995	986.06
601.445	1051.76
601.895	1109.46
602.345	1150.16
602.795	1138.46
603.245	1095.46
603.695	1038.36
604.145	976.96
604.594	937.76
605.044	876.06
605.494	805.86
605.944	772.16
606.393	762.76
606.843	745.36
607.293	748.46
607.743	747.36
608.192	755.46
608.642	778.26
609.091	784.96
609.541	783.26
609.99	780.26
610.44	796.46
610.889	731.46
611.339	713.56
611.788	706.26
612.238	716.76
612.687	739.16
613.136	731.36
613.586	752.56
614.035	757.56
614.484	773.56
614.933	774.46
615.383	762.86
615.832	773.66
616.281	744.36
616.73	707.76
617.179	683.76
617.628	671.26
618.077	644.86
618.526	633.66
618.975	631.56
619.424	637.86
619.873	626.86
620.322	629.46
620.771	616.06
621.22	613.16
621.669	608.16
622.118	599.26
622.567	594.76
623.015	587.26
623.464	583.06
623.913	573.66
624.361	567.16
624.81	564.46
625.259	570.26
625.707	573.16
626.156	572.76
626.604	573.36
627.053	573.66
627.501	566.16
627.95	576.46
628.398	590.56
628.847	583.46
629.295	579.46
629.744	588.86
630.192	573.16
630.64	586.16
631.089	578.06
631.537	588.86
631.985	596.36
632.433	611.76
632.881	624.36
633.33	670.76
633.778	649.36
634.226	576.66
634.674	579.06
635.122	596.96
635.57	609.56
636.018	640.56
636.466	589.06
636.914	563.96
637.362	584.96
637.81	583.06
638.258	600.76
638.705	576.56
639.153	619.46
639.601	629.06
640.049	648.96
640.497	678.16
640.944	705.96
641.392	655.66
641.84	623.76
642.287	594.56
642.735	583.36
643.182	583.36
643.63	584.46
644.078	587.96
644.525	603.66
644.973	615.26
645.42	617.96
645.867	638.66
646.315	652.36
646.762	680.66
647.21	704.66
647.657	731.26
648.104	770.96
648.551	781.16
648.999	861.66
649.446	939.46
649.893	1024.76
650.34	1191.96
650.787	1428.06
651.234	1784.56
651.682	2304.56
652.129	3178.56
652.576	4570.46
653.023	6739.76
653.47	9278.76
653.917	11577.46
654.363	13331.76
654.81	14759.06
655.257	14045.56
655.704	9181.86
656.151	5399.16
656.598	3492.66
657.044	2479.16
657.491	1910.26
657.938	1523.96
658.385	1277.06
658.831	1097.16
659.278	988.36
659.724	873.66
660.171	796.96
660.618	736.26
661.064	702.36
661.511	684.76
661.957	676.16
662.404	651.66
662.85	667.06
663.296	633.86
663.743	571.16
664.189	558.36
664.635	545.96
665.082	535.76
665.528	539.86
665.974	529.36
666.42	525.66
666.867	519.06
667.313	498.66
667.759	493.06
668.205	489.36
668.651	498.76
669.097	489.56
669.543	510.56
669.989	479.36
670.435	452.66
670.881	450.56
671.327	452.06
671.773	472.16
672.219	497.56
672.665	550.16
673.11	591.06
673.556	632.76
674.002	677.56
674.448	663.96
674.893	550.76
675.339	479.26
675.785	441.96
676.23	423.26
676.676	396.66
677.122	388.26
677.567	375.76
678.013	370.96
678.458	368.46
678.904	367.26
679.349	351.66
679.794	363.86
680.24	353.66
680.685	355.76
681.131	355.96
681.576	356.26
682.021	359.56
682.466	348.46
682.912	359.96
683.357	354.96
683.802	388.76
684.247	411.36
684.692	461.86
685.137	504.06
685.583	543.06
686.028	576.36
686.473	525.96
686.918	445.06
687.363	428.06
687.807	394.86
688.252	374.76
688.697	357.16
689.142	341.66
689.587	331.26
690.032	330.46
690.477	349.86
690.921	357.36
691.366	386.56
691.811	404.56
692.255	435.26
692.7	472.26
693.145	506.56
693.589	701.76
694.034	1141.06
694.478	1551.16
694.923	1755.66
695.367	2273.06
695.812	1205.06
696.256	507.66
696.701	383.96
697.145	348.66
697.59	338.06
698.034	332.06
698.478	332.26
698.922	327.16
699.367	329.66
699.811	343.46
700.255	358.26
700.699	395.96
701.143	430.56
701.588	475.66
702.032	524.76
702.476	516.56
702.92	492.96
703.364	499.36
703.808	653.56
704.252	1050.96
704.696	1468.76
705.14	1690.56
705.584	2166.46
706.027	1078.36
706.471	530.76
706.915	403.86
707.359	354.26
707.803	323.96
708.246	315.36
708.69	314.56
709.134	317.96
709.577	311.76
710.021	316.16
710.465	313.36
710.908	303.06
711.352	302.26
711.795	308.26
712.239	350.56
712.682	389.56
713.126	419.36
713.569	470.06
714.012	382.26
714.456	332.96
714.899	299.86
715.342	287.26
715.786	264.46
716.229	258.76
716.672	259.86
717.115	259.26
717.558	251.46
718.002	253.86
718.445	261.56
718.888	285.76
719.331	296.76
719.774	317.06
720.217	306.66
720.66	287.56
721.103	270.66
721.546	257.06
721.989	247.46
722.432	232.96
722.874	243.36
723.317	238.96
723.76	241.96
724.203	264.96
724.645	329.56
725.088	449.06
725.531	573.86
725.974	651.76
726.416	561.06
726.859	309.66
727.301	251.56
727.744	243.56
728.187	237.16
728.629	240.96
729.071	247.56
729.514	266.56
729.956	277.06
730.399	289.46
730.841	291.86
731.283	273.36
731.726	267.36
732.168	261.16
732.61	265.96
733.053	286.96
733.495	315.46
733.937	360.66
734.379	402.86
734.821	440.16
735.263	543.86
735.705	836.16
736.148	1594.16
736.59	2600.76
737.032	3069.36
737.474	2501.06
737.916	807.46
738.357	432.06
738.799	330.96
739.241	312.36
739.683	288.16
740.125	293.26
740.567	302.96
741.008	324.36
741.45	318.46
741.892	315.76
742.334	346.26
742.775	368.56
743.217	343.46
743.658	268.76
744.1	257.36
744.542	266.56
744.983	307.06
745.425	342.96
745.866	342.56
746.307	288.36
746.749	285.16
747.19	323.46
747.632	460.86
748.073	884.46
748.514	1873.66
748.956	2869.76
749.397	3599.96
749.838	2991.56
750.279	2973.96
750.72	1488.66
751.162	543.96
751.603	316.76
752.044	254.86
752.485	217.46
752.926	211.76
753.367	205.56
753.808	195.56
754.249	192.76
754.69	187.26
755.131	187.66
755.572	184.06
756.013	185.06
756.453	185.56
756.894	191.56
757.335	188.76
757.776	196.16
758.216	196.86
758.657	199.86
759.098	203.76
759.538	236.46
759.979	270.66
760.42	373.86
760.86	704.86
761.301	1828.26
761.741	4454.56
762.182	6455.56
