Data from 20171114-ORNL-Ar_H_NY_Subt18_08-09-10-038.txt Node
Date: Tue Nov 14 08:09:10 EST 2017
User: Ender
Spectrometer: HR+D1039
Trigger mode: 0
Integration Time (sec): 2.730000E-2
Scans to average: 10
Electric dark correction enabled: true
Nonlinearity correction enabled: false
Boxcar width: 0
XAxis mode: Wavelengths
Number of Pixels in Spectrum: 2048
>>>>>Begin Spectral Data<<<<<
187.836	-1.95
188.309	-1.95
188.782	-1.95
189.255	-3.45
189.728	0.05
190.201	2.55
190.674	1.95
191.147	6.55
191.619	-9.75
192.092	0.55
192.565	2.25
193.038	-4.25
193.511	2.15
193.984	-0.25
194.456	-0.05
194.929	5.35
195.402	-2.35
195.874	0.65
196.347	-0.05
196.82	-8.65
197.292	-2.35
197.765	-5.05
198.237	-6.75
198.71	-0.15
199.182	-1.65
199.655	-4.35
200.127	0.55
200.6	-3.75
201.072	-5.65
201.544	-4.05
202.017	-7.25
202.489	-0.55
202.961	-1.05
203.433	-4.55
203.906	-5.25
204.378	-3.05
204.85	-4.95
205.322	-7.75
205.794	-3.65
206.266	0.35
206.739	-10.35
207.211	-1.55
207.683	-5.25
208.155	-1.45
208.627	-13.65
209.099	-5.55
209.57	-8.05
210.042	-6.05
210.514	-4.35
210.986	-2.05
211.458	-11.85
211.93	-3.05
212.402	0.75
212.873	-7.75
213.345	-10.85
213.817	-13.35
214.288	-1.35
214.76	-10.95
215.232	-6.05
215.703	-5.85
216.175	-2.45
216.646	-5.05
217.118	-6.75
217.589	-3.65
218.061	-2.25
218.532	-2.35
219.004	-4.75
219.475	0.45
219.946	-1.25
220.418	-3.15
220.889	3.05
221.36	-4.35
221.832	-2.25
222.303	-6.85
222.774	6.55
223.245	-6.85
223.717	-2.95
224.188	-1.55
224.659	-9.25
225.13	-10.85
225.601	-5.55
226.072	5.95
226.543	-0.05
227.014	-1.05
227.485	-2.45
227.956	-3.05
228.427	-8.95
228.898	-6.85
229.369	0.55
229.839	-2.55
230.31	-11.15
230.781	-2.85
231.252	-7.05
231.722	-8.85
232.193	-8.05
232.664	-6.25
233.135	-4.15
233.605	-5.35
234.076	-6.35
234.546	-1.35
235.017	2.95
235.487	0.75
235.958	-5.55
236.428	-4.45
236.899	-3.85
237.369	-0.75
237.84	-6.55
238.31	-1.95
238.78	-7.75
239.251	-7.55
239.721	-10.25
240.191	-2.95
240.662	-3.15
241.132	-2.35
241.602	-3.15
242.072	-4.85
242.542	4.15
243.013	-5.05
243.483	0.85
243.953	-0.55
244.423	-8.35
244.893	-9.45
245.363	-5.55
245.833	-2.65
246.303	-8.25
246.773	-0.55
247.243	-5.25
247.712	0.05
248.182	3.15
248.652	3.35
249.122	-9.95
249.592	1.35
250.061	5.35
250.531	6.65
251.001	-3.85
251.471	4.25
251.94	1.35
252.41	-4.85
252.879	-6.45
253.349	9.45
253.818	2.65
254.288	-0.75
254.757	-0.45
255.227	-6.45
255.696	-3.95
256.166	-0.95
256.635	-1.45
257.105	-2.25
257.574	-3.15
258.043	1.15
258.513	-2.15
258.982	-0.45
259.451	-7.45
259.92	-0.85
260.389	1.05
260.859	7.25
261.328	0.05
261.797	5.75
262.266	-4.35
262.735	2.85
263.204	0.95
263.673	-4.75
264.142	0.25
264.611	-8.95
265.08	-6.35
265.549	-1.55
266.018	0.65
266.487	-4.45
266.955	-6.85
267.424	-4.35
267.893	1.95
268.362	0.45
268.83	-2.25
269.299	4.85
269.768	1.85
270.236	-0.45
270.705	-4.95
271.174	-0.35
271.642	2.25
272.111	1.55
272.579	1.85
273.048	2.25
273.516	-1.25
273.985	-0.75
274.453	7.75
274.922	9.15
275.39	1.15
275.858	3.05
276.327	1.85
276.795	7.95
277.263	-0.95
277.731	12.65
278.2	9.45
278.668	13.55
279.136	14.85
279.604	2.65
280.072	7.55
280.54	5.15
281.008	6.25
281.477	10.35
281.945	9.25
282.413	9.15
282.881	8.85
283.348	3.25
283.816	12.15
284.284	9.85
284.752	15.25
285.22	9.15
285.688	9.55
286.156	5.45
286.623	12.45
287.091	3.25
287.559	8.45
288.026	0.75
288.494	3.45
288.962	0.25
289.429	3.95
289.897	10.85
290.364	7.85
290.832	8.85
291.3	5.95
291.767	5.15
292.234	9.45
292.702	2.85
293.169	5.75
293.637	8.85
294.104	7.75
294.571	2.65
295.039	9.85
295.506	6.05
295.973	4.75
296.44	6.35
296.908	7.95
297.375	11.65
297.842	8.75
298.309	7.95
298.776	4.75
299.243	11.45
299.71	5.35
300.177	17.25
300.644	20.75
301.111	11.15
301.578	17.65
302.045	8.85
302.512	15.15
302.979	16.65
303.446	16.55
303.913	5.55
304.379	4.65
304.846	20.25
305.313	14.15
305.78	7.05
306.246	12.85
306.713	14.85
307.18	13.75
307.646	16.75
308.113	10.15
308.579	15.75
309.046	12.15
309.512	9.95
309.979	7.15
310.445	23.05
310.912	15.05
311.378	25.65
311.845	21.75
312.311	20.85
312.777	23.75
313.244	21.15
313.71	21.95
314.176	18.65
314.642	21.95
315.109	18.35
315.575	31.25
316.041	18.75
316.507	20.25
316.973	27.05
317.439	15.75
317.905	27.55
318.371	24.85
318.837	22.95
319.303	24.45
319.769	26.45
320.235	21.15
320.701	23.65
321.167	23.85
321.633	16.65
322.099	30.65
322.564	26.35
323.03	26.15
323.496	27.85
323.962	25.95
324.427	22.25
324.893	33.85
325.359	28.85
325.824	32.35
326.29	25.25
326.755	27.15
327.221	31.95
327.686	27.15
328.152	32.65
328.617	33.35
329.083	38.35
329.548	39.45
330.014	40.45
330.479	25.35
330.944	38.05
331.41	35.15
331.875	32.65
332.34	31.35
332.805	33.75
333.271	33.15
333.736	28.75
334.201	38.95
334.666	35.35
335.131	43.25
335.596	34.05
336.061	35.25
336.526	30.35
336.991	32.95
337.456	48.85
337.921	39.15
338.386	34.15
338.851	39.35
339.316	39.15
339.781	38.15
340.246	44.45
340.711	35.65
341.175	40.55
341.64	32.95
342.105	36.85
342.569	40.05
343.034	42.45
343.499	40.05
343.963	38.55
344.428	50.95
344.893	48.15
345.357	48.75
345.822	53.85
346.286	52.05
346.751	60.55
347.215	49.25
347.679	50.45
348.144	71.95
348.608	66.05
349.073	59.95
349.537	57.65
350.001	60.35
350.465	64.75
350.93	62.45
351.394	66.05
351.858	58.65
352.322	70.15
352.786	65.35
353.25	74.55
353.715	88.85
354.179	73.25
354.643	94.85
355.107	96.65
355.571	83.35
356.035	74.45
356.498	86.25
356.962	93.55
357.426	93.55
357.89	97.85
358.354	75.85
358.818	70.15
359.281	60.65
359.745	65.45
360.209	55.45
360.673	59.35
361.136	70.15
361.6	71.85
362.064	72.65
362.527	71.45
362.991	74.05
363.454	68.65
363.918	63.95
364.381	61.35
364.845	76.35
365.308	74.85
365.772	77.65
366.235	74.75
366.698	63.65
367.162	66.45
367.625	71.15
368.088	80.15
368.552	73.35
369.015	78.65
369.478	78.55
369.941	82.45
370.404	80.55
370.867	81.25
371.331	93.25
371.794	92.95
372.257	81.05
372.72	90.55
373.183	85.15
373.646	81.15
374.109	79.85
374.572	81.95
375.035	90.85
375.497	89.75
375.96	87.75
376.423	91.45
376.886	102.05
377.349	94.95
377.811	87.35
378.274	89.15
378.737	89.65
379.199	91.55
379.662	92.65
380.125	104.45
380.587	95.15
381.05	97.25
381.512	107.15
381.975	110.35
382.437	102.95
382.9	106.75
383.362	111.05
383.825	113.25
384.287	115.35
384.75	106.25
385.212	110.45
385.674	117.45
386.136	117.85
386.599	107.35
387.061	111.45
387.523	109.95
387.985	115.85
388.447	123.15
388.91	108.65
389.372	114.95
389.834	125.35
390.296	110.35
390.758	118.15
391.22	125.75
391.682	136.55
392.144	156.35
392.606	138.55
393.068	135.65
393.529	144.15
393.991	131.25
394.453	124.45
394.915	119.95
395.377	128.95
395.838	125.85
396.3	127.25
396.762	133.35
397.224	124.45
397.685	127.65
398.147	132.85
398.608	124.95
399.07	130.05
399.531	132.15
399.993	132.35
400.454	145.15
400.916	140.95
401.377	137.05
401.839	139.55
402.3	136.95
402.762	159.35
403.223	169.45
403.684	159.45
404.145	153.85
404.607	151.25
405.068	151.45
405.529	155.85
405.99	172.35
406.451	160.75
406.913	166.25
407.374	155.35
407.835	151.95
408.296	159.15
408.757	155.35
409.218	172.65
409.679	171.35
410.14	162.95
410.601	174.75
411.062	172.35
411.522	170.85
411.983	168.35
412.444	166.95
412.905	169.85
413.366	179.85
413.826	193.95
414.287	217.65
414.748	255.05
415.208	236.25
415.669	209.15
416.13	209.35
416.59	201.55
417.051	216.65
417.511	219.85
417.972	240.95
418.432	244.25
418.893	280.75
419.353	248.05
419.814	197.05
420.274	186.05
420.734	182.65
421.195	189.15
421.655	187.45
422.115	192.65
422.576	185.95
423.036	196.75
423.496	202.35
423.956	214.45
424.416	225.15
424.876	261.65
425.336	258.15
425.797	253.25
426.257	245.85
426.717	230.75
427.177	224.95
427.637	221.45
428.097	226.45
428.556	238.15
429.016	257.85
429.476	252.55
429.936	259.55
430.396	266.85
430.856	276.65
431.315	303.85
431.775	328.35
432.235	359.25
432.694	330.55
433.154	342.45
433.614	368.05
434.073	327.65
434.533	270.35
434.993	257.95
435.452	270.65
435.912	284.25
436.371	276.25
436.83	274.05
437.29	259.25
437.749	238.55
438.209	236.35
438.668	270.15
439.127	277.15
439.587	252.95
440.046	241.05
440.505	248.55
440.964	265.15
441.424	302.75
441.883	305.95
442.342	254.55
442.801	219.45
443.26	216.35
443.719	227.05
444.178	223.15
444.637	215.75
445.096	221.95
445.555	220.45
446.014	230.45
446.473	231.45
446.932	232.15
447.391	232.75
447.849	234.35
448.308	221.65
448.767	225.15
449.226	238.85
449.685	239.35
450.143	251.25
450.602	244.95
451.061	229.15
451.519	240.65
451.978	236.85
452.436	233.15
452.895	238.95
453.353	253.45
453.812	242.75
454.27	241.75
454.729	237.15
455.187	241.45
455.646	249.95
456.104	253.15
456.562	263.35
457.021	268.25
457.479	265.65
457.937	277.25
458.395	262.15
458.854	246.75
459.312	260.35
459.77	269.75
460.228	267.05
460.686	241.15
461.144	249.15
461.602	248.25
462.06	249.85
462.518	256.15
462.976	266.25
463.434	260.65
463.892	264.55
464.35	277.05
464.808	293.15
465.266	276.05
465.724	273.15
466.181	281.35
466.639	278.15
467.097	299.35
467.555	306.05
468.012	309.65
468.47	311.35
468.928	331.45
469.385	341.35
469.843	350.45
470.3	352.15
470.758	359.75
471.215	386.75
471.673	407.25
472.13	409.65
472.588	416.95
473.045	392.65
473.503	386.35
473.96	391.05
474.417	406.75
474.875	438.45
475.332	480.65
475.789	471.25
476.246	468.45
476.704	485.85
477.161	504.25
477.618	513.25
478.075	559.85
478.532	611.95
478.989	672.75
479.446	786.15
479.903	755.15
480.36	785.15
480.817	832.95
481.274	925.05
481.731	1009.15
482.188	1077.95
482.645	1200.65
483.102	1282.95
483.558	1400.75
484.015	1440.15
484.472	1409.25
484.929	1366.55
485.385	1351.55
485.842	1300.85
486.299	1260.15
486.755	1215.75
487.212	1028.55
487.668	886.05
488.125	823.15
488.582	762.35
489.038	740.65
489.494	701.15
489.951	669.65
490.407	668.65
490.864	642.65
491.32	638.25
491.776	642.25
492.233	647.35
492.689	611.95
493.145	612.15
493.602	604.95
494.058	620.05
494.514	613.95
494.97	636.95
495.426	640.45
495.882	626.75
496.338	615.55
496.794	614.35
497.251	624.45
497.707	626.75
498.163	634.65
498.618	635.45
499.074	637.85
499.53	668.35
499.986	662.55
500.442	637.55
500.898	624.55
501.354	606.25
501.809	627.85
502.265	624.35
502.721	635.15
503.177	647.55
503.632	659.25
504.088	658.15
504.543	674.15
504.999	693.95
505.455	655.85
505.91	645.05
506.366	635.05
506.821	644.65
507.277	633.15
507.732	639.05
508.187	642.65
508.643	652.85
509.098	652.55
509.553	664.65
510.009	673.15
510.464	685.45
510.919	699.35
511.375	696.25
511.83	717.65
512.285	736.55
512.74	759.85
513.195	777.15
513.65	769.75
514.105	771.45
514.56	771.45
515.015	799.45
515.47	807.95
515.925	787.05
516.38	796.65
516.835	796.65
517.29	788.15
517.745	790.95
518.2	771.45
518.655	759.35
519.109	747.25
519.564	743.65
520.019	725.85
520.474	733.05
520.928	734.45
521.383	731.45
521.838	722.55
522.292	728.35
522.747	723.85
523.201	724.05
523.656	703.25
524.11	709.25
524.565	707.75
525.019	700.85
525.474	698.65
525.928	694.75
526.382	709.35
526.837	713.95
527.291	718.35
527.745	717.05
528.2	704.05
528.654	696.95
529.108	691.65
529.562	697.05
530.016	699.35
530.47	699.05
530.925	693.75
531.379	697.55
531.833	705.85
532.287	711.75
532.741	715.35
533.195	714.55
533.649	726.85
534.103	722.45
534.556	707.95
535.01	719.55
535.464	699.35
535.918	722.25
536.372	730.65
536.826	725.15
537.279	714.25
537.733	717.55
538.187	722.65
538.64	729.05
539.094	730.45
539.548	743.15
540.001	737.65
540.455	734.05
540.908	744.25
541.362	746.05
541.815	775.65
542.269	773.05
542.722	773.75
543.175	776.95
543.629	790.65
544.082	801.25
544.536	798.05
544.989	806.35
545.442	808.15
545.895	805.85
546.349	816.65
546.802	814.55
547.255	820.45
547.708	826.15
548.161	833.95
548.614	845.55
549.067	850.65
549.52	836.55
549.973	827.55
550.426	822.75
550.879	820.15
551.332	816.85
551.785	822.15
552.238	826.65
552.691	837.75
553.144	854.55
553.596	878.55
554.049	878.45
554.502	901.95
554.955	922.05
555.407	920.05
555.86	917.15
556.313	907.55
556.765	893.95
557.218	898.05
557.67	910.85
558.123	893.85
558.576	899.45
559.028	895.25
559.48	892.55
559.933	891.25
560.385	863.45
560.838	827.55
561.29	814.55
561.742	801.85
562.195	790.55
562.647	795.15
563.099	799.65
563.551	794.65
564.004	800.55
564.456	791.35
564.908	778.25
565.36	761.95
565.812	739.35
566.264	744.55
566.716	735.85
567.168	723.05
567.62	730.75
568.072	712.55
568.524	714.15
568.976	706.25
569.428	695.85
569.88	700.05
570.332	703.95
570.784	712.75
571.235	708.15
571.687	721.75
572.139	717.95
572.59	728.55
573.042	727.55
573.494	724.85
573.945	716.35
574.397	704.25
574.849	709.45
575.3	709.15
575.752	701.25
576.203	689.15
576.655	696.65
577.106	695.05
577.557	681.95
578.009	685.25
578.46	688.95
578.912	681.15
579.363	695.65
579.814	682.85
580.265	686.95
580.717	687.35
581.168	685.45
581.619	696.85
582.07	688.35
582.521	692.95
582.972	682.35
583.423	695.25
583.875	698.55
584.326	711.45
584.777	724.65
585.227	750.85
585.678	765.15
586.129	791.85
586.58	821.95
587.031	845.35
587.482	888.55
587.933	932.25
588.384	895.25
588.834	837.85
589.285	790.25
589.736	793.25
590.186	796.65
590.637	798.85
591.088	768.45
591.538	756.25
591.989	748.95
592.439	752.45
592.89	745.95
593.34	730.45
593.791	728.95
594.241	718.65
594.692	708.45
595.142	717.55
595.593	709.95
596.043	728.65
596.493	726.15
596.943	726.95
597.394	739.75
597.844	744.55
598.294	751.05
598.744	787.35
599.195	808.35
599.645	852.85
600.095	893.45
600.545	944.15
600.995	1000.75
601.445	1068.05
601.895	1112.45
602.345	1163.65
602.795	1155.95
603.245	1102.45
603.695	1044.05
604.145	988.25
604.594	945.35
605.044	884.15
605.494	818.85
605.944	777.05
606.393	760.55
606.843	743.15
607.293	750.75
607.743	748.85
608.192	752.15
608.642	771.85
609.091	781.35
609.541	789.45
609.99	779.85
610.44	774.05
610.889	734.25
611.339	723.35
611.788	698.55
612.238	704.35
612.687	727.05
613.136	720.15
613.586	734.75
614.035	727.05
614.484	731.35
614.933	731.95
615.383	739.25
615.832	735.85
616.281	720.95
616.73	694.25
617.179	680.05
617.628	661.45
618.077	641.95
618.526	634.25
618.975	638.65
619.424	629.05
619.873	629.95
620.322	634.95
620.771	627.35
621.22	616.85
621.669	603.85
622.118	602.65
622.567	600.75
623.015	581.65
623.464	589.25
623.913	565.55
624.361	569.75
624.81	572.55
625.259	574.75
625.707	577.35
626.156	568.25
626.604	580.55
627.053	574.55
627.501	576.65
627.95	580.45
628.398	599.15
628.847	580.25
629.295	595.95
629.744	590.35
630.192	588.45
630.64	583.25
631.089	573.45
631.537	564.95
631.985	555.15
632.433	554.65
632.881	540.15
633.33	557.35
633.778	549.05
634.226	548.45
634.674	556.75
635.122	562.85
635.57	572.05
636.018	588.95
636.466	584.25
636.914	568.85
637.362	587.45
637.81	596.95
638.258	595.55
638.705	607.35
639.153	638.05
639.601	649.55
640.049	658.25
640.497	699.65
640.944	719.95
641.392	667.35
641.84	630.25
642.287	596.85
642.735	585.85
643.182	589.25
643.63	576.95
644.078	569.95
644.525	588.65
644.973	597.55
645.42	612.95
645.867	631.75
646.315	662.45
646.762	678.55
647.21	714.15
647.657	724.75
648.104	765.25
648.551	782.05
648.999	831.75
649.446	908.75
649.893	1001.35
650.34	1145.35
650.787	1357.85
651.234	1680.65
651.682	2162.35
652.129	2963.85
652.576	4209.95
653.023	6142.05
653.47	8250.35
653.917	10206.65
654.363	11661.75
654.81	12807.85
655.257	12121.05
655.704	8040.05
656.151	4823.75
656.598	3174.95
657.044	2288.95
657.491	1775.15
657.938	1438.65
658.385	1215.05
658.831	1060.95
659.278	955.25
659.724	842.65
660.171	782.85
660.618	724.85
661.064	684.45
661.511	675.55
661.957	661.35
662.404	651.95
662.85	659.85
663.296	636.65
663.743	571.65
664.189	554.85
664.635	546.95
665.082	541.15
665.528	545.25
665.974	529.35
666.42	524.15
666.867	519.35
667.313	505.35
667.759	476.25
668.205	470.65
668.651	477.25
669.097	472.85
669.543	463.15
669.989	461.25
670.435	465.95
670.881	461.45
671.327	469.85
671.773	483.05
672.219	511.15
672.665	563.45
673.11	615.45
673.556	668.55
674.002	689.05
674.448	684.05
674.893	579.35
675.339	496.95
675.785	452.95
676.23	441.95
676.676	408.75
677.122	402.65
677.567	398.95
678.013	382.05
678.458	379.65
678.904	387.05
679.349	367.55
679.794	378.05
680.24	362.95
680.685	360.55
681.131	358.05
681.576	365.75
682.021	363.95
682.466	364.75
682.912	360.15
683.357	370.45
683.802	398.15
684.247	436.05
684.692	476.65
685.137	521.35
685.583	556.15
686.028	583.05
686.473	552.25
686.918	461.05
687.363	433.45
687.807	414.75
688.252	386.05
688.697	374.05
689.142	355.85
689.587	344.25
690.032	340.75
690.477	361.45
690.921	373.55
691.366	401.85
691.811	417.85
692.255	456.05
692.7	494.75
693.145	545.65
693.589	766.45
694.034	1233.15
694.478	1653.05
694.923	1817.45
695.367	2362.15
695.812	1256.15
696.256	526.75
696.701	383.05
697.145	354.45
697.59	340.15
698.034	336.45
698.478	340.55
698.922	331.65
699.367	342.85
699.811	347.25
700.255	368.35
700.699	407.45
701.143	441.45
701.588	498.65
702.032	537.65
702.476	547.05
702.92	518.85
703.364	530.95
703.808	697.95
704.252	1138.15
704.696	1565.05
705.14	1752.75
705.584	2217.75
706.027	1123.95
706.471	551.75
706.915	416.95
707.359	370.75
707.803	340.95
708.246	316.35
708.69	327.85
709.134	333.05
709.577	333.95
710.021	326.25
710.465	311.15
710.908	311.35
711.352	308.35
711.795	329.95
712.239	377.45
712.682	414.15
713.126	429.25
713.569	481.75
714.012	373.45
714.456	325.15
714.899	304.25
715.342	300.95
715.786	274.65
716.229	274.95
716.672	268.35
717.115	261.75
717.558	259.75
718.002	261.85
718.445	281.35
718.888	302.45
719.331	310.45
719.774	319.75
720.217	315.15
720.66	305.05
721.103	279.35
721.546	272.75
721.989	265.15
722.432	243.95
722.874	246.25
723.317	240.75
723.76	249.45
724.203	269.25
724.645	344.45
725.088	479.95
725.531	613.35
725.974	670.75
726.416	563.85
726.859	322.65
727.301	263.05
727.744	250.35
728.187	248.75
728.629	250.35
729.071	258.85
729.514	275.05
729.956	284.05
730.399	301.25
730.841	309.45
731.283	288.95
731.726	276.95
732.168	274.45
732.61	287.05
733.053	297.95
733.495	339.25
733.937	369.65
734.379	426.55
734.821	463.25
735.263	591.65
735.705	921.85
736.148	1762.75
736.59	2797.65
737.032	3178.75
737.474	2598.45
737.916	868.55
738.357	466.55
738.799	346.75
739.241	316.95
739.683	296.15
740.125	310.35
740.567	316.05
741.008	330.05
741.45	332.85
741.892	332.35
742.334	370.55
742.775	381.45
743.217	359.25
743.658	291.15
744.1	274.75
744.542	283.35
744.983	337.25
745.425	363.15
745.866	362.25
746.307	300.95
746.749	294.65
747.19	353.35
747.632	505.85
748.073	993.25
748.514	2067.05
748.956	3044.95
749.397	3858.45
749.838	3184.65
750.279	3092.65
750.72	1587.85
751.162	584.85
751.603	343.55
752.044	269.55
752.485	233.45
752.926	221.25
753.367	209.65
753.808	200.75
754.249	206.55
754.69	200.35
755.131	191.35
755.572	190.35
756.013	187.15
756.453	192.85
756.894	189.55
757.335	201.05
757.776	212.15
758.216	207.95
758.657	215.55
759.098	214.35
759.538	242.15
759.979	284.15
760.42	409.95
760.86	804.85
761.301	2094.85
761.741	4900.45
762.182	6714.95
762.622	4730.45
763.063	1400.85
763.503	568.35
