Data from 20171114-ORNL-Ar_H_NY_Subt18_08-06-48-305.txt Node
Date: Tue Nov 14 08:06:48 EST 2017
User: Ender
Spectrometer: HR+D1039
Trigger mode: 0
Integration Time (sec): 2.730000E-2
Scans to average: 10
Electric dark correction enabled: true
Nonlinearity correction enabled: false
Boxcar width: 0
XAxis mode: Wavelengths
Number of Pixels in Spectrum: 2048
>>>>>Begin Spectral Data<<<<<
187.836	1.06
188.309	1.06
188.782	1.06
189.255	-1.34
189.728	-2.94
190.201	3.36
190.674	-1.74
191.147	-0.14
191.619	-13.24
192.092	3.76
192.565	5.06
193.038	3.16
193.511	3.56
193.984	3.66
194.456	-0.44
194.929	2.06
195.402	-7.84
195.874	1.96
196.347	-2.84
196.82	-10.44
197.292	1.46
197.765	-4.84
198.237	-0.64
198.71	1.66
199.182	1.76
199.655	-2.24
200.127	-0.34
200.6	-3.14
201.072	-6.04
201.544	-4.54
202.017	-6.14
202.489	6.56
202.961	-4.54
203.433	-4.54
203.906	-11.64
204.378	-7.64
204.85	-6.24
205.322	-11.04
205.794	2.26
206.266	-2.24
206.739	-13.24
207.211	-0.64
207.683	-8.54
208.155	-6.04
208.627	-11.74
209.099	-4.14
209.57	-4.24
210.042	-2.24
210.514	-6.74
210.986	-2.74
211.458	-12.44
211.93	-9.34
212.402	2.06
212.873	-11.74
213.345	-9.74
213.817	-13.84
214.288	-7.94
214.76	-13.04
215.232	-2.74
215.703	-9.24
216.175	-2.74
216.646	-5.34
217.118	-5.24
217.589	-7.64
218.061	-0.74
218.532	-7.34
219.004	-2.64
219.475	-6.14
219.946	-2.04
220.418	-12.94
220.889	0.56
221.36	-2.94
221.832	-7.94
222.303	-10.94
222.774	-8.34
223.245	-7.54
223.717	-6.24
224.188	-5.64
224.659	-11.34
225.13	-7.64
225.601	-3.64
226.072	-1.04
226.543	-3.44
227.014	0.56
227.485	-5.34
227.956	-6.74
228.427	-3.44
228.898	-0.04
229.369	2.06
229.839	-7.14
230.31	-4.24
230.781	-2.04
231.252	-8.44
231.722	-6.24
232.193	-5.04
232.664	-0.54
233.135	-2.74
233.605	-2.84
234.076	-4.54
234.546	-4.74
235.017	3.26
235.487	1.26
235.958	-6.04
236.428	-7.74
236.899	-5.34
237.369	-1.24
237.84	-10.04
238.31	3.66
238.78	-8.54
239.251	-5.34
239.721	-3.94
240.191	-8.54
240.662	-9.14
241.132	-7.84
241.602	-4.74
242.072	-7.54
242.542	0.36
243.013	-5.84
243.483	-1.44
243.953	3.96
244.423	-6.14
244.893	-5.14
245.363	-5.44
245.833	-0.94
246.303	-2.84
246.773	2.16
247.243	-2.34
247.712	-4.24
248.182	-1.34
248.652	-1.84
249.122	-8.64
249.592	-0.24
250.061	3.16
250.531	-1.34
251.001	-4.94
251.471	4.26
251.94	-0.74
252.41	-1.34
252.879	-5.74
253.349	8.76
253.818	-0.84
254.288	1.76
254.757	-4.84
255.227	-2.14
255.696	-3.84
256.166	-2.04
256.635	0.66
257.105	2.56
257.574	1.26
258.043	-1.44
258.513	-3.14
258.982	-2.04
259.451	-5.24
259.92	6.66
260.389	-2.44
260.859	3.06
261.328	1.86
261.797	5.36
262.266	-2.64
262.735	11.06
263.204	2.76
263.673	-8.34
264.142	6.36
264.611	-7.94
265.08	-0.44
265.549	-1.34
266.018	-1.94
266.487	-4.64
266.955	-3.44
267.424	-0.94
267.893	3.26
268.362	-2.14
268.83	1.76
269.299	6.96
269.768	5.96
270.236	7.66
270.705	-4.44
271.174	2.56
271.642	3.16
272.111	6.76
272.579	-2.24
273.048	0.86
273.516	0.46
273.985	3.96
274.453	6.76
274.922	15.86
275.39	6.46
275.858	-0.44
276.327	9.06
276.795	8.26
277.263	3.06
277.731	6.16
278.2	3.46
278.668	8.46
279.136	10.66
279.604	4.36
280.072	12.06
280.54	6.66
281.008	9.36
281.477	5.86
281.945	9.26
282.413	15.36
282.881	10.86
283.348	2.56
283.816	13.76
284.284	6.76
284.752	19.76
285.22	5.36
285.688	11.86
286.156	8.56
286.623	16.06
287.091	12.06
287.559	8.66
288.026	11.46
288.494	11.66
288.962	2.76
289.429	10.56
289.897	12.76
290.364	12.76
290.832	15.26
291.3	12.26
291.767	10.46
292.234	17.96
292.702	8.96
293.169	13.06
293.637	15.76
294.104	14.76
294.571	7.46
295.039	8.66
295.506	8.76
295.973	14.96
296.44	9.86
296.908	11.76
297.375	13.96
297.842	17.66
298.309	11.56
298.776	11.16
299.243	14.66
299.71	9.86
300.177	15.76
300.644	11.26
301.111	13.26
301.578	21.46
302.045	13.66
302.512	21.36
302.979	20.36
303.446	14.36
303.913	11.26
304.379	11.96
304.846	21.76
305.313	19.86
305.78	18.96
306.246	21.06
306.713	20.06
307.18	20.76
307.646	21.06
308.113	27.96
308.579	25.76
309.046	21.86
309.512	24.86
309.979	10.86
310.445	26.76
310.912	30.06
311.378	27.16
311.845	22.16
312.311	27.16
312.777	29.06
313.244	31.16
313.71	28.16
314.176	27.76
314.642	25.96
315.109	26.56
315.575	32.46
316.041	33.06
316.507	28.36
316.973	29.16
317.439	25.16
317.905	31.96
318.371	33.26
318.837	30.66
319.303	35.16
319.769	25.86
320.235	30.36
320.701	34.06
321.167	32.46
321.633	24.86
322.099	33.06
322.564	34.86
323.03	30.86
323.496	35.76
323.962	39.26
324.427	31.76
324.893	39.96
325.359	34.76
325.824	35.06
326.29	36.06
326.755	33.06
327.221	39.26
327.686	31.56
328.152	42.26
328.617	38.16
329.083	44.66
329.548	48.86
330.014	40.96
330.479	33.86
330.944	38.96
331.41	44.06
331.875	35.56
332.34	43.96
332.805	42.26
333.271	42.56
333.736	36.16
334.201	42.96
334.666	51.46
335.131	46.26
335.596	50.96
336.061	42.86
336.526	39.86
336.991	50.16
337.456	49.16
337.921	47.76
338.386	39.36
338.851	49.16
339.316	46.46
339.781	44.16
340.246	51.06
340.711	35.96
341.175	50.86
341.64	41.36
342.105	45.86
342.569	54.36
343.034	53.06
343.499	52.76
343.963	49.66
344.428	64.76
344.893	56.96
345.357	60.76
345.822	60.56
346.286	63.96
346.751	68.06
347.215	58.46
347.679	67.26
348.144	86.26
348.608	77.26
349.073	67.26
349.537	74.66
350.001	72.26
350.465	86.16
350.93	74.46
351.394	82.46
351.858	65.66
352.322	79.16
352.786	80.26
353.25	87.36
353.715	99.56
354.179	91.46
354.643	111.76
355.107	116.36
355.571	94.06
356.035	92.86
356.498	104.66
356.962	111.56
357.426	115.86
357.89	99.96
358.354	81.26
358.818	79.96
359.281	76.86
359.745	70.26
360.209	73.66
360.673	69.96
361.136	78.66
361.6	77.16
362.064	76.86
362.527	76.96
362.991	89.16
363.454	75.36
363.918	71.86
364.381	76.26
364.845	78.86
365.308	87.56
365.772	89.26
366.235	79.96
366.698	77.96
367.162	82.36
367.625	83.56
368.088	85.06
368.552	87.76
369.015	87.66
369.478	96.16
369.941	99.36
370.404	87.86
370.867	93.76
371.331	98.46
371.794	108.36
372.257	94.86
372.72	103.76
373.183	102.16
373.646	97.36
374.109	93.96
374.572	105.66
375.035	96.26
375.497	106.06
375.96	100.96
376.423	105.46
376.886	109.46
377.349	107.56
377.811	96.76
378.274	103.46
378.737	101.16
379.199	110.66
379.662	106.26
380.125	113.36
380.587	106.16
381.05	108.16
381.512	113.26
381.975	118.96
382.437	115.46
382.9	114.06
383.362	119.56
383.825	133.66
384.287	132.06
384.75	113.36
385.212	119.56
385.674	131.76
386.136	134.26
386.599	121.46
387.061	120.56
387.523	115.26
387.985	125.36
388.447	138.16
388.91	129.16
389.372	128.66
389.834	126.36
390.296	125.16
390.758	135.86
391.22	138.06
391.682	146.56
392.144	154.36
392.606	143.66
393.068	142.26
393.529	155.06
393.991	140.66
394.453	127.86
394.915	131.26
395.377	138.76
395.838	134.96
396.3	138.06
396.762	146.66
397.224	143.36
397.685	131.06
398.147	131.16
398.608	136.66
399.07	140.56
399.531	143.56
399.993	141.76
400.454	152.86
400.916	152.36
401.377	142.86
401.839	158.26
402.3	151.06
402.762	167.36
403.223	185.46
403.684	173.56
404.145	167.66
404.607	164.36
405.068	172.16
405.529	172.66
405.99	194.56
406.451	178.46
406.913	177.16
407.374	166.76
407.835	167.66
408.296	169.16
408.757	179.66
409.218	188.36
409.679	183.96
410.14	174.66
410.601	178.96
411.062	182.06
411.522	181.16
411.983	182.46
412.444	179.86
412.905	185.96
413.366	189.16
413.826	207.96
414.287	227.96
414.748	278.76
415.208	265.36
415.669	226.36
416.13	217.06
416.59	210.96
417.051	222.66
417.511	229.56
417.972	261.46
418.432	260.16
418.893	310.86
419.353	269.86
419.814	209.36
420.274	192.96
420.734	188.96
421.195	206.06
421.655	197.66
422.115	200.16
422.576	207.76
423.036	204.16
423.496	221.86
423.956	227.76
424.416	248.46
424.876	277.96
425.336	270.96
425.797	268.96
426.257	259.66
426.717	249.36
427.177	236.76
427.637	229.16
428.097	252.86
428.556	259.46
429.016	278.56
429.476	274.36
429.936	282.96
430.396	289.46
430.856	290.36
431.315	314.86
431.775	356.76
432.235	385.26
432.694	356.16
433.154	369.66
433.614	399.86
434.073	344.16
434.533	289.26
434.993	277.56
435.452	281.36
435.912	298.66
436.371	283.96
436.83	290.66
437.29	281.66
437.749	255.46
438.209	258.66
438.668	279.46
439.127	294.16
439.587	275.96
440.046	262.76
440.505	276.16
440.964	287.76
441.424	334.56
441.883	326.96
442.342	275.76
442.801	238.46
443.26	227.76
443.719	235.66
444.178	231.86
444.637	221.16
445.096	242.06
445.555	246.66
446.014	237.06
446.473	240.06
446.932	248.76
447.391	242.26
447.849	243.06
448.308	232.66
448.767	230.96
449.226	247.06
449.685	251.46
450.143	272.56
450.602	256.36
451.061	242.16
451.519	248.06
451.978	242.96
452.436	250.56
452.895	260.96
453.353	271.46
453.812	251.66
454.27	248.66
454.729	250.06
455.187	257.76
455.646	263.26
456.104	258.96
456.562	275.36
457.021	294.36
457.479	278.96
457.937	291.46
458.395	273.26
458.854	269.66
459.312	274.46
459.77	292.26
460.228	274.86
460.686	261.96
461.144	269.66
461.602	262.06
462.06	262.06
462.518	270.46
462.976	279.56
463.434	277.56
463.892	282.86
464.35	283.56
464.808	307.06
465.266	282.86
465.724	291.26
466.181	294.06
466.639	297.36
467.097	308.16
467.555	322.06
468.012	315.56
468.47	333.16
468.928	352.96
469.385	357.66
469.843	370.36
470.3	368.56
470.758	382.16
471.215	407.56
471.673	426.26
472.13	428.26
472.588	439.96
473.045	394.56
473.503	395.36
473.96	420.96
474.417	431.06
474.875	457.46
475.332	501.56
475.789	488.36
476.246	493.56
476.704	512.86
477.161	532.96
477.618	548.76
478.075	583.76
478.532	643.66
478.989	717.26
479.446	827.96
479.903	798.16
480.36	824.76
480.817	878.26
481.274	966.36
481.731	1062.56
482.188	1137.36
482.645	1267.86
483.102	1346.66
483.558	1484.96
484.015	1531.66
484.472	1501.86
484.929	1458.26
485.385	1414.46
485.842	1370.36
486.299	1344.86
486.755	1286.16
487.212	1091.96
487.668	930.46
488.125	874.16
488.582	805.06
489.038	772.46
489.494	740.46
489.951	716.46
490.407	692.76
490.864	680.56
491.32	661.36
491.776	680.26
492.233	677.36
492.689	647.06
493.145	641.06
493.602	635.76
494.058	647.76
494.514	652.46
494.97	672.86
495.426	689.76
495.882	659.16
496.338	651.26
496.794	654.76
497.251	651.86
497.707	669.86
498.163	683.26
498.618	672.76
499.074	676.36
499.53	710.76
499.986	705.26
500.442	687.36
500.898	664.86
501.354	650.86
501.809	664.36
502.265	664.06
502.721	675.16
503.177	678.26
503.632	674.96
504.088	686.56
504.543	715.16
504.999	735.26
505.455	699.66
505.91	670.16
506.366	679.06
506.821	674.46
507.277	680.76
507.732	673.76
508.187	682.36
508.643	678.86
509.098	680.36
509.553	713.66
510.009	711.36
510.464	711.16
510.919	740.96
511.375	750.16
511.83	761.06
512.285	775.46
512.74	810.16
513.195	829.36
513.65	826.96
514.105	813.96
514.56	828.26
515.015	845.06
515.47	843.56
515.925	826.26
516.38	838.56
516.835	839.06
517.29	819.16
517.745	826.66
518.2	811.76
518.655	799.96
519.109	787.86
519.564	783.56
520.019	781.56
520.474	773.46
520.928	779.36
521.383	764.76
521.838	752.16
522.292	746.76
522.747	756.86
523.201	759.36
523.656	740.16
524.11	739.56
524.565	745.46
525.019	735.66
525.474	740.26
525.928	744.46
526.382	749.26
526.837	743.86
527.291	748.26
527.745	756.26
528.2	737.96
528.654	738.56
529.108	730.26
529.562	738.06
530.016	726.76
530.47	731.36
530.925	738.76
531.379	726.36
531.833	747.06
532.287	745.36
532.741	741.36
533.195	748.76
533.649	752.96
534.103	769.66
534.556	754.76
535.01	760.66
535.464	742.96
535.918	770.46
536.372	766.56
536.826	764.36
537.279	756.16
537.733	764.16
538.187	765.96
538.64	759.06
539.094	778.36
539.548	774.06
540.001	777.16
540.455	777.46
540.908	775.96
541.362	783.96
541.815	800.46
542.269	820.46
542.722	806.46
543.175	822.46
543.629	820.76
544.082	841.46
544.536	832.86
544.989	833.06
545.442	848.66
545.895	845.86
546.349	832.46
546.802	852.96
547.255	856.36
547.708	851.86
548.161	867.76
548.614	884.26
549.067	887.86
549.52	876.06
549.973	871.76
550.426	863.66
550.879	842.96
551.332	854.76
551.785	856.66
552.238	867.06
552.691	872.46
553.144	896.86
553.596	903.96
554.049	928.06
554.502	950.06
554.955	964.86
555.407	964.86
555.86	966.46
556.313	958.16
556.765	943.76
557.218	942.86
557.67	926.46
558.123	936.36
558.576	933.76
559.028	929.56
559.48	938.66
559.933	933.56
560.385	898.26
560.838	865.36
561.29	848.56
561.742	839.76
562.195	819.56
562.647	813.76
563.099	824.96
563.551	827.06
564.004	840.86
564.456	823.96
564.908	812.06
565.36	792.26
565.812	772.26
566.264	761.76
566.716	749.16
567.168	749.36
567.62	754.26
568.072	747.06
568.524	743.66
568.976	726.56
569.428	719.16
569.88	723.86
570.332	719.66
570.784	736.16
571.235	727.86
571.687	732.16
572.139	744.96
572.59	754.56
573.042	763.86
573.494	751.46
573.945	751.36
574.397	730.16
574.849	742.86
575.3	740.06
575.752	733.46
576.203	719.96
576.655	732.96
577.106	715.56
577.557	708.36
578.009	701.86
578.46	702.06
578.912	706.96
579.363	717.76
579.814	710.46
580.265	704.96
580.717	709.96
581.168	721.76
581.619	722.66
582.07	723.26
582.521	713.06
582.972	714.66
583.423	719.56
583.875	717.16
584.326	724.36
584.777	743.16
585.227	758.86
585.678	774.16
586.129	791.16
586.58	809.56
587.031	838.46
587.482	871.96
587.933	899.86
588.384	882.86
588.834	830.16
589.285	809.56
589.736	816.96
590.186	800.66
590.637	805.96
591.088	781.16
591.538	780.96
591.989	777.96
592.439	773.86
592.89	759.16
593.34	743.36
593.791	747.86
594.241	737.46
594.692	738.56
595.142	740.06
595.593	730.26
596.043	739.26
596.493	740.86
596.943	749.66
597.394	763.66
597.844	749.86
598.294	776.16
598.744	794.26
599.195	817.86
599.645	886.16
600.095	909.16
600.545	974.36
600.995	1028.36
601.445	1073.76
601.895	1165.96
602.345	1181.66
602.795	1176.16
603.245	1142.06
603.695	1064.66
604.145	1016.26
604.594	972.76
605.044	913.66
605.494	847.36
605.944	797.36
606.393	792.56
606.843	765.96
607.293	768.56
607.743	759.56
608.192	776.06
608.642	789.46
609.091	801.06
609.541	796.06
609.99	794.56
610.44	793.16
610.889	747.66
611.339	731.86
611.788	723.16
612.238	721.06
612.687	728.06
613.136	729.16
613.586	749.56
614.035	730.06
614.484	744.56
614.933	744.16
615.383	744.56
615.832	731.86
616.281	739.06
616.73	702.66
617.179	681.46
617.628	674.26
618.077	657.96
618.526	654.16
618.975	640.26
619.424	648.86
619.873	649.06
620.322	654.96
620.771	636.86
621.22	632.36
621.669	623.16
622.118	611.06
622.567	610.56
623.015	602.76
623.464	599.46
623.913	590.86
624.361	585.26
624.81	581.26
625.259	595.46
625.707	587.96
626.156	582.56
626.604	586.56
627.053	593.06
627.501	598.06
627.95	596.96
628.398	606.96
628.847	600.86
629.295	594.66
629.744	597.46
630.192	594.96
630.64	591.06
631.089	572.46
631.537	559.16
631.985	560.86
632.433	559.36
632.881	551.26
633.33	563.06
633.778	546.16
634.226	547.36
634.674	561.26
635.122	567.96
635.57	579.76
636.018	587.36
636.466	585.86
636.914	588.46
637.362	601.76
637.81	597.36
638.258	607.46
638.705	608.66
639.153	644.56
639.601	646.96
640.049	669.86
640.497	695.36
640.944	725.16
641.392	677.86
641.84	646.46
642.287	611.46
642.735	582.46
643.182	589.46
643.63	593.16
644.078	587.16
644.525	598.76
644.973	605.66
645.42	614.76
645.867	640.06
646.315	662.16
646.762	685.06
647.21	705.36
647.657	726.26
648.104	761.26
648.551	780.46
648.999	836.26
649.446	906.36
649.893	994.66
650.34	1133.16
650.787	1361.86
651.234	1690.66
651.682	2141.46
652.129	2905.76
652.576	4140.86
653.023	6042.16
653.47	8196.06
653.917	10136.16
654.363	11691.36
654.81	12935.06
655.257	12268.56
655.704	8134.86
656.151	4913.26
656.598	3211.56
657.044	2323.36
657.491	1801.76
657.938	1456.46
658.385	1226.06
658.831	1071.66
659.278	961.36
659.724	854.26
660.171	800.46
660.618	732.56
661.064	699.16
661.511	694.36
661.957	668.76
662.404	660.46
662.85	666.46
663.296	645.66
663.743	581.46
664.189	559.76
664.635	547.96
665.082	554.76
665.528	547.76
665.974	533.56
666.42	528.96
666.867	519.56
667.313	506.86
667.759	488.36
668.205	464.36
668.651	471.46
669.097	472.16
669.543	459.06
669.989	463.66
670.435	462.66
670.881	460.16
671.327	467.36
671.773	490.26
672.219	523.46
672.665	570.16
673.11	613.76
673.556	654.96
674.002	696.06
674.448	680.36
674.893	579.46
675.339	494.76
675.785	461.26
676.23	440.66
676.676	414.26
677.122	407.66
677.567	392.26
678.013	376.86
678.458	375.96
678.904	376.66
679.349	366.46
679.794	370.66
680.24	364.46
680.685	360.56
681.131	358.16
681.576	364.86
682.021	368.66
682.466	370.16
682.912	362.86
683.357	372.06
683.802	397.46
684.247	429.76
684.692	478.26
685.137	525.06
685.583	569.66
686.028	596.46
686.473	548.96
686.918	473.56
687.363	438.36
687.807	419.56
688.252	384.36
688.697	370.56
689.142	351.66
689.587	349.26
690.032	345.46
690.477	356.06
690.921	372.26
691.366	395.86
691.811	414.26
692.255	446.96
692.7	486.66
693.145	528.56
693.589	740.36
694.034	1198.46
694.478	1618.56
694.923	1834.46
695.367	2385.46
695.812	1264.46
696.256	525.36
696.701	384.06
697.145	357.46
697.59	346.56
698.034	342.16
698.478	336.46
698.922	340.16
699.367	335.06
699.811	347.16
700.255	367.36
700.699	401.56
701.143	442.16
701.588	497.06
702.032	526.66
702.476	544.76
702.92	521.16
703.364	519.16
703.808	673.46
704.252	1100.36
704.696	1532.76
705.14	1764.86
705.584	2253.36
706.027	1115.96
706.471	544.86
706.915	420.76
707.359	369.36
707.803	337.46
708.246	323.66
708.69	326.56
709.134	327.16
709.577	330.56
710.021	326.56
710.465	320.96
710.908	306.86
711.352	313.86
711.795	324.26
712.239	359.96
712.682	398.46
713.126	435.26
713.569	471.06
714.012	377.56
714.456	318.26
714.899	296.06
715.342	282.96
715.786	282.86
716.229	268.96
716.672	269.26
717.115	256.06
717.558	263.06
718.002	268.16
718.445	267.06
718.888	289.36
719.331	305.16
719.774	318.36
720.217	321.06
720.66	294.56
721.103	282.06
721.546	264.66
721.989	253.46
722.432	249.06
722.874	245.76
723.317	241.06
723.76	244.56
724.203	264.96
724.645	328.96
725.088	467.56
725.531	596.46
725.974	672.46
726.416	568.86
726.859	328.66
727.301	262.26
727.744	244.46
728.187	239.36
728.629	245.06
729.071	249.36
729.514	266.66
729.956	277.56
730.399	297.96
730.841	296.96
731.283	289.96
731.726	278.26
732.168	283.16
732.61	286.96
733.053	304.66
733.495	340.16
733.937	365.46
734.379	423.26
734.821	459.36
735.263	573.46
735.705	876.96
736.148	1674.66
736.59	2731.36
737.032	3238.56
737.474	2627.96
737.916	858.66
738.357	450.66
738.799	346.46
739.241	320.16
739.683	297.76
740.125	307.86
740.567	314.76
741.008	336.76
741.45	328.26
741.892	334.26
742.334	371.16
742.775	384.36
743.217	365.76
743.658	286.36
744.1	266.86
744.542	287.36
744.983	332.66
745.425	374.66
745.866	361.16
746.307	293.96
746.749	288.76
747.19	338.36
747.632	474.16
748.073	936.46
748.514	1976.26
748.956	3017.96
749.397	3778.66
749.838	3137.46
750.279	3128.96
750.72	1600.56
751.162	587.46
751.603	340.66
752.044	268.36
752.485	232.26
752.926	218.36
753.367	211.06
753.808	203.66
754.249	202.66
754.69	195.06
755.131	192.86
755.572	195.26
756.013	190.56
756.453	190.56
756.894	196.46
757.335	198.36
757.776	207.56
758.216	206.36
758.657	208.66
759.098	210.36
759.538	241.06
759.979	283.06
760.42	401.56
760.86	743.56
761.301	1935.06
761.741	4710.76
762.182	6794.46
