Data from 20171114-ORNL-Ar_H_NY_Subt18_08-08-13-473.txt Node
Date: Tue Nov 14 08:08:13 EST 2017
User: Ender
Spectrometer: HR+D1039
Trigger mode: 0
Integration Time (sec): 2.730000E-2
Scans to average: 10
Electric dark correction enabled: true
Nonlinearity correction enabled: false
Boxcar width: 0
XAxis mode: Wavelengths
Number of Pixels in Spectrum: 2048
>>>>>Begin Spectral Data<<<<<
187.836	-3.8
188.309	-3.8
188.782	-3.8
189.255	-0.3
189.728	0.6
190.201	9
190.674	0.3
191.147	2.6
191.619	-6.1
192.092	0.2
192.565	1.9
193.038	0.6
193.511	0.7
193.984	-1.1
194.456	-3.7
194.929	1.3
195.402	-1.9
195.874	-0.3
196.347	-2.5
196.82	-7.6
197.292	3.4
197.765	5.5
198.237	-6
198.71	4.1
199.182	1.6
199.655	0.7
200.127	3.4
200.6	-1.5
201.072	0.8
201.544	-5.9
202.017	-4.8
202.489	6.7
202.961	0.2
203.433	-2.3
203.906	-5.7
204.378	-9.8
204.85	-5.9
205.322	-9.1
205.794	-3.3
206.266	-3.4
206.739	-9.6
207.211	-2
207.683	-2.4
208.155	-8.9
208.627	-9.3
209.099	-2.7
209.57	-13.5
210.042	-0
210.514	-3.7
210.986	0.7
211.458	-6.2
211.93	-3.2
212.402	5.1
212.873	-4.3
213.345	-3.8
213.817	-10.7
214.288	-4.2
214.76	-4.5
215.232	1.5
215.703	0.4
216.175	-8.5
216.646	2.1
217.118	-6
217.589	-8.7
218.061	-6.3
218.532	-2.7
219.004	-7.8
219.475	-2.2
219.946	-4.4
220.418	-9.5
220.889	-4.1
221.36	-1.5
221.832	-7.4
222.303	-7.5
222.774	0.8
223.245	-8.5
223.717	-3.1
224.188	-8.9
224.659	-12
225.13	-2.7
225.601	-0
226.072	-0.1
226.543	-5.1
227.014	1.1
227.485	-4.5
227.956	-6.2
228.427	-4.8
228.898	-0.9
229.369	4.9
229.839	-4.1
230.31	-5.1
230.781	8.7
231.252	-7.1
231.722	-4.7
232.193	-5.3
232.664	-2.5
233.135	-1
233.605	-1.8
234.076	-9.2
234.546	-6.5
235.017	5.2
235.487	-0.8
235.958	-3.1
236.428	-0.8
236.899	2.5
237.369	7.6
237.84	-1.4
238.31	8.5
238.78	1.9
239.251	-3
239.721	0.6
240.191	-1.1
240.662	-3
241.132	1.5
241.602	-4.1
242.072	-1.4
242.542	7.1
243.013	-0.7
243.483	6.2
243.953	5.9
244.423	1.6
244.893	-1.3
245.363	0.8
245.833	4.9
246.303	5.5
246.773	7.3
247.243	-1.9
247.712	3
248.182	5.3
248.652	7.5
249.122	-2.3
249.592	14.7
250.061	20.4
250.531	30.1
251.001	9.9
251.471	17
251.94	20.1
252.41	8.8
252.879	-1
253.349	10.8
253.818	7.8
254.288	4
254.757	0.2
255.227	2.1
255.696	8.2
256.166	5.1
256.635	6.7
257.105	7.7
257.574	4.1
258.043	-0.3
258.513	10.3
258.982	14
259.451	5.7
259.92	15.5
260.389	8.5
260.859	16.2
261.328	5
261.797	20.3
262.266	8.1
262.735	12.1
263.204	1.5
263.673	5.3
264.142	3.7
264.611	-4.2
265.08	-0.1
265.549	-2.4
266.018	5.8
266.487	-3.8
266.955	-1.6
267.424	3.4
267.893	1.3
268.362	-0.9
268.83	2.9
269.299	8.8
269.768	4.5
270.236	6.9
270.705	11.7
271.174	5.6
271.642	8.8
272.111	4.8
272.579	11.4
273.048	17.8
273.516	25.4
273.985	29.3
274.453	18.1
274.922	22.6
275.39	15.7
275.858	6
276.327	12.1
276.795	20.3
277.263	10.1
277.731	26.1
278.2	53.8
278.668	52
279.136	36.9
279.604	14.9
280.072	15.8
280.54	10.3
281.008	7.1
281.477	16.2
281.945	18.4
282.413	19.6
282.881	13.4
283.348	2.4
283.816	6.5
284.284	13.4
284.752	20.2
285.22	14.8
285.688	17.3
286.156	18.9
286.623	41.9
287.091	48.2
287.559	29.5
288.026	19
288.494	19.4
288.962	4.9
289.429	2.3
289.897	20.1
290.364	9.5
290.832	12.4
291.3	14.4
291.767	16.3
292.234	20.8
292.702	16.2
293.169	16.6
293.637	21.5
294.104	18.5
294.571	5.5
295.039	10
295.506	8.9
295.973	17.2
296.44	13
296.908	17.9
297.375	13.2
297.842	15.5
298.309	18.1
298.776	11.2
299.243	23
299.71	10.8
300.177	20
300.644	20.5
301.111	17.9
301.578	21.6
302.045	20
302.512	23.9
302.979	21.4
303.446	21.8
303.913	18.7
304.379	20.5
304.846	29.9
305.313	23.8
305.78	17.6
306.246	21.7
306.713	26.2
307.18	24.3
307.646	21.6
308.113	29.2
308.579	23.2
309.046	25.2
309.512	25.2
309.979	22.6
310.445	29.8
310.912	30.2
311.378	32
311.845	24.7
312.311	34.4
312.777	30.4
313.244	33.9
313.71	39.6
314.176	27.5
314.642	29.7
315.109	33.3
315.575	38.3
316.041	37.1
316.507	34.4
316.973	29
317.439	37
317.905	36.3
318.371	30.8
318.837	36.2
319.303	35.3
319.769	29.9
320.235	30
320.701	30.7
321.167	34.4
321.633	30.9
322.099	36.7
322.564	40.6
323.03	37.6
323.496	36.6
323.962	42.3
324.427	35.2
324.893	41.1
325.359	37.4
325.824	39
326.29	40.8
326.755	41
327.221	38.2
327.686	38.8
328.152	40.6
328.617	40.3
329.083	45.9
329.548	46.6
330.014	49.2
330.479	39.4
330.944	39.9
331.41	40.8
331.875	47.9
332.34	40.7
332.805	42.7
333.271	48.6
333.736	39.8
334.201	55.5
334.666	49.7
335.131	55.6
335.596	51.5
336.061	48.8
336.526	47.8
336.991	50.5
337.456	54.7
337.921	51.4
338.386	47.3
338.851	40.1
339.316	47.7
339.781	47.4
340.246	55.4
340.711	46.9
341.175	50.4
341.64	41
342.105	55.4
342.569	58.2
343.034	63.9
343.499	57.1
343.963	53.9
344.428	58.2
344.893	63.2
345.357	65
345.822	66.8
346.286	67.8
346.751	72.9
347.215	69.4
347.679	79.1
348.144	100.9
348.608	89.4
349.073	68.2
349.537	80.1
350.001	78.6
350.465	89
350.93	74.1
351.394	85.1
351.858	72.9
352.322	85.6
352.786	81.7
353.25	101.4
353.715	113.4
354.179	104
354.643	123.6
355.107	124.2
355.571	108.2
356.035	102.7
356.498	119.1
356.962	131
357.426	134.6
357.89	119.7
358.354	90.3
358.818	78.8
359.281	80.8
359.745	77.1
360.209	77.7
360.673	77.5
361.136	77.4
361.6	83.7
362.064	80.1
362.527	88.7
362.991	91.7
363.454	79.9
363.918	81.7
364.381	77.1
364.845	84.8
365.308	85.7
365.772	90
366.235	85.5
366.698	82.1
367.162	90
367.625	91.4
368.088	91.6
368.552	84.7
369.015	96.9
369.478	99.9
369.941	112.5
370.404	97.4
370.867	102.9
371.331	108
371.794	117
372.257	111.4
372.72	124.1
373.183	112.2
373.646	109.7
374.109	108.7
374.572	112.3
375.035	110.7
375.497	113.1
375.96	102.5
376.423	112.8
376.886	120.6
377.349	116.9
377.811	102.3
378.274	104.4
378.737	110.1
379.199	113.9
379.662	116.2
380.125	117.4
380.587	118.7
381.05	126.9
381.512	133.6
381.975	135.9
382.437	134
382.9	133.8
383.362	138.4
383.825	147.8
384.287	152
384.75	142.4
385.212	144.7
385.674	144.6
386.136	134.3
386.599	128.3
387.061	137
387.523	134.1
387.985	138.5
388.447	147.6
388.91	156.3
389.372	167.5
389.834	158.9
390.296	154.3
390.758	166
391.22	172.2
391.682	217.2
392.144	315.3
392.606	241
393.068	171.7
393.529	176
393.991	155.8
394.453	153.7
394.915	158.7
395.377	200.5
395.838	223.3
396.3	163.3
396.762	149.4
397.224	144.5
397.685	137.2
398.147	119.3
398.608	134.6
399.07	128.7
399.531	135.5
399.993	153.3
400.454	159.5
400.916	155.2
401.377	141.8
401.839	150.2
402.3	156.8
402.762	171.4
403.223	183.7
403.684	172.7
404.145	164.1
404.607	163
405.068	171.7
405.529	177.7
405.99	196.9
406.451	182.9
406.913	181
407.374	170.3
407.835	161.7
408.296	169.3
408.757	182.5
409.218	193.9
409.679	187.3
410.14	179.4
410.601	183.8
411.062	187.6
411.522	196.2
411.983	200.9
412.444	184
412.905	185.6
413.366	193.2
413.826	202.2
414.287	227.2
414.748	267.1
415.208	252
415.669	210.3
416.13	205.9
416.59	209.3
417.051	218.4
417.511	227.7
417.972	254
418.432	253.7
418.893	292.9
419.353	255.3
419.814	204.9
420.274	186.3
420.734	192.4
421.195	200.2
421.655	206.1
422.115	200.4
422.576	194.8
423.036	198.8
423.496	214.4
423.956	218.9
424.416	235.1
424.876	271.9
425.336	266.9
425.797	269.5
426.257	252.5
426.717	243.4
427.177	237.1
427.637	235.6
428.097	244.4
428.556	250.1
429.016	276.2
429.476	273.5
429.936	284.6
430.396	297.2
430.856	303
431.315	321.7
431.775	357.9
432.235	391.4
432.694	359.5
433.154	382.3
433.614	407.3
434.073	349.4
434.533	293
434.993	279.7
435.452	290.5
435.912	313.1
436.371	297
436.83	292.3
437.29	278.4
437.749	250.8
438.209	255.2
438.668	281.5
439.127	301.2
439.587	272.9
440.046	252.6
440.505	262.7
440.964	285.6
441.424	336
441.883	320.6
442.342	266.2
442.801	228.9
443.26	228.2
443.719	228.2
444.178	222.8
444.637	215.2
445.096	220.7
445.555	235.4
446.014	228.3
446.473	227.7
446.932	241.6
447.391	231.8
447.849	234
448.308	220
448.767	229.3
449.226	238
449.685	237.9
450.143	252.7
450.602	239.3
451.061	228.4
451.519	233.7
451.978	241.2
452.436	243.9
452.895	244.5
453.353	256.8
453.812	248.3
454.27	243.5
454.729	245.8
455.187	250.7
455.646	253
456.104	252.7
456.562	265.8
457.021	267.2
457.479	262.6
457.937	280.3
458.395	265.9
458.854	253.3
459.312	253
459.77	282.4
460.228	256.8
460.686	253.3
461.144	252.2
461.602	251.8
462.06	250.1
462.518	253.2
462.976	260.2
463.434	262.1
463.892	262.8
464.35	275.9
464.808	292.8
465.266	278.2
465.724	272.3
466.181	284.9
466.639	273.7
467.097	301.3
467.555	304.7
468.012	302.1
468.47	315.9
468.928	340.5
469.385	346
469.843	348.9
470.3	357.1
470.758	363.2
471.215	388.4
471.673	412.2
472.13	414.5
472.588	427.9
473.045	379.7
473.503	384.9
473.96	393.3
474.417	408.3
474.875	437.4
475.332	489
475.789	469.1
476.246	471.6
476.704	493.3
477.161	513
477.618	525.1
478.075	573.7
478.532	626.9
478.989	700.3
479.446	810.5
479.903	780.5
480.36	813.2
480.817	865.7
481.274	977
481.731	1083.9
482.188	1178.7
482.645	1316.8
483.102	1423.8
483.558	1552.5
484.015	1612.6
484.472	1567.6
484.929	1531.1
485.385	1486.8
485.842	1430.8
486.299	1381.9
486.755	1322.8
487.212	1111.1
487.668	938.2
488.125	857.4
488.582	788.5
489.038	756.1
489.494	717.2
489.951	696.2
490.407	679.3
490.864	663.4
491.32	646.4
491.776	647.6
492.233	647.5
492.689	616.3
493.145	602.8
493.602	598.5
494.058	621.3
494.514	611.9
494.97	637.7
495.426	655
495.882	616.3
496.338	615.4
496.794	632.9
497.251	628.9
497.707	638.3
498.163	636.8
498.618	648.5
499.074	644.3
499.53	675.4
499.986	676.6
500.442	653.7
500.898	634.3
501.354	624.3
501.809	638.8
502.265	646.5
502.721	666.3
503.177	677.8
503.632	669.6
504.088	682.5
504.543	710.9
504.999	717.7
505.455	663.7
505.91	633.4
506.366	642.6
506.821	625.5
507.277	630.8
507.732	627.5
508.187	637.8
508.643	635.7
509.098	633.9
509.553	660
510.009	661.1
510.464	669.5
510.919	691.3
511.375	702.2
511.83	710
512.285	725.6
512.74	754
513.195	783.2
513.65	756.1
514.105	765.8
514.56	774.4
515.015	787.3
515.47	813.7
515.925	782.8
516.38	786.9
516.835	794.2
517.29	781.2
517.745	771.4
518.2	759.2
518.655	743.4
519.109	742.2
519.564	738.6
520.019	722.3
520.474	704.9
520.928	724.3
521.383	715.9
521.838	698.7
522.292	708.6
522.747	718
523.201	705.3
523.656	698.3
524.11	695.7
524.565	687.5
525.019	685.4
525.474	703.8
525.928	697.6
526.382	700.1
526.837	695.8
527.291	705.9
527.745	703.3
528.2	702.4
528.654	688
529.108	682.4
529.562	684.9
530.016	691.2
530.47	689.5
530.925	691.9
531.379	697.1
531.833	702.5
532.287	701.8
532.741	693.8
533.195	700.7
533.649	714.8
534.103	718.4
534.556	707.8
535.01	704.3
535.464	694.5
535.918	710.4
536.372	718.8
536.826	720.6
537.279	700.6
537.733	709.3
538.187	721.1
538.64	716.8
539.094	720.5
539.548	719.7
540.001	725.6
540.455	729.3
540.908	730.1
541.362	742
541.815	753.1
542.269	758.8
542.722	751.5
543.175	767.2
543.629	765.8
544.082	783.8
544.536	794.1
544.989	781.6
545.442	794.6
545.895	789.2
546.349	797.1
546.802	788.5
547.255	794.3
547.708	802.2
548.161	816.8
548.614	821.6
549.067	834.7
549.52	822.2
549.973	813
550.426	805.7
550.879	791
551.332	799
551.785	819.1
552.238	808.7
552.691	817.1
553.144	826.5
553.596	844.7
554.049	867.9
554.502	898
554.955	912.5
555.407	914.1
555.86	893.1
556.313	883.6
556.765	883
557.218	881.8
557.67	875
558.123	873.8
558.576	870.2
559.028	865.3
559.48	873.1
559.933	866.5
560.385	832.3
560.838	812.3
561.29	776.7
561.742	785.3
562.195	764
562.647	764.8
563.099	775.1
563.551	787.7
564.004	786.7
564.456	778.9
564.908	765.8
565.36	744.4
565.812	738.6
566.264	734
566.716	728.8
567.168	722.3
567.62	733.4
568.072	707.2
568.524	701.4
568.976	690.6
569.428	679.5
569.88	675.2
570.332	672
570.784	680.7
571.235	682.3
571.687	694.2
572.139	708.6
572.59	718.9
573.042	711
573.494	711
573.945	716.9
574.397	693.4
574.849	698.3
575.3	689.9
575.752	684.9
576.203	680.6
576.655	683.3
577.106	665.8
577.557	658.5
578.009	666.9
578.46	668.3
578.912	663.5
579.363	666.2
579.814	667.7
580.265	653.2
580.717	669.5
581.168	675
581.619	676.2
582.07	682
582.521	665.7
582.972	676.3
583.423	687.3
583.875	686.6
584.326	703.5
584.777	751.1
585.227	844.4
585.678	935.8
586.129	1023.2
586.58	1084.4
587.031	1162.7
587.482	1321.6
587.933	1514.5
588.384	1302.1
588.834	967.2
589.285	818.2
589.736	791.7
590.186	777.5
590.637	765.2
591.088	737.1
591.538	742
591.989	734.6
592.439	719.9
592.89	727.9
593.34	703.2
593.791	705.9
594.241	710.5
594.692	698.8
595.142	705.8
595.593	698.9
596.043	714.6
596.493	724.4
596.943	721.4
597.394	726.8
597.844	710.6
598.294	723.1
598.744	753.3
599.195	776.1
599.645	826.9
600.095	858.2
600.545	906
600.995	967.2
601.445	1028.2
601.895	1088.5
602.345	1122
602.795	1109.3
603.245	1078
603.695	1001.3
604.145	957.7
604.594	914.7
605.044	849.5
605.494	796.8
605.944	747.4
606.393	748
606.843	728.7
607.293	729.6
607.743	738.8
608.192	747.2
608.642	755.6
609.091	763.7
609.541	761.7
609.99	775.5
610.44	778.2
610.889	719.1
611.339	704.4
611.788	689.1
612.238	709.2
612.687	718.2
613.136	730.2
613.586	750.2
614.035	746.4
614.484	768.2
614.933	760.6
615.383	753.4
615.832	745.7
616.281	731.5
616.73	690.9
617.179	668.4
617.628	656.3
618.077	639.1
618.526	625.8
618.975	630.2
619.424	620.6
619.873	622.6
620.322	627.7
620.771	613.5
621.22	610.6
621.669	602.8
622.118	593.6
622.567	576.5
623.015	570.7
623.464	571.4
623.913	563
624.361	560.4
624.81	551.9
625.259	560.7
625.707	556.2
626.156	556.9
626.604	569.7
627.053	572
627.501	564.5
627.95	573.5
628.398	583.2
628.847	569.7
629.295	572.1
629.744	576.6
630.192	583.6
630.64	576.8
631.089	572.7
631.537	578.4
631.985	594.4
632.433	609.2
632.881	620
633.33	664.2
633.778	650.2
634.226	569.2
634.674	579.7
635.122	574.7
635.57	604.8
636.018	636.5
636.466	583
636.914	555.3
637.362	570
637.81	578.6
638.258	585.9
638.705	581.2
639.153	621.5
639.601	617.3
640.049	648.8
640.497	671.1
640.944	696.4
641.392	641
641.84	617.4
642.287	596.9
642.735	573.9
643.182	583.1
643.63	580.9
644.078	587.4
644.525	600.4
644.973	602.5
645.42	613.7
645.867	624
646.315	651.3
646.762	668.6
647.21	696.6
647.657	718.6
648.104	758.8
648.551	778.3
648.999	837.2
649.446	928.3
649.893	1017.5
650.34	1177.9
650.787	1420.3
651.234	1764.6
651.682	2296.6
652.129	3174.1
652.576	4584.6
653.023	6744
653.47	9179.9
653.917	11408.9
654.363	13099.7
654.81	14353.9
655.257	13653.4
655.704	8945.4
656.151	5266.7
656.598	3420.6
657.044	2437.2
657.491	1857.1
657.938	1498.5
658.385	1245.3
658.831	1089.3
659.278	968.9
659.724	856.1
660.171	795.1
660.618	728
661.064	698.2
661.511	678.7
661.957	667.3
662.404	650.8
662.85	661.3
663.296	629.4
663.743	567.4
664.189	545.3
664.635	543.1
665.082	538.9
665.528	533.6
665.974	519.1
666.42	516.2
666.867	509.7
667.313	501.3
667.759	483.6
668.205	481.2
668.651	492.3
669.097	495.1
669.543	508.6
669.989	477.7
670.435	454.1
670.881	447.7
671.327	445.9
671.773	476.2
672.219	492.5
672.665	543.1
673.11	586.2
673.556	634.7
674.002	671.4
674.448	655.4
674.893	548.2
675.339	471.4
675.785	445.7
676.23	425
676.676	393
677.122	383
677.567	373.9
678.013	374.4
678.458	359.2
678.904	361
679.349	347.2
679.794	355.9
680.24	353.1
680.685	343.6
681.131	352.1
681.576	355.1
682.021	363.3
682.466	352.9
682.912	345.7
683.357	355.2
683.802	384.4
684.247	415.1
684.692	459.4
685.137	497.5
685.583	548.4
686.028	563.8
686.473	510.5
686.918	446.2
687.363	418.4
687.807	392.1
688.252	363.8
688.697	360.7
689.142	336
689.587	338.6
690.032	323.7
690.477	352.5
690.921	352.8
691.366	390.1
691.811	400.5
692.255	420.5
692.7	461.5
693.145	505.6
693.589	719
694.034	1156.9
694.478	1538
694.923	1711.8
695.367	2246.9
695.812	1190.8
696.256	498.4
696.701	372.7
697.145	350.1
697.59	330
698.034	328.8
698.478	331.5
698.922	333.3
699.367	325.8
699.811	345.4
700.255	357.6
700.699	400.3
701.143	432.5
701.588	478.4
702.032	518.8
702.476	515.4
702.92	486.6
703.364	500.5
703.808	650.9
704.252	1067.4
704.696	1481.7
705.14	1657
705.584	2111
706.027	1061.8
706.471	525.8
706.915	396.7
707.359	350.2
707.803	327.8
708.246	309
708.69	313.9
709.134	317.5
709.577	313.6
710.021	318.6
710.465	313.8
710.908	300.1
711.352	299.7
711.795	315.9
712.239	359.3
712.682	395.4
713.126	416.2
713.569	464
714.012	375.3
714.456	326
714.899	303.5
715.342	281.5
715.786	260
716.229	257.4
716.672	259.1
717.115	249.9
717.558	256.7
718.002	248.3
718.445	259.7
718.888	292.7
719.331	296.4
719.774	316.4
720.217	305.6
720.66	286.4
721.103	268.2
721.546	256.3
721.989	250.9
722.432	229.4
722.874	240
723.317	224
723.76	242.3
724.203	268.1
724.645	319.7
725.088	457.2
725.531	575.9
725.974	636.9
726.416	546
726.859	314.6
727.301	244.1
727.744	239.9
728.187	234.8
728.629	248.1
729.071	244.1
729.514	265.6
729.956	278
730.399	276.7
730.841	286.9
731.283	269.2
731.726	262.3
732.168	261.8
732.61	272.4
733.053	285.4
733.495	322.4
733.937	349.8
734.379	408
734.821	450
735.263	561.5
735.705	861.5
736.148	1624.9
736.59	2605.4
737.032	3005.7
737.474	2452.1
737.916	817.8
738.357	424.6
738.799	322.3
739.241	293.6
739.683	279.7
740.125	294.2
740.567	289
741.008	310.5
741.45	311.9
741.892	314.4
742.334	345
742.775	351.1
743.217	339.1
743.658	272.5
744.1	257.4
744.542	261.8
744.983	310.3
745.425	343.2
745.866	340
746.307	291
746.749	279
747.19	336.5
747.632	470
748.073	913.2
748.514	1920.7
748.956	2881.3
749.397	3592.8
749.838	2975.3
750.279	2928.7
750.72	1481.7
751.162	543
751.603	320.1
752.044	254.1
752.485	216.6
752.926	210.2
753.367	203
753.808	192.4
754.249	189.9
754.69	189.1
755.131	189.1
755.572	183.3
756.013	184
756.453	185.9
756.894	185.1
757.335	193.2
757.776	191
758.216	199.6
758.657	203
759.098	206.9
759.538	228.4
759.979	272.4
760.42	377.9
760.86	740.4
761.301	1899.9
761.741	4522.5
762.182	6337.6
762.622	4428.5
763.063	1304.3
763.503	550.6
763.943	347.6
764.384	348.1
764.824	417.3
765.264	437.3
765.705	315.8
766.145	216.9
766.585	193.6
767.025	180.1
767.465	189.1
767.906	247.6
768.346	326.4
768.786	332.7
769.226	265.6
769.666	332.7
770.106	654
770.546	1610.3
770.986	2642.5
771.426	2333.7
771.866	791.2
772.306	327.2
772.745	211.1
773.185	176
773.625	178
774.065	170.8
774.505	201.7
774.944	319.2
775.384	700.7
775.824	1235
776.263	1183.1
776.703	508.9
777.142	226.8
777.582	161.1
778.021	144.2
778.461	145.9
778.9	145
779.34	130.7
779.779	121.9
780.219	118.2
780.658	110.7
781.097	118.8
781.537	115.6
781.976	110.4
782.415	108.2
782.855	103.8
783.294	110.6
783.733	109
784.172	114.8
784.611	105.9
785.05	111.5
785.489	113.3
785.928	126.8
786.367	124.1
786.806	121.8
787.245	132.8
787.684	137.6
788.123	142.2
788.562	132.9
789.001	123.2
789.44	126.4
789.879	125.6
790.317	118.6
790.756	125.6
791.195	130.8
791.634	150.1
792.072	203
792.511	385.3
792.95	1053.2
793.388	2139.3
793.827	1887.2
794.265	676.2
794.704	286.1
795.142	186
795.581	156.7
796.019	133.5
796.458	130.8
796.896	125.9
797.334	132.2
797.773	156.7
798.211	224.6
798.649	469.1
799.087	1036.3
799.526	1620.4
799.964	2024.1
800.402	1983.8
800.84	756.3
801.278	301.6
801.716	192.7
802.154	158.2
802.592	145.3
803.03	137
803.468	132.9
803.906	139.2
804.344	148.5
804.782	140.4
805.22	131.9
805.658	130.5
806.096	152.7
806.533	162.9
806.971	173.9
