Data from 20171114-ORNL-Ar_H_NY_Subt18_08-05-10-306.txt Node
Date: Tue Nov 14 08:05:10 EST 2017
User: Ender
Spectrometer: HR+D1039
Trigger mode: 0
Integration Time (sec): 2.730000E-2
Scans to average: 10
Electric dark correction enabled: true
Nonlinearity correction enabled: false
Boxcar width: 0
XAxis mode: Wavelengths
Number of Pixels in Spectrum: 2048
>>>>>Begin Spectral Data<<<<<
187.836	-3.73
188.309	-3.73
188.782	-3.73
189.255	2.57
189.728	-0.13
190.201	3.87
190.674	1.37
191.147	4.67
191.619	-5.63
192.092	-1.33
192.565	2.67
193.038	-2.33
193.511	2.67
193.984	-2.83
194.456	-2.43
194.929	-0.03
195.402	0.67
195.874	-0.03
196.347	-0.73
196.82	-9.33
197.292	-1.43
197.765	-2.93
198.237	-5.53
198.71	-1.03
199.182	-1.73
199.655	1.07
200.127	-1.23
200.6	-0.23
201.072	-3.13
201.544	-3.83
202.017	-2.23
202.489	2.17
202.961	-0.73
203.433	-4.03
203.906	-4.23
204.378	-8.73
204.85	-5.33
205.322	-9.13
205.794	-2.53
206.266	-2.03
206.739	-12.33
207.211	3.47
207.683	-7.33
208.155	-5.43
208.627	-2.93
209.099	-0.53
209.57	-7.43
210.042	-0.13
210.514	-3.03
210.986	-0.53
211.458	-7.83
211.93	-0.33
212.402	-1.23
212.873	-5.03
213.345	-10.93
213.817	-17.43
214.288	-6.63
214.76	-10.73
215.232	-4.03
215.703	-5.63
216.175	-6.43
216.646	-4.83
217.118	-2.43
217.589	-5.83
218.061	1.17
218.532	-5.13
219.004	-6.23
219.475	1.37
219.946	4.07
220.418	-1.33
220.889	-0.73
221.36	1.87
221.832	-7.53
222.303	-1.13
222.774	-2.43
223.245	-12.53
223.717	-1.23
224.188	-3.43
224.659	-5.73
225.13	-2.03
225.601	-3.73
226.072	0.07
226.543	5.17
227.014	-1.73
227.485	0.17
227.956	-4.73
228.427	-0.83
228.898	-1.03
229.369	6.57
229.839	-0.23
230.31	-11.03
230.781	-1.03
231.252	-2.03
231.722	-7.63
232.193	-0.43
232.664	-5.03
233.135	1.97
233.605	-6.43
234.076	-4.43
234.546	0.07
235.017	11.47
235.487	2.07
235.958	-2.73
236.428	-7.03
236.899	5.17
237.369	8.37
237.84	5.77
238.31	6.97
238.78	6.97
239.251	-5.53
239.721	-1.83
240.191	-0.83
240.662	-0.63
241.132	-0.23
241.602	1.47
242.072	5.77
242.542	8.97
243.013	-1.93
243.483	4.77
243.953	1.67
244.423	-3.63
244.893	-1.03
245.363	3.47
245.833	3.07
246.303	4.37
246.773	10.07
247.243	6.87
247.712	6.07
248.182	4.27
248.652	11.67
249.122	2.17
249.592	11.17
250.061	24.67
250.531	36.87
251.001	14.67
251.471	28.07
251.94	22.07
252.41	4.97
252.879	1.17
253.349	17.07
253.818	10.27
254.288	2.97
254.757	4.07
255.227	-3.93
255.696	5.57
256.166	7.87
256.635	8.27
257.105	3.47
257.574	3.67
258.043	15.37
258.513	10.97
258.982	21.77
259.451	7.17
259.92	12.87
260.389	12.17
260.859	17.97
261.328	12.67
261.797	19.97
262.266	11.97
262.735	15.27
263.204	12.77
263.673	-2.23
264.142	4.37
264.611	-1.83
265.08	4.87
265.549	-0.33
266.018	5.17
266.487	-0.53
266.955	-1.13
267.424	4.27
267.893	5.17
268.362	4.07
268.83	-2.13
269.299	12.77
269.768	5.67
270.236	10.47
270.705	10.17
271.174	7.37
271.642	12.97
272.111	18.67
272.579	20.57
273.048	22.37
273.516	33.97
273.985	33.87
274.453	29.47
274.922	23.17
275.39	12.77
275.858	7.57
276.327	9.77
276.795	19.77
277.263	7.57
277.731	31.87
278.2	62.87
278.668	66.57
279.136	47.87
279.604	15.37
280.072	19.07
280.54	15.47
281.008	12.47
281.477	16.97
281.945	23.47
282.413	14.77
282.881	14.87
283.348	5.27
283.816	21.97
284.284	15.97
284.752	22.67
285.22	17.47
285.688	16.37
286.156	16.67
286.623	42.97
287.091	57.27
287.559	28.97
288.026	30.97
288.494	16.47
288.962	9.47
289.429	6.97
289.897	23.37
290.364	20.77
290.832	15.87
291.3	15.27
291.767	21.77
292.234	23.17
292.702	13.87
293.169	20.27
293.637	25.67
294.104	23.07
294.571	13.67
295.039	16.07
295.506	20.77
295.973	17.07
296.44	14.77
296.908	23.97
297.375	19.07
297.842	19.47
298.309	21.67
298.776	20.27
299.243	22.77
299.71	19.47
300.177	25.17
300.644	24.17
301.111	23.67
301.578	23.17
302.045	21.97
302.512	24.47
302.979	29.97
303.446	22.57
303.913	22.77
304.379	17.57
304.846	30.47
305.313	23.57
305.78	22.77
306.246	29.67
306.713	30.67
307.18	25.07
307.646	20.57
308.113	31.27
308.579	25.17
309.046	28.47
309.512	30.97
309.979	18.37
310.445	27.27
310.912	26.67
311.378	34.17
311.845	28.97
312.311	32.67
312.777	29.17
313.244	28.27
313.71	35.87
314.176	33.67
314.642	36.07
315.109	28.97
315.575	38.97
316.041	44.57
316.507	35.37
316.973	41.97
317.439	36.97
317.905	40.97
318.371	34.87
318.837	32.07
319.303	36.87
319.769	40.07
320.235	40.07
320.701	38.07
321.167	43.07
321.633	34.57
322.099	42.77
322.564	50.67
323.03	46.27
323.496	42.97
323.962	46.17
324.427	37.67
324.893	42.37
325.359	41.27
325.824	33.87
326.29	37.27
326.755	36.77
327.221	40.37
327.686	46.27
328.152	52.97
328.617	44.27
329.083	47.67
329.548	52.17
330.014	57.67
330.479	41.67
330.944	43.77
331.41	45.17
331.875	50.47
332.34	45.67
332.805	49.37
333.271	55.07
333.736	51.57
334.201	56.87
334.666	52.07
335.131	53.27
335.596	50.87
336.061	60.97
336.526	44.77
336.991	55.27
337.456	57.07
337.921	56.67
338.386	43.87
338.851	52.57
339.316	52.37
339.781	47.77
340.246	51.57
340.711	47.17
341.175	59.57
341.64	51.07
342.105	51.07
342.569	58.27
343.034	60.97
343.499	61.17
343.963	49.87
344.428	65.97
344.893	68.77
345.357	57.77
345.822	68.87
346.286	71.37
346.751	76.17
347.215	76.57
347.679	81.67
348.144	104.67
348.608	88.47
349.073	72.67
349.537	77.97
350.001	81.37
350.465	94.77
350.93	87.87
351.394	83.17
351.858	76.37
352.322	92.67
352.786	90.17
353.25	104.67
353.715	109.37
354.179	100.97
354.643	130.17
355.107	127.47
355.571	108.77
356.035	108.97
356.498	116.97
356.962	120.17
357.426	137.67
357.89	122.57
358.354	94.07
358.818	88.67
359.281	78.17
359.745	83.57
360.209	85.47
360.673	78.37
361.136	84.17
361.6	87.77
362.064	89.37
362.527	93.47
362.991	89.87
363.454	82.57
363.918	80.07
364.381	80.17
364.845	81.27
365.308	89.17
365.772	89.67
366.235	90.77
366.698	84.27
367.162	91.47
367.625	89.67
368.088	90.57
368.552	93.87
369.015	86.17
369.478	100.07
369.941	100.87
370.404	95.47
370.867	107.77
371.331	111.27
371.794	116.37
372.257	112.97
372.72	122.27
373.183	108.57
373.646	109.57
374.109	103.87
374.572	111.57
375.035	111.77
375.497	112.57
375.96	114.97
376.423	107.27
376.886	111.17
377.349	109.57
377.811	101.87
378.274	110.07
378.737	105.87
379.199	114.77
379.662	111.57
380.125	112.87
380.587	116.17
381.05	122.87
381.512	122.17
381.975	132.97
382.437	126.57
382.9	130.67
383.362	134.17
383.825	144.07
384.287	146.17
384.75	141.37
385.212	140.37
385.674	142.17
386.136	143.57
386.599	129.67
387.061	132.57
387.523	130.77
387.985	143.77
388.447	144.77
388.91	145.67
389.372	157.97
389.834	157.57
390.296	144.37
390.758	156.97
391.22	164.67
391.682	213.37
392.144	293.67
392.606	230.07
393.068	177.07
393.529	167.77
393.991	149.37
394.453	152.37
394.915	160.07
395.377	189.97
395.838	215.27
396.3	157.77
396.762	142.77
397.224	130.57
397.685	128.37
398.147	132.67
398.608	133.57
399.07	124.67
399.531	136.07
399.993	143.47
400.454	149.17
400.916	147.97
401.377	148.77
401.839	154.17
402.3	149.77
402.762	167.87
403.223	178.37
403.684	171.37
404.145	166.97
404.607	162.37
405.068	168.87
405.529	169.77
405.99	190.97
406.451	178.47
406.913	174.07
407.374	162.37
407.835	161.77
408.296	169.27
408.757	168.87
409.218	183.07
409.679	177.87
410.14	179.17
410.601	177.87
411.062	179.37
411.522	192.27
411.983	193.77
412.444	176.37
412.905	179.57
413.366	184.77
413.826	193.57
414.287	216.97
414.748	255.17
415.208	245.67
415.669	211.07
416.13	209.07
416.59	202.07
417.051	207.77
417.511	219.17
417.972	232.97
418.432	250.57
418.893	281.07
419.353	247.17
419.814	201.47
420.274	180.87
420.734	184.37
421.195	195.57
421.655	189.77
422.115	191.27
422.576	192.17
423.036	195.47
423.496	206.27
423.956	213.67
424.416	229.07
424.876	262.67
425.336	260.37
425.797	265.37
426.257	254.17
426.717	243.27
427.177	231.57
427.637	221.47
428.097	239.77
428.556	249.27
429.016	272.17
429.476	272.97
429.936	278.37
430.396	275.37
430.856	290.97
431.315	317.87
431.775	345.97
432.235	379.17
432.694	360.27
433.154	367.37
433.614	395.47
434.073	332.57
434.533	286.87
434.993	272.47
435.452	282.57
435.912	294.97
436.371	286.77
436.83	282.47
437.29	269.57
437.749	246.97
438.209	243.17
438.668	272.27
439.127	285.37
439.587	266.87
440.046	249.67
440.505	265.87
440.964	277.87
441.424	326.07
441.883	312.87
442.342	252.67
442.801	216.07
443.26	217.47
443.719	220.77
444.178	214.07
444.637	204.67
445.096	222.17
445.555	222.77
446.014	218.77
446.473	218.87
446.932	229.87
447.391	223.27
447.849	225.37
448.308	216.07
448.767	219.17
449.226	230.87
449.685	235.37
450.143	249.97
450.602	235.07
451.061	222.97
451.519	223.67
451.978	233.97
452.436	235.77
452.895	245.47
453.353	251.87
453.812	241.67
454.27	233.57
454.729	246.67
455.187	245.37
455.646	241.87
456.104	244.37
456.562	258.67
457.021	263.77
457.479	251.77
457.937	272.07
458.395	257.07
458.854	246.87
459.312	256.57
459.77	277.87
460.228	256.57
460.686	240.17
461.144	249.37
461.602	249.37
462.06	235.57
462.518	246.67
462.976	249.87
463.434	255.07
463.892	262.77
464.35	278.47
464.808	283.17
465.266	270.47
465.724	275.07
466.181	269.17
466.639	269.57
467.097	281.47
467.555	299.87
468.012	304.47
468.47	306.07
468.928	329.57
469.385	348.07
469.843	347.87
470.3	342.57
470.758	354.07
471.215	389.17
471.673	416.77
472.13	410.37
472.588	414.57
473.045	369.87
473.503	381.17
473.96	397.97
474.417	401.77
474.875	428.87
475.332	471.17
475.789	463.07
476.246	468.67
476.704	486.37
477.161	500.47
477.618	520.97
478.075	557.07
478.532	621.37
478.989	690.27
479.446	803.27
479.903	773.27
480.36	814.97
480.817	866.57
481.274	971.77
481.731	1082.67
482.188	1173.27
482.645	1307.07
483.102	1415.17
483.558	1555.67
484.015	1612.67
484.472	1591.27
484.929	1519.17
485.385	1476.57
485.842	1444.47
486.299	1379.17
486.755	1314.27
487.212	1091.77
487.668	910.37
488.125	851.97
488.582	781.47
489.038	743.17
489.494	718.47
489.951	685.37
490.407	673.67
490.864	640.17
491.32	641.37
491.776	639.97
492.233	659.07
492.689	610.47
493.145	597.27
493.602	598.87
494.058	613.77
494.514	609.07
494.97	630.97
495.426	644.77
495.882	620.47
496.338	612.77
496.794	619.47
497.251	612.27
497.707	634.27
498.163	637.37
498.618	645.77
499.074	642.87
499.53	671.97
499.986	671.77
500.442	649.27
500.898	631.47
501.354	616.67
501.809	632.37
502.265	653.77
502.721	654.67
503.177	665.97
503.632	650.87
504.088	663.47
504.543	703.67
504.999	697.47
505.455	658.67
505.91	628.97
506.366	628.47
506.821	623.37
507.277	618.67
507.732	618.77
508.187	609.37
508.643	625.27
509.098	623.37
509.553	658.87
510.009	657.67
510.464	660.17
510.919	674.47
511.375	688.17
511.83	702.27
512.285	708.47
512.74	752.87
513.195	768.37
513.65	768.07
514.105	766.47
514.56	771.27
515.015	784.77
515.47	808.67
515.925	783.77
516.38	785.77
516.835	790.07
517.29	787.07
517.745	767.17
518.2	756.27
518.655	746.97
519.109	733.57
519.564	741.67
520.019	729.17
520.474	719.97
520.928	718.17
521.383	722.77
521.838	696.47
522.292	712.27
522.747	705.27
523.201	697.77
523.656	693.67
524.11	693.47
524.565	682.37
525.019	688.27
525.474	683.67
525.928	699.37
526.382	684.67
526.837	683.27
527.291	695.27
527.745	678.87
528.2	686.37
528.654	687.17
529.108	675.47
529.562	676.87
530.016	669.27
530.47	684.57
530.925	692.17
531.379	691.27
531.833	701.07
532.287	696.37
532.741	696.77
533.195	699.87
533.649	717.37
534.103	715.37
534.556	699.97
535.01	698.27
535.464	692.07
535.918	707.67
536.372	710.67
536.826	703.37
537.279	697.47
537.733	693.77
538.187	708.97
538.64	713.47
539.094	711.97
539.548	719.97
540.001	716.37
540.455	716.37
540.908	720.67
541.362	734.87
541.815	732.87
542.269	750.87
542.722	741.67
543.175	753.67
543.629	757.97
544.082	772.87
544.536	772.27
544.989	770.57
545.442	785.77
545.895	772.37
546.349	774.77
546.802	774.97
547.255	789.97
547.708	781.17
548.161	805.17
548.614	803.67
549.067	809.57
549.52	805.47
549.973	795.57
550.426	791.27
550.879	774.07
551.332	779.27
551.785	779.07
552.238	788.87
552.691	802.77
553.144	822.37
553.596	832.57
554.049	851.17
554.502	873.87
554.955	884.17
555.407	876.47
555.86	880.27
556.313	877.07
556.765	865.77
557.218	867.47
557.67	867.47
558.123	851.67
558.576	856.97
559.028	868.27
559.48	851.87
559.933	850.77
560.385	817.07
560.838	794.87
561.29	763.97
561.742	757.47
562.195	737.57
562.647	751.27
563.099	751.37
563.551	751.97
564.004	775.07
564.456	743.87
564.908	748.17
565.36	733.67
565.812	717.97
566.264	710.87
566.716	699.17
567.168	699.07
567.62	709.67
568.072	680.27
568.524	674.67
568.976	662.47
569.428	653.47
569.88	649.97
570.332	661.07
570.784	660.17
571.235	661.17
571.687	674.17
572.139	681.87
572.59	697.47
573.042	686.47
573.494	688.97
573.945	679.27
574.397	657.47
574.849	672.17
575.3	669.07
575.752	663.77
576.203	653.57
576.655	651.67
577.106	654.47
577.557	643.37
578.009	653.27
578.46	646.37
578.912	642.27
579.363	641.57
579.814	647.37
580.265	646.17
580.717	650.57
581.168	638.87
581.619	659.37
582.07	660.07
582.521	660.17
582.972	657.37
583.423	661.67
583.875	656.77
584.326	679.27
584.777	729.37
585.227	798.07
585.678	888.67
586.129	969.87
586.58	1049.97
587.031	1130.87
587.482	1288.27
587.933	1472.37
588.384	1270.37
588.834	943.97
589.285	773.97
589.736	759.27
590.186	737.67
590.637	730.77
591.088	712.67
591.538	709.27
591.989	709.97
592.439	692.87
592.89	686.87
593.34	684.27
593.791	686.27
594.241	673.17
594.692	682.37
595.142	672.77
595.593	666.07
596.043	674.77
596.493	684.87
596.943	692.27
597.394	692.97
597.844	681.07
598.294	701.27
598.744	725.97
599.195	740.87
599.645	777.37
600.095	822.87
600.545	874.07
600.995	921.67
601.445	981.17
601.895	1033.87
602.345	1086.57
602.795	1062.57
603.245	1020.67
603.695	968.07
604.145	916.77
604.594	875.17
605.044	817.07
605.494	763.67
605.944	718.17
606.393	716.27
606.843	693.37
607.293	713.07
607.743	691.37
608.192	706.47
608.642	729.17
609.091	731.87
609.541	727.67
609.99	737.67
610.44	725.87
610.889	681.57
611.339	677.07
611.788	659.37
612.238	667.47
612.687	681.87
613.136	678.57
613.586	707.97
614.035	700.97
614.484	709.77
614.933	720.57
615.383	713.37
615.832	707.77
616.281	696.87
616.73	664.27
617.179	636.07
617.628	615.97
618.077	599.37
618.526	596.47
618.975	581.57
619.424	587.67
619.873	586.97
620.322	584.27
620.771	563.87
621.22	568.97
621.669	554.47
622.118	558.77
622.567	547.77
623.015	543.67
623.464	533.17
623.913	524.57
624.361	522.17
624.81	530.87
625.259	515.87
625.707	521.27
626.156	525.07
626.604	541.97
627.053	523.27
627.501	523.97
627.95	531.47
628.398	549.97
628.847	540.47
629.295	535.47
629.744	542.67
630.192	538.67
630.64	536.27
631.089	535.67
631.537	549.97
631.985	551.47
632.433	565.77
632.881	574.07
633.33	616.07
633.778	592.67
634.226	528.57
634.674	537.07
635.122	550.17
635.57	562.47
636.018	581.57
636.466	544.07
636.914	524.97
637.362	538.27
637.81	540.87
638.258	535.67
638.705	536.17
639.153	573.17
639.601	575.67
640.049	603.37
640.497	639.67
640.944	645.97
641.392	600.67
641.84	569.57
642.287	548.17
642.735	541.67
643.182	538.47
643.63	534.87
644.078	540.07
644.525	555.97
644.973	557.97
645.42	562.97
645.867	587.77
646.315	597.37
646.762	618.27
647.21	650.07
647.657	670.17
648.104	708.77
648.551	724.47
648.999	789.07
649.446	864.57
649.893	946.07
650.34	1090.17
650.787	1287.47
651.234	1628.87
651.682	2105.67
652.129	2870.97
652.576	4161.17
653.023	6146.27
653.47	8476.57
653.917	10688.77
654.363	12458.07
654.81	13861.07
655.257	13170.07
655.704	8559.27
656.151	5057.97
656.598	3281.47
657.044	2312.07
657.491	1770.27
657.938	1411.07
658.385	1177.77
658.831	1028.67
659.278	908.97
659.724	822.57
660.171	741.67
660.618	684.57
661.064	639.77
661.511	620.27
661.957	609.57
662.404	594.17
662.85	612.57
663.296	579.77
663.743	524.67
664.189	504.27
664.635	500.57
665.082	480.37
665.528	487.47
665.974	482.97
666.42	485.07
666.867	471.07
667.313	458.67
667.759	452.97
668.205	444.67
668.651	443.27
669.097	452.17
669.543	473.37
669.989	443.17
670.435	422.67
670.881	411.97
671.327	408.47
671.773	432.57
672.219	456.27
672.665	506.57
673.11	539.47
673.556	583.57
674.002	623.77
674.448	607.67
674.893	510.17
675.339	442.17
675.785	408.57
676.23	387.97
676.676	367.97
677.122	357.57
677.567	341.47
678.013	341.77
678.458	328.87
678.904	334.17
679.349	329.07
679.794	326.77
680.24	324.37
680.685	315.67
681.131	315.47
681.576	314.67
682.021	323.07
682.466	323.77
682.912	321.27
683.357	318.97
683.802	349.97
684.247	384.17
684.692	421.97
685.137	459.67
685.583	495.17
686.028	521.27
686.473	474.67
686.918	406.27
687.363	380.67
687.807	361.57
688.252	336.97
688.697	328.77
689.142	314.37
689.587	302.37
690.032	298.17
690.477	314.47
690.921	321.47
691.366	345.67
691.811	364.27
692.255	403.57
692.7	424.67
693.145	461.97
693.589	627.87
694.034	1024.97
694.478	1399.87
694.923	1612.17
695.367	2109.57
695.812	1099.57
696.256	456.97
696.701	342.07
697.145	317.07
697.59	303.67
698.034	296.47
698.478	301.87
698.922	295.57
699.367	300.47
699.811	306.17
700.255	322.87
700.699	353.67
701.143	391.97
701.588	442.67
702.032	472.37
702.476	472.87
702.92	449.77
703.364	448.17
703.808	567.97
704.252	928.67
704.696	1317.97
705.14	1535.57
705.584	1977.37
706.027	984.07
706.471	478.57
706.915	370.57
707.359	320.47
707.803	283.47
708.246	280.07
708.69	279.47
709.134	293.97
709.577	289.97
710.021	292.77
710.465	277.77
710.908	268.47
711.352	274.37
711.795	281.87
712.239	325.77
712.682	345.87
713.126	384.67
713.569	429.17
714.012	339.57
714.456	298.97
714.899	276.17
715.342	253.67
715.786	233.17
716.229	234.47
716.672	242.57
717.115	229.77
717.558	231.27
718.002	224.97
718.445	243.27
718.888	256.77
719.331	271.07
719.774	279.57
720.217	275.97
720.66	256.07
721.103	245.17
721.546	227.37
721.989	224.67
722.432	217.67
722.874	214.27
723.317	211.37
723.76	212.47
724.203	237.87
724.645	290.77
725.088	398.07
725.531	516.47
725.974	599.17
726.416	506.07
726.859	276.97
727.301	227.77
727.744	216.07
728.187	214.97
728.629	214.37
729.071	219.57
729.514	229.77
729.956	244.27
730.399	264.87
730.841	267.27
731.283	249.27
731.726	240.67
732.168	238.67
732.61	245.37
733.053	260.77
733.495	284.77
733.937	315.47
734.379	362.97
734.821	391.87
735.263	479.67
735.705	754.27
736.148	1408.07
736.59	2326.47
737.032	2817.97
737.474	2299.47
737.916	741.37
738.357	400.07
738.799	293.87
739.241	274.37
739.683	262.37
740.125	270.47
740.567	282.57
741.008	284.37
741.45	279.57
741.892	286.97
742.334	315.07
742.775	328.27
743.217	314.57
743.658	247.67
744.1	233.37
744.542	242.07
744.983	279.37
745.425	311.77
745.866	315.87
746.307	256.57
746.749	256.47
747.19	291.17
747.632	403.27
748.073	771.67
748.514	1654.37
748.956	2617.07
749.397	3254.57
749.838	2700.27
750.279	2747.37
750.72	1388.47
751.162	501.17
751.603	291.47
752.044	224.87
752.485	201.07
752.926	190.47
753.367	182.37
753.808	179.27
754.249	178.47
754.69	176.07
755.131	167.97
755.572	162.97
756.013	171.97
756.453	160.17
756.894	165.37
757.335	172.67
757.776	180.07
758.216	178.67
758.657	178.47
759.098	188.17
759.538	202.57
759.979	244.07
760.42	333.87
760.86	618.97
761.301	1592.87
761.741	3955.87
