Data from 20171114-ORNL-Ar_H_NY_Subt18_08-07-37-986.txt Node
Date: Tue Nov 14 08:07:37 EST 2017
User: Ender
Spectrometer: HR+D1039
Trigger mode: 0
Integration Time (sec): 2.730000E-2
Scans to average: 10
Electric dark correction enabled: true
Nonlinearity correction enabled: false
Boxcar width: 0
XAxis mode: Wavelengths
Number of Pixels in Spectrum: 2048
>>>>>Begin Spectral Data<<<<<
187.836	-2.15
188.309	-2.15
188.782	-2.15
189.255	-0.55
189.728	-0.95
190.201	5.05
190.674	1.75
191.147	1.25
191.619	-6.95
192.092	-4.15
192.565	4.05
193.038	3.55
193.511	-0.95
193.984	1.65
194.456	-1.15
194.929	0.45
195.402	2.45
195.874	-3.35
196.347	-0.85
196.82	-4.45
197.292	3.75
197.765	-2.55
198.237	-6.65
198.71	1.45
199.182	-5.25
199.655	2.25
200.127	0.55
200.6	-2.75
201.072	-7.85
201.544	-5.85
202.017	-4.05
202.489	2.15
202.961	-7.05
203.433	-7.55
203.906	-8.55
204.378	-8.05
204.85	-2.75
205.322	-11.05
205.794	-6.25
206.266	-0.85
206.739	-7.55
207.211	-0.15
207.683	-8.95
208.155	-4.75
208.627	-3.15
209.099	-3.95
209.57	-10.05
210.042	-4.95
210.514	-3.95
210.986	-3.75
211.458	-9.35
211.93	-3.75
212.402	3.15
212.873	-3.35
213.345	-5.25
213.817	-10.65
214.288	0.55
214.76	-14.25
215.232	-0.45
215.703	-3.05
216.175	-1.95
216.646	-2.85
217.118	-8.45
217.589	-4.25
218.061	-1.75
218.532	1.35
219.004	-6.05
219.475	-3.45
219.946	-10.65
220.418	-7.95
220.889	-0.75
221.36	-1.25
221.832	-6.85
222.303	-11.25
222.774	-5.25
223.245	-14.45
223.717	-12.55
224.188	-7.35
224.659	-6.95
225.13	-8.35
225.601	-4.55
226.072	-5.25
226.543	-6.25
227.014	-2.35
227.485	-9.05
227.956	-4.85
228.427	-5.05
228.898	0.35
229.369	4.45
229.839	-6.05
230.31	-8.55
230.781	3.65
231.252	-1.85
231.722	-7.05
232.193	-1.15
232.664	-0.55
233.135	6.45
233.605	-4.85
234.076	-7.65
234.546	-3.85
235.017	-0.75
235.487	-4.35
235.958	-9.65
236.428	-3.35
236.899	-0.05
237.369	0.85
237.84	-6.35
238.31	1.55
238.78	2.65
239.251	-7.65
239.721	4.65
240.191	-2.95
240.662	-2.25
241.132	-0.65
241.602	-1.35
242.072	6.05
242.542	5.65
243.013	-2.95
243.483	-1.45
243.953	1.65
244.423	0.65
244.893	-4.65
245.363	2.25
245.833	-3.55
246.303	-3.25
246.773	8.85
247.243	5.05
247.712	1.75
248.182	-1.75
248.652	2.25
249.122	0.15
249.592	4.75
250.061	18.65
250.531	25.35
251.001	9.85
251.471	16.65
251.94	10.85
252.41	7.45
252.879	6.35
253.349	5.05
253.818	7.45
254.288	3.25
254.757	2.15
255.227	-3.25
255.696	1.15
256.166	1.65
256.635	4.65
257.105	5.55
257.574	10.55
258.043	7.15
258.513	12.95
258.982	10.95
259.451	-1.25
259.92	10.35
260.389	10.45
260.859	10.85
261.328	-0.25
261.797	14.15
262.266	9.15
262.735	8.45
263.204	2.95
263.673	-1.85
264.142	4.75
264.611	-7.65
265.08	-5.25
265.549	-2.85
266.018	3.45
266.487	-0.45
266.955	0.25
267.424	1.45
267.893	7.45
268.362	1.95
268.83	3.45
269.299	11.25
269.768	6.55
270.236	3.25
270.705	-0.05
271.174	7.75
271.642	3.15
272.111	13.55
272.579	11.55
273.048	21.45
273.516	27.25
273.985	20.55
274.453	12.95
274.922	15.85
275.39	5.35
275.858	4.65
276.327	4.35
276.795	11.65
277.263	10.65
277.731	25.15
278.2	45.45
278.668	48.85
279.136	39.65
279.604	15.15
280.072	8.35
280.54	2.55
281.008	0.65
281.477	4.45
281.945	5.85
282.413	1.15
282.881	9.05
283.348	5.55
283.816	12.55
284.284	9.35
284.752	13.15
285.22	10.85
285.688	12.15
286.156	19.05
286.623	38.85
287.091	50.75
287.559	20.45
288.026	12.15
288.494	11.15
288.962	2.55
289.429	4.35
289.897	19.25
290.364	18.45
290.832	10.85
291.3	9.25
291.767	11.05
292.234	18.05
292.702	10.95
293.169	15.95
293.637	18.05
294.104	18.55
294.571	6.05
295.039	3.65
295.506	15.25
295.973	13.35
296.44	13.45
296.908	12.65
297.375	15.75
297.842	15.25
298.309	9.15
298.776	8.75
299.243	19.55
299.71	12.85
300.177	14.35
300.644	18.25
301.111	10.45
301.578	15.95
302.045	11.15
302.512	16.75
302.979	16.75
303.446	16.65
303.913	17.05
304.379	10.75
304.846	22.25
305.313	19.45
305.78	16.35
306.246	22.35
306.713	21.85
307.18	18.65
307.646	20.35
308.113	29.05
308.579	22.45
309.046	26.65
309.512	23.45
309.979	16.55
310.445	22.75
310.912	22.35
311.378	19.95
311.845	23.45
312.311	23.25
312.777	26.45
313.244	19.25
313.71	28.55
314.176	28.65
314.642	28.75
315.109	26.35
315.575	25.65
316.041	27.85
316.507	23.15
316.973	35.85
317.439	29.55
317.905	31.65
318.371	32.05
318.837	25.45
319.303	28.35
319.769	22.55
320.235	24.65
320.701	31.55
321.167	35.45
321.633	26.55
322.099	29.55
322.564	35.55
323.03	28.95
323.496	29.45
323.962	32.05
324.427	28.85
324.893	36.75
325.359	33.05
325.824	30.15
326.29	27.15
326.755	31.55
327.221	37.25
327.686	27.05
328.152	34.45
328.617	38.95
329.083	34.15
329.548	38.45
330.014	36.95
330.479	37.35
330.944	37.35
331.41	29.05
331.875	36.25
332.34	37.55
332.805	37.75
333.271	36.85
333.736	37.85
334.201	40.45
334.666	40.55
335.131	47.75
335.596	41.45
336.061	39.95
336.526	33.45
336.991	40.65
337.456	48.95
337.921	38.55
338.386	36.85
338.851	42.45
339.316	43.85
339.781	41.35
340.246	41.75
340.711	37.75
341.175	46.25
341.64	32.75
342.105	51.75
342.569	36.85
343.034	50.45
343.499	52.25
343.963	39.35
344.428	57.55
344.893	51.25
345.357	57.75
345.822	51.95
346.286	57.15
346.751	63.95
347.215	55.75
347.679	60.75
348.144	83.05
348.608	67.35
349.073	61.95
349.537	59.05
350.001	62.85
350.465	74.85
350.93	66.85
351.394	71.45
351.858	56.35
352.322	76.55
352.786	73.35
353.25	89.35
353.715	99.15
354.179	83.05
354.643	100.35
355.107	105.45
355.571	95.05
356.035	99.65
356.498	101.15
356.962	105.95
357.426	113.75
357.89	101.15
358.354	77.35
358.818	70.45
359.281	68.75
359.745	61.65
360.209	66.65
360.673	63.65
361.136	67.35
361.6	74.15
362.064	70.15
362.527	67.55
362.991	80.25
363.454	67.65
363.918	64.45
364.381	63.95
364.845	63.55
365.308	73.05
365.772	73.45
366.235	73.55
366.698	69.45
367.162	72.15
367.625	74.35
368.088	74.75
368.552	77.45
369.015	77.85
369.478	89.25
369.941	92.65
370.404	87.65
370.867	92.85
371.331	96.65
371.794	100.05
372.257	104.85
372.72	101.45
373.183	99.75
373.646	92.35
374.109	98.15
374.572	101.75
375.035	95.85
375.497	95.35
375.96	98.15
376.423	95.35
376.886	96.55
377.349	101.45
377.811	89.25
378.274	97.65
378.737	96.85
379.199	98.85
379.662	103.75
380.125	101.95
380.587	103.35
381.05	109.95
381.512	115.05
381.975	123.95
382.437	116.95
382.9	114.95
383.362	114.95
383.825	135.05
384.287	133.95
384.75	130.95
385.212	131.55
385.674	131.55
386.136	122.05
386.599	112.45
387.061	120.95
387.523	111.85
387.985	122.75
388.447	134.55
388.91	131.65
389.372	150.85
389.834	143.55
390.296	140.85
390.758	143.35
391.22	158.35
391.682	198.55
392.144	295.05
392.606	214.75
393.068	154.35
393.529	159.45
393.991	141.75
394.453	135.15
394.915	141.45
395.377	181.15
395.838	197.45
396.3	145.05
396.762	131.45
397.224	122.65
397.685	116.65
398.147	122.65
398.608	120.25
399.07	112.85
399.531	119.65
399.993	131.95
400.454	135.05
400.916	128.25
401.377	131.55
401.839	137.35
402.3	137.95
402.762	146.45
403.223	168.35
403.684	151.75
404.145	145.15
404.607	148.35
405.068	152.35
405.529	150.45
405.99	174.95
406.451	156.85
406.913	156.85
407.374	148.25
407.835	144.05
408.296	157.05
408.757	166.65
409.218	176.65
409.679	166.45
410.14	160.75
410.601	165.75
411.062	170.75
411.522	183.95
411.983	180.55
412.444	164.55
412.905	173.65
413.366	170.05
413.826	180.75
414.287	204.55
414.748	249.55
415.208	226.45
415.669	196.75
416.13	200.35
416.59	191.55
417.051	199.25
417.511	203.15
417.972	226.55
418.432	230.35
418.893	270.95
419.353	236.95
419.814	181.15
420.274	173.15
420.734	167.05
421.195	183.05
421.655	189.15
422.115	184.25
422.576	184.35
423.036	185.85
423.496	201.35
423.956	197.55
424.416	206.65
424.876	248.25
425.336	242.05
425.797	241.05
426.257	234.25
426.717	228.95
427.177	223.55
427.637	206.15
428.097	223.45
428.556	228.25
429.016	254.65
429.476	248.55
429.936	257.75
430.396	260.65
430.856	274.35
431.315	301.95
431.775	332.55
432.235	354.75
432.694	329.65
433.154	342.15
433.614	372.65
434.073	314.85
434.533	274.05
434.993	252.65
435.452	265.55
435.912	278.45
436.371	273.75
436.83	269.35
437.29	257.25
437.749	233.05
438.209	225.25
438.668	254.75
439.127	268.05
439.587	248.05
440.046	236.55
440.505	249.55
440.964	260.05
441.424	299.95
441.883	282.85
442.342	242.85
442.801	205.65
443.26	206.85
443.719	210.95
444.178	209.35
444.637	196.05
445.096	207.95
445.555	208.35
446.014	216.15
446.473	214.55
446.932	224.45
447.391	217.75
447.849	211.55
448.308	205.95
448.767	206.75
449.226	218.55
449.685	217.85
450.143	237.25
450.602	220.45
451.061	215.85
451.519	220.85
451.978	218.65
452.436	219.25
452.895	230.45
453.353	237.85
453.812	229.45
454.27	228.55
454.729	228.55
455.187	228.05
455.646	229.75
456.104	235.65
456.562	246.75
457.021	253.45
457.479	252.15
457.937	259.85
458.395	247.35
458.854	233.55
459.312	236.55
459.77	256.95
460.228	241.95
460.686	226.15
461.144	228.65
461.602	230.35
462.06	231.65
462.518	240.45
462.976	239.85
463.434	241.45
463.892	247.55
464.35	259.85
464.808	263.05
465.266	258.15
465.724	256.05
466.181	265.15
466.639	253.55
467.097	268.75
467.555	282.05
468.012	290.35
468.47	296.55
468.928	311.55
469.385	320.75
469.843	324.45
470.3	330.05
470.758	349.45
471.215	367.25
471.673	390.65
472.13	391.65
472.588	398.25
473.045	352.05
473.503	359.55
473.96	376.85
474.417	381.55
474.875	413.05
475.332	453.65
475.789	435.85
476.246	446.25
476.704	458.95
477.161	479.65
477.618	500.65
478.075	531.75
478.532	593.35
478.989	654.25
479.446	771.35
479.903	737.45
480.36	781.55
480.817	839.05
481.274	924.55
481.731	1036.85
482.188	1129.25
482.645	1258.25
483.102	1358.65
483.558	1477.05
484.015	1544.15
484.472	1528.95
484.929	1474.75
485.385	1417.75
485.842	1384.35
486.299	1305.45
486.755	1244.55
487.212	1054.95
487.668	894.55
488.125	805.35
488.582	746.55
489.038	723.15
489.494	681.75
489.951	649.05
490.407	637.15
490.864	619.75
491.32	609.15
491.776	612.65
492.233	611.25
492.689	591.15
493.145	578.95
493.602	568.85
494.058	587.65
494.514	593.05
494.97	618.15
495.426	613.65
495.882	590.75
496.338	589.25
496.794	591.05
497.251	585.35
497.707	605.35
498.163	605.45
498.618	613.25
499.074	618.05
499.53	648.45
499.986	644.85
500.442	632.65
500.898	609.65
501.354	597.45
501.809	611.45
502.265	610.05
502.721	641.65
503.177	649.35
503.632	649.25
504.088	656.65
504.543	680.35
504.999	684.25
505.455	629.65
505.91	600.95
506.366	604.35
506.821	600.85
507.277	607.55
507.732	599.45
508.187	595.55
508.643	615.85
509.098	610.55
509.553	622.35
510.009	639.25
510.464	638.55
510.919	665.85
511.375	666.75
511.83	689.05
512.285	690.25
512.74	720.15
513.195	757.95
513.65	746.05
514.105	743.15
514.56	744.25
515.015	764.45
515.47	780.35
515.925	759.15
516.38	753.95
516.835	750.85
517.29	752.65
517.745	750.25
518.2	724.05
518.655	720.05
519.109	715.05
519.564	711.05
520.019	711.35
520.474	686.95
520.928	692.85
521.383	698.85
521.838	677.65
522.292	684.35
522.747	691.85
523.201	680.15
523.656	679.85
524.11	670.25
524.565	670.95
525.019	672.95
525.474	667.25
525.928	682.35
526.382	666.85
526.837	664.05
527.291	679.05
527.745	668.45
528.2	666.35
528.654	666.85
529.108	663.75
529.562	666.55
530.016	667.05
530.47	663.35
530.925	664.15
531.379	672.05
531.833	668.45
532.287	678.35
532.741	678.45
533.195	682.55
533.649	681.65
534.103	696.95
534.556	678.85
535.01	687.85
535.464	680.65
535.918	694.25
536.372	696.25
536.826	695.65
537.279	690.25
537.733	684.55
538.187	677.95
538.64	687.85
539.094	705.85
539.548	703.85
540.001	707.05
540.455	701.45
540.908	710.15
541.362	717.45
541.815	718.25
542.269	733.95
542.722	730.85
543.175	727.45
543.629	738.85
544.082	759.15
544.536	755.65
544.989	761.85
545.442	761.45
545.895	762.25
546.349	766.55
546.802	761.15
547.255	776.25
547.708	777.85
548.161	788.85
548.614	791.65
549.067	789.85
549.52	781.25
549.973	781.15
550.426	778.85
550.879	766.85
551.332	782.65
551.785	775.85
552.238	772.45
552.691	793.35
553.144	809.55
553.596	816.95
554.049	837.95
554.502	864.55
554.955	883.25
555.407	873.75
555.86	867.65
556.313	859.05
556.765	857.05
557.218	853.85
557.67	846.35
558.123	846.15
558.576	854.35
559.028	854.55
559.48	858.95
559.933	848.35
560.385	809.45
560.838	788.85
561.29	767.45
561.742	761.35
562.195	740.25
562.647	751.85
563.099	753.05
563.551	748.35
564.004	760.45
564.456	759.35
564.908	742.65
565.36	723.55
565.812	716.15
566.264	705.65
566.716	710.35
567.168	694.05
567.62	706.75
568.072	688.65
568.524	682.85
568.976	672.65
569.428	662.55
569.88	663.65
570.332	662.85
570.784	662.95
571.235	658.95
571.687	669.65
572.139	676.45
572.59	690.95
573.042	691.45
573.494	701.25
573.945	691.15
574.397	667.95
574.849	669.05
575.3	668.45
575.752	657.15
576.203	658.75
576.655	659.05
577.106	657.45
577.557	651.45
578.009	648.05
578.46	647.15
578.912	638.45
579.363	646.75
579.814	652.85
580.265	644.35
580.717	646.55
581.168	649.65
581.619	661.95
582.07	662.05
582.521	656.65
582.972	654.85
583.423	664.15
583.875	658.75
584.326	691.05
584.777	739.55
585.227	808.15
585.678	907.55
586.129	1004.15
586.58	1083.75
587.031	1157.45
587.482	1321.15
587.933	1514.15
588.384	1316.25
588.834	975.35
589.285	793.65
589.736	776.55
590.186	750.65
590.637	750.65
591.088	725.75
591.538	722.05
591.989	714.45
592.439	707.05
592.89	704.65
593.34	697.35
593.791	692.05
594.241	687.35
594.692	696.35
595.142	685.85
595.593	677.15
596.043	690.55
596.493	702.95
596.943	694.25
597.394	711.65
597.844	700.45
598.294	706.35
598.744	730.85
599.195	768.45
599.645	802.45
600.095	832.45
600.545	893.75
600.995	935.85
601.445	998.55
601.895	1054.95
602.345	1106.45
602.795	1082.05
603.245	1043.05
603.695	976.95
604.145	938.45
604.594	885.45
605.044	834.85
605.494	785.55
605.944	737.35
606.393	719.45
606.843	708.95
607.293	720.65
607.743	719.75
608.192	732.05
608.642	731.15
609.091	755.75
609.541	752.15
609.99	753.95
610.44	753.05
610.889	710.55
611.339	691.65
611.788	677.65
612.238	695.95
612.687	703.55
613.136	702.95
613.586	724.35
614.035	724.95
614.484	742.95
614.933	746.65
615.383	734.55
615.832	729.05
616.281	718.05
616.73	680.05
617.179	654.25
617.628	632.95
618.077	622.65
618.526	612.95
618.975	604.05
619.424	599.45
619.873	598.65
620.322	603.45
620.771	590.35
621.22	592.85
621.669	584.15
622.118	572.65
622.567	565.65
623.015	554.35
623.464	558.25
623.913	546.65
624.361	542.55
624.81	540.95
625.259	544.45
625.707	543.55
626.156	548.35
626.604	550.05
627.053	553.65
627.501	547.65
627.95	551.95
628.398	564.65
628.847	553.75
629.295	553.25
629.744	568.65
630.192	553.95
630.64	553.95
631.089	549.35
631.537	572.45
631.985	577.95
632.433	593.95
632.881	590.55
633.33	648.25
633.778	632.85
634.226	561.05
634.674	562.35
635.122	570.05
635.57	579.65
636.018	622.95
636.466	574.75
636.914	544.35
637.362	559.85
637.81	567.45
638.258	567.75
638.705	568.55
639.153	598.85
639.601	613.25
640.049	630.15
640.497	653.45
640.944	679.35
641.392	637.75
641.84	595.15
642.287	571.95
642.735	561.95
643.182	570.25
643.63	559.15
644.078	569.55
644.525	579.45
644.973	590.65
645.42	596.95
645.867	612.35
646.315	627.85
646.762	657.55
647.21	675.35
647.657	709.95
648.104	738.85
648.551	752.85
648.999	823.95
649.446	905.35
649.893	988.95
650.34	1160.65
650.787	1385.85
651.234	1722.45
651.682	2243.35
652.129	3116.35
652.576	4473.75
653.023	6641.85
653.47	9067.45
653.917	11296.65
654.363	12976.15
654.81	14271.75
655.257	13607.65
655.704	8863.95
656.151	5212.35
656.598	3379.35
657.044	2401.95
657.491	1842.55
657.938	1472.65
658.385	1228.25
658.831	1063.35
659.278	952.65
659.724	854.35
660.171	769.95
660.618	708.65
661.064	683.55
661.511	661.15
661.957	643.45
662.404	632.85
662.85	642.55
663.296	618.55
663.743	553.05
664.189	531.75
664.635	519.05
665.082	517.85
665.528	524.95
665.974	517.05
666.42	502.85
666.867	501.45
667.313	480.15
667.759	473.85
668.205	477.65
668.651	483.15
669.097	484.05
669.543	499.75
669.989	464.25
670.435	439.95
670.881	434.15
671.327	437.55
671.773	458.15
672.219	475.25
672.665	534.15
673.11	567.65
673.556	614.15
674.002	663.55
674.448	648.95
674.893	523.85
675.339	472.65
675.785	427.05
676.23	411.35
676.676	382.15
677.122	378.15
677.567	364.85
678.013	362.75
678.458	351.55
678.904	343.55
679.349	344.75
679.794	354.35
680.24	342.15
680.685	338.35
681.131	340.45
681.576	336.05
682.021	343.65
682.466	343.55
682.912	334.95
683.357	338.85
683.802	377.15
684.247	407.15
684.692	450.25
685.137	485.35
685.583	521.85
686.028	547.45
686.473	510.65
686.918	432.35
687.363	406.55
687.807	382.45
688.252	354.95
688.697	345.35
689.142	335.95
689.587	326.85
690.032	319.15
690.477	335.95
690.921	345.25
691.366	376.45
691.811	393.25
692.255	425.65
692.7	452.05
693.145	497.55
693.589	691.75
694.034	1118.95
694.478	1514.35
694.923	1691.35
695.367	2198.55
695.812	1159.85
696.256	493.35
696.701	362.55
697.145	326.75
697.59	321.45
698.034	306.15
698.478	320.45
698.922	321.75
699.367	321.15
699.811	328.85
700.255	347.95
700.699	368.35
701.143	419.95
701.588	471.25
702.032	515.95
702.476	500.05
702.92	479.25
703.364	484.55
703.808	626.45
704.252	1019.55
704.696	1423.45
705.14	1626.15
705.584	2074.75
706.027	1039.65
706.471	506.35
706.915	381.55
707.359	341.65
707.803	321.45
708.246	303.15
708.69	309.85
709.134	307.65
709.577	298.95
710.021	310.55
710.465	304.35
710.908	297.45
711.352	297.15
711.795	313.15
712.239	340.95
712.682	379.95
713.126	410.45
713.569	458.95
714.012	367.25
714.456	318.25
714.899	291.85
715.342	270.55
715.786	256.25
716.229	260.95
716.672	245.95
717.115	241.05
717.558	243.05
718.002	242.05
718.445	256.65
718.888	277.85
719.331	288.05
719.774	306.25
720.217	299.35
720.66	274.15
721.103	253.15
721.546	252.45
721.989	246.55
722.432	223.25
722.874	229.75
723.317	229.65
723.76	226.45
724.203	259.15
724.645	318.55
725.088	440.25
725.531	557.25
725.974	626.65
726.416	528.75
726.859	299.35
727.301	244.25
727.744	231.85
728.187	221.55
728.629	238.15
729.071	235.35
729.514	251.25
729.956	259.25
730.399	275.55
730.841	282.75
731.283	264.55
731.726	257.05
732.168	254.75
732.61	256.25
733.053	278.85
733.495	314.75
733.937	342.95
734.379	392.25
734.821	429.65
735.263	538.65
735.705	829.45
736.148	1575.05
736.59	2533.15
737.032	2967.85
737.474	2398.75
737.916	795.55
738.357	419.65
738.799	319.35
739.241	291.85
739.683	281.85
740.125	284.25
740.567	288.05
741.008	303.85
741.45	311.45
741.892	311.75
742.334	340.45
742.775	346.65
743.217	331.25
743.658	267.75
744.1	246.15
744.542	259.85
744.983	304.05
745.425	327.95
745.866	333.25
746.307	276.95
746.749	275.15
747.19	320.55
747.632	445.45
748.073	884.25
748.514	1853.75
748.956	2795.15
749.397	3495.45
749.838	2895.85
750.279	2877.65
750.72	1453.25
751.162	530.35
751.603	316.25
752.044	251.35
752.485	209.65
752.926	208.85
753.367	196.65
753.808	192.25
754.249	178.55
754.69	182.35
755.131	182.55
755.572	179.15
756.013	178.65
756.453	178.95
756.894	182.15
757.335	182.05
757.776	188.85
758.216	187.75
758.657	191.85
759.098	196.15
759.538	223.55
759.979	266.25
760.42	359.85
760.86	711.55
761.301	1834.75
761.741	4365.65
762.182	6213.75
762.622	4368.65
