Data from 20171114-ORNL-Ar_H_NY_Subt18_08-05-01-025.txt Node
Date: Tue Nov 14 08:05:01 EST 2017
User: Ender
Spectrometer: HR+D1039
Trigger mode: 0
Integration Time (sec): 2.730000E-2
Scans to average: 10
Electric dark correction enabled: true
Nonlinearity correction enabled: false
Boxcar width: 0
XAxis mode: Wavelengths
Number of Pixels in Spectrum: 2048
>>>>>Begin Spectral Data<<<<<
187.836	-1.46
188.309	-1.46
188.782	-1.46
189.255	0.64
189.728	-2.26
190.201	5.04
190.674	0.04
191.147	2.94
191.619	-8.46
192.092	7.84
192.565	8.44
193.038	-3.86
193.511	-0.06
193.984	-5.46
194.456	-2.36
194.929	-2.46
195.402	3.34
195.874	-1.96
196.347	-0.96
196.82	-7.96
197.292	6.64
197.765	5.34
198.237	-5.76
198.71	4.34
199.182	5.04
199.655	4.44
200.127	-2.76
200.6	-0.36
201.072	-7.56
201.544	-5.86
202.017	-5.56
202.489	-0.06
202.961	-1.06
203.433	-8.46
203.906	-6.86
204.378	-4.26
204.85	-6.16
205.322	-12.76
205.794	-2.56
206.266	-7.26
206.739	-4.56
207.211	5.34
207.683	-10.96
208.155	-4.96
208.627	-5.96
209.099	-2.56
209.57	-6.76
210.042	-0.46
210.514	-0.86
210.986	-0.06
211.458	-6.46
211.93	-1.76
212.402	3.14
212.873	-5.76
213.345	-9.66
213.817	-15.36
214.288	-4.26
214.76	-4.26
215.232	-4.96
215.703	-1.86
216.175	-4.76
216.646	-3.36
217.118	-4.36
217.589	-1.76
218.061	0.74
218.532	-3.86
219.004	-3.26
219.475	-3.66
219.946	-2.06
220.418	-10.16
220.889	10.84
221.36	-5.06
221.832	-2.06
222.303	-6.76
222.774	3.84
223.245	-3.96
223.717	-7.56
224.188	-13.16
224.659	-6.26
225.13	-3.86
225.601	-8.76
226.072	-0.36
226.543	-2.46
227.014	0.64
227.485	-0.06
227.956	-7.56
228.427	2.04
228.898	4.64
229.369	6.64
229.839	-5.26
230.31	-6.96
230.781	-0.56
231.252	-1.06
231.722	-3.46
232.193	-7.86
232.664	-0.76
233.135	3.34
233.605	-0.36
234.076	-8.16
234.546	-0.36
235.017	2.24
235.487	3.44
235.958	1.04
236.428	-1.36
236.899	4.44
237.369	4.84
237.84	3.74
238.31	5.34
238.78	2.94
239.251	2.84
239.721	3.44
240.191	1.34
240.662	-2.46
241.132	-2.26
241.602	0.74
242.072	5.74
242.542	8.34
243.013	2.74
243.483	5.54
243.953	-2.06
244.423	2.84
244.893	-8.06
245.363	4.04
245.833	-0.46
246.303	0.84
246.773	5.74
247.243	5.84
247.712	5.54
248.182	11.74
248.652	8.44
249.122	3.04
249.592	14.04
250.061	24.34
250.531	35.54
251.001	19.94
251.471	23.34
251.94	15.84
252.41	13.44
252.879	1.04
253.349	12.24
253.818	4.34
254.288	4.54
254.757	3.64
255.227	1.74
255.696	2.34
256.166	14.34
256.635	7.34
257.105	8.44
257.574	7.64
258.043	7.64
258.513	12.84
258.982	19.14
259.451	10.04
259.92	17.04
260.389	11.84
260.859	22.94
261.328	11.64
261.797	20.64
262.266	11.94
262.735	15.94
263.204	9.74
263.673	2.94
264.142	10.44
264.611	-1.96
265.08	1.64
265.549	2.24
266.018	8.14
266.487	-0.66
266.955	1.24
267.424	5.94
267.893	12.34
268.362	0.54
268.83	5.54
269.299	10.64
269.768	8.04
270.236	9.24
270.705	8.84
271.174	10.04
271.642	15.54
272.111	6.34
272.579	18.44
273.048	21.54
273.516	31.14
273.985	25.64
274.453	30.94
274.922	20.64
275.39	8.74
275.858	8.74
276.327	13.94
276.795	24.94
277.263	15.44
277.731	37.04
278.2	52.34
278.668	70.84
279.136	57.34
279.604	25.54
280.072	19.54
280.54	15.44
281.008	14.54
281.477	14.54
281.945	13.04
282.413	15.44
282.881	19.24
283.348	7.74
283.816	18.94
284.284	18.04
284.752	25.14
285.22	16.44
285.688	18.74
286.156	26.14
286.623	46.64
287.091	55.04
287.559	31.24
288.026	24.64
288.494	24.04
288.962	10.64
289.429	15.34
289.897	19.74
290.364	22.24
290.832	18.44
291.3	19.54
291.767	20.04
292.234	28.14
292.702	13.64
293.169	16.04
293.637	32.94
294.104	24.44
294.571	10.94
295.039	14.14
295.506	17.14
295.973	16.24
296.44	20.14
296.908	22.44
297.375	17.84
297.842	22.34
298.309	18.74
298.776	16.44
299.243	21.94
299.71	16.64
300.177	21.14
300.644	26.34
301.111	23.04
301.578	29.64
302.045	18.64
302.512	27.34
302.979	23.94
303.446	21.34
303.913	23.24
304.379	19.74
304.846	37.74
305.313	28.24
305.78	24.14
306.246	25.54
306.713	25.34
307.18	27.24
307.646	30.24
308.113	33.44
308.579	29.94
309.046	27.94
309.512	22.84
309.979	23.84
310.445	29.54
310.912	27.04
311.378	33.54
311.845	34.14
312.311	39.24
312.777	33.94
313.244	40.64
313.71	33.04
314.176	34.44
314.642	33.84
315.109	33.74
315.575	38.54
316.041	42.14
316.507	38.34
316.973	50.24
317.439	39.84
317.905	37.74
318.371	32.54
318.837	37.04
319.303	36.24
319.769	38.54
320.235	38.54
320.701	41.54
321.167	37.94
321.633	41.34
322.099	46.74
322.564	44.84
323.03	42.04
323.496	40.74
323.962	43.74
324.427	38.24
324.893	49.54
325.359	38.64
325.824	41.44
326.29	37.24
326.755	43.14
327.221	38.64
327.686	42.34
328.152	50.14
328.617	46.84
329.083	48.74
329.548	53.94
330.014	53.24
330.479	44.44
330.944	48.94
331.41	42.34
331.875	48.34
332.34	45.24
332.805	42.84
333.271	50.54
333.736	50.84
334.201	62.94
334.666	53.24
335.131	58.24
335.596	49.54
336.061	59.44
336.526	50.54
336.991	57.54
337.456	58.54
337.921	45.64
338.386	47.84
338.851	47.04
339.316	49.24
339.781	52.54
340.246	53.84
340.711	49.44
341.175	53.94
341.64	51.44
342.105	48.44
342.569	60.34
343.034	59.84
343.499	56.54
343.963	50.44
344.428	66.44
344.893	62.14
345.357	60.24
345.822	62.24
346.286	68.14
346.751	74.74
347.215	73.94
347.679	75.64
348.144	96.34
348.608	82.54
349.073	70.44
349.537	70.54
350.001	87.24
350.465	88.24
350.93	86.24
351.394	89.04
351.858	75.84
352.322	89.44
352.786	89.34
353.25	101.34
353.715	114.54
354.179	107.34
354.643	117.64
355.107	129.24
355.571	104.84
356.035	107.54
356.498	124.14
356.962	120.84
357.426	136.04
357.89	119.64
358.354	90.74
358.818	82.64
359.281	79.84
359.745	78.94
360.209	83.74
360.673	81.64
361.136	91.54
361.6	86.64
362.064	91.24
362.527	89.24
362.991	90.44
363.454	84.54
363.918	80.74
364.381	85.54
364.845	84.74
365.308	90.64
365.772	87.64
366.235	88.84
366.698	81.14
367.162	92.64
367.625	92.84
368.088	86.34
368.552	98.34
369.015	90.64
369.478	101.64
369.941	97.84
370.404	98.14
370.867	108.34
371.331	105.94
371.794	112.04
372.257	107.64
372.72	121.54
373.183	116.64
373.646	103.14
374.109	104.84
374.572	110.64
375.035	111.24
375.497	111.24
375.96	103.64
376.423	101.44
376.886	107.94
377.349	106.84
377.811	100.94
378.274	103.64
378.737	112.04
379.199	113.34
379.662	112.94
380.125	113.74
380.587	117.64
381.05	117.04
381.512	124.04
381.975	130.84
382.437	123.54
382.9	129.14
383.362	127.74
383.825	140.44
384.287	147.64
384.75	141.34
385.212	140.54
385.674	138.14
386.136	135.94
386.599	123.44
387.061	132.04
387.523	129.74
387.985	135.74
388.447	142.54
388.91	139.64
389.372	146.14
389.834	149.64
390.296	141.74
390.758	146.64
391.22	165.44
391.682	200.84
392.144	283.44
392.606	221.24
393.068	163.94
393.529	165.24
393.991	144.44
394.453	146.04
394.915	158.24
395.377	186.54
395.838	207.84
396.3	150.54
396.762	140.94
397.224	129.94
397.685	131.84
398.147	129.14
398.608	125.84
399.07	126.44
399.531	131.64
399.993	134.84
400.454	147.14
400.916	142.74
401.377	141.94
401.839	146.04
402.3	145.14
402.762	165.64
403.223	178.04
403.684	172.54
404.145	160.44
404.607	155.94
405.068	164.64
405.529	168.54
405.99	176.64
406.451	174.44
406.913	168.34
407.374	160.14
407.835	157.24
408.296	165.64
408.757	170.34
409.218	180.04
409.679	178.04
410.14	178.14
410.601	168.24
411.062	177.04
411.522	182.54
411.983	186.14
412.444	169.84
412.905	176.14
413.366	182.84
413.826	188.64
414.287	212.54
414.748	254.44
415.208	251.34
415.669	210.44
416.13	200.04
416.59	192.84
417.051	210.14
417.511	212.14
417.972	235.54
418.432	239.44
418.893	278.34
419.353	252.14
419.814	191.24
420.274	177.84
420.734	179.64
421.195	195.24
421.655	188.74
422.115	193.04
422.576	192.64
423.036	192.34
423.496	204.34
423.956	207.34
424.416	228.64
424.876	266.34
425.336	260.54
425.797	258.54
426.257	253.74
426.717	236.34
427.177	225.94
427.637	218.94
428.097	234.94
428.556	243.54
429.016	272.74
429.476	262.94
429.936	266.24
430.396	272.54
430.856	282.74
431.315	304.94
431.775	341.34
432.235	368.14
432.694	336.54
433.154	361.54
433.614	381.54
434.073	328.34
434.533	277.94
434.993	265.74
435.452	281.74
435.912	286.54
436.371	276.94
436.83	269.44
437.29	263.44
437.749	240.74
438.209	238.24
438.668	268.64
439.127	283.64
439.587	262.14
440.046	240.44
440.505	261.14
440.964	267.54
441.424	308.64
441.883	312.04
442.342	253.34
442.801	220.64
443.26	222.84
443.719	219.04
444.178	214.94
444.637	207.14
445.096	213.04
445.555	207.44
446.014	224.04
446.473	220.64
446.932	220.94
447.391	220.04
447.849	220.74
448.308	218.24
448.767	221.74
449.226	237.14
449.685	234.94
450.143	241.74
450.602	235.44
451.061	222.94
451.519	229.24
451.978	228.34
452.436	230.44
452.895	231.54
453.353	246.74
453.812	234.24
454.27	230.74
454.729	227.14
455.187	237.24
455.646	241.54
456.104	242.04
456.562	249.54
457.021	261.14
457.479	254.74
457.937	265.24
458.395	256.94
458.854	239.84
459.312	246.84
459.77	258.94
460.228	250.74
460.686	235.94
461.144	241.04
461.602	242.24
462.06	237.24
462.518	253.04
462.976	253.24
463.434	257.74
463.892	258.94
464.35	278.64
464.808	286.04
465.266	270.34
465.724	257.64
466.181	266.14
466.639	269.14
467.097	284.74
467.555	293.64
468.012	297.54
468.47	310.04
468.928	325.14
469.385	335.74
469.843	341.74
470.3	338.54
470.758	359.24
471.215	376.54
471.673	403.24
472.13	393.44
472.588	417.54
473.045	365.94
473.503	371.54
473.96	390.54
474.417	405.74
474.875	426.14
475.332	464.94
475.789	453.84
476.246	466.14
476.704	483.64
477.161	494.44
477.618	516.24
478.075	550.74
478.532	595.54
478.989	685.44
479.446	791.24
479.903	755.34
480.36	797.14
480.817	863.14
481.274	962.34
481.731	1049.94
482.188	1154.74
482.645	1290.14
483.102	1382.34
483.558	1523.64
484.015	1580.14
484.472	1538.14
484.929	1512.14
485.385	1457.24
485.842	1408.04
486.299	1335.04
486.755	1275.84
487.212	1077.54
487.668	900.34
488.125	836.14
488.582	763.04
489.038	735.14
489.494	704.94
489.951	676.24
490.407	652.84
490.864	642.84
491.32	627.74
491.776	628.64
492.233	635.34
492.689	609.24
493.145	589.24
493.602	583.54
494.058	601.04
494.514	601.84
494.97	624.14
495.426	646.64
495.882	611.54
496.338	616.94
496.794	616.74
497.251	617.14
497.707	628.64
498.163	626.64
498.618	638.44
499.074	637.14
499.53	676.34
499.986	678.64
500.442	644.44
500.898	623.14
501.354	617.34
501.809	624.94
502.265	635.34
502.721	646.94
503.177	658.84
503.632	655.44
504.088	670.34
504.543	691.74
504.999	696.34
505.455	648.84
505.91	614.64
506.366	630.44
506.821	616.54
507.277	604.54
507.732	619.84
508.187	617.44
508.643	626.04
509.098	624.14
509.553	639.94
510.009	649.44
510.464	654.84
510.919	683.54
511.375	681.14
511.83	699.94
512.285	715.14
512.74	763.64
513.195	769.74
513.65	758.04
514.105	751.34
514.56	759.64
515.015	784.14
515.47	791.44
515.925	780.94
516.38	777.44
516.835	790.14
517.29	769.14
517.745	768.84
518.2	752.34
518.655	750.84
519.109	728.44
519.564	734.64
520.019	724.84
520.474	723.44
520.928	717.84
521.383	710.44
521.838	703.64
522.292	693.64
522.747	698.64
523.201	691.34
523.656	689.94
524.11	682.74
524.565	678.04
525.019	681.04
525.474	695.44
525.928	689.44
526.382	677.14
526.837	690.74
527.291	683.24
527.745	694.04
528.2	690.74
528.654	694.94
529.108	672.34
529.562	677.14
530.016	679.24
530.47	677.94
530.925	677.04
531.379	684.24
531.833	697.54
532.287	697.64
532.741	695.64
533.195	698.24
533.649	705.64
534.103	709.84
534.556	694.94
535.01	697.04
535.464	706.54
535.918	717.24
536.372	714.24
536.826	709.54
537.279	691.54
537.733	703.54
538.187	688.54
538.64	700.04
539.094	703.34
539.548	718.44
540.001	711.14
540.455	707.34
540.908	717.14
541.362	727.94
541.815	725.24
542.269	740.74
542.722	735.94
543.175	744.84
543.629	753.84
544.082	763.34
544.536	767.64
544.989	772.64
545.442	779.64
545.895	775.74
546.349	776.44
546.802	779.94
547.255	776.14
547.708	788.04
548.161	805.64
548.614	806.34
549.067	812.54
549.52	796.54
549.973	795.34
550.426	794.54
550.879	771.64
551.332	779.64
551.785	789.54
552.238	779.74
552.691	806.34
553.144	814.74
553.596	831.44
554.049	845.04
554.502	874.74
554.955	892.34
555.407	879.44
555.86	878.54
556.313	869.54
556.765	859.24
557.218	856.74
557.67	858.34
558.123	862.34
558.576	858.64
559.028	859.04
559.48	854.94
559.933	848.94
560.385	812.24
560.838	787.84
561.29	760.14
561.742	753.24
562.195	745.24
562.647	742.64
563.099	764.54
563.551	751.54
564.004	750.04
564.456	751.74
564.908	732.74
565.36	722.84
565.812	716.14
566.264	705.14
566.716	689.94
567.168	690.74
567.62	698.14
568.072	685.74
568.524	688.04
568.976	662.34
569.428	651.14
569.88	647.74
570.332	663.24
570.784	660.34
571.235	663.04
571.687	665.24
572.139	672.84
572.59	684.24
573.042	690.14
573.494	689.94
573.945	672.94
574.397	671.44
574.849	664.24
575.3	669.54
575.752	660.64
576.203	659.34
576.655	662.44
577.106	649.04
577.557	637.14
578.009	647.64
578.46	641.44
578.912	632.34
579.363	637.04
579.814	644.34
580.265	637.74
580.717	645.84
581.168	639.54
581.619	648.94
582.07	653.94
582.521	648.84
582.972	652.14
583.423	646.24
583.875	654.34
584.326	672.64
584.777	724.54
585.227	790.64
585.678	859.74
586.129	943.14
586.58	1019.54
587.031	1102.94
587.482	1243.74
587.933	1423.14
588.384	1237.14
588.834	932.64
589.285	768.54
589.736	745.94
590.186	750.64
590.637	725.94
591.088	709.44
591.538	700.64
591.989	708.24
592.439	696.34
592.89	696.94
593.34	673.64
593.791	673.84
594.241	678.14
594.692	676.34
595.142	672.94
595.593	668.54
596.043	675.34
596.493	678.34
596.943	688.54
597.394	694.34
597.844	684.24
598.294	685.34
598.744	711.64
599.195	741.64
599.645	770.14
600.095	816.34
600.545	878.34
600.995	919.84
601.445	967.44
601.895	1034.64
602.345	1084.54
602.795	1052.94
603.245	1027.04
603.695	966.34
604.145	912.04
604.594	857.14
605.044	819.14
605.494	758.64
605.944	723.24
606.393	704.74
606.843	699.74
607.293	697.24
607.743	688.84
608.192	705.54
608.642	716.54
609.091	731.44
609.541	727.44
609.99	727.24
610.44	720.64
610.889	681.34
611.339	673.84
611.788	652.64
612.238	657.74
612.687	676.34
613.136	676.54
613.586	700.64
614.035	693.74
614.484	710.04
614.933	716.14
615.383	706.74
615.832	688.04
616.281	686.54
616.73	651.04
617.179	625.94
617.628	613.94
618.077	601.54
618.526	592.14
618.975	582.84
619.424	577.74
619.873	570.74
620.322	591.04
620.771	573.74
621.22	573.24
621.669	557.74
622.118	553.74
622.567	544.14
623.015	536.24
623.464	540.04
623.913	533.14
624.361	523.94
624.81	517.44
625.259	523.84
625.707	526.74
626.156	519.14
626.604	533.94
627.053	522.74
627.501	527.24
627.95	539.74
628.398	543.74
628.847	544.54
629.295	541.14
629.744	545.44
630.192	530.34
630.64	532.04
631.089	531.94
631.537	539.24
631.985	550.64
632.433	554.14
632.881	572.04
633.33	606.84
633.778	583.74
634.226	535.24
634.674	524.14
635.122	540.44
635.57	552.14
636.018	580.14
636.466	544.74
636.914	526.24
637.362	534.14
637.81	535.44
638.258	549.84
638.705	545.24
639.153	565.34
639.601	562.34
640.049	595.84
640.497	624.24
640.944	648.94
641.392	595.04
641.84	571.34
642.287	547.14
642.735	532.94
643.182	530.04
643.63	528.74
644.078	538.64
644.525	561.24
644.973	547.24
645.42	565.14
645.867	576.74
646.315	585.24
646.762	606.04
647.21	636.54
647.657	655.14
648.104	699.04
648.551	714.14
648.999	772.94
649.446	840.04
649.893	936.34
650.34	1066.64
650.787	1276.84
651.234	1583.24
651.682	2046.64
652.129	2797.94
652.576	4019.74
653.023	5960.44
653.47	8195.84
653.917	10380.44
654.363	12054.24
654.81	13480.54
655.257	12799.04
655.704	8346.14
656.151	4932.94
656.598	3183.54
657.044	2264.14
657.491	1743.44
657.938	1390.84
658.385	1154.94
658.831	999.04
659.278	893.04
659.724	799.24
660.171	735.64
660.618	664.74
661.064	628.64
661.511	625.94
661.957	597.94
662.404	597.94
662.85	596.94
663.296	572.64
663.743	523.14
664.189	497.44
664.635	492.14
665.082	488.84
665.528	480.44
665.974	483.44
666.42	471.44
666.867	476.54
667.313	467.44
667.759	445.54
668.205	443.24
668.651	438.14
669.097	450.54
669.543	459.44
669.989	432.24
670.435	415.74
670.881	412.94
671.327	407.14
671.773	426.74
672.219	457.74
672.665	493.34
673.11	528.04
673.556	583.84
674.002	617.64
674.448	598.44
674.893	508.04
675.339	441.04
675.785	408.24
676.23	389.04
676.676	356.64
677.122	355.54
677.567	347.44
678.013	334.84
678.458	323.34
678.904	328.44
679.349	314.64
679.794	327.54
680.24	320.94
680.685	313.54
681.131	320.84
681.576	317.14
682.021	327.04
682.466	329.44
682.912	312.34
683.357	319.04
683.802	359.84
684.247	369.84
684.692	419.74
685.137	452.14
685.583	478.54
686.028	510.84
686.473	476.94
686.918	408.74
687.363	375.64
687.807	362.54
688.252	329.24
688.697	332.04
689.142	309.14
689.587	300.84
690.032	294.94
690.477	314.64
690.921	323.44
691.366	350.54
691.811	372.24
692.255	401.24
692.7	418.94
693.145	454.64
693.589	628.84
694.034	1008.84
694.478	1399.34
694.923	1608.54
695.367	2114.54
695.812	1101.64
696.256	453.14
696.701	342.44
697.145	311.04
697.59	297.14
698.034	293.14
698.478	300.34
698.922	301.14
699.367	300.94
699.811	308.84
700.255	323.94
700.699	348.54
701.143	383.74
701.588	430.54
702.032	473.34
702.476	464.44
702.92	452.54
703.364	443.34
703.808	563.84
704.252	908.74
704.696	1319.74
705.14	1550.64
705.584	1983.64
706.027	979.74
706.471	487.44
706.915	371.54
707.359	317.84
707.803	299.54
708.246	282.14
708.69	289.34
709.134	285.44
709.577	287.94
710.021	288.74
710.465	284.44
710.908	276.94
711.352	265.84
711.795	280.84
712.239	310.54
712.682	354.24
713.126	376.44
713.569	426.44
714.012	342.64
714.456	296.64
714.899	270.64
715.342	256.64
715.786	237.04
716.229	227.54
716.672	235.54
717.115	225.54
717.558	232.64
718.002	225.54
718.445	240.44
718.888	269.54
719.331	270.04
719.774	280.54
720.217	272.54
720.66	249.54
721.103	246.84
721.546	229.74
721.989	220.94
722.432	208.44
722.874	213.24
723.317	204.04
723.76	207.14
724.203	241.84
724.645	285.04
725.088	401.14
725.531	513.74
725.974	589.54
726.416	497.04
726.859	285.04
727.301	215.94
727.744	220.34
728.187	206.04
728.629	220.84
729.071	219.14
729.514	231.84
729.956	244.34
730.399	255.44
730.841	261.64
731.283	246.14
731.726	240.64
732.168	240.14
732.61	240.94
733.053	249.54
733.495	283.64
733.937	310.54
734.379	357.14
734.821	386.84
735.263	487.34
735.705	728.74
736.148	1389.34
736.59	2327.54
737.032	2825.04
737.474	2308.14
737.916	739.64
738.357	396.34
738.799	294.54
739.241	267.04
739.683	252.74
740.125	262.24
740.567	270.04
741.008	282.84
741.45	287.94
741.892	284.44
742.334	310.84
742.775	323.24
743.217	314.24
743.658	247.84
744.1	227.94
744.542	237.14
744.983	283.24
745.425	319.14
745.866	317.74
746.307	264.04
746.749	260.54
747.19	296.34
747.632	402.94
748.073	774.94
748.514	1652.24
748.956	2586.64
749.397	3233.34
749.838	2693.84
750.279	2744.04
750.72	1379.14
751.162	496.44
751.603	295.14
752.044	229.64
752.485	201.34
752.926	182.84
753.367	183.34
753.808	169.44
754.249	175.54
754.69	167.64
755.131	158.64
755.572	159.94
756.013	159.44
756.453	166.54
756.894	172.84
757.335	174.54
757.776	174.14
758.216	183.64
758.657	177.54
759.098	178.54
759.538	196.84
759.979	231.54
760.42	327.84
760.86	614.24
761.301	1581.84
761.741	3957.74
762.182	5955.94
