Data from 20171114-ORNL-Ar_H_NY_Subt18_08-08-47-623.txt Node
Date: Tue Nov 14 08:08:47 EST 2017
User: Ender
Spectrometer: HR+D1039
Trigger mode: 0
Integration Time (sec): 2.730000E-2
Scans to average: 10
Electric dark correction enabled: true
Nonlinearity correction enabled: false
Boxcar width: 0
XAxis mode: Wavelengths
Number of Pixels in Spectrum: 2048
>>>>>Begin Spectral Data<<<<<
187.836	-2.86
188.309	-2.86
188.782	-2.86
189.255	1.94
189.728	-3.66
190.201	4.74
190.674	-1.56
191.147	0.14
191.619	-3.26
192.092	-1.06
192.565	0.84
193.038	-0.26
193.511	1.34
193.984	4.24
194.456	-0.56
194.929	-4.46
195.402	2.84
195.874	1.54
196.347	-1.96
196.82	-5.46
197.292	3.54
197.765	2.34
198.237	-4.46
198.71	1.94
199.182	-4.26
199.655	-0.06
200.127	-0.26
200.6	-1.76
201.072	2.34
201.544	-4.26
202.017	3.54
202.489	1.44
202.961	-0.66
203.433	-2.46
203.906	-9.26
204.378	-1.26
204.85	-0.06
205.322	-8.16
205.794	-4.46
206.266	-2.56
206.739	-8.56
207.211	1.54
207.683	-5.06
208.155	-0.16
208.627	-3.36
209.099	-5.16
209.57	-8.56
210.042	-3.06
210.514	-2.76
210.986	1.24
211.458	-9.66
211.93	-0.86
212.402	5.84
212.873	-7.66
213.345	-11.26
213.817	-9.46
214.288	-9.86
214.76	-8.46
215.232	-5.56
215.703	-3.76
216.175	-10.26
216.646	-5.96
217.118	-5.16
217.589	0.34
218.061	-2.66
218.532	-6.36
219.004	-2.16
219.475	-2.16
219.946	-3.66
220.418	-6.36
220.889	-0.66
221.36	-1.06
221.832	-6.26
222.303	-10.76
222.774	-2.06
223.245	-10.46
223.717	-11.86
224.188	-3.36
224.659	-2.06
225.13	-5.66
225.601	-4.96
226.072	-3.06
226.543	2.44
227.014	-2.76
227.485	-3.56
227.956	-7.46
228.427	-3.36
228.898	-1.36
229.369	1.94
229.839	-9.56
230.31	-12.76
230.781	1.94
231.252	-5.96
231.722	-3.06
232.193	-2.86
232.664	-1.86
233.135	-5.36
233.605	-5.66
234.076	-3.06
234.546	8.04
235.017	6.04
235.487	0.34
235.958	-4.66
236.428	-8.76
236.899	2.84
237.369	2.64
237.84	-6.06
238.31	-5.26
238.78	-5.36
239.251	-6.46
239.721	0.44
240.191	-0.76
240.662	-9.86
241.132	-4.86
241.602	-3.56
242.072	0.64
242.542	5.24
243.013	-2.56
243.483	0.04
243.953	-2.86
244.423	-8.16
244.893	-6.26
245.363	-5.16
245.833	-0.96
246.303	-8.86
246.773	1.54
247.243	-0.96
247.712	3.14
248.182	-2.56
248.652	0.84
249.122	-4.36
249.592	2.24
250.061	3.84
250.531	19.44
251.001	1.14
251.471	8.34
251.94	11.94
252.41	1.54
252.879	-3.26
253.349	8.04
253.818	4.34
254.288	0.84
254.757	-5.06
255.227	-5.36
255.696	0.04
256.166	1.64
256.635	4.24
257.105	8.04
257.574	0.14
258.043	7.04
258.513	-4.36
258.982	8.34
259.451	3.14
259.92	7.54
260.389	2.14
260.859	7.44
261.328	1.14
261.797	10.24
262.266	4.24
262.735	3.24
263.204	4.44
263.673	-1.76
264.142	0.94
264.611	-6.86
265.08	-5.16
265.549	-4.16
266.018	1.54
266.487	-5.86
266.955	-5.46
267.424	-8.86
267.893	1.94
268.362	-6.06
268.83	-1.46
269.299	1.74
269.768	3.24
270.236	-0.86
270.705	-1.46
271.174	-5.36
271.642	2.94
272.111	3.84
272.579	4.74
273.048	6.94
273.516	6.54
273.985	14.64
274.453	11.24
274.922	14.04
275.39	3.34
275.858	3.44
276.327	7.84
276.795	19.14
277.263	2.74
277.731	14.14
278.2	21.04
278.668	22.64
279.136	14.94
279.604	3.64
280.072	8.64
280.54	5.24
281.008	5.04
281.477	8.14
281.945	8.84
282.413	11.14
282.881	11.94
283.348	0.04
283.816	10.04
284.284	9.74
284.752	15.74
285.22	10.44
285.688	7.44
286.156	10.24
286.623	25.14
287.091	18.44
287.559	11.04
288.026	8.04
288.494	13.84
288.962	-1.96
289.429	2.54
289.897	10.84
290.364	11.24
290.832	8.14
291.3	6.54
291.767	10.74
292.234	9.74
292.702	13.94
293.169	11.64
293.637	15.84
294.104	18.34
294.571	3.44
295.039	5.44
295.506	8.04
295.973	12.04
296.44	6.94
296.908	9.44
297.375	13.04
297.842	11.84
298.309	10.54
298.776	7.14
299.243	16.24
299.71	13.84
300.177	16.04
300.644	10.64
301.111	16.04
301.578	18.74
302.045	16.34
302.512	13.84
302.979	19.64
303.446	19.54
303.913	11.84
304.379	11.04
304.846	19.84
305.313	17.84
305.78	11.34
306.246	17.74
306.713	20.44
307.18	17.14
307.646	20.94
308.113	21.14
308.579	20.84
309.046	19.04
309.512	18.14
309.979	10.94
310.445	23.54
310.912	19.54
311.378	20.04
311.845	26.54
312.311	28.04
312.777	29.74
313.244	22.44
313.71	32.54
314.176	26.84
314.642	19.64
315.109	18.44
315.575	31.24
316.041	30.04
316.507	23.04
316.973	31.14
317.439	26.94
317.905	31.04
318.371	28.64
318.837	31.04
319.303	22.64
319.769	26.44
320.235	25.84
320.701	21.14
321.167	30.44
321.633	25.84
322.099	34.34
322.564	32.54
323.03	23.24
323.496	27.84
323.962	28.94
324.427	26.44
324.893	31.74
325.359	32.54
325.824	27.14
326.29	29.04
326.755	30.14
327.221	36.24
327.686	30.74
328.152	35.54
328.617	33.74
329.083	41.04
329.548	43.44
330.014	38.34
330.479	27.44
330.944	34.54
331.41	33.24
331.875	34.04
332.34	35.44
332.805	35.74
333.271	39.04
333.736	28.24
334.201	40.04
334.666	43.54
335.131	40.34
335.596	47.04
336.061	45.24
336.526	32.34
336.991	38.24
337.456	46.94
337.921	40.04
338.386	35.04
338.851	38.64
339.316	43.04
339.781	38.34
340.246	38.24
340.711	40.74
341.175	41.54
341.64	34.74
342.105	44.04
342.569	44.44
343.034	51.44
343.499	43.94
343.963	48.74
344.428	59.84
344.893	55.54
345.357	57.04
345.822	53.84
346.286	53.54
346.751	58.14
347.215	58.74
347.679	57.44
348.144	77.94
348.608	73.04
349.073	58.54
349.537	61.84
350.001	67.84
350.465	78.44
350.93	58.74
351.394	67.34
351.858	58.44
352.322	77.44
352.786	71.14
353.25	84.24
353.715	95.04
354.179	81.94
354.643	101.34
355.107	102.44
355.571	85.24
356.035	82.64
356.498	99.54
356.962	102.74
357.426	104.64
357.89	90.14
358.354	75.44
358.818	75.44
359.281	71.14
359.745	65.94
360.209	67.54
360.673	64.44
361.136	72.64
361.6	75.24
362.064	77.24
362.527	73.34
362.991	79.04
363.454	70.14
363.918	71.04
364.381	72.24
364.845	70.44
365.308	68.84
365.772	78.84
366.235	74.84
366.698	67.14
367.162	78.94
367.625	79.04
368.088	76.24
368.552	72.84
369.015	78.74
369.478	78.84
369.941	90.54
370.404	83.84
370.867	93.14
371.331	101.94
371.794	97.94
372.257	90.64
372.72	107.24
373.183	97.24
373.646	84.94
374.109	86.94
374.572	94.64
375.035	98.24
375.497	98.24
375.96	96.34
376.423	100.44
376.886	103.34
377.349	103.84
377.811	89.04
378.274	94.34
378.737	94.94
379.199	92.04
379.662	99.24
380.125	97.84
380.587	98.94
381.05	103.04
381.512	110.54
381.975	117.54
382.437	116.64
382.9	110.14
383.362	120.14
383.825	126.14
384.287	129.14
384.75	119.84
385.212	115.24
385.674	129.14
386.136	116.74
386.599	109.74
387.061	118.44
387.523	117.34
387.985	123.04
388.447	127.74
388.91	121.84
389.372	133.34
389.834	131.24
390.296	125.04
390.758	132.24
391.22	140.84
391.682	170.04
392.144	198.04
392.606	168.44
393.068	147.14
393.529	147.64
393.991	134.74
394.453	126.94
394.915	140.14
395.377	146.74
395.838	158.84
396.3	138.34
396.762	133.24
397.224	130.34
397.685	124.04
398.147	129.94
398.608	124.44
399.07	125.04
399.531	134.64
399.993	136.84
400.454	140.94
400.916	140.04
401.377	141.14
401.839	140.94
402.3	149.54
402.762	156.54
403.223	175.54
403.684	160.64
404.145	157.94
404.607	158.04
405.068	156.44
405.529	163.94
405.99	180.64
406.451	165.84
406.913	169.94
407.374	162.04
407.835	154.94
408.296	166.84
408.757	167.04
409.218	176.84
409.679	176.84
410.14	170.24
410.601	171.34
411.062	175.54
411.522	178.74
411.983	168.34
412.444	172.34
412.905	175.74
413.366	179.94
413.826	194.64
414.287	214.34
414.748	255.44
415.208	248.44
415.669	211.14
416.13	205.54
416.59	203.44
417.051	213.54
417.511	218.34
417.972	235.04
418.432	244.24
418.893	290.74
419.353	249.74
419.814	202.14
420.274	189.74
420.734	182.84
421.195	194.84
421.655	196.84
422.115	196.44
422.576	187.34
423.036	198.74
423.496	210.44
423.956	219.94
424.416	226.34
424.876	270.64
425.336	260.54
425.797	259.84
426.257	252.74
426.717	239.24
427.177	230.14
427.637	220.44
428.097	238.64
428.556	240.94
429.016	266.64
429.476	259.64
429.936	265.54
430.396	268.64
430.856	289.24
431.315	308.24
431.775	334.04
432.235	373.74
432.694	344.64
433.154	351.84
433.614	380.84
434.073	320.74
434.533	276.94
434.993	260.34
435.452	274.34
435.912	288.74
436.371	282.04
436.83	263.74
437.29	260.84
437.749	248.64
438.209	244.74
438.668	272.94
439.127	286.74
439.587	259.94
440.046	243.24
440.505	259.14
440.964	277.44
441.424	312.74
441.883	305.24
442.342	259.24
442.801	228.34
443.26	230.14
443.719	224.24
444.178	221.64
444.637	215.64
445.096	218.64
445.555	222.74
446.014	227.24
446.473	231.24
446.932	225.84
447.391	228.44
447.849	229.84
448.308	219.84
448.767	224.94
449.226	239.44
449.685	240.84
450.143	254.84
450.602	239.14
451.061	231.14
451.519	240.54
451.978	242.44
452.436	237.04
452.895	237.64
453.353	242.94
453.812	239.04
454.27	237.74
454.729	235.54
455.187	248.04
455.646	239.14
456.104	245.94
456.562	264.94
457.021	276.04
457.479	262.44
457.937	275.94
458.395	267.54
458.854	252.84
459.312	262.64
459.77	285.64
460.228	261.64
460.686	253.54
461.144	257.04
461.602	251.14
462.06	244.44
462.518	262.34
462.976	257.84
463.434	259.54
463.892	269.04
464.35	282.74
464.808	284.04
465.266	268.14
465.724	272.94
466.181	277.64
466.639	276.74
467.097	300.24
467.555	303.74
468.012	305.14
468.47	312.84
468.928	332.84
469.385	338.54
469.843	343.44
470.3	352.84
470.758	371.04
471.215	389.54
471.673	410.54
472.13	410.34
472.588	422.24
473.045	378.84
473.503	382.24
473.96	399.74
474.417	411.44
474.875	434.34
475.332	482.04
475.789	463.14
476.246	466.84
476.704	491.14
477.161	507.94
477.618	520.74
478.075	562.54
478.532	617.84
478.989	682.94
479.446	788.04
479.903	763.14
480.36	793.74
480.817	837.44
481.274	933.04
481.731	1024.84
482.188	1089.24
482.645	1212.34
483.102	1311.44
483.558	1433.34
484.015	1477.64
484.472	1459.84
484.929	1417.44
485.385	1366.04
485.842	1327.34
486.299	1289.94
486.755	1228.74
487.212	1047.04
487.668	913.14
488.125	839.94
488.582	760.14
489.038	733.84
489.494	695.84
489.951	674.04
490.407	663.94
490.864	643.54
491.32	640.14
491.776	640.14
492.233	641.34
492.689	615.14
493.145	607.64
493.602	600.04
494.058	621.34
494.514	608.24
494.97	638.24
495.426	653.44
495.882	624.04
496.338	608.44
496.794	623.14
497.251	612.84
497.707	625.14
498.163	630.14
498.618	645.44
499.074	640.74
499.53	670.24
499.986	676.84
500.442	646.34
500.898	626.24
501.354	618.04
501.809	639.74
502.265	630.34
502.721	655.84
503.177	661.64
503.632	663.14
504.088	657.14
504.543	682.74
504.999	706.74
505.455	665.14
505.91	647.04
506.366	638.34
506.821	638.84
507.277	633.74
507.732	631.74
508.187	627.54
508.643	642.44
509.098	651.04
509.553	669.14
510.009	670.44
510.464	684.94
510.919	696.84
511.375	702.34
511.83	711.54
512.285	733.44
512.74	763.04
513.195	791.44
513.65	765.94
514.105	775.04
514.56	768.04
515.015	787.84
515.47	802.94
515.925	783.94
516.38	788.74
516.835	800.64
517.29	799.84
517.745	779.44
518.2	770.74
518.655	758.84
519.109	750.24
519.564	741.54
520.019	734.54
520.474	734.34
520.928	740.24
521.383	733.54
521.838	718.34
522.292	726.04
522.747	721.24
523.201	718.74
523.656	711.34
524.11	702.74
524.565	705.24
525.019	704.64
525.474	710.74
525.928	703.74
526.382	702.94
526.837	716.54
527.291	716.24
527.745	707.44
528.2	706.14
528.654	703.64
529.108	698.94
529.562	704.64
530.016	700.34
530.47	698.14
530.925	700.94
531.379	712.14
531.833	716.44
532.287	711.44
532.741	713.94
533.195	708.94
533.649	719.94
534.103	725.04
534.556	706.64
535.01	721.04
535.464	713.64
535.918	726.34
536.372	727.74
536.826	717.04
537.279	712.54
537.733	721.44
538.187	721.24
538.64	729.74
539.094	737.34
539.548	741.64
540.001	734.94
540.455	735.44
540.908	744.84
541.362	747.44
541.815	753.34
542.269	763.14
542.722	774.14
543.175	778.94
543.629	781.24
544.082	810.34
544.536	799.84
544.989	799.34
545.442	800.94
545.895	805.34
546.349	801.44
546.802	799.74
547.255	815.54
547.708	819.44
548.161	840.54
548.614	834.34
549.067	842.34
549.52	830.34
549.973	822.54
550.426	824.74
550.879	806.24
551.332	816.34
551.785	818.54
552.238	824.04
552.691	825.64
553.144	841.74
553.596	859.74
554.049	886.64
554.502	910.64
554.955	920.04
555.407	928.74
555.86	919.84
556.313	919.94
556.765	893.44
557.218	896.04
557.67	894.34
558.123	902.84
558.576	884.34
559.028	894.84
559.48	900.54
559.933	896.24
560.385	859.24
560.838	822.64
561.29	803.94
561.742	809.24
562.195	788.24
562.647	791.74
563.099	796.24
563.551	796.74
564.004	802.64
564.456	785.94
564.908	778.64
565.36	748.74
565.812	750.04
566.264	735.64
566.716	734.54
567.168	720.94
567.62	735.94
568.072	715.64
568.524	704.44
568.976	718.64
569.428	698.74
569.88	690.64
570.332	709.64
570.784	702.44
571.235	701.24
571.687	709.24
572.139	712.44
572.59	732.54
573.042	730.84
573.494	722.94
573.945	725.34
574.397	705.84
574.849	710.54
575.3	715.64
575.752	703.14
576.203	699.64
576.655	697.04
577.106	681.54
577.557	670.24
578.009	688.14
578.46	678.84
578.912	674.04
579.363	674.54
579.814	684.74
580.265	673.14
580.717	675.74
581.168	689.84
581.619	689.14
582.07	698.44
582.521	684.94
582.972	689.24
583.423	694.64
583.875	695.04
584.326	708.74
584.777	720.64
585.227	778.24
585.678	817.94
586.129	863.34
586.58	901.54
587.031	937.34
587.482	1023.34
587.933	1098.14
588.384	1008.44
588.834	877.04
589.285	795.54
589.736	794.94
590.186	794.34
590.637	781.64
591.088	759.34
591.538	749.64
591.989	753.84
592.439	744.34
592.89	737.74
593.34	722.24
593.791	725.14
594.241	723.64
594.692	720.44
595.142	715.84
595.593	712.14
596.043	726.74
596.493	741.14
596.943	726.74
597.394	736.74
597.844	735.14
598.294	748.54
598.744	778.24
599.195	797.54
599.645	841.54
600.095	891.74
600.545	950.64
600.995	986.24
601.445	1055.24
601.895	1120.54
602.345	1164.54
602.795	1141.44
603.245	1104.24
603.695	1029.14
604.145	982.44
604.594	940.24
605.044	893.44
605.494	811.94
605.944	780.14
606.393	772.84
606.843	754.44
607.293	751.24
607.743	747.34
608.192	759.84
608.642	772.34
609.091	770.54
609.541	787.24
609.99	778.04
610.44	775.34
610.889	745.94
611.339	713.74
611.788	700.34
612.238	706.14
612.687	718.84
613.136	716.64
613.586	731.94
614.035	729.34
614.484	744.34
614.933	737.04
615.383	747.24
615.832	737.54
616.281	729.24
616.73	685.04
617.179	674.54
617.628	665.24
618.077	644.54
618.526	633.04
618.975	636.84
619.424	624.94
619.873	630.54
620.322	626.54
620.771	635.54
621.22	617.54
621.669	607.64
622.118	604.84
622.567	596.84
623.015	586.94
623.464	575.24
623.913	574.74
624.361	576.54
624.81	565.94
625.259	575.24
625.707	573.94
626.156	574.44
626.604	583.04
627.053	579.44
627.501	582.94
627.95	589.74
628.398	594.34
628.847	587.04
629.295	581.04
629.744	591.74
630.192	585.34
630.64	579.54
631.089	572.94
631.537	570.74
631.985	570.54
632.433	580.54
632.881	573.34
633.33	589.44
633.778	586.04
634.226	553.14
634.674	568.44
635.122	572.34
635.57	584.84
636.018	606.34
636.466	590.74
636.914	573.34
637.362	585.74
637.81	590.74
638.258	596.24
638.705	602.54
639.153	633.54
639.601	641.24
640.049	660.34
640.497	697.24
640.944	708.44
641.392	672.94
641.84	644.44
642.287	599.64
642.735	579.94
643.182	584.94
643.63	591.34
644.078	579.54
644.525	591.14
644.973	600.84
645.42	615.94
645.867	637.04
646.315	653.84
646.762	680.54
647.21	703.14
647.657	721.74
648.104	758.94
648.551	774.44
648.999	839.14
649.446	919.24
649.893	1003.64
650.34	1157.64
650.787	1376.14
651.234	1712.54
651.682	2208.74
652.129	3015.04
652.576	4299.74
653.023	6287.34
653.47	8474.44
653.917	10485.74
654.363	11995.94
654.81	13151.54
655.257	12433.84
655.704	8243.04
656.151	4914.24
656.598	3226.24
657.044	2311.14
657.491	1782.04
657.938	1458.64
658.385	1226.34
658.831	1065.24
659.278	949.84
659.724	848.64
660.171	797.04
660.618	728.24
661.064	697.34
661.511	671.34
661.957	666.24
662.404	655.94
662.85	659.24
663.296	638.44
663.743	565.44
664.189	552.64
664.635	549.44
665.082	546.74
665.528	533.54
665.974	531.34
666.42	521.94
666.867	522.64
667.313	495.14
667.759	488.54
668.205	471.44
668.651	483.54
669.097	471.34
669.543	468.64
669.989	466.24
670.435	457.04
670.881	457.94
671.327	465.84
671.773	482.34
672.219	511.94
672.665	566.14
673.11	606.74
673.556	647.94
674.002	687.04
674.448	677.34
674.893	566.94
675.339	496.54
675.785	452.34
676.23	437.04
676.676	408.14
677.122	406.24
677.567	391.14
678.013	390.44
678.458	380.04
678.904	373.14
679.349	359.64
679.794	369.64
680.24	364.94
680.685	366.54
681.131	360.34
681.576	362.94
682.021	361.74
682.466	369.44
682.912	361.54
683.357	366.84
683.802	396.24
684.247	428.04
684.692	472.64
685.137	512.84
685.583	557.34
686.028	576.44
686.473	534.24
686.918	468.24
687.363	439.24
687.807	405.84
688.252	375.64
688.697	365.14
689.142	345.34
689.587	343.04
690.032	342.54
690.477	354.14
690.921	364.54
691.366	397.14
691.811	423.14
692.255	456.34
692.7	486.24
693.145	536.14
693.589	752.94
694.034	1218.94
694.478	1638.34
694.923	1801.34
695.367	2334.94
695.812	1242.34
696.256	512.84
696.701	384.94
697.145	363.94
697.59	348.24
698.034	336.14
698.478	340.94
698.922	342.54
699.367	340.34
699.811	352.84
700.255	372.64
700.699	400.34
701.143	442.34
701.588	495.14
702.032	537.74
702.476	529.24
702.92	509.14
703.364	523.34
703.808	691.94
704.252	1120.64
704.696	1558.34
705.14	1735.54
705.584	2193.24
706.027	1107.64
706.471	551.64
706.915	415.94
707.359	368.64
707.803	338.94
708.246	321.54
708.69	326.34
709.134	330.64
709.577	324.54
710.021	338.34
710.465	315.94
710.908	311.74
711.352	306.04
711.795	324.84
712.239	370.54
712.682	394.74
713.126	426.94
713.569	474.64
714.012	369.64
714.456	328.84
714.899	312.54
715.342	292.14
715.786	278.64
716.229	270.94
716.672	267.24
717.115	260.34
717.558	251.14
718.002	266.04
718.445	275.24
718.888	298.74
719.331	308.74
719.774	316.84
720.217	312.84
720.66	305.04
721.103	279.14
721.546	268.94
721.989	261.14
722.432	233.94
722.874	250.14
723.317	241.64
723.76	244.04
724.203	268.04
724.645	332.14
725.088	477.44
725.531	595.24
725.974	664.24
726.416	564.54
726.859	321.04
727.301	255.44
727.744	247.84
728.187	245.24
728.629	249.84
729.071	252.34
729.514	262.04
729.956	288.84
730.399	297.34
730.841	295.64
731.283	282.34
731.726	284.24
732.168	270.94
732.61	286.94
733.053	300.04
733.495	331.94
733.937	368.24
734.379	420.54
734.821	460.24
735.263	585.04
735.705	914.34
736.148	1711.14
736.59	2748.94
737.032	3147.64
737.474	2580.94
737.916	859.34
738.357	449.34
738.799	348.54
739.241	313.24
739.683	304.34
740.125	296.64
740.567	307.64
741.008	324.34
741.45	328.84
741.892	331.14
742.334	361.04
742.775	373.54
743.217	359.34
743.658	283.74
744.1	268.74
744.542	281.34
744.983	335.84
745.425	357.24
745.866	364.84
746.307	290.84
746.749	294.04
747.19	346.14
747.632	490.54
748.073	978.44
748.514	2038.74
748.956	3005.04
749.397	3762.94
749.838	3140.84
750.279	3047.44
750.72	1562.14
751.162	579.04
751.603	343.04
752.044	267.24
752.485	229.54
752.926	224.94
753.367	214.74
753.808	203.44
754.249	194.34
754.69	192.54
755.131	194.04
755.572	191.14
756.013	181.14
756.453	187.04
756.894	194.64
757.335	199.54
757.776	203.64
758.216	208.84
758.657	212.74
759.098	216.34
759.538	236.04
759.979	283.54
760.42	400.74
760.86	787.34
761.301	2037.94
761.741	4804.34
762.182	6627.84
762.622	4662.74
763.063	1386.34
