Data from 20171114-ORNL-Ar_H_NY_Subt18_08-07-59-824.txt Node
Date: Tue Nov 14 08:07:59 EST 2017
User: Ender
Spectrometer: HR+D1039
Trigger mode: 0
Integration Time (sec): 2.730000E-2
Scans to average: 10
Electric dark correction enabled: true
Nonlinearity correction enabled: false
Boxcar width: 0
XAxis mode: Wavelengths
Number of Pixels in Spectrum: 2048
>>>>>Begin Spectral Data<<<<<
187.836	-3.21
188.309	-3.21
188.782	-3.21
189.255	2.39
189.728	1.19
190.201	5.69
190.674	6.29
191.147	3.69
191.619	-6.01
192.092	1.39
192.565	0.89
193.038	1.99
193.511	1.69
193.984	-4.51
194.456	-5.41
194.929	-2.41
195.402	-4.11
195.874	0.39
196.347	-7.21
196.82	-6.91
197.292	5.19
197.765	-2.71
198.237	-4.31
198.71	6.39
199.182	2.19
199.655	1.19
200.127	3.69
200.6	-3.31
201.072	-2.71
201.544	-5.71
202.017	0.69
202.489	8.19
202.961	3.89
203.433	2.49
203.906	-6.11
204.378	-4.31
204.85	-3.41
205.322	-13.71
205.794	-4.21
206.266	-5.11
206.739	-6.91
207.211	4.49
207.683	-0.41
208.155	-2.91
208.627	-10.31
209.099	-5.61
209.57	-9.31
210.042	-3.21
210.514	-2.91
210.986	-2.01
211.458	-7.71
211.93	-1.61
212.402	-2.81
212.873	-4.11
213.345	-11.11
213.817	-14.11
214.288	2.89
214.76	-5.01
215.232	-0.81
215.703	-6.91
216.175	-1.51
216.646	-5.51
217.118	-6.91
217.589	-1.41
218.061	-1.91
218.532	-3.31
219.004	-2.01
219.475	-4.11
219.946	1.09
220.418	-3.81
220.889	0.09
221.36	-2.51
221.832	-0.71
222.303	-2.11
222.774	-2.31
223.245	-2.51
223.717	-0.91
224.188	-5.21
224.659	-2.71
225.13	-6.21
225.601	-3.01
226.072	-3.01
226.543	-2.01
227.014	-4.91
227.485	-1.31
227.956	-5.01
228.427	-4.31
228.898	0.39
229.369	2.99
229.839	-2.21
230.31	-8.71
230.781	10.09
231.252	0.79
231.722	-2.51
232.193	-6.21
232.664	-1.11
233.135	1.39
233.605	3.09
234.076	-3.11
234.546	1.09
235.017	8.69
235.487	0.99
235.958	3.49
236.428	-3.71
236.899	4.99
237.369	8.39
237.84	-3.01
238.31	4.39
238.78	2.49
239.251	-1.51
239.721	2.09
240.191	-0.61
240.662	-10.01
241.132	0.39
241.602	-1.21
242.072	8.79
242.542	4.79
243.013	-0.11
243.483	7.79
243.953	4.19
244.423	0.19
244.893	-4.11
245.363	3.79
245.833	-0.21
246.303	-4.21
246.773	4.49
247.243	-3.21
247.712	-0.11
248.182	6.49
248.652	4.59
249.122	-4.71
249.592	9.19
250.061	24.59
250.531	29.19
251.001	10.29
251.471	18.79
251.94	17.99
252.41	6.49
252.879	1.19
253.349	8.99
253.818	5.59
254.288	2.39
254.757	6.39
255.227	4.99
255.696	9.09
256.166	-0.31
256.635	-0.11
257.105	8.29
257.574	2.29
258.043	4.39
258.513	11.39
258.982	15.49
259.451	8.79
259.92	13.69
260.389	12.79
260.859	15.69
261.328	10.49
261.797	15.79
262.266	9.49
262.735	9.79
263.204	2.99
263.673	3.89
264.142	3.69
264.611	0.69
265.08	-0.01
265.549	-3.51
266.018	5.79
266.487	-1.31
266.955	0.09
267.424	-1.71
267.893	3.59
268.362	-2.91
268.83	5.29
269.299	9.59
269.768	5.49
270.236	13.19
270.705	3.49
271.174	7.09
271.642	12.19
272.111	12.29
272.579	16.59
273.048	25.99
273.516	20.29
273.985	27.99
274.453	22.29
274.922	22.09
275.39	9.09
275.858	4.49
276.327	15.09
276.795	15.29
277.263	8.39
277.731	25.79
278.2	49.49
278.668	54.19
279.136	42.59
279.604	16.89
280.072	15.39
280.54	13.59
281.008	7.49
281.477	16.49
281.945	11.79
282.413	20.79
282.881	12.49
283.348	5.39
283.816	15.99
284.284	16.89
284.752	22.29
285.22	8.79
285.688	11.29
286.156	20.39
286.623	40.69
287.091	46.89
287.559	25.39
288.026	11.49
288.494	14.39
288.962	1.29
289.429	5.89
289.897	20.29
290.364	13.79
290.832	19.19
291.3	11.19
291.767	20.99
292.234	17.99
292.702	11.59
293.169	18.59
293.637	24.49
294.104	22.39
294.571	14.69
295.039	11.79
295.506	13.39
295.973	20.99
296.44	18.79
296.908	23.89
297.375	24.29
297.842	25.19
298.309	18.29
298.776	13.79
299.243	28.89
299.71	8.69
300.177	23.19
300.644	23.29
301.111	23.19
301.578	27.69
302.045	8.89
302.512	20.09
302.979	23.49
303.446	23.19
303.913	21.59
304.379	20.59
304.846	30.69
305.313	24.89
305.78	26.79
306.246	30.09
306.713	31.69
307.18	21.79
307.646	29.39
308.113	23.39
308.579	26.39
309.046	22.09
309.512	30.09
309.979	21.49
310.445	21.29
310.912	23.69
311.378	27.09
311.845	30.79
312.311	32.09
312.777	31.69
313.244	29.49
313.71	37.89
314.176	33.59
314.642	31.79
315.109	34.69
315.575	34.59
316.041	39.39
316.507	32.49
316.973	40.09
317.439	34.69
317.905	35.79
318.371	38.09
318.837	33.09
319.303	36.29
319.769	36.59
320.235	33.69
320.701	38.09
321.167	37.29
321.633	24.89
322.099	34.59
322.564	41.69
323.03	42.49
323.496	28.29
323.962	34.49
324.427	33.79
324.893	44.99
325.359	34.59
325.824	35.39
326.29	30.09
326.755	38.69
327.221	41.79
327.686	43.29
328.152	44.99
328.617	36.79
329.083	47.19
329.548	47.69
330.014	49.09
330.479	41.69
330.944	42.99
331.41	38.49
331.875	46.89
332.34	39.59
332.805	44.89
333.271	44.69
333.736	43.69
334.201	53.09
334.666	47.59
335.131	51.19
335.596	49.39
336.061	50.49
336.526	42.09
336.991	44.79
337.456	56.19
337.921	49.09
338.386	44.19
338.851	49.99
339.316	45.39
339.781	44.29
340.246	48.89
340.711	47.59
341.175	48.89
341.64	40.89
342.105	53.19
342.569	47.59
343.034	59.99
343.499	48.09
343.963	53.69
344.428	64.79
344.893	66.19
345.357	61.29
345.822	55.09
346.286	63.09
346.751	72.99
347.215	66.99
347.679	75.19
348.144	91.19
348.608	81.69
349.073	66.09
349.537	70.79
350.001	81.59
350.465	87.99
350.93	80.99
351.394	86.89
351.858	79.19
352.322	87.49
352.786	88.49
353.25	94.79
353.715	106.69
354.179	99.99
354.643	123.19
355.107	122.99
355.571	108.29
356.035	109.89
356.498	123.69
356.962	124.99
357.426	122.59
357.89	109.49
358.354	89.09
358.818	80.59
359.281	75.69
359.745	76.39
360.209	73.49
360.673	76.49
361.136	84.49
361.6	88.19
362.064	84.19
362.527	85.79
362.991	91.59
363.454	76.59
363.918	81.09
364.381	79.19
364.845	83.39
365.308	84.79
365.772	82.39
366.235	84.69
366.698	80.59
367.162	86.59
367.625	85.79
368.088	92.09
368.552	82.39
369.015	92.09
369.478	92.89
369.941	98.19
370.404	95.19
370.867	99.49
371.331	106.49
371.794	110.39
372.257	118.89
372.72	118.99
373.183	111.89
373.646	99.19
374.109	103.79
374.572	101.79
375.035	110.69
375.497	109.19
375.96	109.39
376.423	104.69
376.886	109.89
377.349	114.49
377.811	101.39
378.274	104.69
378.737	107.49
379.199	111.09
379.662	113.89
380.125	113.39
380.587	112.89
381.05	121.69
381.512	132.59
381.975	141.79
382.437	123.69
382.9	128.79
383.362	133.39
383.825	140.49
384.287	152.29
384.75	144.09
385.212	132.09
385.674	137.69
386.136	140.49
386.599	128.79
387.061	122.49
387.523	134.39
387.985	138.89
388.447	149.09
388.91	146.19
389.372	153.09
389.834	159.09
390.296	149.79
390.758	161.69
391.22	170.89
391.682	213.59
392.144	302.29
392.606	235.79
393.068	171.09
393.529	168.79
393.991	153.19
394.453	151.19
394.915	164.99
395.377	203.09
395.838	215.39
396.3	165.29
396.762	138.79
397.224	134.09
397.685	132.79
398.147	133.29
398.608	129.29
399.07	130.99
399.531	143.29
399.993	148.59
400.454	151.79
400.916	143.49
401.377	147.29
401.839	148.79
402.3	155.79
402.762	169.59
403.223	181.09
403.684	172.39
404.145	164.49
404.607	167.79
405.068	167.89
405.529	167.69
405.99	189.39
406.451	182.39
406.913	169.19
407.374	166.89
407.835	161.19
408.296	165.09
408.757	173.69
409.218	186.79
409.679	190.49
410.14	185.19
410.601	184.79
411.062	191.69
411.522	189.59
411.983	192.19
412.444	182.29
412.905	181.59
413.366	180.39
413.826	185.19
414.287	216.89
414.748	265.49
415.208	244.09
415.669	211.69
416.13	212.29
416.59	203.29
417.051	213.79
417.511	218.39
417.972	237.89
418.432	237.99
418.893	287.39
419.353	250.99
419.814	197.59
420.274	195.99
420.734	191.69
421.195	207.49
421.655	203.09
422.115	195.59
422.576	202.99
423.036	202.09
423.496	210.49
423.956	220.19
424.416	226.39
424.876	266.49
425.336	256.59
425.797	271.49
426.257	260.99
426.717	247.49
427.177	238.09
427.637	226.39
428.097	235.19
428.556	250.59
429.016	279.79
429.476	267.99
429.936	276.99
430.396	286.79
430.856	304.99
431.315	326.39
431.775	351.79
432.235	383.49
432.694	356.09
433.154	371.59
433.614	397.89
434.073	345.79
434.533	293.19
434.993	280.19
435.452	293.19
435.912	300.09
436.371	290.29
436.83	287.89
437.29	275.39
437.749	254.09
438.209	247.39
438.668	276.29
439.127	290.29
439.587	272.99
440.046	252.39
440.505	261.39
440.964	277.69
441.424	329.99
441.883	313.09
442.342	262.89
442.801	225.59
443.26	222.39
443.719	221.09
444.178	214.09
444.637	211.89
445.096	222.09
445.555	229.59
446.014	221.29
446.473	226.09
446.932	234.39
447.391	227.99
447.849	230.29
448.308	223.29
448.767	227.69
449.226	240.59
449.685	236.19
450.143	249.19
450.602	242.29
451.061	228.19
451.519	230.09
451.978	234.49
452.436	230.99
452.895	236.29
453.353	261.39
453.812	250.69
454.27	250.69
454.729	242.69
455.187	236.79
455.646	244.39
456.104	250.79
456.562	265.39
457.021	266.99
457.479	264.79
457.937	273.79
458.395	264.79
458.854	252.89
459.312	256.29
459.77	275.99
460.228	253.49
460.686	246.39
461.144	246.19
461.602	242.99
462.06	245.09
462.518	254.69
462.976	252.89
463.434	255.39
463.892	268.19
464.35	280.39
464.808	292.39
465.266	262.79
465.724	273.29
466.181	270.89
466.639	272.69
467.097	292.99
467.555	295.99
468.012	301.69
468.47	313.29
468.928	330.59
469.385	344.29
469.843	345.79
470.3	349.59
470.758	368.59
471.215	381.59
471.673	420.49
472.13	409.09
472.588	429.89
473.045	382.19
473.503	385.99
473.96	397.49
474.417	413.99
474.875	432.79
475.332	482.09
475.789	468.39
476.246	469.89
476.704	484.19
477.161	505.29
477.618	534.29
478.075	568.39
478.532	630.09
478.989	699.99
479.446	814.39
479.903	779.09
480.36	818.99
480.817	871.09
481.274	974.39
481.731	1075.79
482.188	1161.39
482.645	1318.09
483.102	1414.39
483.558	1544.69
484.015	1606.49
484.472	1568.29
484.929	1532.19
485.385	1479.29
485.842	1445.69
486.299	1376.19
486.755	1311.29
487.212	1091.79
487.668	925.59
488.125	855.49
488.582	773.99
489.038	750.29
489.494	708.89
489.951	690.39
490.407	669.19
490.864	655.79
491.32	648.39
491.776	646.09
492.233	651.79
492.689	617.89
493.145	615.49
493.602	606.89
494.058	619.29
494.514	630.19
494.97	650.39
495.426	654.59
495.882	630.89
496.338	613.79
496.794	628.69
497.251	613.39
497.707	637.89
498.163	640.19
498.618	646.79
499.074	644.49
499.53	683.89
499.986	679.99
500.442	652.99
500.898	635.49
501.354	630.59
501.809	637.89
502.265	648.99
502.721	666.79
503.177	670.39
503.632	669.09
504.088	677.99
504.543	722.09
504.999	715.89
505.455	659.69
505.91	639.99
506.366	635.19
506.821	633.49
507.277	629.69
507.732	632.29
508.187	625.09
508.643	636.39
509.098	639.89
509.553	652.69
510.009	663.49
510.464	684.99
510.919	688.99
511.375	694.29
511.83	718.59
512.285	714.19
512.74	756.89
513.195	782.69
513.65	772.69
514.105	763.19
514.56	765.09
515.015	792.19
515.47	807.99
515.925	791.09
516.38	772.29
516.835	795.39
517.29	786.39
517.745	777.99
518.2	771.89
518.655	737.59
519.109	746.79
519.564	746.59
520.019	728.79
520.474	720.69
520.928	718.39
521.383	730.39
521.838	720.09
522.292	706.59
522.747	704.29
523.201	718.39
523.656	700.49
524.11	695.79
524.565	695.09
525.019	696.19
525.474	704.59
525.928	713.39
526.382	697.89
526.837	705.49
527.291	700.99
527.745	693.59
528.2	700.39
528.654	698.69
529.108	688.99
529.562	690.09
530.016	690.69
530.47	688.29
530.925	697.09
531.379	699.69
531.833	712.69
532.287	705.39
532.741	703.89
533.195	714.49
533.649	710.49
534.103	722.49
534.556	711.99
535.01	706.59
535.464	711.89
535.918	720.59
536.372	722.19
536.826	719.59
537.279	717.29
537.733	713.59
538.187	723.09
538.64	719.19
539.094	720.69
539.548	731.49
540.001	716.69
540.455	723.09
540.908	732.49
541.362	744.99
541.815	742.39
542.269	759.79
542.722	763.99
543.175	778.89
543.629	770.99
544.082	784.59
544.536	789.89
544.989	788.09
545.442	799.69
545.895	795.39
546.349	799.29
546.802	789.49
547.255	796.09
547.708	810.09
548.161	812.39
548.614	823.29
549.067	828.79
549.52	818.39
549.973	816.09
550.426	811.89
550.879	801.49
551.332	799.49
551.785	809.79
552.238	811.69
552.691	820.69
553.144	834.39
553.596	848.69
554.049	866.29
554.502	905.49
554.955	919.69
555.407	919.29
555.86	908.29
556.313	902.09
556.765	887.79
557.218	889.29
557.67	883.69
558.123	878.39
558.576	874.69
559.028	874.09
559.48	890.69
559.933	879.09
560.385	832.99
560.838	811.89
561.29	793.49
561.742	785.99
562.195	771.39
562.647	767.49
563.099	786.49
563.551	771.89
564.004	800.79
564.456	778.69
564.908	762.09
565.36	756.39
565.812	733.49
566.264	733.69
566.716	730.49
567.168	722.19
567.62	727.69
568.072	707.09
568.524	706.29
568.976	691.29
569.428	676.89
569.88	674.89
570.332	690.39
570.784	691.49
571.235	684.69
571.687	693.39
572.139	708.19
572.59	720.39
573.042	713.09
573.494	711.59
573.945	702.89
574.397	684.39
574.849	693.39
575.3	703.99
575.752	693.19
576.203	678.39
576.655	682.79
577.106	681.39
577.557	672.99
578.009	673.59
578.46	671.19
578.912	669.59
579.363	673.19
579.814	669.89
580.265	672.39
580.717	673.99
581.168	668.69
581.619	674.79
582.07	690.89
582.521	668.79
582.972	665.19
583.423	687.89
583.875	691.09
584.326	715.89
584.777	755.09
585.227	831.89
585.678	938.49
586.129	1025.89
586.58	1094.19
587.031	1179.69
587.482	1323.99
587.933	1512.19
588.384	1324.79
588.834	975.29
589.285	801.69
589.736	781.69
590.186	785.69
590.637	767.09
591.088	745.49
591.538	738.39
591.989	733.89
592.439	737.29
592.89	726.69
593.34	722.89
593.791	721.79
594.241	712.69
594.692	715.89
595.142	710.09
595.593	709.39
596.043	709.29
596.493	733.79
596.943	725.79
597.394	729.09
597.844	722.49
598.294	736.99
598.744	756.79
599.195	780.29
599.645	824.59
600.095	865.39
600.545	925.69
600.995	985.79
601.445	1041.99
601.895	1095.69
602.345	1145.59
602.795	1123.29
603.245	1077.99
603.695	1015.39
604.145	958.89
604.594	911.59
605.044	848.89
605.494	803.39
605.944	755.49
606.393	741.79
606.843	738.29
607.293	734.69
607.743	736.49
608.192	743.59
608.642	767.99
609.091	779.19
609.541	780.99
609.99	772.29
610.44	770.09
610.889	720.99
611.339	705.89
611.788	702.69
612.238	700.29
612.687	731.19
613.136	720.69
613.586	739.19
614.035	747.19
614.484	765.89
614.933	762.39
615.383	762.09
615.832	742.39
616.281	740.39
616.73	696.39
617.179	677.99
617.628	651.89
618.077	638.79
618.526	630.69
618.975	628.39
619.424	611.09
619.873	619.09
620.322	621.49
620.771	624.69
621.22	619.19
621.669	595.39
622.118	596.79
622.567	582.19
623.015	570.09
623.464	574.89
623.913	567.89
624.361	560.39
624.81	561.89
625.259	558.59
625.707	564.89
626.156	568.79
626.604	569.09
627.053	564.19
627.501	579.59
627.95	573.59
628.398	589.39
628.847	574.79
629.295	578.99
629.744	583.19
630.192	570.49
630.64	573.79
631.089	582.99
631.537	582.89
631.985	590.19
632.433	609.29
632.881	621.49
633.33	676.39
633.778	660.29
634.226	579.19
634.674	585.89
635.122	590.49
635.57	604.09
636.018	639.79
636.466	589.99
636.914	563.89
637.362	567.39
637.81	586.79
638.258	581.79
638.705	592.49
639.153	624.59
639.601	638.39
640.049	648.19
640.497	672.69
640.944	705.29
641.392	653.89
641.84	620.79
642.287	587.39
642.735	569.29
643.182	578.19
643.63	575.49
644.078	582.89
644.525	595.89
644.973	606.99
645.42	615.79
645.867	637.99
646.315	649.79
646.762	670.09
647.21	700.69
647.657	723.69
648.104	755.89
648.551	782.79
648.999	849.69
649.446	922.59
649.893	1020.99
650.34	1183.59
650.787	1424.09
651.234	1772.59
651.682	2307.69
652.129	3193.79
652.576	4596.69
653.023	6773.09
653.47	9228.49
653.917	11468.39
654.363	13138.59
654.81	14459.19
655.257	13763.99
655.704	8991.49
656.151	5311.49
656.598	3445.69
657.044	2434.29
657.491	1880.49
657.938	1498.89
658.385	1250.59
658.831	1085.89
659.278	972.09
659.724	876.09
660.171	796.59
660.618	736.79
661.064	703.89
661.511	675.09
661.957	666.99
662.404	650.99
662.85	657.99
663.296	630.29
663.743	565.89
664.189	541.29
664.635	536.39
665.082	533.89
665.528	532.49
665.974	523.79
666.42	517.19
666.867	509.59
667.313	501.89
667.759	487.79
668.205	486.29
668.651	489.49
669.097	492.09
669.543	515.09
669.989	478.19
670.435	451.39
670.881	456.89
671.327	458.29
671.773	489.19
672.219	487.39
672.665	560.49
673.11	596.59
673.556	636.19
674.002	677.99
674.448	669.69
674.893	552.79
675.339	474.39
675.785	446.39
676.23	422.39
676.676	394.39
677.122	382.79
677.567	381.89
678.013	374.79
678.458	359.79
678.904	366.89
679.349	365.69
679.794	360.49
680.24	356.79
680.685	348.19
681.131	352.69
681.576	348.79
682.021	355.29
682.466	349.79
682.912	354.29
683.357	349.99
683.802	385.29
684.247	418.19
684.692	461.69
685.137	514.59
685.583	545.89
686.028	571.69
686.473	515.19
686.918	451.19
687.363	420.49
687.807	388.99
688.252	374.19
688.697	357.09
689.142	344.99
689.587	345.39
690.032	326.99
690.477	349.19
690.921	363.79
691.366	386.89
691.811	411.89
692.255	437.09
692.7	465.89
693.145	518.79
693.589	726.79
694.034	1161.29
694.478	1560.19
694.923	1740.69
695.367	2247.49
695.812	1196.89
696.256	499.89
696.701	376.49
697.145	349.49
697.59	335.49
698.034	324.49
698.478	329.09
698.922	331.89
699.367	333.09
699.811	345.29
700.255	364.19
700.699	385.89
701.143	428.39
701.588	485.09
702.032	516.69
702.476	518.79
702.92	497.39
703.364	492.59
703.808	660.39
704.252	1067.49
704.696	1477.49
705.14	1665.59
705.584	2113.99
706.027	1078.39
706.471	530.19
706.915	411.19
707.359	347.39
707.803	324.59
708.246	313.49
708.69	320.19
709.134	323.69
709.577	316.89
710.021	312.89
710.465	313.59
710.908	303.89
711.352	305.79
711.795	320.89
712.239	350.39
712.682	387.79
713.126	421.69
713.569	467.39
714.012	369.79
714.456	321.79
714.899	305.89
715.342	283.79
715.786	265.19
716.229	261.19
716.672	259.69
717.115	254.49
717.558	254.99
718.002	253.69
718.445	271.79
718.888	290.89
719.331	298.49
719.774	305.29
720.217	305.19
720.66	290.79
721.103	269.59
721.546	255.49
721.989	249.49
722.432	234.19
722.874	243.49
723.317	239.09
723.76	242.09
724.203	260.89
724.645	323.19
725.088	459.19
725.531	585.69
725.974	647.69
726.416	556.09
726.859	309.49
727.301	250.59
727.744	241.99
728.187	238.29
728.629	241.79
729.071	245.39
729.514	263.49
729.956	287.79
730.399	290.69
730.841	290.19
731.283	279.49
731.726	266.59
732.168	263.39
732.61	272.59
733.053	292.89
733.495	312.29
733.937	360.39
734.379	410.09
734.821	440.19
735.263	550.79
735.705	870.29
736.148	1620.29
736.59	2627.59
737.032	3028.89
737.474	2466.99
737.916	811.09
738.357	442.29
738.799	323.19
739.241	299.69
739.683	291.99
740.125	291.89
740.567	296.39
741.008	316.19
741.45	318.89
741.892	320.19
742.334	352.99
742.775	359.39
743.217	338.29
743.658	266.99
744.1	261.89
744.542	264.39
744.983	319.99
745.425	353.79
745.866	341.49
746.307	290.89
746.749	291.59
747.19	331.79
747.632	476.09
748.073	932.89
748.514	1916.89
748.956	2876.29
749.397	3606.39
749.838	3002.79
750.279	2930.79
750.72	1489.19
751.162	552.09
751.603	325.39
752.044	265.69
752.485	225.29
752.926	214.39
753.367	204.19
753.808	196.89
754.249	185.69
754.69	189.39
755.131	191.59
755.572	188.59
756.013	181.09
756.453	184.29
756.894	198.39
757.335	202.69
757.776	194.79
758.216	193.39
758.657	199.19
759.098	205.09
759.538	229.29
759.979	279.19
760.42	381.99
760.86	738.99
761.301	1913.39
761.741	4521.69
762.182	6377.29
762.622	4471.99
