Data from 20171114-ORNL-Ar_H_NY_Subt18_08-07-33-619.txt Node
Date: Tue Nov 14 08:07:33 EST 2017
User: Ender
Spectrometer: HR+D1039
Trigger mode: 0
Integration Time (sec): 2.730000E-2
Scans to average: 10
Electric dark correction enabled: true
Nonlinearity correction enabled: false
Boxcar width: 0
XAxis mode: Wavelengths
Number of Pixels in Spectrum: 2048
>>>>>Begin Spectral Data<<<<<
187.836	-2.31
188.309	-2.31
188.782	-2.31
189.255	0.19
189.728	4.19
190.201	2.79
190.674	-3.01
191.147	1.99
191.619	-7.41
192.092	-0.41
192.565	6.19
193.038	1.89
193.511	-1.01
193.984	3.19
194.456	-5.01
194.929	0.39
195.402	-3.61
195.874	1.99
196.347	0.99
196.82	-4.81
197.292	-0.31
197.765	-3.01
198.237	-6.31
198.71	4.39
199.182	-0.91
199.655	0.79
200.127	5.89
200.6	2.49
201.072	-5.41
201.544	-7.21
202.017	-4.81
202.489	-0.01
202.961	-3.01
203.433	-1.51
203.906	-3.51
204.378	-10.21
204.85	-2.61
205.322	-8.51
205.794	-3.81
206.266	-7.91
206.739	-8.41
207.211	1.79
207.683	-8.01
208.155	1.49
208.627	-3.21
209.099	-3.31
209.57	-9.81
210.042	-4.51
210.514	-2.21
210.986	0.89
211.458	-7.71
211.93	-2.81
212.402	-1.11
212.873	0.89
213.345	-7.71
213.817	-11.91
214.288	-9.51
214.76	-9.81
215.232	-4.11
215.703	-3.61
216.175	-1.31
216.646	-9.01
217.118	-10.41
217.589	-4.51
218.061	-3.31
218.532	-5.41
219.004	-5.91
219.475	1.59
219.946	-6.51
220.418	-5.21
220.889	1.99
221.36	-4.11
221.832	-2.31
222.303	-4.31
222.774	-2.51
223.245	-10.51
223.717	-6.81
224.188	-5.71
224.659	-4.91
225.13	-10.31
225.601	-7.11
226.072	0.69
226.543	-2.41
227.014	-4.11
227.485	-10.21
227.956	-6.21
228.427	-3.71
228.898	-1.51
229.369	3.89
229.839	-3.71
230.31	-7.81
230.781	3.29
231.252	-6.81
231.722	-7.21
232.193	-2.21
232.664	-3.31
233.135	-1.61
233.605	-0.21
234.076	-6.61
234.546	-0.31
235.017	3.19
235.487	0.59
235.958	-2.11
236.428	-6.91
236.899	0.59
237.369	5.09
237.84	-5.01
238.31	3.39
238.78	-0.31
239.251	1.89
239.721	1.09
240.191	-1.41
240.662	-1.01
241.132	-0.81
241.602	-6.61
242.072	-0.91
242.542	-0.71
243.013	-0.91
243.483	1.89
243.953	2.39
244.423	-1.81
244.893	-2.51
245.363	2.29
245.833	4.89
246.303	-5.31
246.773	8.79
247.243	3.39
247.712	-2.61
248.182	6.49
248.652	5.09
249.122	-0.21
249.592	3.49
250.061	11.99
250.531	18.39
251.001	10.99
251.471	15.59
251.94	13.59
252.41	4.69
252.879	-5.81
253.349	5.09
253.818	3.39
254.288	-1.71
254.757	3.69
255.227	-1.51
255.696	0.79
256.166	7.49
256.635	7.19
257.105	4.49
257.574	6.09
258.043	3.99
258.513	7.09
258.982	11.59
259.451	3.29
259.92	9.49
260.389	6.09
260.859	13.69
261.328	4.29
261.797	14.19
262.266	-2.41
262.735	5.69
263.204	1.19
263.673	-1.61
264.142	2.59
264.611	-4.61
265.08	-3.61
265.549	1.09
266.018	3.79
266.487	-5.11
266.955	-3.21
267.424	-4.01
267.893	5.09
268.362	3.29
268.83	-1.21
269.299	6.49
269.768	6.19
270.236	4.99
270.705	-0.31
271.174	3.09
271.642	2.09
272.111	10.19
272.579	8.79
273.048	13.69
273.516	15.69
273.985	19.09
274.453	16.29
274.922	11.29
275.39	6.09
275.858	-1.41
276.327	11.29
276.795	11.19
277.263	1.89
277.731	19.89
278.2	46.79
278.668	45.99
279.136	37.19
279.604	17.99
280.072	8.29
280.54	9.69
281.008	9.79
281.477	11.69
281.945	7.09
282.413	11.89
282.881	10.69
283.348	4.29
283.816	12.79
284.284	6.89
284.752	21.09
285.22	8.29
285.688	9.69
286.156	14.69
286.623	32.89
287.091	38.59
287.559	21.09
288.026	13.79
288.494	5.99
288.962	0.89
289.429	-3.61
289.897	18.59
290.364	6.59
290.832	16.69
291.3	5.79
291.767	6.29
292.234	9.49
292.702	11.79
293.169	8.19
293.637	13.69
294.104	11.99
294.571	-0.61
295.039	9.09
295.506	8.09
295.973	10.69
296.44	11.39
296.908	12.59
297.375	10.99
297.842	13.39
298.309	15.09
298.776	11.09
299.243	14.19
299.71	5.99
300.177	16.09
300.644	10.99
301.111	7.29
301.578	20.29
302.045	14.99
302.512	17.39
302.979	14.19
303.446	20.09
303.913	18.69
304.379	17.69
304.846	27.69
305.313	16.59
305.78	11.49
306.246	20.19
306.713	21.39
307.18	16.99
307.646	19.19
308.113	24.19
308.579	22.69
309.046	17.79
309.512	13.49
309.979	12.19
310.445	16.39
310.912	21.99
311.378	21.89
311.845	22.29
312.311	25.29
312.777	27.19
313.244	24.89
313.71	32.69
314.176	21.09
314.642	24.39
315.109	25.29
315.575	30.99
316.041	34.19
316.507	20.89
316.973	31.99
317.439	23.79
317.905	31.19
318.371	29.69
318.837	26.39
319.303	31.49
319.769	29.19
320.235	27.19
320.701	22.59
321.167	31.29
321.633	27.69
322.099	24.39
322.564	38.39
323.03	28.99
323.496	29.79
323.962	31.29
324.427	26.19
324.893	28.79
325.359	31.49
325.824	30.89
326.29	21.39
326.755	32.59
327.221	32.89
327.686	28.49
328.152	25.89
328.617	28.49
329.083	39.99
329.548	43.39
330.014	34.49
330.479	28.29
330.944	35.89
331.41	31.29
331.875	37.39
332.34	31.49
332.805	35.39
333.271	32.89
333.736	32.09
334.201	40.89
334.666	45.59
335.131	47.29
335.596	41.19
336.061	38.29
336.526	28.89
336.991	36.99
337.456	47.29
337.921	44.69
338.386	37.89
338.851	33.69
339.316	35.49
339.781	36.79
340.246	41.59
340.711	35.79
341.175	40.99
341.64	33.29
342.105	44.79
342.569	40.99
343.034	43.89
343.499	41.59
343.963	39.19
344.428	50.49
344.893	47.69
345.357	51.59
345.822	48.59
346.286	53.49
346.751	56.29
347.215	55.09
347.679	55.69
348.144	77.79
348.608	58.99
349.073	56.49
349.537	62.79
350.001	62.69
350.465	70.99
350.93	66.59
351.394	66.09
351.858	53.49
352.322	66.39
352.786	65.39
353.25	81.59
353.715	91.29
354.179	79.19
354.643	99.39
355.107	99.49
355.571	92.59
356.035	87.19
356.498	99.89
356.962	96.09
357.426	100.69
357.89	90.79
358.354	72.29
358.818	67.59
359.281	64.09
359.745	68.49
360.209	65.39
360.673	59.29
361.136	63.69
361.6	64.89
362.064	70.89
362.527	68.19
362.991	78.09
363.454	64.89
363.918	67.99
364.381	66.89
364.845	68.49
365.308	70.59
365.772	65.19
366.235	72.59
366.698	67.59
367.162	76.49
367.625	71.29
368.088	69.59
368.552	74.49
369.015	72.39
369.478	79.59
369.941	84.69
370.404	77.19
370.867	88.59
371.331	92.99
371.794	85.89
372.257	88.09
372.72	99.89
373.183	95.59
373.646	90.69
374.109	88.89
374.572	93.49
375.035	92.09
375.497	99.69
375.96	87.89
376.423	89.69
376.886	92.59
377.349	88.49
377.811	85.19
378.274	95.49
378.737	95.39
379.199	99.59
379.662	98.59
380.125	108.09
380.587	100.29
381.05	100.19
381.512	112.89
381.975	116.59
382.437	108.19
382.9	103.29
383.362	107.19
383.825	123.09
384.287	124.89
384.75	123.09
385.212	121.49
385.674	122.49
386.136	119.19
386.599	109.29
387.061	113.89
387.523	114.79
387.985	123.59
388.447	126.19
388.91	133.89
389.372	144.59
389.834	133.49
390.296	125.49
390.758	137.59
391.22	149.69
391.682	191.19
392.144	264.89
392.606	206.19
393.068	152.29
393.529	149.89
393.991	136.99
394.453	131.69
394.915	137.19
395.377	175.39
395.838	192.89
396.3	139.19
396.762	127.09
397.224	116.29
397.685	118.79
398.147	110.79
398.608	115.79
399.07	111.39
399.531	121.49
399.993	118.19
400.454	135.09
400.916	126.19
401.377	127.39
401.839	134.29
402.3	132.29
402.762	137.89
403.223	158.39
403.684	159.89
404.145	145.49
404.607	146.99
405.068	145.39
405.529	153.19
405.99	166.49
406.451	156.59
406.913	157.59
407.374	140.99
407.835	143.59
408.296	152.39
408.757	152.59
409.218	166.69
409.679	162.59
410.14	153.89
410.601	167.59
411.062	162.39
411.522	170.89
411.983	171.39
412.444	161.09
412.905	161.29
413.366	162.79
413.826	169.69
414.287	197.69
414.748	228.49
415.208	220.59
415.669	194.59
416.13	186.59
416.59	175.49
417.051	199.79
417.511	204.39
417.972	223.29
418.432	225.09
418.893	258.79
419.353	227.29
419.814	182.99
420.274	165.99
420.734	161.49
421.195	182.49
421.655	177.39
422.115	179.79
422.576	174.69
423.036	185.19
423.496	187.19
423.956	201.69
424.416	208.89
424.876	239.99
425.336	241.49
425.797	236.29
426.257	229.59
426.717	218.29
427.177	218.49
427.637	200.79
428.097	215.79
428.556	222.79
429.016	251.19
429.476	244.89
429.936	255.79
430.396	258.09
430.856	268.09
431.315	288.49
431.775	320.39
432.235	351.69
432.694	326.39
433.154	329.19
433.614	361.69
434.073	307.39
434.533	262.99
434.993	247.49
435.452	255.89
435.912	275.29
436.371	269.39
436.83	264.19
437.29	248.99
437.749	233.39
438.209	220.59
438.668	255.79
439.127	259.49
439.587	243.99
440.046	230.09
440.505	238.99
440.964	249.19
441.424	294.69
441.883	277.19
442.342	238.49
442.801	208.79
443.26	207.59
443.719	207.99
444.178	202.39
444.637	193.29
445.096	201.09
445.555	203.19
446.014	205.49
446.473	215.39
446.932	217.09
447.391	206.09
447.849	206.29
448.308	202.89
448.767	211.19
449.226	218.89
449.685	226.39
450.143	230.89
450.602	218.69
451.061	208.59
451.519	215.89
451.978	217.49
452.436	215.79
452.895	224.09
453.353	232.69
453.812	226.09
454.27	224.59
454.729	222.19
455.187	228.19
455.646	226.69
456.104	225.89
456.562	237.89
457.021	252.19
457.479	241.99
457.937	253.99
458.395	247.99
458.854	228.49
459.312	240.69
459.77	253.49
460.228	237.89
460.686	222.39
461.144	230.39
461.602	226.79
462.06	229.69
462.518	237.69
462.976	234.89
463.434	238.09
463.892	246.69
464.35	255.09
464.808	259.89
465.266	251.29
465.724	248.09
466.181	260.09
466.639	261.39
467.097	273.19
467.555	284.69
468.012	280.89
468.47	283.49
468.928	294.49
469.385	321.09
469.843	320.09
470.3	330.79
470.758	342.99
471.215	359.69
471.673	380.69
472.13	379.99
472.588	399.39
473.045	350.29
473.503	354.39
473.96	373.29
474.417	384.89
474.875	396.89
475.332	439.79
475.789	433.49
476.246	444.29
476.704	458.09
477.161	485.59
477.618	493.49
478.075	525.89
478.532	583.09
478.989	654.49
479.446	761.79
479.903	730.19
480.36	761.49
480.817	813.29
481.274	906.29
481.731	1009.09
482.188	1090.09
482.645	1230.69
483.102	1321.49
483.558	1450.19
484.015	1497.69
484.472	1485.09
484.929	1428.39
485.385	1387.79
485.842	1337.79
486.299	1262.89
486.755	1219.59
487.212	1030.29
487.668	876.69
488.125	796.19
488.582	731.09
489.038	709.59
489.494	672.39
489.951	655.69
490.407	632.09
490.864	627.39
491.32	602.09
491.776	594.39
492.233	607.49
492.689	577.69
493.145	567.09
493.602	564.69
494.058	579.69
494.514	579.99
494.97	596.69
495.426	612.69
495.882	586.89
496.338	568.89
496.794	585.29
497.251	588.39
497.707	596.59
498.163	599.69
498.618	604.69
499.074	611.59
499.53	634.29
499.986	640.99
500.442	613.89
500.898	603.89
501.354	584.39
501.809	600.99
502.265	608.29
502.721	625.89
503.177	642.09
503.632	628.99
504.088	650.89
504.543	675.19
504.999	665.79
505.455	619.99
505.91	597.39
506.366	613.39
506.821	583.49
507.277	599.79
507.732	595.99
508.187	586.79
508.643	593.19
509.098	606.09
509.553	621.59
510.009	630.09
510.464	645.49
510.919	657.99
511.375	663.29
511.83	677.39
512.285	690.49
512.74	722.99
513.195	746.39
513.65	725.99
514.105	726.89
514.56	729.89
515.015	744.39
515.47	763.39
515.925	746.69
516.38	755.79
516.835	756.49
517.29	744.09
517.745	736.89
518.2	716.49
518.655	708.59
519.109	703.69
519.564	705.79
520.019	693.49
520.474	690.19
520.928	693.89
521.383	684.59
521.838	688.19
522.292	681.09
522.747	676.29
523.201	676.89
523.656	670.89
524.11	663.29
524.565	665.69
525.019	654.19
525.474	670.69
525.928	667.09
526.382	652.49
526.837	668.49
527.291	660.09
527.745	664.39
528.2	678.99
528.654	664.49
529.108	665.29
529.562	662.19
530.016	657.59
530.47	665.89
530.925	666.69
531.379	667.09
531.833	661.09
532.287	665.19
532.741	662.89
533.195	673.69
533.649	674.79
534.103	681.49
534.556	676.79
535.01	679.39
535.464	665.59
535.918	684.69
536.372	678.19
536.826	691.09
537.279	670.79
537.733	678.99
538.187	691.09
538.64	684.89
539.094	694.79
539.548	696.69
540.001	701.49
540.455	693.69
540.908	697.59
541.362	702.89
541.815	713.29
542.269	722.69
542.722	732.59
543.175	739.09
543.629	732.69
544.082	747.59
544.536	755.49
544.989	753.89
545.442	759.79
545.895	742.39
546.349	760.79
546.802	760.39
547.255	773.79
547.708	773.99
548.161	780.89
548.614	791.49
549.067	794.69
549.52	787.09
549.973	782.59
550.426	769.29
550.879	765.59
551.332	766.69
551.785	770.29
552.238	777.19
552.691	781.79
553.144	801.69
553.596	809.39
554.049	834.29
554.502	849.29
554.955	873.09
555.407	868.09
555.86	859.89
556.313	857.49
556.765	848.19
557.218	853.89
557.67	848.39
558.123	836.09
558.576	835.19
559.028	835.59
559.48	856.39
559.933	841.49
560.385	806.59
560.838	778.59
561.29	759.39
561.742	738.79
562.195	739.19
562.647	730.49
563.099	748.99
563.551	751.59
564.004	748.19
564.456	738.19
564.908	732.99
565.36	717.49
565.812	703.29
566.264	705.19
566.716	698.09
567.168	691.49
567.62	691.79
568.072	684.79
568.524	670.19
568.976	668.89
569.428	655.29
569.88	654.49
570.332	660.39
570.784	664.19
571.235	659.19
571.687	665.29
572.139	680.69
572.59	684.79
573.042	683.39
573.494	684.49
573.945	684.89
574.397	661.69
574.849	664.19
575.3	659.99
575.752	653.49
576.203	652.29
576.655	662.69
577.106	650.79
577.557	652.39
578.009	640.09
578.46	642.19
578.912	638.39
579.363	641.89
579.814	642.69
580.265	639.09
580.717	643.39
581.168	640.79
581.619	651.49
582.07	662.29
582.521	658.29
582.972	643.99
583.423	659.69
583.875	659.89
584.326	687.49
584.777	720.99
585.227	802.19
585.678	882.39
586.129	966.19
586.58	1044.99
587.031	1114.89
587.482	1264.69
587.933	1423.49
588.384	1240.99
588.834	921.19
589.285	770.19
589.736	755.39
590.186	747.29
590.637	751.69
591.088	712.29
591.538	720.49
591.989	707.49
592.439	708.19
592.89	703.59
593.34	693.59
593.791	689.49
594.241	674.29
594.692	690.29
595.142	674.59
595.593	682.49
596.043	683.59
596.493	691.19
596.943	705.09
597.394	693.29
597.844	694.19
598.294	709.39
598.744	730.59
599.195	750.09
599.645	785.99
600.095	834.89
600.545	885.89
600.995	930.69
601.445	998.29
601.895	1051.99
602.345	1093.79
602.795	1082.69
603.245	1031.69
603.695	973.29
604.145	922.19
604.594	872.19
605.044	822.49
605.494	758.19
605.944	721.79
606.393	725.89
606.843	704.49
607.293	707.19
607.743	708.39
608.192	724.59
608.642	742.59
609.091	744.19
609.541	745.49
609.99	745.39
610.44	750.19
610.889	695.09
611.339	674.79
611.788	662.39
612.238	687.99
612.687	701.09
613.136	698.09
613.586	709.69
614.035	717.99
614.484	732.99
614.933	728.99
615.383	721.29
615.832	721.19
616.281	701.09
616.73	659.39
617.179	647.49
617.628	628.49
618.077	618.49
618.526	609.99
618.975	602.09
619.424	602.19
619.873	597.79
620.322	596.79
620.771	588.39
621.22	587.29
621.669	580.99
622.118	570.59
622.567	562.29
623.015	538.59
623.464	542.79
623.913	541.89
624.361	538.19
624.81	538.79
625.259	540.09
625.707	537.09
626.156	536.49
626.604	553.89
627.053	551.39
627.501	545.99
627.95	543.89
628.398	567.19
628.847	560.99
629.295	546.59
629.744	551.59
630.192	551.19
630.64	548.99
631.089	556.39
631.537	551.99
631.985	564.99
632.433	582.19
632.881	592.79
633.33	640.99
633.778	621.49
634.226	546.49
634.674	547.19
635.122	559.59
635.57	573.09
636.018	613.79
636.466	555.69
636.914	548.39
637.362	558.29
637.81	558.19
638.258	571.49
638.705	558.69
639.153	581.79
639.601	604.79
640.049	619.99
640.497	649.69
640.944	670.89
641.392	615.09
641.84	592.19
642.287	566.49
642.735	553.19
643.182	559.29
643.63	558.39
644.078	562.09
644.525	575.49
644.973	578.09
645.42	579.09
645.867	601.39
646.315	614.49
646.762	642.39
647.21	667.79
647.657	694.79
648.104	728.29
648.551	760.09
648.999	818.09
649.446	885.99
649.893	984.19
650.34	1132.89
650.787	1362.69
651.234	1690.99
651.682	2199.99
652.129	3035.49
652.576	4368.49
653.023	6444.79
653.47	8780.79
653.917	10932.49
654.363	12592.79
654.81	13877.39
655.257	13195.89
655.704	8629.89
656.151	5075.39
656.598	3299.39
657.044	2353.89
657.491	1788.29
657.938	1433.99
658.385	1202.79
658.831	1041.19
659.278	941.49
659.724	829.79
660.171	765.39
660.618	706.49
661.064	662.99
661.511	648.19
661.957	637.09
662.404	615.09
662.85	628.09
663.296	608.79
663.743	555.49
664.189	526.49
664.635	515.69
665.082	512.29
665.528	510.09
665.974	505.19
666.42	499.69
666.867	491.39
667.313	483.29
667.759	469.59
668.205	467.19
668.651	467.49
669.097	477.99
669.543	482.69
669.989	456.39
670.435	440.39
670.881	432.09
671.327	439.59
671.773	450.49
672.219	477.09
672.665	530.29
673.11	575.69
673.556	602.89
674.002	647.99
674.448	627.89
674.893	529.29
675.339	459.69
675.785	424.09
676.23	407.09
676.676	388.49
677.122	369.99
677.567	352.99
678.013	361.09
678.458	337.09
678.904	353.59
679.349	332.69
679.794	346.69
680.24	336.69
680.685	339.79
681.131	337.09
681.576	335.79
682.021	349.09
682.466	334.99
682.912	340.19
683.357	341.09
683.802	369.59
684.247	394.89
684.692	447.39
685.137	478.99
685.583	527.09
686.028	551.19
686.473	498.49
686.918	432.99
687.363	401.49
687.807	379.69
688.252	354.39
688.697	334.19
689.142	328.29
689.587	317.59
690.032	319.09
690.477	335.19
690.921	348.59
691.366	377.09
691.811	387.29
692.255	417.59
692.7	449.09
693.145	485.39
693.589	680.59
694.034	1111.19
694.478	1503.59
694.923	1678.29
695.367	2177.69
695.812	1160.89
696.256	481.19
696.701	361.49
697.145	337.89
697.59	327.99
698.034	316.49
698.478	319.49
698.922	320.49
699.367	316.79
699.811	329.69
700.255	346.89
700.699	376.99
701.143	414.49
701.588	465.09
702.032	499.59
702.476	504.39
702.92	476.99
703.364	480.59
703.808	622.29
704.252	1018.19
704.696	1419.59
705.14	1610.59
705.584	2054.09
706.027	1031.49
706.471	511.49
706.915	396.49
707.359	342.99
707.803	310.09
708.246	309.19
708.69	303.19
709.134	307.39
709.577	300.99
710.021	303.69
710.465	295.99
710.908	295.19
711.352	286.89
711.795	305.79
712.239	341.09
712.682	385.19
713.126	411.99
713.569	448.89
714.012	368.09
714.456	312.69
714.899	291.49
715.342	258.69
715.786	252.09
716.229	252.69
716.672	250.29
717.115	243.09
717.558	245.69
718.002	243.39
718.445	257.79
718.888	281.29
719.331	285.39
719.774	305.79
720.217	293.89
720.66	275.19
721.103	261.29
721.546	248.29
721.989	240.89
722.432	226.39
722.874	233.09
723.317	228.29
723.76	235.49
724.203	249.09
724.645	305.79
725.088	436.29
725.531	548.49
725.974	632.59
726.416	531.49
726.859	294.39
727.301	241.29
727.744	228.49
728.187	224.69
728.629	229.59
729.071	239.19
729.514	244.09
729.956	263.19
730.399	267.09
730.841	280.79
731.283	262.79
731.726	259.19
732.168	253.09
732.61	258.19
733.053	279.39
733.495	310.59
733.937	342.49
734.379	382.29
734.821	419.49
735.263	532.39
735.705	823.49
736.148	1556.59
736.59	2520.19
737.032	2920.89
737.474	2384.99
737.916	784.39
738.357	416.19
738.799	316.69
739.241	288.19
739.683	277.29
740.125	283.09
740.567	294.09
741.008	302.59
741.45	304.99
741.892	305.39
742.334	330.99
742.775	341.49
743.217	322.39
743.658	261.99
744.1	257.69
744.542	250.99
744.983	299.89
745.425	328.09
745.866	330.19
746.307	275.89
746.749	276.39
747.19	309.09
747.632	455.49
748.073	874.69
748.514	1837.99
748.956	2763.29
749.397	3470.79
749.838	2875.09
750.279	2865.99
750.72	1440.89
751.162	530.29
751.603	312.09
752.044	239.69
752.485	213.49
752.926	202.49
753.367	197.09
753.808	189.29
754.249	185.29
754.69	176.39
755.131	184.89
755.572	183.29
756.013	179.29
756.453	186.29
756.894	182.39
757.335	181.39
757.776	194.29
758.216	194.79
758.657	194.89
759.098	193.09
759.538	220.29
759.979	265.79
760.42	366.29
760.86	708.29
761.301	1801.39
761.741	4343.19
762.182	6181.19
762.622	4327.89
763.063	1260.89
763.503	529.59
