Data from 20171114-ORNL-Ar_H_NY_Subt18_08-07-02-772.txt Node
Date: Tue Nov 14 08:07:02 EST 2017
User: Ender
Spectrometer: HR+D1039
Trigger mode: 0
Integration Time (sec): 2.730000E-2
Scans to average: 10
Electric dark correction enabled: true
Nonlinearity correction enabled: false
Boxcar width: 0
XAxis mode: Wavelengths
Number of Pixels in Spectrum: 2048
>>>>>Begin Spectral Data<<<<<
187.836	-6.21
188.309	-6.21
188.782	-6.21
189.255	2.69
189.728	-1.71
190.201	7.79
190.674	-3.41
191.147	2.19
191.619	-6.31
192.092	5.09
192.565	3.59
193.038	-0.91
193.511	-0.01
193.984	-1.41
194.456	-1.91
194.929	1.89
195.402	-2.61
195.874	1.19
196.347	-0.31
196.82	-4.41
197.292	6.09
197.765	-2.51
198.237	-3.11
198.71	2.49
199.182	1.09
199.655	1.19
200.127	-0.21
200.6	-4.01
201.072	1.39
201.544	-0.01
202.017	-0.71
202.489	-0.21
202.961	-5.61
203.433	-1.31
203.906	-2.81
204.378	-0.91
204.85	0.99
205.322	-9.01
205.794	-0.61
206.266	-0.11
206.739	-9.11
207.211	2.29
207.683	-5.11
208.155	-3.61
208.627	-1.61
209.099	-2.61
209.57	-6.61
210.042	-0.51
210.514	-6.51
210.986	0.09
211.458	-5.31
211.93	-4.31
212.402	4.19
212.873	-8.81
213.345	-10.01
213.817	-8.21
214.288	-4.01
214.76	-9.61
215.232	-4.91
215.703	-2.31
216.175	-10.91
216.646	-0.11
217.118	-7.31
217.589	-6.11
218.061	1.09
218.532	-3.71
219.004	-3.91
219.475	-3.11
219.946	5.09
220.418	-6.81
220.889	-0.71
221.36	-6.11
221.832	-8.11
222.303	-4.31
222.774	2.79
223.245	-6.91
223.717	-4.31
224.188	-6.41
224.659	-8.01
225.13	-6.71
225.601	-0.91
226.072	11.39
226.543	1.99
227.014	2.09
227.485	-5.31
227.956	-2.61
228.427	-2.01
228.898	-3.91
229.369	1.09
229.839	-3.91
230.31	-2.91
230.781	0.69
231.252	-6.21
231.722	-8.31
232.193	-1.51
232.664	-1.01
233.135	4.39
233.605	-3.71
234.076	-10.61
234.546	-1.81
235.017	2.39
235.487	-0.71
235.958	-4.01
236.428	-4.01
236.899	0.19
237.369	2.29
237.84	-5.11
238.31	-1.11
238.78	-3.41
239.251	-2.11
239.721	-5.91
240.191	3.49
240.662	-3.91
241.132	-0.71
241.602	-0.41
242.072	-2.11
242.542	2.09
243.013	4.29
243.483	-2.41
243.953	1.79
244.423	-0.51
244.893	-7.31
245.363	-0.21
245.833	3.59
246.303	-8.41
246.773	4.49
247.243	-1.41
247.712	1.39
248.182	8.09
248.652	6.39
249.122	-6.91
249.592	0.19
250.061	-2.51
250.531	6.09
251.001	-3.71
251.471	5.79
251.94	1.29
252.41	-3.01
252.879	-7.01
253.349	6.99
253.818	5.59
254.288	-0.81
254.757	-0.51
255.227	-5.11
255.696	-0.41
256.166	2.39
256.635	-1.11
257.105	2.19
257.574	-1.51
258.043	0.49
258.513	-9.41
258.982	1.79
259.451	-2.51
259.92	1.89
260.389	1.39
260.859	5.49
261.328	-0.41
261.797	4.09
262.266	2.69
262.735	7.09
263.204	1.19
263.673	-0.71
264.142	2.09
264.611	-11.81
265.08	3.29
265.549	-2.91
266.018	5.39
266.487	-0.41
266.955	-6.71
267.424	-8.81
267.893	-1.71
268.362	-4.81
268.83	3.39
269.299	1.49
269.768	-3.51
270.236	-1.81
270.705	1.99
271.174	6.29
271.642	2.29
272.111	2.29
272.579	0.09
273.048	-3.51
273.516	3.69
273.985	2.09
274.453	15.29
274.922	4.99
275.39	0.39
275.858	-0.81
276.327	5.89
276.795	14.89
277.263	1.89
277.731	9.39
278.2	6.99
278.668	12.29
279.136	6.89
279.604	3.89
280.072	6.69
280.54	2.09
281.008	3.19
281.477	10.19
281.945	6.89
282.413	9.69
282.881	4.49
283.348	1.79
283.816	7.69
284.284	11.89
284.752	19.29
285.22	3.09
285.688	8.79
286.156	10.19
286.623	10.49
287.091	6.49
287.559	8.59
288.026	16.69
288.494	12.39
288.962	-3.81
289.429	5.39
289.897	19.19
290.364	7.79
290.832	14.09
291.3	9.59
291.767	9.59
292.234	15.29
292.702	9.89
293.169	14.09
293.637	20.09
294.104	15.69
294.571	8.79
295.039	10.39
295.506	3.29
295.973	12.79
296.44	7.79
296.908	10.39
297.375	4.59
297.842	13.49
298.309	8.69
298.776	5.19
299.243	13.09
299.71	10.19
300.177	18.39
300.644	17.49
301.111	16.99
301.578	20.89
302.045	11.69
302.512	18.29
302.979	20.89
303.446	18.29
303.913	10.59
304.379	12.69
304.846	20.49
305.313	19.09
305.78	11.69
306.246	22.39
306.713	18.49
307.18	18.89
307.646	22.89
308.113	18.99
308.579	19.09
309.046	18.69
309.512	21.69
309.979	9.99
310.445	23.59
310.912	28.09
311.378	29.29
311.845	22.29
312.311	25.19
312.777	27.29
313.244	25.69
313.71	27.69
314.176	21.29
314.642	16.89
315.109	16.29
315.575	28.49
316.041	28.59
316.507	21.29
316.973	27.19
317.439	30.99
317.905	27.19
318.371	23.99
318.837	26.89
319.303	25.59
319.769	26.49
320.235	30.59
320.701	27.39
321.167	32.89
321.633	24.09
322.099	29.69
322.564	36.99
323.03	34.39
323.496	28.99
323.962	34.59
324.427	26.99
324.893	34.79
325.359	35.89
325.824	30.59
326.29	27.39
326.755	34.89
327.221	35.19
327.686	37.19
328.152	40.89
328.617	36.99
329.083	37.29
329.548	40.49
330.014	42.19
330.479	31.49
330.944	35.09
331.41	35.29
331.875	39.49
332.34	36.09
332.805	34.39
333.271	36.49
333.736	34.39
334.201	52.09
334.666	46.39
335.131	44.59
335.596	43.39
336.061	43.79
336.526	41.09
336.991	39.79
337.456	50.79
337.921	42.79
338.386	42.39
338.851	43.99
339.316	39.29
339.781	41.99
340.246	43.19
340.711	38.89
341.175	44.19
341.64	39.79
342.105	48.69
342.569	43.89
343.034	51.19
343.499	49.39
343.963	41.09
344.428	54.99
344.893	53.29
345.357	47.19
345.822	51.89
346.286	60.99
346.751	60.79
347.215	54.29
347.679	63.19
348.144	82.49
348.608	74.99
349.073	57.29
349.537	68.39
350.001	68.79
350.465	81.19
350.93	68.39
351.394	69.29
351.858	57.49
352.322	71.29
352.786	71.89
353.25	85.29
353.715	92.89
354.179	85.19
354.643	96.99
355.107	104.39
355.571	92.69
356.035	84.39
356.498	95.29
356.962	97.29
357.426	102.69
357.89	96.39
358.354	80.59
358.818	72.79
359.281	71.59
359.745	71.59
360.209	70.49
360.673	66.59
361.136	73.59
361.6	77.19
362.064	70.59
362.527	77.29
362.991	77.59
363.454	72.99
363.918	67.89
364.381	75.69
364.845	76.89
365.308	79.59
365.772	80.99
366.235	79.39
366.698	81.59
367.162	70.69
367.625	73.69
368.088	75.89
368.552	75.49
369.015	77.09
369.478	84.19
369.941	93.69
370.404	84.59
370.867	89.79
371.331	92.19
371.794	96.59
372.257	89.49
372.72	96.09
373.183	94.39
373.646	88.99
374.109	86.49
374.572	96.89
375.035	90.39
375.497	91.09
375.96	95.49
376.423	94.99
376.886	104.99
377.349	103.89
377.811	99.29
378.274	95.59
378.737	93.19
379.199	103.99
379.662	99.19
380.125	108.19
380.587	99.29
381.05	107.59
381.512	104.59
381.975	115.49
382.437	108.29
382.9	108.89
383.362	120.19
383.825	128.29
384.287	120.19
384.75	117.29
385.212	121.79
385.674	119.39
386.136	121.59
386.599	120.29
387.061	116.39
387.523	119.19
387.985	115.09
388.447	131.79
388.91	122.99
389.372	128.79
389.834	126.69
390.296	115.79
390.758	117.59
391.22	132.39
391.682	139.19
392.144	147.09
392.606	138.99
393.068	135.39
393.529	142.39
393.991	138.39
394.453	130.49
394.915	126.29
395.377	133.79
395.838	131.29
396.3	132.79
396.762	138.19
397.224	129.69
397.685	121.19
398.147	131.39
398.608	130.19
399.07	125.19
399.531	135.99
399.993	140.09
400.454	143.69
400.916	140.39
401.377	137.49
401.839	149.39
402.3	144.79
402.762	161.09
403.223	172.09
403.684	164.79
404.145	154.99
404.607	161.09
405.068	164.09
405.529	162.59
405.99	186.99
406.451	172.49
406.913	176.09
407.374	163.19
407.835	156.99
408.296	169.69
408.757	166.49
409.218	183.49
409.679	173.89
410.14	176.89
410.601	170.69
411.062	177.79
411.522	176.69
411.983	181.29
412.444	165.99
412.905	187.49
413.366	185.49
413.826	196.29
414.287	221.99
414.748	264.89
415.208	251.69
415.669	216.09
416.13	212.69
416.59	204.49
417.051	217.19
417.511	222.09
417.972	243.59
418.432	248.79
418.893	303.79
419.353	255.99
419.814	201.89
420.274	185.59
420.734	184.89
421.195	198.29
421.655	193.69
422.115	194.29
422.576	195.69
423.036	202.19
423.496	204.79
423.956	225.59
424.416	241.39
424.876	276.39
425.336	264.99
425.797	265.49
426.257	252.19
426.717	246.09
427.177	230.99
427.637	225.89
428.097	232.49
428.556	248.29
429.016	266.19
429.476	259.59
429.936	277.79
430.396	278.29
430.856	283.29
431.315	310.09
431.775	343.39
432.235	367.79
432.694	348.29
433.154	351.89
433.614	385.19
434.073	324.99
434.533	285.69
434.993	266.69
435.452	275.89
435.912	290.59
436.371	288.39
436.83	280.69
437.29	267.09
437.749	247.39
438.209	252.99
438.668	278.29
439.127	283.09
439.587	263.59
440.046	252.99
440.505	267.69
440.964	277.69
441.424	326.19
441.883	311.89
442.342	266.59
442.801	226.59
443.26	233.59
443.719	233.79
444.178	228.89
444.637	214.79
445.096	230.59
445.555	226.79
446.014	235.19
446.473	238.39
446.932	236.89
447.391	235.39
447.849	239.09
448.308	232.89
448.767	233.59
449.226	250.69
449.685	245.59
450.143	259.89
450.602	251.79
451.061	236.89
451.519	241.99
451.978	246.79
452.436	248.39
452.895	253.29
453.353	261.89
453.812	249.59
454.27	255.19
454.729	254.09
455.187	251.09
455.646	261.89
456.104	256.79
456.562	272.39
457.021	281.19
457.479	268.89
457.937	277.99
458.395	265.59
458.854	262.29
459.312	270.19
459.77	289.29
460.228	267.69
460.686	262.89
461.144	266.99
461.602	261.99
462.06	260.99
462.518	275.59
462.976	271.79
463.434	275.69
463.892	274.09
464.35	277.69
464.808	299.59
465.266	277.99
465.724	287.39
466.181	276.89
466.639	289.49
467.097	310.39
467.555	323.89
468.012	314.99
468.47	326.39
468.928	348.79
469.385	357.39
469.843	373.19
470.3	372.69
470.758	378.49
471.215	401.19
471.673	419.79
472.13	424.29
472.588	433.19
473.045	391.09
473.503	395.69
473.96	419.59
474.417	419.59
474.875	455.09
475.332	492.39
475.789	488.89
476.246	488.29
476.704	511.89
477.161	528.29
477.618	543.69
478.075	567.19
478.532	631.99
478.989	708.59
479.446	803.09
479.903	778.59
480.36	811.29
480.817	867.89
481.274	964.19
481.731	1042.69
482.188	1111.89
482.645	1251.79
483.102	1338.99
483.558	1450.59
484.015	1494.29
484.472	1461.59
484.929	1425.29
485.385	1390.29
485.842	1355.09
486.299	1303.19
486.755	1267.79
487.212	1079.49
487.668	933.29
488.125	858.99
488.582	787.39
489.038	757.59
489.494	734.79
489.951	705.89
490.407	686.09
490.864	661.99
491.32	658.09
491.776	661.19
492.233	669.39
492.689	639.19
493.145	627.39
493.602	619.29
494.058	644.09
494.514	636.79
494.97	671.59
495.426	664.59
495.882	643.99
496.338	646.49
496.794	658.99
497.251	637.29
497.707	667.09
498.163	655.79
498.618	668.49
499.074	665.49
499.53	702.59
499.986	706.69
500.442	669.79
500.898	653.19
501.354	642.99
501.809	646.69
502.265	655.89
502.721	662.79
503.177	669.89
503.632	673.09
504.088	671.59
504.543	698.39
504.999	717.19
505.455	688.49
505.91	668.79
506.366	668.39
506.821	663.49
507.277	661.49
507.732	671.09
508.187	668.09
508.643	680.79
509.098	674.69
509.553	686.49
510.009	697.49
510.464	703.39
510.919	718.79
511.375	728.69
511.83	750.79
512.285	765.39
512.74	799.79
513.195	819.69
513.65	805.09
514.105	807.99
514.56	811.29
515.015	826.99
515.47	841.39
515.925	813.89
516.38	829.79
516.835	833.39
517.29	821.19
517.745	818.99
518.2	812.59
518.655	793.79
519.109	781.29
519.564	785.89
520.019	767.79
520.474	761.39
520.928	756.09
521.383	756.89
521.838	745.09
522.292	742.29
522.747	739.79
523.201	744.89
523.656	734.69
524.11	733.69
524.565	735.09
525.019	725.79
525.474	725.09
525.928	731.19
526.382	731.69
526.837	739.69
527.291	734.59
527.745	738.69
528.2	738.69
528.654	720.69
529.108	723.19
529.562	730.09
530.016	717.59
530.47	721.49
530.925	725.89
531.379	729.39
531.833	742.29
532.287	735.79
532.741	736.59
533.195	745.89
533.649	753.89
534.103	752.69
534.556	747.19
535.01	752.79
535.464	742.49
535.918	749.49
536.372	756.79
536.826	755.19
537.279	747.69
537.733	753.19
538.187	747.89
538.64	755.69
539.094	753.69
539.548	758.39
540.001	755.59
540.455	762.69
540.908	765.39
541.362	776.59
541.815	775.59
542.269	795.59
542.722	793.19
543.175	811.39
543.629	814.79
544.082	829.79
544.536	827.09
544.989	825.09
545.442	842.69
545.895	826.79
546.349	840.49
546.802	840.09
547.255	844.39
547.708	854.69
548.161	868.79
548.614	864.09
549.067	864.79
549.52	867.49
549.973	847.99
550.426	857.49
550.879	838.89
551.332	839.59
551.785	854.39
552.238	859.49
552.691	860.89
553.144	875.59
553.596	904.79
554.049	913.19
554.502	946.19
554.955	963.39
555.407	946.89
555.86	957.59
556.313	937.29
556.765	935.79
557.218	933.19
557.67	931.49
558.123	915.79
558.576	918.79
559.028	925.99
559.48	929.39
559.933	919.79
560.385	897.49
560.838	855.19
561.29	832.69
561.742	837.89
562.195	806.19
562.647	804.29
563.099	810.19
563.551	818.09
564.004	824.69
564.456	812.79
564.908	811.69
565.36	786.39
565.812	768.19
566.264	755.09
566.716	755.39
567.168	741.89
567.62	744.19
568.072	731.49
568.524	727.79
568.976	726.69
569.428	715.29
569.88	714.29
570.332	720.79
570.784	729.79
571.235	729.19
571.687	741.69
572.139	740.29
572.59	749.49
573.042	748.19
573.494	758.39
573.945	754.09
574.397	727.69
574.849	728.89
575.3	723.89
575.752	710.59
576.203	718.79
576.655	719.69
577.106	705.59
577.557	706.49
578.009	710.39
578.46	701.89
578.912	692.19
579.363	700.29
579.814	706.59
580.265	699.89
580.717	707.59
581.168	703.19
581.619	717.49
582.07	722.49
582.521	721.09
582.972	704.89
583.423	715.79
583.875	709.99
584.326	708.29
584.777	730.09
585.227	753.09
585.678	760.89
586.129	789.59
586.58	808.39
587.031	817.49
587.482	856.59
587.933	886.99
588.384	870.19
588.834	815.19
589.285	807.39
589.736	804.19
590.186	802.29
590.637	801.79
591.088	793.69
591.538	772.49
591.989	764.39
592.439	759.99
592.89	755.19
593.34	731.19
593.791	738.29
594.241	736.19
594.692	735.09
595.142	727.09
595.593	728.69
596.043	743.69
596.493	738.29
596.943	740.89
597.394	751.19
597.844	742.59
598.294	761.69
598.744	794.59
599.195	823.69
599.645	854.09
600.095	904.69
600.545	964.79
600.995	1009.59
601.445	1072.19
601.895	1143.59
602.345	1189.79
602.795	1176.99
603.245	1114.99
603.695	1063.29
604.145	1008.89
604.594	962.09
605.044	911.49
605.494	836.69
605.944	792.09
606.393	777.39
606.843	766.19
607.293	768.79
607.743	759.69
608.192	778.59
608.642	781.99
609.091	792.29
609.541	788.29
609.99	797.39
610.44	783.29
610.889	745.69
611.339	727.59
611.788	713.39
612.238	714.09
612.687	730.99
613.136	721.59
613.586	733.59
614.035	733.99
614.484	742.39
614.933	745.79
615.383	735.89
615.832	728.69
616.281	728.39
616.73	703.29
617.179	681.79
617.628	669.79
618.077	654.39
618.526	649.49
618.975	637.69
619.424	639.89
619.873	638.49
620.322	639.59
620.771	631.39
621.22	628.49
621.669	616.69
622.118	614.69
622.567	611.09
623.015	587.19
623.464	595.39
623.913	584.29
624.361	565.69
624.81	576.29
625.259	568.79
625.707	571.49
626.156	572.39
626.604	589.49
627.053	587.29
627.501	584.39
627.95	595.99
628.398	599.49
628.847	589.39
629.295	592.09
629.744	597.99
630.192	592.59
630.64	580.09
631.089	573.79
631.537	561.39
631.985	548.09
632.433	559.29
632.881	541.09
633.33	548.09
633.778	544.69
634.226	546.29
634.674	558.19
635.122	559.39
635.57	568.29
636.018	587.79
636.466	582.89
636.914	575.59
637.362	584.39
637.81	598.19
638.258	612.29
638.705	613.09
639.153	636.99
639.601	643.49
640.049	672.19
640.497	707.59
640.944	716.59
641.392	673.99
641.84	637.19
642.287	609.49
642.735	590.69
643.182	581.09
643.63	584.09
644.078	590.59
644.525	601.49
644.973	598.39
645.42	613.29
645.867	642.49
646.315	653.09
646.762	675.49
647.21	704.69
647.657	716.39
648.104	765.89
648.551	787.19
648.999	846.59
649.446	908.89
649.893	1001.19
650.34	1141.69
650.787	1353.19
651.234	1664.39
651.682	2142.09
652.129	2903.69
652.576	4125.19
653.023	6019.49
653.47	8132.89
653.917	10093.19
654.363	11577.29
654.81	12830.39
655.257	12150.29
655.704	8056.59
656.151	4839.59
656.598	3188.09
657.044	2292.29
657.491	1777.09
657.938	1426.09
658.385	1204.89
658.831	1059.79
659.278	955.39
659.724	847.89
660.171	779.39
660.618	733.39
661.064	693.29
661.511	674.09
661.957	661.39
662.404	649.19
662.85	659.89
663.296	646.79
663.743	576.49
664.189	546.89
664.635	543.99
665.082	543.89
665.528	548.99
665.974	533.39
666.42	517.39
666.867	513.59
667.313	502.79
667.759	481.19
668.205	467.89
668.651	474.19
669.097	465.39
669.543	460.99
669.989	453.89
670.435	466.19
670.881	460.69
671.327	468.39
671.773	494.79
672.219	515.89
672.665	568.69
673.11	606.89
673.556	659.99
674.002	698.79
674.448	677.09
674.893	564.89
675.339	499.89
675.785	459.49
676.23	437.29
676.676	407.19
677.122	396.39
677.567	386.09
678.013	377.79
678.458	374.49
678.904	377.29
679.349	361.39
679.794	376.69
680.24	370.39
680.685	364.19
681.131	369.39
681.576	366.19
682.021	370.99
682.466	361.59
682.912	356.49
683.357	371.99
683.802	401.39
684.247	432.39
684.692	475.79
685.137	522.09
685.583	556.79
686.028	590.19
686.473	543.49
686.918	460.19
687.363	437.09
687.807	416.49
688.252	378.69
688.697	366.79
689.142	352.19
689.587	352.09
690.032	346.69
690.477	354.09
690.921	368.69
691.366	394.09
691.811	425.29
692.255	457.99
692.7	486.29
693.145	520.49
693.589	726.89
694.034	1197.09
694.478	1618.59
694.923	1814.19
695.367	2373.09
695.812	1256.09
696.256	527.79
696.701	387.19
697.145	362.19
697.59	341.89
698.034	334.69
698.478	342.09
698.922	330.79
699.367	344.69
699.811	350.99
700.255	362.19
700.699	394.99
701.143	442.99
701.588	492.59
702.032	527.79
702.476	537.89
702.92	513.39
703.364	526.09
703.808	676.69
704.252	1101.59
704.696	1546.29
705.14	1767.89
705.584	2239.09
706.027	1113.49
706.471	550.89
706.915	422.39
707.359	371.89
707.803	339.29
708.246	335.39
708.69	326.59
709.134	331.09
709.577	321.79
710.021	332.59
710.465	316.79
710.908	308.89
711.352	313.79
711.795	322.79
712.239	375.79
712.682	407.59
713.126	435.49
713.569	473.99
714.012	370.69
714.456	314.99
714.899	301.89
715.342	280.99
715.786	275.19
716.229	273.09
716.672	265.49
717.115	262.89
717.558	263.29
718.002	263.79
718.445	267.09
718.888	292.79
719.331	299.89
719.774	316.09
720.217	317.09
720.66	294.79
721.103	279.29
721.546	268.49
721.989	256.69
722.432	234.09
722.874	251.89
723.317	237.49
723.76	237.69
724.203	264.29
724.645	326.79
725.088	465.29
725.531	584.69
725.974	668.79
726.416	566.39
726.859	316.69
727.301	254.19
727.744	239.79
728.187	239.89
728.629	238.99
729.071	256.59
729.514	273.19
729.956	283.79
730.399	295.79
730.841	303.49
731.283	285.79
731.726	282.09
732.168	264.29
732.61	287.69
733.053	302.49
733.495	327.39
733.937	371.09
734.379	421.59
734.821	460.79
735.263	573.39
735.705	875.69
736.148	1676.29
736.59	2736.99
737.032	3227.79
737.474	2613.29
737.916	859.39
738.357	451.69
738.799	352.09
739.241	305.59
739.683	296.09
740.125	300.19
740.567	309.29
741.008	329.09
741.45	331.79
741.892	327.39
742.334	368.29
742.775	386.69
743.217	361.69
743.658	284.69
744.1	263.39
744.542	287.29
744.983	331.09
745.425	368.79
745.866	362.29
746.307	293.89
746.749	293.99
747.19	337.09
747.632	478.99
748.073	937.39
748.514	1986.59
748.956	3012.99
749.397	3792.29
749.838	3145.99
750.279	3124.69
750.72	1577.69
751.162	568.49
751.603	341.09
752.044	261.29
752.485	227.29
752.926	219.39
753.367	208.89
753.808	201.59
754.249	196.99
754.69	194.79
755.131	193.59
755.572	192.89
756.013	192.49
756.453	193.19
756.894	192.99
757.335	193.39
757.776	206.29
758.216	207.19
758.657	199.19
759.098	213.89
759.538	233.59
759.979	282.99
760.42	401.59
760.86	752.89
761.301	1942.39
761.741	4722.39
762.182	6771.39
762.622	4802.49
763.063	1390.79
763.503	561.19
