Data from 20171114-ORNL-Ar_H_NY_Subt18_08-05-05-393.txt Node
Date: Tue Nov 14 08:05:05 EST 2017
User: Ender
Spectrometer: HR+D1039
Trigger mode: 0
Integration Time (sec): 2.730000E-2
Scans to average: 10
Electric dark correction enabled: true
Nonlinearity correction enabled: false
Boxcar width: 0
XAxis mode: Wavelengths
Number of Pixels in Spectrum: 2048
>>>>>Begin Spectral Data<<<<<
187.836	-1.75
188.309	-1.75
188.782	-1.75
189.255	3.55
189.728	1.25
190.201	4.15
190.674	3.65
191.147	1.25
191.619	-4.15
192.092	-0.25
192.565	4.65
193.038	2.75
193.511	-3.85
193.984	-0.15
194.456	-0.15
194.929	-0.25
195.402	-7.65
195.874	-3.05
196.347	1.45
196.82	-7.95
197.292	11.35
197.765	-1.15
198.237	-2.75
198.71	3.95
199.182	-3.05
199.655	5.65
200.127	1.35
200.6	-4.75
201.072	-3.05
201.544	-5.15
202.017	-1.15
202.489	-2.25
202.961	0.35
203.433	-6.45
203.906	-1.55
204.378	-4.35
204.85	-5.05
205.322	-8.15
205.794	0.25
206.266	-6.85
206.739	-12.15
207.211	3.35
207.683	-4.75
208.155	-4.45
208.627	-4.65
209.099	-9.65
209.57	-7.55
210.042	1.65
210.514	-4.25
210.986	-5.65
211.458	-7.05
211.93	-6.05
212.402	-5.65
212.873	-8.45
213.345	-9.35
213.817	-8.85
214.288	0.55
214.76	-9.75
215.232	-1.75
215.703	-5.95
216.175	-0.15
216.646	-5.75
217.118	-8.95
217.589	-4.55
218.061	-6.55
218.532	-2.65
219.004	-3.55
219.475	-3.45
219.946	-1.55
220.418	-6.55
220.889	1.75
221.36	3.05
221.832	-3.45
222.303	-7.65
222.774	2.55
223.245	-9.85
223.717	2.15
224.188	-6.85
224.659	-7.35
225.13	-7.85
225.601	-5.05
226.072	1.35
226.543	-6.15
227.014	0.35
227.485	0.85
227.956	-7.95
228.427	-4.65
228.898	0.95
229.369	11.15
229.839	-2.15
230.31	-5.95
230.781	-0.55
231.252	-0.65
231.722	-10.35
232.193	-3.95
232.664	-2.15
233.135	-1.35
233.605	2.55
234.076	-4.95
234.546	4.95
235.017	-1.45
235.487	4.25
235.958	-3.35
236.428	-4.35
236.899	3.95
237.369	7.25
237.84	-5.25
238.31	-0.55
238.78	3.15
239.251	3.65
239.721	1.35
240.191	6.45
240.662	2.65
241.132	1.55
241.602	-3.05
242.072	4.55
242.542	7.35
243.013	-3.95
243.483	5.35
243.953	1.65
244.423	4.05
244.893	-0.35
245.363	4.65
245.833	-5.65
246.303	-3.15
246.773	8.55
247.243	1.75
247.712	5.65
248.182	12.35
248.652	11.95
249.122	3.75
249.592	16.45
250.061	20.35
250.531	37.55
251.001	16.75
251.471	20.35
251.94	18.55
252.41	11.25
252.879	7.95
253.349	14.95
253.818	12.65
254.288	2.95
254.757	6.35
255.227	7.35
255.696	4.75
256.166	11.45
256.635	11.05
257.105	14.55
257.574	12.95
258.043	10.55
258.513	14.95
258.982	17.65
259.451	11.25
259.92	17.05
260.389	12.35
260.859	13.75
261.328	15.85
261.797	25.55
262.266	12.95
262.735	14.85
263.204	-1.95
263.673	3.35
264.142	3.75
264.611	-0.35
265.08	4.05
265.549	0.05
266.018	7.55
266.487	-1.25
266.955	-5.75
267.424	0.75
267.893	3.55
268.362	3.15
268.83	3.95
269.299	16.15
269.768	12.45
270.236	12.65
270.705	0.75
271.174	6.25
271.642	13.05
272.111	12.75
272.579	17.65
273.048	29.45
273.516	27.55
273.985	29.15
274.453	24.45
274.922	22.45
275.39	13.75
275.858	-0.55
276.327	7.05
276.795	17.55
277.263	10.35
277.731	29.95
278.2	59.25
278.668	60.65
279.136	54.35
279.604	24.55
280.072	15.25
280.54	8.75
281.008	12.55
281.477	19.85
281.945	11.65
282.413	15.45
282.881	17.65
283.348	10.05
283.816	19.65
284.284	13.95
284.752	20.95
285.22	11.45
285.688	14.55
286.156	17.55
286.623	49.85
287.091	58.85
287.559	36.65
288.026	23.55
288.494	18.55
288.962	9.75
289.429	13.15
289.897	17.85
290.364	14.85
290.832	18.35
291.3	17.95
291.767	25.15
292.234	26.35
292.702	16.95
293.169	18.45
293.637	22.75
294.104	20.15
294.571	7.35
295.039	17.05
295.506	21.45
295.973	23.05
296.44	20.15
296.908	22.05
297.375	23.75
297.842	24.45
298.309	17.95
298.776	19.35
299.243	22.25
299.71	12.95
300.177	21.65
300.644	21.55
301.111	24.15
301.578	22.15
302.045	18.95
302.512	25.15
302.979	27.05
303.446	28.35
303.913	27.85
304.379	17.85
304.846	30.45
305.313	28.85
305.78	22.45
306.246	31.55
306.713	26.05
307.18	26.85
307.646	27.85
308.113	31.05
308.579	28.55
309.046	19.65
309.512	24.95
309.979	23.25
310.445	31.45
310.912	27.15
311.378	33.25
311.845	28.55
312.311	31.95
312.777	33.85
313.244	34.55
313.71	36.45
314.176	32.35
314.642	34.65
315.109	37.05
315.575	39.85
316.041	39.65
316.507	34.25
316.973	46.25
317.439	35.25
317.905	33.65
318.371	34.75
318.837	32.75
319.303	29.35
319.769	36.25
320.235	46.25
320.701	37.85
321.167	43.15
321.633	36.55
322.099	46.55
322.564	46.95
323.03	39.05
323.496	45.95
323.962	43.85
324.427	37.45
324.893	42.05
325.359	39.05
325.824	40.65
326.29	44.05
326.755	37.05
327.221	42.45
327.686	47.65
328.152	49.55
328.617	42.45
329.083	48.15
329.548	51.25
330.014	48.55
330.479	39.95
330.944	50.35
331.41	42.05
331.875	44.55
332.34	45.55
332.805	47.55
333.271	53.55
333.736	51.55
334.201	58.35
334.666	51.65
335.131	57.55
335.596	53.05
336.061	55.45
336.526	52.95
336.991	54.45
337.456	57.05
337.921	46.35
338.386	48.55
338.851	49.35
339.316	48.75
339.781	50.55
340.246	54.35
340.711	51.25
341.175	50.85
341.64	43.95
342.105	53.65
342.569	61.95
343.034	62.05
343.499	52.25
343.963	57.25
344.428	61.15
344.893	63.95
345.357	63.65
345.822	65.65
346.286	69.85
346.751	72.55
347.215	73.35
347.679	83.85
348.144	105.35
348.608	85.65
349.073	72.55
349.537	75.85
350.001	86.45
350.465	96.15
350.93	86.25
351.394	83.55
351.858	74.65
352.322	91.25
352.786	87.45
353.25	101.05
353.715	112.35
354.179	103.05
354.643	125.75
355.107	130.45
355.571	114.85
356.035	105.05
356.498	118.95
356.962	124.35
357.426	123.75
357.89	119.65
358.354	92.35
358.818	86.65
359.281	79.75
359.745	76.55
360.209	74.45
360.673	77.05
361.136	74.15
361.6	83.15
362.064	84.85
362.527	85.25
362.991	92.95
363.454	84.05
363.918	76.45
364.381	86.55
364.845	85.75
365.308	87.65
365.772	85.55
366.235	90.45
366.698	81.25
367.162	85.75
367.625	88.75
368.088	92.05
368.552	93.45
369.015	93.25
369.478	98.65
369.941	106.75
370.404	98.15
370.867	109.45
371.331	105.35
371.794	118.65
372.257	109.05
372.72	116.15
373.183	113.85
373.646	109.05
374.109	101.65
374.572	104.95
375.035	108.55
375.497	118.05
375.96	115.15
376.423	101.55
376.886	113.95
377.349	115.15
377.811	104.25
378.274	107.75
378.737	110.65
379.199	117.25
379.662	114.65
380.125	116.55
380.587	116.05
381.05	121.85
381.512	126.35
381.975	140.55
382.437	131.35
382.9	127.25
383.362	128.85
383.825	140.25
384.287	147.95
384.75	141.55
385.212	142.35
385.674	138.05
386.136	142.05
386.599	125.55
387.061	129.15
387.523	135.65
387.985	133.75
388.447	140.55
388.91	143.75
389.372	158.05
389.834	148.75
390.296	140.75
390.758	157.05
391.22	168.05
391.682	208.55
392.144	289.85
392.606	225.75
393.068	163.75
393.529	168.75
393.991	157.95
394.453	145.15
394.915	156.95
395.377	188.55
395.838	212.25
396.3	156.45
396.762	143.75
397.224	131.45
397.685	126.05
398.147	126.15
398.608	125.65
399.07	132.25
399.531	134.75
399.993	145.05
400.454	153.35
400.916	136.25
401.377	152.55
401.839	152.55
402.3	146.55
402.762	163.25
403.223	177.45
403.684	167.95
404.145	160.45
404.607	162.15
405.068	165.55
405.529	163.05
405.99	187.55
406.451	171.45
406.913	179.75
407.374	167.55
407.835	159.65
408.296	170.55
408.757	174.55
409.218	181.15
409.679	176.05
410.14	174.25
410.601	177.45
411.062	179.05
411.522	188.65
411.983	192.35
412.444	174.05
412.905	176.75
413.366	188.35
413.826	191.95
414.287	219.25
414.748	260.75
415.208	254.55
415.669	210.45
416.13	205.65
416.59	201.45
417.051	211.15
417.511	220.15
417.972	231.05
418.432	245.25
418.893	285.65
419.353	251.45
419.814	196.35
420.274	176.95
420.734	177.25
421.195	204.45
421.655	198.35
422.115	189.95
422.576	188.35
423.036	190.45
423.496	201.35
423.956	219.35
424.416	225.95
424.876	264.55
425.336	260.45
425.797	254.35
426.257	255.25
426.717	240.05
427.177	227.35
427.637	228.95
428.097	233.85
428.556	245.55
429.016	266.55
429.476	261.75
429.936	270.95
430.396	273.75
430.856	295.55
431.315	312.75
431.775	349.55
432.235	382.85
432.694	345.65
433.154	354.65
433.614	394.85
434.073	334.15
434.533	280.95
434.993	274.35
435.452	282.25
435.912	289.45
436.371	286.25
436.83	285.75
437.29	257.95
437.749	244.45
438.209	249.35
438.668	282.85
439.127	284.85
439.587	271.25
440.046	241.65
440.505	257.75
440.964	278.45
441.424	323.55
441.883	308.85
442.342	261.15
442.801	224.25
443.26	220.25
443.719	215.15
444.178	215.35
444.637	206.45
445.096	222.55
445.555	217.95
446.014	223.55
446.473	221.75
446.932	227.55
447.391	230.95
447.849	230.75
448.308	216.25
448.767	220.75
449.226	234.65
449.685	230.75
450.143	250.85
450.602	239.85
451.061	232.45
451.519	234.65
451.978	236.35
452.436	234.15
452.895	237.95
453.353	251.35
453.812	238.95
454.27	241.05
454.729	240.25
455.187	235.55
455.646	243.35
456.104	253.55
456.562	253.05
457.021	263.55
457.479	262.05
457.937	271.55
458.395	263.65
458.854	247.45
459.312	249.15
459.77	273.35
460.228	247.45
460.686	234.75
461.144	241.45
461.602	240.75
462.06	240.05
462.518	254.25
462.976	252.95
463.434	259.05
463.892	264.35
464.35	280.05
464.808	280.55
465.266	263.95
465.724	267.65
466.181	268.75
466.639	269.75
467.097	285.35
467.555	294.35
468.012	302.95
468.47	309.65
468.928	327.05
469.385	336.55
469.843	340.35
470.3	344.15
470.758	359.05
471.215	384.35
471.673	403.25
472.13	395.65
472.588	415.15
473.045	366.95
473.503	378.75
473.96	395.85
474.417	396.45
474.875	426.05
475.332	470.55
475.789	464.75
476.246	456.35
476.704	480.05
477.161	502.15
477.618	519.05
478.075	548.15
478.532	619.55
478.989	682.35
479.446	797.75
479.903	766.85
480.36	801.15
480.817	863.75
481.274	969.55
481.731	1072.05
482.188	1152.35
482.645	1300.85
483.102	1398.35
483.558	1544.35
484.015	1587.85
484.472	1559.85
484.929	1511.45
485.385	1472.65
485.842	1414.75
486.299	1356.65
486.755	1294.55
487.212	1088.35
487.668	909.55
488.125	841.95
488.582	777.35
489.038	751.45
489.494	712.45
489.951	682.15
490.407	671.35
490.864	638.05
491.32	635.75
491.776	635.75
492.233	628.05
492.689	598.75
493.145	600.25
493.602	588.45
494.058	607.15
494.514	615.35
494.97	624.15
495.426	638.05
495.882	620.45
496.338	609.55
496.794	624.35
497.251	630.55
497.707	637.25
498.163	639.45
498.618	639.45
499.074	652.55
499.53	676.15
499.986	668.55
500.442	650.55
500.898	627.05
501.354	608.75
501.809	623.15
502.265	641.05
502.721	664.85
503.177	669.65
503.632	658.35
504.088	671.15
504.543	705.15
504.999	701.35
505.455	654.45
505.91	628.85
506.366	625.95
506.821	626.75
507.277	614.95
507.732	616.55
508.187	616.15
508.643	637.35
509.098	636.35
509.553	638.65
510.009	656.05
510.464	671.05
510.919	679.75
511.375	678.75
511.83	702.95
512.285	718.05
512.74	747.95
513.195	778.35
513.65	768.65
514.105	767.95
514.56	771.95
515.015	793.85
515.47	793.35
515.925	777.45
516.38	781.15
516.835	794.75
517.29	769.95
517.745	770.05
518.2	757.95
518.655	739.25
519.109	734.35
519.564	748.05
520.019	728.95
520.474	709.45
520.928	721.85
521.383	717.65
521.838	709.05
522.292	705.35
522.747	690.35
523.201	697.15
523.656	682.05
524.11	681.65
524.565	676.25
525.019	675.65
525.474	695.85
525.928	689.25
526.382	684.05
526.837	679.85
527.291	685.15
527.745	688.35
528.2	686.15
528.654	687.45
529.108	684.85
529.562	685.45
530.016	673.45
530.47	680.95
530.925	679.95
531.379	692.55
531.833	698.35
532.287	694.45
532.741	696.15
533.195	688.15
533.649	706.05
534.103	705.35
534.556	704.75
535.01	705.25
535.464	701.65
535.918	708.15
536.372	704.65
536.826	714.15
537.279	693.95
537.733	708.05
538.187	704.45
538.64	706.35
539.094	713.55
539.548	711.25
540.001	715.25
540.455	708.35
540.908	715.35
541.362	718.45
541.815	728.55
542.269	740.75
542.722	737.95
543.175	747.95
543.629	750.25
544.082	760.35
544.536	762.05
544.989	764.95
545.442	783.05
545.895	770.35
546.349	769.55
546.802	771.75
547.255	780.15
547.708	790.05
548.161	788.95
548.614	803.15
549.067	798.75
549.52	808.65
549.973	788.15
550.426	786.55
550.879	768.35
551.332	778.05
551.785	789.25
552.238	788.95
552.691	797.45
553.144	807.85
553.596	819.95
554.049	841.65
554.502	870.95
554.955	895.05
555.407	882.65
555.86	876.65
556.313	873.75
556.765	859.35
557.218	863.35
557.67	869.45
558.123	864.85
558.576	849.55
559.028	859.15
559.48	863.95
559.933	848.75
560.385	828.55
560.838	782.15
561.29	763.25
561.742	762.65
562.195	744.65
562.647	745.35
563.099	754.65
563.551	757.05
564.004	762.25
564.456	745.05
564.908	739.05
565.36	734.85
565.812	707.55
566.264	701.35
566.716	698.95
567.168	694.65
567.62	691.85
568.072	674.75
568.524	680.75
568.976	664.75
569.428	659.55
569.88	657.25
570.332	655.25
570.784	655.05
571.235	666.45
571.687	666.35
572.139	687.95
572.59	681.65
573.042	689.95
573.494	696.75
573.945	683.65
574.397	667.35
574.849	674.15
575.3	670.45
575.752	668.65
576.203	657.85
576.655	660.15
577.106	646.35
577.557	642.65
578.009	647.15
578.46	650.85
578.912	641.35
579.363	638.25
579.814	647.75
580.265	649.75
580.717	646.35
581.168	636.65
581.619	654.25
582.07	651.55
582.521	654.95
582.972	644.35
583.423	657.65
583.875	656.45
584.326	676.55
584.777	724.25
585.227	791.25
585.678	871.05
586.129	959.55
586.58	1028.25
587.031	1115.45
587.482	1277.75
587.933	1453.25
588.384	1263.95
588.834	947.95
589.285	767.85
589.736	746.35
590.186	745.95
590.637	737.35
591.088	709.75
591.538	702.25
591.989	698.65
592.439	693.25
592.89	687.95
593.34	678.75
593.791	686.35
594.241	678.45
594.692	681.75
595.142	671.15
595.593	667.85
596.043	686.85
596.493	692.65
596.943	696.55
597.394	693.65
597.844	690.15
598.294	697.25
598.744	721.25
599.195	739.95
599.645	782.25
600.095	817.45
600.545	870.85
600.995	916.85
601.445	962.15
601.895	1038.05
602.345	1073.25
602.795	1066.15
603.245	1025.65
603.695	975.65
604.145	907.35
604.594	875.75
605.044	823.45
605.494	751.45
605.944	719.25
606.393	715.25
606.843	692.25
607.293	699.85
607.743	695.85
608.192	704.75
608.642	714.55
609.091	724.95
609.541	750.55
609.99	732.25
610.44	723.85
610.889	676.85
611.339	661.05
611.788	661.95
612.238	664.55
612.687	680.95
613.136	674.95
613.586	697.65
614.035	698.85
614.484	715.35
614.933	714.55
615.383	713.65
615.832	701.05
616.281	680.45
616.73	655.75
617.179	633.05
617.628	620.35
618.077	599.55
618.526	586.25
618.975	574.85
619.424	581.55
619.873	585.15
620.322	580.85
620.771	569.55
621.22	572.25
621.669	559.95
622.118	559.45
622.567	551.05
623.015	546.85
623.464	547.15
623.913	519.55
624.361	517.85
624.81	519.85
625.259	519.05
625.707	530.05
626.156	523.75
626.604	528.65
627.053	537.45
627.501	527.55
627.95	533.65
628.398	545.95
628.847	533.85
629.295	534.65
629.744	537.45
630.192	542.85
630.64	541.75
631.089	532.55
631.537	548.95
631.985	548.65
632.433	566.65
632.881	574.65
633.33	608.15
633.778	593.95
634.226	540.15
634.674	541.55
635.122	542.35
635.57	563.75
636.018	589.65
636.466	542.15
636.914	518.45
637.362	536.75
637.81	538.45
638.258	537.55
638.705	542.75
639.153	572.75
639.601	571.85
640.049	595.25
640.497	631.35
640.944	655.85
641.392	599.75
641.84	576.45
642.287	547.75
642.735	528.35
643.182	536.35
643.63	540.95
644.078	535.75
644.525	546.25
644.973	548.75
645.42	561.75
645.867	577.05
646.315	599.25
646.762	616.65
647.21	645.55
647.657	674.95
648.104	700.25
648.551	725.15
648.999	781.35
649.446	837.55
649.893	936.25
650.34	1076.95
650.787	1290.15
651.234	1604.55
651.682	2072.35
652.129	2840.55
652.576	4088.85
653.023	6038.55
653.47	8311.85
653.917	10431.15
654.363	12170.55
654.81	13580.35
655.257	12952.75
655.704	8431.45
656.151	4983.85
656.598	3216.25
657.044	2284.75
657.491	1756.55
657.938	1394.05
658.385	1164.65
658.831	1012.35
659.278	903.15
659.724	797.05
660.171	735.55
660.618	677.95
661.064	637.35
661.511	609.15
661.957	606.45
662.404	597.85
662.85	608.95
663.296	571.15
663.743	526.55
664.189	495.45
664.635	497.65
665.082	483.15
665.528	496.55
665.974	481.95
666.42	469.95
666.867	472.75
667.313	456.65
667.759	438.95
668.205	436.25
668.651	446.95
669.097	457.95
669.543	463.75
669.989	435.05
670.435	414.55
670.881	406.65
671.327	422.95
671.773	433.25
672.219	454.15
672.665	498.65
673.11	527.55
673.556	582.15
674.002	611.65
674.448	605.05
674.893	514.95
675.339	435.35
675.785	410.45
676.23	383.05
676.676	359.75
677.122	352.45
677.567	346.15
678.013	338.85
678.458	335.95
678.904	336.65
679.349	316.95
679.794	328.15
680.24	328.75
680.685	321.85
681.131	317.65
681.576	314.15
682.021	324.45
682.466	317.55
682.912	315.45
683.357	320.35
683.802	349.15
684.247	372.75
684.692	420.25
685.137	453.95
685.583	491.35
686.028	520.25
686.473	479.85
686.918	414.85
687.363	386.55
687.807	362.75
688.252	341.85
688.697	318.35
689.142	305.25
689.587	307.85
690.032	307.85
690.477	311.25
690.921	326.35
691.366	350.75
691.811	366.85
692.255	400.15
692.7	419.75
693.145	453.05
693.589	618.65
694.034	1001.75
694.478	1393.55
694.923	1595.15
695.367	2110.65
695.812	1095.75
696.256	455.35
696.701	343.25
697.145	315.15
697.59	296.65
698.034	293.65
698.478	298.75
698.922	294.05
699.367	293.15
699.811	318.55
700.255	323.45
700.699	343.65
701.143	388.95
701.588	429.95
702.032	470.25
702.476	471.45
702.92	449.65
703.364	448.45
703.808	579.05
704.252	920.55
704.696	1318.65
705.14	1547.05
705.584	1978.45
706.027	983.35
706.471	478.55
706.915	364.35
707.359	324.05
707.803	292.85
708.246	285.65
708.69	287.15
709.134	292.55
709.577	281.85
710.021	284.65
710.465	285.25
710.908	281.15
711.352	272.25
711.795	287.95
712.239	315.75
712.682	348.05
713.126	373.55
713.569	431.05
714.012	334.05
714.456	296.35
714.899	270.75
715.342	247.75
715.786	240.65
716.229	239.95
716.672	231.85
717.115	221.05
717.558	228.05
718.002	239.15
718.445	241.15
718.888	263.85
719.331	270.75
719.774	282.65
720.217	272.15
720.66	256.25
721.103	242.75
721.546	234.95
721.989	226.35
722.432	208.85
722.874	222.35
723.317	211.95
723.76	216.35
724.203	237.15
724.645	281.05
725.088	397.45
725.531	514.15
725.974	592.95
726.416	497.55
726.859	278.65
727.301	226.65
727.744	209.95
728.187	210.85
728.629	224.85
729.071	221.75
729.514	233.05
729.956	249.05
730.399	255.95
730.841	260.15
731.283	243.35
731.726	235.95
732.168	230.15
732.61	240.05
733.053	258.05
733.495	287.55
733.937	319.15
734.379	362.65
734.821	388.05
735.263	486.05
735.705	735.55
736.148	1403.65
736.59	2318.05
737.032	2828.45
737.474	2303.85
737.916	729.65
738.357	389.65
738.799	306.05
739.241	274.75
739.683	260.35
740.125	265.15
740.567	269.55
741.008	285.45
741.45	291.55
741.892	289.65
742.334	310.95
742.775	331.85
743.217	322.05
743.658	244.35
744.1	224.85
744.542	235.55
744.983	290.15
745.425	311.35
745.866	315.85
746.307	261.15
746.749	254.45
747.19	295.55
747.632	404.35
748.073	766.15
748.514	1648.95
748.956	2594.65
749.397	3239.95
749.838	2692.35
750.279	2726.75
750.72	1376.65
751.162	503.65
751.603	291.55
752.044	221.85
752.485	202.25
752.926	188.85
753.367	179.05
753.808	175.15
754.249	177.25
754.69	169.85
755.131	161.15
755.572	161.95
756.013	161.15
756.453	167.85
756.894	175.55
757.335	170.95
757.776	172.55
758.216	174.65
758.657	174.05
759.098	179.65
759.538	201.85
759.979	240.85
760.42	334.65
760.86	620.45
761.301	1593.45
761.741	3956.25
762.182	5994.05
