Data from 20171114-ORNL-Ar_H_NY_Subt18_08-07-00-315.txt Node
Date: Tue Nov 14 08:07:00 EST 2017
User: Ender
Spectrometer: HR+D1039
Trigger mode: 0
Integration Time (sec): 2.730000E-2
Scans to average: 10
Electric dark correction enabled: true
Nonlinearity correction enabled: false
Boxcar width: 0
XAxis mode: Wavelengths
Number of Pixels in Spectrum: 2048
>>>>>Begin Spectral Data<<<<<
187.836	-3.7
188.309	-3.7
188.782	-3.7
189.255	2.2
189.728	-6.9
190.201	2.1
190.674	2.8
191.147	1.7
191.619	-4.7
192.092	3.3
192.565	4.4
193.038	-1.1
193.511	0.7
193.984	3.3
194.456	1.7
194.929	0.2
195.402	-2.4
195.874	-3.6
196.347	-1.2
196.82	-5.9
197.292	5.3
197.765	-7.9
198.237	-8.9
198.71	4.3
199.182	-0.5
199.655	-0.3
200.127	3.8
200.6	0.2
201.072	-5
201.544	-5.8
202.017	-0.8
202.489	6.7
202.961	-1.3
203.433	-1.4
203.906	-6.6
204.378	-6.9
204.85	-4.4
205.322	-8.8
205.794	-1.2
206.266	0.8
206.739	-6.7
207.211	0.7
207.683	-2.6
208.155	-8.2
208.627	-4.9
209.099	-2.3
209.57	-10.2
210.042	-4.5
210.514	-4.3
210.986	-4.8
211.458	-9.9
211.93	-0.2
212.402	-2.3
212.873	-8.6
213.345	-10.1
213.817	-9.8
214.288	-3
214.76	-9.2
215.232	-2.4
215.703	0.6
216.175	-1.4
216.646	-3.3
217.118	-3.5
217.589	-6.8
218.061	-0.3
218.532	-2.9
219.004	-4.8
219.475	-2.4
219.946	-3
220.418	-4.1
220.889	4.7
221.36	2.9
221.832	-7.6
222.303	-3.9
222.774	3.6
223.245	-14.2
223.717	-10
224.188	-6.6
224.659	-6.4
225.13	0.2
225.601	-1
226.072	0.7
226.543	-0.7
227.014	-6.3
227.485	2.7
227.956	-2.8
228.427	-4
228.898	-0.2
229.369	1.8
229.839	-3.5
230.31	-10.1
230.781	1.1
231.252	-3.8
231.722	-2.5
232.193	-0.3
232.664	-3.6
233.135	-1.7
233.605	0.4
234.076	-4.3
234.546	-2.7
235.017	1.4
235.487	0.3
235.958	0
236.428	-7.1
236.899	-1.6
237.369	-0.8
237.84	-4.6
238.31	0.6
238.78	-2.8
239.251	-0.2
239.721	-1.6
240.191	-5.9
240.662	-1
241.132	-0.5
241.602	-6.5
242.072	-2.5
242.542	5.1
243.013	0.7
243.483	4.6
243.953	3.2
244.423	-7.2
244.893	-5.4
245.363	6
245.833	-2.2
246.303	-3.5
246.773	6
247.243	2.8
247.712	-3.7
248.182	8.5
248.652	3
249.122	-5.6
249.592	5.2
250.061	2.3
250.531	8
251.001	-6.3
251.471	1.8
251.94	7.4
252.41	3.2
252.879	-6.9
253.349	9.6
253.818	4.1
254.288	-1.4
254.757	0
255.227	-5.2
255.696	-0.4
256.166	6.8
256.635	-0.8
257.105	0.8
257.574	-1.5
258.043	3.4
258.513	-5.9
258.982	4.9
259.451	-1.3
259.92	3.7
260.389	3.2
260.859	9.4
261.328	5.7
261.797	5
262.266	-0.8
262.735	7.9
263.204	3.7
263.673	-3.2
264.142	3.3
264.611	-6.9
265.08	-8.3
265.549	0.9
266.018	4
266.487	3.2
266.955	-6.7
267.424	-9.4
267.893	0
268.362	-2.3
268.83	2.1
269.299	2.6
269.768	6.5
270.236	-5
270.705	-0.1
271.174	2.5
271.642	-2.8
272.111	2.9
272.579	-1
273.048	5.9
273.516	-0.2
273.985	2.4
274.453	10.5
274.922	11.8
275.39	4.9
275.858	-2.3
276.327	4.7
276.795	15.2
277.263	1.8
277.731	12.3
278.2	7.6
278.668	5.1
279.136	6.6
279.604	-1
280.072	8.1
280.54	5.4
281.008	4.5
281.477	12.2
281.945	7.9
282.413	9.6
282.881	9.4
283.348	2.5
283.816	7.7
284.284	7.4
284.752	13.6
285.22	6.9
285.688	12.9
286.156	3.7
286.623	13
287.091	6.7
287.559	12.7
288.026	14.6
288.494	12.2
288.962	5
289.429	5
289.897	18.8
290.364	10.4
290.832	13.8
291.3	11.3
291.767	14
292.234	13
292.702	10.2
293.169	12.3
293.637	14.1
294.104	11.6
294.571	6.3
295.039	8.5
295.506	4.2
295.973	15.8
296.44	11.8
296.908	9.7
297.375	7.4
297.842	14.2
298.309	14.5
298.776	10.8
299.243	14.4
299.71	8.3
300.177	14.7
300.644	18.4
301.111	14.6
301.578	21
302.045	8.4
302.512	22.3
302.979	18.3
303.446	21.9
303.913	12.8
304.379	19.9
304.846	24.7
305.313	16.6
305.78	17.6
306.246	22.3
306.713	19
307.18	15.8
307.646	21.2
308.113	20.5
308.579	22.9
309.046	21.1
309.512	24.9
309.979	14.1
310.445	24.9
310.912	22.8
311.378	27.3
311.845	26
312.311	21.1
312.777	28
313.244	22.7
313.71	33.8
314.176	19
314.642	22.6
315.109	25.3
315.575	30.1
316.041	26.9
316.507	19.9
316.973	27.7
317.439	28.3
317.905	33.8
318.371	25.6
318.837	31.6
319.303	37.3
319.769	27.5
320.235	23.7
320.701	33.1
321.167	34.3
321.633	31.3
322.099	33.8
322.564	38.1
323.03	33.6
323.496	30.6
323.962	30
324.427	29.4
324.893	38.2
325.359	30.8
325.824	33.8
326.29	28.7
326.755	30.3
327.221	36.2
327.686	35.8
328.152	37.8
328.617	34.3
329.083	39.7
329.548	46.2
330.014	43.6
330.479	35.8
330.944	34.2
331.41	30.8
331.875	42.5
332.34	38.3
332.805	36.1
333.271	39.4
333.736	36
334.201	34.1
334.666	44.2
335.131	47.3
335.596	51.7
336.061	46.6
336.526	34.4
336.991	44.6
337.456	49.3
337.921	42.7
338.386	43.2
338.851	37.6
339.316	39.8
339.781	43.5
340.246	41.7
340.711	38.2
341.175	52.7
341.64	36
342.105	43.3
342.569	50.5
343.034	52.4
343.499	49.7
343.963	45.7
344.428	54.4
344.893	48.4
345.357	57.1
345.822	52.2
346.286	64.2
346.751	59.5
347.215	57.5
347.679	66.5
348.144	82.7
348.608	66.9
349.073	58.6
349.537	63.1
350.001	73.6
350.465	80.6
350.93	79.4
351.394	73.3
351.858	69.2
352.322	76.9
352.786	69.6
353.25	90.7
353.715	90.7
354.179	82.7
354.643	106.7
355.107	114.6
355.571	88
356.035	87.9
356.498	98.2
356.962	93.1
357.426	107.1
357.89	93.3
358.354	77.9
358.818	72.8
359.281	64.2
359.745	68.3
360.209	67.1
360.673	71.2
361.136	76.2
361.6	80.8
362.064	75.2
362.527	73.9
362.991	83.8
363.454	69.9
363.918	73.9
364.381	71.4
364.845	71.3
365.308	81.7
365.772	79.1
366.235	81.9
366.698	84
367.162	75.6
367.625	71.3
368.088	82.3
368.552	82.6
369.015	82.4
369.478	84.8
369.941	95.5
370.404	87.8
370.867	93.3
371.331	94.4
371.794	101.4
372.257	94
372.72	92.4
373.183	96.5
373.646	86
374.109	89.1
374.572	88
375.035	100.5
375.497	96.3
375.96	92.9
376.423	95.4
376.886	94.5
377.349	100.1
377.811	92.5
378.274	96.8
378.737	94.1
379.199	102.1
379.662	103.3
380.125	103.7
380.587	101.5
381.05	102.5
381.512	108.6
381.975	115.4
382.437	116.6
382.9	107
383.362	117.3
383.825	124.9
384.287	114.8
384.75	109.6
385.212	118.3
385.674	130
386.136	121.1
386.599	107.1
387.061	116.6
387.523	112.9
387.985	119.2
388.447	122.4
388.91	121.9
389.372	126.4
389.834	132.5
390.296	122.7
390.758	120.9
391.22	132.9
391.682	138.4
392.144	151.5
392.606	142.9
393.068	137
393.529	148
393.991	145.1
394.453	124.2
394.915	129.7
395.377	123.5
395.838	141.7
396.3	133.4
396.762	135.7
397.224	130.1
397.685	120.5
398.147	133.5
398.608	124.8
399.07	133
399.531	125.8
399.993	143.1
400.454	155.4
400.916	147.2
401.377	136.5
401.839	152.2
402.3	150.5
402.762	159.2
403.223	174.9
403.684	162.2
404.145	160.2
404.607	155.8
405.068	157.2
405.529	160.4
405.99	170.5
406.451	171
406.913	165
407.374	161.3
407.835	162.7
408.296	166.9
408.757	169.5
409.218	180.9
409.679	176.4
410.14	170.9
410.601	172.3
411.062	178
411.522	181.2
411.983	186.8
412.444	179.3
412.905	177.1
413.366	187
413.826	197
414.287	227.5
414.748	265.4
415.208	256.9
415.669	222.5
416.13	212.3
416.59	208.1
417.051	217.1
417.511	229.1
417.972	241.9
418.432	259.8
418.893	293.2
419.353	254.8
419.814	202.9
420.274	189.2
420.734	189.1
421.195	203
421.655	198.1
422.115	197.9
422.576	195.9
423.036	208.1
423.496	207.8
423.956	219.4
424.416	234.8
424.876	265.1
425.336	254.4
425.797	258.7
426.257	261.5
426.717	244.1
427.177	234.9
427.637	224.7
428.097	235.7
428.556	248.3
429.016	270.7
429.476	261.8
429.936	271.9
430.396	277.6
430.856	288.4
431.315	315.6
431.775	342.5
432.235	372
432.694	345.3
433.154	355.5
433.614	381.4
434.073	322.1
434.533	279.6
434.993	267.7
435.452	281.1
435.912	284.9
436.371	284.6
436.83	278.8
437.29	259.3
437.749	248
438.209	239.2
438.668	269.9
439.127	290.1
439.587	261.9
440.046	247.3
440.505	263.8
440.964	279.3
441.424	324.7
441.883	308.3
442.342	264
442.801	234.5
443.26	228.3
443.719	235.4
444.178	224.6
444.637	218.8
445.096	223.2
445.555	240.7
446.014	237.6
446.473	243.4
446.932	246.4
447.391	237.1
447.849	236.8
448.308	224.5
448.767	230.2
449.226	238.1
449.685	252
450.143	258.4
450.602	245
451.061	232.6
451.519	242.8
451.978	241.7
452.436	248
452.895	240.4
453.353	261.6
453.812	250.5
454.27	251.5
454.729	244.8
455.187	254.6
455.646	264.8
456.104	257.3
456.562	272.6
457.021	279.4
457.479	269.2
457.937	278.5
458.395	278.5
458.854	257.9
459.312	266.4
459.77	290.7
460.228	263.6
460.686	253.2
461.144	261.9
461.602	260.4
462.06	259.6
462.518	266.5
462.976	277.3
463.434	275.1
463.892	277.2
464.35	290.5
464.808	305.2
465.266	288.8
465.724	285.1
466.181	288.2
466.639	283.2
467.097	303.2
467.555	313.3
468.012	317.5
468.47	319.5
468.928	345.8
469.385	358.7
469.843	366.1
470.3	371.4
470.758	374.6
471.215	395.3
471.673	414.3
472.13	419
472.588	430.4
473.045	389.2
473.503	400.9
473.96	412.3
474.417	414.5
474.875	452.9
475.332	490.4
475.789	476.4
476.246	491.7
476.704	504.7
477.161	525.8
477.618	539.2
478.075	574
478.532	629
478.989	697.8
479.446	815.4
479.903	777.5
480.36	810
480.817	862.6
481.274	944.7
481.731	1043.2
482.188	1127.7
482.645	1244.2
483.102	1343.1
483.558	1458.4
484.015	1509.2
484.472	1460
484.929	1428.4
485.385	1393.2
485.842	1350.5
486.299	1314.2
486.755	1260.9
487.212	1066.9
487.668	920.2
488.125	857.2
488.582	788.9
489.038	752.2
489.494	724.2
489.951	696.3
490.407	685.7
490.864	665.5
491.32	665.8
491.776	672.2
492.233	671.9
492.689	632.1
493.145	634.4
493.602	627.1
494.058	636.6
494.514	639.9
494.97	663.7
495.426	674.7
495.882	644
496.338	637.7
496.794	648.5
497.251	635.5
497.707	663.8
498.163	666.3
498.618	663.1
499.074	669.1
499.53	693.4
499.986	698.4
500.442	667.4
500.898	660.2
501.354	642
501.809	652.1
502.265	653.7
502.721	658.6
503.177	678.9
503.632	666.9
504.088	674.8
504.543	704.2
504.999	720.7
505.455	683.9
505.91	673.5
506.366	673.8
506.821	670.8
507.277	665.5
507.732	663.4
508.187	661.3
508.643	674.4
509.098	680
509.553	696.3
510.009	707.8
510.464	714.8
510.919	727.9
511.375	727.9
511.83	756.4
512.285	760.4
512.74	793.1
513.195	827.3
513.65	803.1
514.105	808.8
514.56	796.4
515.015	831.4
515.47	840.1
515.925	825
516.38	820.6
516.835	831.2
517.29	812.7
517.745	806.7
518.2	798.9
518.655	794.6
519.109	782.4
519.564	786.1
520.019	758.7
520.474	761.2
520.928	766
521.383	759.8
521.838	753.9
522.292	750.4
522.747	756.2
523.201	743.2
523.656	732.7
524.11	727.2
524.565	732.9
525.019	729.2
525.474	739.2
525.928	732.2
526.382	733.3
526.837	741.8
527.291	738.5
527.745	735
528.2	736.4
528.654	731.4
529.108	719.8
529.562	729.3
530.016	730.6
530.47	728.3
530.925	728.5
531.379	728.2
531.833	742
532.287	744.6
532.741	736
533.195	746.3
533.649	750.3
534.103	750.7
534.556	745.4
535.01	745.8
535.464	744.6
535.918	756.1
536.372	759.8
536.826	746
537.279	745.2
537.733	760.3
538.187	762.2
538.64	748.1
539.094	769.8
539.548	776.8
540.001	770.5
540.455	762.4
540.908	770.6
541.362	775
541.815	798.7
542.269	798.6
542.722	795.4
543.175	809
543.629	802.4
544.082	828.9
544.536	842.2
544.989	821.4
545.442	845.6
545.895	834.5
546.349	832.7
546.802	838.3
547.255	845.1
547.708	850.1
548.161	864
548.614	872.9
549.067	880.5
549.52	859.9
549.973	858.8
550.426	844.6
550.879	838.8
551.332	842.7
551.785	855.9
552.238	848.6
552.691	872.7
553.144	879.8
553.596	905.6
554.049	911.4
554.502	946.7
554.955	963.9
555.407	953.9
555.86	969.1
556.313	944.5
556.765	931.7
557.218	931.4
557.67	941
558.123	928.2
558.576	929
559.028	934.7
559.48	937
559.933	922.3
560.385	887.1
560.838	859
561.29	838.4
561.742	830.5
562.195	817.8
562.647	816.1
563.099	821.4
563.551	814.5
564.004	833.3
564.456	817.4
564.908	805.3
565.36	792.8
565.812	768.6
566.264	756.3
566.716	756
567.168	733.3
567.62	750.6
568.072	740.4
568.524	737
568.976	734
569.428	708.4
569.88	717.1
570.332	712.9
570.784	721.8
571.235	732.3
571.687	740.5
572.139	750.2
572.59	747.1
573.042	755.8
573.494	757.3
573.945	743.4
574.397	727.5
574.849	736.2
575.3	729.6
575.752	716.1
576.203	717.4
576.655	728.4
577.106	712.6
577.557	714.1
578.009	711.1
578.46	708.8
578.912	700.4
579.363	707.6
579.814	712.8
580.265	705.1
580.717	692.9
581.168	712.9
581.619	711.4
582.07	730.1
582.521	718.1
582.972	713.2
583.423	707.6
583.875	705.1
584.326	714.2
584.777	726.7
585.227	761.5
585.678	771.1
586.129	785.8
586.58	815.5
587.031	837.7
587.482	874.9
587.933	902.6
588.384	880.3
588.834	832.7
589.285	811.1
589.736	805.7
590.186	822.9
590.637	809.3
591.088	784.5
591.538	778.5
591.989	768.7
592.439	766.4
592.89	750.1
593.34	752.1
593.791	744.8
594.241	734.3
594.692	733.1
595.142	740.3
595.593	729.5
596.043	740.9
596.493	744.1
596.943	737.4
597.394	758.3
597.844	759.9
598.294	775.1
598.744	796.7
599.195	818.3
599.645	870.7
600.095	908.1
600.545	973
600.995	1016.2
601.445	1075.5
601.895	1143
602.345	1204.1
602.795	1175.5
603.245	1129.3
603.695	1074.7
604.145	1013.7
604.594	954.5
605.044	907.5
605.494	845.4
605.944	794.3
606.393	784
606.843	762.1
607.293	768.9
607.743	773.8
608.192	764.4
608.642	784.8
609.091	796
609.541	803.8
609.99	800.3
610.44	793.8
610.889	759.2
611.339	736.9
611.788	711.6
612.238	722
612.687	734.4
613.136	725.2
613.586	748.6
614.035	742.8
614.484	748.4
614.933	749
615.383	747.1
615.832	736.7
616.281	726
616.73	705.6
617.179	688
617.628	670.8
618.077	656.9
618.526	652.4
618.975	654.8
619.424	656.1
619.873	639.9
620.322	647.7
620.771	639
621.22	634.8
621.669	623.1
622.118	602.5
622.567	609.5
623.015	601.6
623.464	599.5
623.913	598.1
624.361	577.6
624.81	578.9
625.259	572.2
625.707	582.6
626.156	576
626.604	592.3
627.053	595.2
627.501	594
627.95	591.3
628.398	612.2
628.847	599.3
629.295	603.7
629.744	599.2
630.192	586.2
630.64	594.1
631.089	564.8
631.537	571
631.985	548.7
632.433	553.9
632.881	557.9
633.33	570.7
633.778	549.9
634.226	547.8
634.674	558.2
635.122	561.7
635.57	579.3
636.018	581.9
636.466	583.4
636.914	581.1
637.362	596.7
637.81	597.2
638.258	598.9
638.705	611.2
639.153	632.3
639.601	650.8
640.049	676.4
640.497	692.3
640.944	728
641.392	675
641.84	643.9
642.287	613.6
642.735	593.9
643.182	591.8
643.63	587.6
644.078	597.4
644.525	594
644.973	599.5
645.42	613.6
645.867	640.9
646.315	657
646.762	680.4
647.21	698.1
647.657	727.8
648.104	768.4
648.551	788.4
648.999	837
649.446	917.2
649.893	1003
650.34	1153
650.787	1357.8
651.234	1667.5
651.682	2141.2
652.129	2917.7
652.576	4151.7
653.023	6012.9
653.47	8148.5
653.917	10139.2
654.363	11668.9
654.81	12904.4
655.257	12188.2
655.704	8085.1
656.151	4896.7
656.598	3212.5
657.044	2303.1
657.491	1781.7
657.938	1444.6
658.385	1219.2
658.831	1062.7
659.278	960.9
659.724	865.3
660.171	797.6
660.618	731
661.064	694.3
661.511	681
661.957	672.8
662.404	666
662.85	670.6
663.296	645.1
663.743	587.3
664.189	553.1
664.635	552.3
665.082	545.2
665.528	537.8
665.974	540.6
666.42	525.5
666.867	525.1
667.313	500.8
667.759	484.4
668.205	461.5
668.651	472.1
669.097	469.4
669.543	456.6
669.989	462.6
670.435	461.1
670.881	460.2
671.327	468.9
671.773	489.8
672.219	519.5
672.665	571
673.11	614.8
673.556	659.7
674.002	700.5
674.448	696
674.893	575.1
675.339	499.6
675.785	458.7
676.23	436.9
676.676	411.7
677.122	397.2
677.567	397.4
678.013	388.3
678.458	373.5
678.904	381.9
679.349	370.4
679.794	370.9
680.24	367.8
680.685	367
681.131	361
681.576	363
682.021	375.5
682.466	370.3
682.912	366.4
683.357	374.4
683.802	393.8
684.247	425.4
684.692	469.6
685.137	514.8
685.583	557.9
686.028	586.5
686.473	545.1
686.918	472.7
687.363	440
687.807	418.7
688.252	385.8
688.697	377.2
689.142	355.9
689.587	355.2
690.032	350.1
690.477	355.8
690.921	362.9
691.366	401.9
691.811	431.4
692.255	451.8
692.7	481.8
693.145	526.3
693.589	741.2
694.034	1203.1
694.478	1633.4
694.923	1833.2
695.367	2380.2
695.812	1267
696.256	529.7
696.701	395.4
697.145	357.7
697.59	350.8
698.034	333
698.478	343.7
698.922	336
699.367	339.1
699.811	348.8
700.255	367.1
700.699	404.3
701.143	443.6
701.588	490.9
702.032	533.4
702.476	530.4
702.92	518.3
703.364	525.1
703.808	682.5
704.252	1099.1
704.696	1537.2
705.14	1760.3
705.584	2249
706.027	1121.1
706.471	548.9
706.915	421.5
707.359	366.6
707.803	335.4
708.246	322.8
708.69	322.3
709.134	329
709.577	322
710.021	324.4
710.465	330.4
710.908	314.8
711.352	306.3
711.795	330.9
712.239	365.3
712.682	408
713.126	433.1
713.569	471.6
714.012	380.8
714.456	319.4
714.899	300
715.342	285.1
715.786	278.1
716.229	275.1
716.672	266.6
717.115	258.2
717.558	261.6
718.002	259
718.445	283.7
718.888	293.2
719.331	306.8
719.774	327.3
720.217	317
720.66	299
721.103	280.4
721.546	275.8
721.989	258.6
722.432	247.1
722.874	253.5
723.317	246.1
723.76	246
724.203	270.1
724.645	330
725.088	474.4
725.531	599.6
725.974	679.4
726.416	580
726.859	330.1
727.301	258.7
727.744	237.7
728.187	238
728.629	251
729.071	261.8
729.514	271.3
729.956	289.1
730.399	301.8
730.841	306.2
731.283	292.4
731.726	280.1
732.168	275.8
732.61	272.5
733.053	293.2
733.495	337.8
733.937	370
734.379	421.2
734.821	462.2
735.263	577
735.705	884.2
736.148	1688.8
736.59	2733.1
737.032	3241
737.474	2634.5
737.916	854.8
738.357	455.4
738.799	350.1
739.241	317.7
739.683	305.4
740.125	307.7
740.567	313.6
741.008	330.1
741.45	330.9
741.892	330.8
742.334	367
742.775	381.3
743.217	369.7
743.658	284
744.1	271.3
744.542	281.2
744.983	326.4
745.425	362.3
745.866	365.1
746.307	303.1
746.749	287.9
747.19	355.2
747.632	483.1
748.073	939.7
748.514	1984.7
748.956	3046.2
749.397	3779.1
749.838	3158.8
750.279	3109.3
750.72	1587.9
751.162	583
751.603	346.4
752.044	263.9
752.485	234.4
752.926	214.3
753.367	211.2
753.808	211
754.249	200.5
754.69	192.8
755.131	185.5
755.572	184.1
756.013	188.4
756.453	192.5
756.894	195.4
757.335	197.5
757.776	209.2
758.216	209.3
758.657	209
759.098	216.6
759.538	240.1
759.979	280.3
760.42	388.8
760.86	752.7
761.301	1960.2
761.741	4698.8
762.182	6770.3
762.622	4793.5
763.063	1394.3
763.503	567.8
763.943	345.4
764.384	286.1
764.824	258.3
765.264	246.4
765.705	226.3
766.145	191.2
766.585	185.1
767.025	181.7
767.465	171.2
767.906	188.2
768.346	204.9
768.786	211.9
769.226	222.8
769.666	321.8
770.106	657
770.546	1635.8
770.986	2800.1
771.426	2488.8
771.866	832.8
772.306	342.4
772.745	216.8
773.185	176.2
773.625	173.8
774.065	160.6
774.505	169.7
774.944	219.3
775.384	389.2
775.824	623.5
776.263	604.3
776.703	298.8
777.142	167.1
777.582	132.9
778.021	126.6
778.461	130.9
778.9	133
779.34	130.6
779.779	118.3
780.219	109.2
780.658	116.7
781.097	116.1
781.537	121.2
781.976	112.7
782.415	110.8
782.855	114.5
783.294	105.5
783.733	107.8
784.172	117
784.611	103.9
785.05	106.9
785.489	112.8
785.928	124.1
786.367	127.4
786.806	121.4
787.245	132.7
787.684	144.3
788.123	152.5
788.562	147.1
789.001	133.7
789.44	131.2
789.879	126.5
790.317	124.3
790.756	129.7
791.195	129.4
791.634	157.4
792.072	211.4
792.511	393.7
792.95	1066.8
793.388	2233.4
793.827	2016
794.265	712.2
794.704	304
795.142	200.7
795.581	155.9
796.019	143.6
796.458	134.8
796.896	127.2
797.334	138
797.773	169.1
798.211	231.8
798.649	468
799.087	1080
799.526	1687.4
799.964	2123.3
800.402	2125
800.84	797.6
801.278	324.3
801.716	202.4
802.154	160.1
802.592	155.8
803.03	149.8
803.468	144
803.906	151.4
804.344	163.2
804.782	148.7
805.22	142.8
805.658	141
806.096	158.3
806.533	170.9
806.971	184
807.409	224
807.847	332.6
808.284	710
808.722	1993.2
