Data from 20171114-ORNL-Ar_H_NY_Subt18_08-09-16-044.txt Node
Date: Tue Nov 14 08:09:16 EST 2017
User: Ender
Spectrometer: HR+D1039
Trigger mode: 0
Integration Time (sec): 2.730000E-2
Scans to average: 10
Electric dark correction enabled: true
Nonlinearity correction enabled: false
Boxcar width: 0
XAxis mode: Wavelengths
Number of Pixels in Spectrum: 2048
>>>>>Begin Spectral Data<<<<<
187.836	-4.16
188.309	-4.16
188.782	-4.16
189.255	0.64
189.728	-1.46
190.201	8.14
190.674	-1.06
191.147	1.34
191.619	-4.86
192.092	1.84
192.565	1.04
193.038	-1.76
193.511	-1.26
193.984	1.04
194.456	1.04
194.929	3.74
195.402	-1.26
195.874	-3.06
196.347	-4.56
196.82	-8.46
197.292	0.34
197.765	-3.96
198.237	-6.46
198.71	-1.36
199.182	-2.36
199.655	1.04
200.127	1.84
200.6	-4.86
201.072	-2.36
201.544	-3.06
202.017	-3.76
202.489	1.44
202.961	-6.46
203.433	-4.76
203.906	-4.46
204.378	-4.46
204.85	-7.06
205.322	-8.76
205.794	-4.36
206.266	-1.66
206.739	-10.96
207.211	-5.46
207.683	-7.96
208.155	-8.16
208.627	-6.26
209.099	-5.06
209.57	-10.96
210.042	-9.16
210.514	-6.86
210.986	-4.16
211.458	-8.66
211.93	-9.16
212.402	5.84
212.873	-1.66
213.345	-10.76
213.817	-8.46
214.288	-6.76
214.76	-12.46
215.232	-4.96
215.703	-5.66
216.175	-8.66
216.646	-3.46
217.118	-11.86
217.589	-5.56
218.061	-4.96
218.532	-8.66
219.004	-6.76
219.475	-9.66
219.946	-4.06
220.418	-9.76
220.889	3.84
221.36	-1.26
221.832	-5.96
222.303	-12.96
222.774	-5.46
223.245	-11.76
223.717	-8.46
224.188	-2.56
224.659	-9.76
225.13	-9.96
225.601	-7.26
226.072	1.64
226.543	-2.36
227.014	-5.66
227.485	-1.06
227.956	-8.06
228.427	-1.96
228.898	-0.26
229.369	2.44
229.839	-6.66
230.31	-5.76
230.781	-0.06
231.252	-2.66
231.722	-6.46
232.193	-6.26
232.664	-5.76
233.135	-7.66
233.605	-0.66
234.076	-10.36
234.546	-7.56
235.017	-1.46
235.487	1.14
235.958	-3.36
236.428	-12.36
236.899	-4.26
237.369	-0.66
237.84	-7.46
238.31	1.34
238.78	0.04
239.251	-10.96
239.721	-2.16
240.191	-1.16
240.662	-6.36
241.132	-4.26
241.602	-4.36
242.072	-2.86
242.542	-1.26
243.013	-4.36
243.483	2.44
243.953	-2.76
244.423	-2.66
244.893	-12.76
245.363	-1.46
245.833	-4.86
246.303	-4.56
246.773	0.64
247.243	-2.26
247.712	-2.16
248.182	-1.06
248.652	0.34
249.122	-10.76
249.592	0.64
250.061	-1.66
250.531	8.54
251.001	-1.96
251.471	2.74
251.94	0.94
252.41	-0.26
252.879	-8.56
253.349	0.64
253.818	3.04
254.288	-2.76
254.757	0.34
255.227	-8.36
255.696	-5.86
256.166	-0.56
256.635	1.04
257.105	3.64
257.574	-3.96
258.043	-0.76
258.513	-5.46
258.982	0.84
259.451	-6.26
259.92	2.64
260.389	-1.96
260.859	5.94
261.328	-3.16
261.797	-3.46
262.266	-5.46
262.735	-3.36
263.204	-4.16
263.673	-6.46
264.142	3.94
264.611	-7.96
265.08	-2.76
265.549	-4.86
266.018	-0.66
266.487	-5.16
266.955	-1.96
267.424	-0.66
267.893	3.44
268.362	-9.76
268.83	1.84
269.299	0.24
269.768	-1.96
270.236	1.74
270.705	1.64
271.174	1.74
271.642	2.14
272.111	-8.06
272.579	4.24
273.048	-4.16
273.516	-2.86
273.985	0.14
274.453	-2.06
274.922	12.14
275.39	4.94
275.858	-3.56
276.327	3.74
276.795	15.64
277.263	0.64
277.731	10.94
278.2	6.84
278.668	4.04
279.136	3.94
279.604	1.54
280.072	5.94
280.54	2.34
281.008	0.84
281.477	4.74
281.945	4.14
282.413	5.04
282.881	6.84
283.348	1.24
283.816	3.94
284.284	8.44
284.752	11.94
285.22	8.34
285.688	9.94
286.156	2.44
286.623	13.94
287.091	10.24
287.559	9.24
288.026	2.94
288.494	7.64
288.962	-1.86
289.429	-2.96
289.897	8.64
290.364	4.34
290.832	11.64
291.3	2.34
291.767	6.14
292.234	12.24
292.702	6.04
293.169	2.04
293.637	12.04
294.104	9.44
294.571	-3.06
295.039	8.44
295.506	7.64
295.973	12.64
296.44	2.14
296.908	9.74
297.375	0.04
297.842	7.24
298.309	8.94
298.776	7.34
299.243	8.04
299.71	0.54
300.177	15.64
300.644	11.64
301.111	9.04
301.578	10.44
302.045	-0.86
302.512	9.84
302.979	19.54
303.446	20.34
303.913	5.54
304.379	12.04
304.846	19.04
305.313	17.84
305.78	13.14
306.246	19.64
306.713	14.44
307.18	11.74
307.646	12.74
308.113	14.04
308.579	12.74
309.046	20.94
309.512	17.34
309.979	7.94
310.445	18.14
310.912	19.54
311.378	21.24
311.845	18.64
312.311	17.44
312.777	18.84
313.244	17.64
313.71	24.34
314.176	12.84
314.642	17.84
315.109	17.84
315.575	25.64
316.041	25.74
316.507	17.44
316.973	24.64
317.439	20.94
317.905	23.94
318.371	26.54
318.837	25.44
319.303	21.64
319.769	19.64
320.235	18.54
320.701	25.04
321.167	22.44
321.633	15.84
322.099	25.04
322.564	26.24
323.03	25.64
323.496	20.44
323.962	26.54
324.427	26.34
324.893	33.34
325.359	23.34
325.824	22.24
326.29	24.24
326.755	23.74
327.221	26.54
327.686	25.24
328.152	32.14
328.617	26.14
329.083	30.84
329.548	37.34
330.014	38.34
330.479	28.34
330.944	24.74
331.41	31.54
331.875	33.34
332.34	30.74
332.805	30.04
333.271	31.74
333.736	22.64
334.201	32.64
334.666	41.24
335.131	40.84
335.596	37.54
336.061	38.34
336.526	27.44
336.991	30.24
337.456	40.54
337.921	29.44
338.386	34.84
338.851	31.14
339.316	32.54
339.781	40.24
340.246	39.64
340.711	42.14
341.175	43.04
341.64	36.34
342.105	39.54
342.569	41.64
343.034	45.14
343.499	45.54
343.963	39.54
344.428	50.24
344.893	49.94
345.357	48.74
345.822	49.24
346.286	50.94
346.751	49.04
347.215	52.24
347.679	55.34
348.144	68.04
348.608	54.94
349.073	53.54
349.537	58.84
350.001	55.24
350.465	72.14
350.93	62.54
351.394	54.64
351.858	51.94
352.322	64.34
352.786	58.54
353.25	80.34
353.715	82.44
354.179	71.84
354.643	89.34
355.107	96.14
355.571	78.44
356.035	77.44
356.498	86.24
356.962	81.74
357.426	98.54
357.89	89.94
358.354	69.24
358.818	67.14
359.281	71.34
359.745	59.84
360.209	56.24
360.673	63.84
361.136	63.24
361.6	68.54
362.064	62.04
362.527	69.54
362.991	74.44
363.454	68.04
363.918	60.14
364.381	58.24
364.845	65.94
365.308	69.24
365.772	71.64
366.235	75.64
366.698	65.14
367.162	75.44
367.625	71.74
368.088	69.44
368.552	69.84
369.015	77.24
369.478	81.94
369.941	81.94
370.404	73.34
370.867	84.84
371.331	88.04
371.794	93.04
372.257	78.44
372.72	93.34
373.183	88.94
373.646	72.64
374.109	84.24
374.572	85.74
375.035	88.44
375.497	90.04
375.96	82.64
376.423	88.74
376.886	90.64
377.349	90.54
377.811	89.84
378.274	97.04
378.737	86.74
379.199	90.74
379.662	96.24
380.125	94.54
380.587	91.24
381.05	89.94
381.512	94.34
381.975	111.44
382.437	103.94
382.9	104.34
383.362	109.14
383.825	111.74
384.287	105.04
384.75	102.34
385.212	112.04
385.674	115.84
386.136	110.24
386.599	106.64
387.061	112.84
387.523	105.74
387.985	113.34
388.447	119.84
388.91	107.24
389.372	117.04
389.834	113.54
390.296	110.74
390.758	120.14
391.22	119.34
391.682	133.64
392.144	143.34
392.606	128.64
393.068	129.24
393.529	133.04
393.991	132.04
394.453	118.54
394.915	121.04
395.377	123.34
395.838	128.74
396.3	127.04
396.762	123.44
397.224	120.04
397.685	112.84
398.147	124.44
398.608	114.64
399.07	118.94
399.531	123.84
399.993	123.54
400.454	140.04
400.916	133.14
401.377	128.94
401.839	140.14
402.3	135.34
402.762	149.44
403.223	161.04
403.684	157.24
404.145	149.44
404.607	147.04
405.068	150.84
405.529	148.84
405.99	167.14
406.451	161.64
406.913	160.54
407.374	150.34
407.835	146.74
408.296	151.34
408.757	154.94
409.218	167.74
409.679	160.24
410.14	157.64
410.601	153.34
411.062	170.84
411.522	168.44
411.983	166.44
412.444	161.14
412.905	167.64
413.366	169.94
413.826	183.94
414.287	204.04
414.748	253.04
415.208	237.84
415.669	203.24
416.13	199.34
416.59	202.64
417.051	204.74
417.511	209.14
417.972	225.94
418.432	239.14
418.893	280.54
419.353	235.64
419.814	190.14
420.274	174.94
420.734	172.54
421.195	188.64
421.655	184.94
422.115	183.64
422.576	181.74
423.036	185.84
423.496	198.34
423.956	207.34
424.416	223.24
424.876	251.34
425.336	247.24
425.797	252.44
426.257	239.04
426.717	225.14
427.177	221.74
427.637	208.04
428.097	217.14
428.556	226.04
429.016	263.64
429.476	249.64
429.936	257.84
430.396	262.94
430.856	272.04
431.315	288.94
431.775	323.14
432.235	358.94
432.694	326.44
433.154	337.34
433.614	368.34
434.073	316.64
434.533	267.04
434.993	254.54
435.452	259.24
435.912	272.74
436.371	267.84
436.83	261.04
437.29	257.14
437.749	228.74
438.209	235.74
438.668	255.14
439.127	266.54
439.587	249.44
440.046	235.74
440.505	247.44
440.964	255.24
441.424	300.04
441.883	293.84
442.342	255.64
442.801	213.74
443.26	216.74
443.719	217.24
444.178	219.54
444.637	201.64
445.096	224.74
445.555	224.84
446.014	219.04
446.473	227.34
446.932	225.74
447.391	216.04
447.849	231.44
448.308	214.64
448.767	218.94
449.226	231.44
449.685	235.14
450.143	244.54
450.602	237.64
451.061	220.24
451.519	228.64
451.978	228.04
452.436	225.64
452.895	233.34
453.353	251.84
453.812	224.34
454.27	230.44
454.729	235.24
455.187	238.94
455.646	239.14
456.104	245.14
456.562	254.84
457.021	267.44
457.479	253.84
457.937	271.04
458.395	260.14
458.854	238.44
459.312	254.84
459.77	270.74
460.228	252.44
460.686	241.34
461.144	250.64
461.602	247.04
462.06	239.04
462.518	253.54
462.976	258.94
463.434	255.74
463.892	262.14
464.35	275.04
464.808	280.54
465.266	263.84
465.724	269.34
466.181	280.14
466.639	259.04
467.097	284.74
467.555	292.04
468.012	303.94
468.47	307.04
468.928	331.04
469.385	335.74
469.843	339.94
470.3	342.24
470.758	351.84
471.215	374.64
471.673	393.24
472.13	400.64
472.588	410.64
473.045	367.24
473.503	369.44
473.96	394.14
474.417	400.54
474.875	417.54
475.332	462.74
475.789	451.34
476.246	463.94
476.704	474.54
477.161	499.94
477.618	512.74
478.075	547.54
478.532	597.84
478.989	661.64
479.446	754.74
479.903	736.84
480.36	761.54
480.817	811.44
481.274	902.14
481.731	980.24
482.188	1060.54
482.645	1179.84
483.102	1253.34
483.558	1383.04
484.015	1413.94
484.472	1393.44
484.929	1338.44
485.385	1307.64
485.842	1289.74
486.299	1236.54
486.755	1195.64
487.212	1026.44
487.668	869.34
488.125	810.24
488.582	747.34
489.038	717.84
489.494	681.24
489.951	657.14
490.407	643.64
490.864	630.74
491.32	623.44
491.776	629.54
492.233	634.54
492.689	603.74
493.145	602.54
493.602	590.74
494.058	604.74
494.514	600.44
494.97	623.14
495.426	629.04
495.882	612.44
496.338	594.34
496.794	603.74
497.251	598.54
497.707	614.44
498.163	622.14
498.618	624.84
499.074	630.64
499.53	649.94
499.986	660.64
500.442	635.04
500.898	609.54
501.354	608.44
501.809	611.24
502.265	605.64
502.721	626.84
503.177	630.84
503.632	627.94
504.088	646.34
504.543	658.14
504.999	679.74
505.455	644.74
505.91	631.34
506.366	638.44
506.821	618.24
507.277	624.94
507.732	624.34
508.187	630.04
508.643	631.74
509.098	636.64
509.553	658.44
510.009	662.74
510.464	673.24
510.919	695.14
511.375	686.94
511.83	702.84
512.285	715.54
512.74	751.24
513.195	765.24
513.65	761.24
514.105	760.14
514.56	764.24
515.015	776.74
515.47	778.54
515.925	779.04
516.38	775.04
516.835	777.14
517.29	777.94
517.745	772.54
518.2	771.04
518.655	745.14
519.109	732.34
519.564	733.34
520.019	728.14
520.474	715.24
520.928	723.54
521.383	709.64
521.838	711.94
522.292	708.94
522.747	709.54
523.201	701.04
523.656	700.54
524.11	693.94
524.565	700.64
525.019	684.64
525.474	700.84
525.928	695.94
526.382	690.04
526.837	692.74
527.291	687.54
527.745	688.84
528.2	696.34
528.654	690.04
529.108	690.54
529.562	694.14
530.016	680.54
530.47	691.94
530.925	689.84
531.379	691.14
531.833	687.94
532.287	683.74
532.741	695.94
533.195	693.24
533.649	704.54
534.103	717.64
534.556	706.24
535.01	710.44
535.464	699.64
535.918	705.94
536.372	709.24
536.826	713.74
537.279	693.74
537.733	709.24
538.187	705.54
538.64	701.04
539.094	724.74
539.548	730.74
540.001	727.54
540.455	736.04
540.908	723.24
541.362	734.34
541.815	738.74
542.269	757.74
542.722	754.34
543.175	774.34
543.629	776.64
544.082	787.94
544.536	781.44
544.989	784.44
545.442	790.24
545.895	795.84
546.349	803.04
546.802	798.54
547.255	801.44
547.708	801.04
548.161	815.14
548.614	818.74
549.067	834.64
549.52	818.04
549.973	816.94
550.426	814.24
550.879	796.14
551.332	814.24
551.785	808.84
552.238	820.34
552.691	831.84
553.144	835.04
553.596	849.24
554.049	861.74
554.502	897.84
554.955	913.94
555.407	903.84
555.86	906.04
556.313	887.14
556.765	876.64
557.218	884.24
557.67	880.34
558.123	886.44
558.576	877.44
559.028	881.24
559.48	882.94
559.933	878.54
560.385	835.54
560.838	809.44
561.29	792.84
561.742	788.34
562.195	773.74
562.647	782.14
563.099	783.14
563.551	774.74
564.004	784.54
564.456	773.44
564.908	759.34
565.36	744.14
565.812	734.54
566.264	728.94
566.716	713.34
567.168	701.04
567.62	712.44
568.072	701.44
568.524	693.74
568.976	692.84
569.428	689.74
569.88	687.14
570.332	691.44
570.784	689.04
571.235	686.34
571.687	709.64
572.139	713.24
572.59	716.14
573.042	715.74
573.494	717.94
573.945	714.54
574.397	697.44
574.849	688.64
575.3	696.34
575.752	680.84
576.203	677.74
576.655	687.84
577.106	682.64
577.557	665.84
578.009	680.04
578.46	674.34
578.912	666.64
579.363	671.74
579.814	660.34
580.265	670.14
580.717	668.14
581.168	670.44
581.619	680.04
582.07	681.44
582.521	673.14
582.972	666.74
583.423	679.44
583.875	690.24
584.326	690.94
584.777	695.64
585.227	732.64
585.678	746.74
586.129	767.94
586.58	799.34
587.031	815.84
587.482	871.34
587.933	894.64
588.384	864.54
588.834	803.44
589.285	782.74
589.736	782.24
590.186	773.74
590.637	769.24
591.088	753.74
591.538	751.74
591.989	743.44
592.439	719.04
592.89	730.94
593.34	706.34
593.791	714.74
594.241	704.84
594.692	707.14
595.142	698.44
595.593	699.34
596.043	714.74
596.493	712.74
596.943	712.34
597.394	726.94
597.844	730.84
598.294	745.64
598.744	771.04
599.195	797.54
599.645	843.74
600.095	854.94
600.545	936.84
600.995	985.44
601.445	1037.84
601.895	1107.24
602.345	1138.64
602.795	1116.84
603.245	1071.84
603.695	1027.84
604.145	960.94
604.594	921.54
605.044	861.74
605.494	817.04
605.944	765.24
606.393	758.64
606.843	736.34
607.293	732.84
607.743	735.94
608.192	748.44
608.642	763.04
609.091	768.94
609.541	765.94
609.99	766.84
610.44	761.24
610.889	714.24
611.339	700.64
611.788	694.74
612.238	701.44
612.687	713.24
613.136	706.64
613.586	721.54
614.035	707.64
614.484	711.84
614.933	723.04
615.383	714.24
615.832	705.24
616.281	701.04
616.73	667.84
617.179	660.24
617.628	647.44
618.077	633.44
618.526	623.24
618.975	628.14
619.424	610.74
619.873	615.94
620.322	631.14
620.771	617.54
621.22	601.04
621.669	602.04
622.118	595.84
622.567	587.84
623.015	573.44
623.464	577.84
623.913	568.74
624.361	551.24
624.81	550.14
625.259	559.84
625.707	558.64
626.156	562.94
626.604	572.74
627.053	573.84
627.501	568.04
627.95	578.54
628.398	581.74
628.847	580.84
629.295	565.94
629.744	583.84
630.192	580.84
630.64	564.64
631.089	558.14
631.537	540.34
631.985	533.04
632.433	542.74
632.881	531.54
633.33	546.14
633.778	537.14
634.226	537.94
634.674	549.94
635.122	540.54
635.57	560.84
636.018	564.44
636.466	569.24
636.914	556.54
637.362	568.24
637.81	577.24
638.258	590.94
638.705	595.04
639.153	623.34
639.601	629.14
640.049	649.44
640.497	678.54
640.944	697.94
641.392	654.84
641.84	616.84
642.287	589.24
642.735	566.74
643.182	568.54
643.63	564.64
644.078	571.24
644.525	581.94
644.973	587.44
645.42	600.14
645.867	612.84
646.315	641.94
646.762	658.94
647.21	690.34
647.657	711.24
648.104	738.64
648.551	762.84
648.999	819.24
649.446	885.04
649.893	968.44
650.34	1118.54
650.787	1334.94
651.234	1639.84
651.682	2137.24
652.129	2891.34
652.576	4143.74
653.023	6048.84
653.47	8128.44
653.917	10017.64
654.363	11448.84
654.81	12546.94
655.257	11898.74
655.704	7831.84
656.151	4735.14
656.598	3106.74
657.044	2242.84
657.491	1734.94
657.938	1397.74
658.385	1170.74
658.831	1033.94
659.278	921.94
659.724	838.34
660.171	767.84
660.618	701.94
661.064	673.04
661.511	658.64
661.957	650.64
662.404	651.84
662.85	650.64
663.296	623.44
663.743	563.24
664.189	553.04
664.635	535.14
665.082	524.54
665.528	530.34
665.974	518.74
666.42	517.94
666.867	509.14
667.313	487.34
667.759	472.14
668.205	459.54
668.651	456.04
669.097	452.64
669.543	445.84
669.989	444.44
670.435	445.54
670.881	455.74
671.327	457.34
671.773	482.44
672.219	509.14
672.665	558.44
673.11	610.24
673.556	647.04
674.002	684.04
674.448	671.84
674.893	564.34
675.339	485.94
675.785	453.04
676.23	433.84
676.676	400.34
677.122	396.74
677.567	375.24
678.013	377.34
678.458	369.34
678.904	365.14
679.349	359.14
679.794	360.94
680.24	356.34
680.685	362.54
681.131	356.74
681.576	366.64
682.021	367.24
682.466	354.54
682.912	358.64
683.357	360.34
683.802	392.64
684.247	421.34
684.692	469.14
685.137	513.94
685.583	550.54
686.028	575.34
686.473	533.84
686.918	457.64
687.363	430.44
687.807	406.44
688.252	375.14
688.697	359.74
689.142	346.64
689.587	342.74
690.032	338.24
690.477	355.14
690.921	361.14
691.366	388.24
691.811	413.14
692.255	443.84
692.7	472.54
693.145	526.34
693.589	752.04
694.034	1201.64
694.478	1607.64
694.923	1786.74
695.367	2308.74
695.812	1249.74
696.256	527.94
696.701	376.34
697.145	359.64
697.59	336.94
698.034	331.54
698.478	337.34
698.922	328.94
699.367	332.14
699.811	343.44
700.255	362.24
700.699	389.94
701.143	434.74
701.588	490.44
702.032	533.54
702.476	529.24
702.92	501.44
703.364	522.84
703.808	692.74
704.252	1121.94
704.696	1534.44
705.14	1730.54
705.584	2182.84
706.027	1103.24
706.471	540.64
706.915	416.14
707.359	361.74
707.803	327.24
708.246	314.54
708.69	318.44
709.134	323.54
709.577	313.94
710.021	317.14
710.465	317.14
710.908	303.34
711.352	300.54
711.795	328.24
712.239	364.34
712.682	397.64
713.126	423.74
713.569	458.54
714.012	363.04
714.456	314.44
714.899	286.64
715.342	283.84
715.786	270.14
716.229	273.64
716.672	261.94
717.115	253.44
717.558	259.44
718.002	255.94
718.445	274.54
718.888	299.14
719.331	305.44
719.774	317.24
720.217	310.44
720.66	292.44
721.103	272.04
721.546	258.34
721.989	260.34
722.432	236.24
722.874	242.64
723.317	235.54
723.76	239.84
724.203	265.54
724.645	330.24
725.088	467.64
725.531	592.54
725.974	662.44
726.416	559.84
726.859	320.04
727.301	256.94
727.744	244.24
728.187	235.04
728.629	246.34
729.071	250.24
729.514	270.64
729.956	289.54
730.399	296.64
730.841	298.64
731.283	286.54
731.726	270.94
732.168	271.14
732.61	277.64
733.053	298.44
733.495	327.04
733.937	370.64
734.379	412.24
734.821	459.24
735.263	583.14
735.705	917.54
736.148	1722.24
736.59	2749.04
737.032	3131.44
737.474	2560.94
737.916	846.94
738.357	453.94
738.799	346.84
739.241	306.94
739.683	296.34
740.125	299.64
740.567	305.84
741.008	331.14
741.45	320.44
741.892	324.34
742.334	365.84
742.775	374.84
743.217	357.74
743.658	281.34
744.1	262.84
744.542	273.94
744.983	327.54
745.425	361.14
745.866	355.94
746.307	288.84
746.749	289.84
747.19	335.94
747.632	497.94
748.073	984.64
748.514	2029.14
748.956	3001.74
749.397	3802.84
749.838	3138.94
750.279	3043.44
750.72	1566.14
751.162	575.24
751.603	335.64
752.044	267.14
752.485	227.24
752.926	227.04
753.367	209.84
753.808	207.34
754.249	203.54
754.69	188.04
755.131	190.84
755.572	183.94
756.013	183.54
756.453	195.24
756.894	197.24
757.335	195.64
757.776	202.74
758.216	196.54
758.657	207.34
759.098	204.94
759.538	233.44
759.979	280.64
760.42	408.74
760.86	794.14
761.301	2053.94
761.741	4820.04
762.182	6612.54
762.622	4674.04
763.063	1385.44
763.503	549.94
