Data from 20171114-ORNL-Ar_H_NY_Subt18_08-07-07-413.txt Node
Date: Tue Nov 14 08:07:07 EST 2017
User: Ender
Spectrometer: HR+D1039
Trigger mode: 0
Integration Time (sec): 2.730000E-2
Scans to average: 10
Electric dark correction enabled: true
Nonlinearity correction enabled: false
Boxcar width: 0
XAxis mode: Wavelengths
Number of Pixels in Spectrum: 2048
>>>>>Begin Spectral Data<<<<<
187.836	-3.76
188.309	-3.76
188.782	-3.76
189.255	0.04
189.728	-1.16
190.201	3.74
190.674	-1.16
191.147	1.84
191.619	-3.96
192.092	3.24
192.565	2.94
193.038	-0.06
193.511	-1.56
193.984	3.24
194.456	-0.76
194.929	-0.36
195.402	-3.56
195.874	1.24
196.347	-1.06
196.82	-6.86
197.292	6.14
197.765	3.04
198.237	-6.06
198.71	3.04
199.182	-2.66
199.655	7.94
200.127	-0.56
200.6	1.94
201.072	-3.76
201.544	-2.76
202.017	-0.06
202.489	7.34
202.961	-4.06
203.433	-6.96
203.906	-6.26
204.378	-7.36
204.85	-6.96
205.322	-1.26
205.794	-2.86
206.266	-5.26
206.739	-10.56
207.211	2.54
207.683	-7.36
208.155	-1.76
208.627	-11.26
209.099	-2.06
209.57	-1.96
210.042	-3.16
210.514	-2.66
210.986	-4.46
211.458	-4.76
211.93	-6.16
212.402	4.04
212.873	-8.26
213.345	-13.26
213.817	-14.56
214.288	-3.96
214.76	-13.86
215.232	-1.06
215.703	-4.56
216.175	-4.66
216.646	-3.36
217.118	-2.76
217.589	-2.96
218.061	0.04
218.532	0.04
219.004	-1.56
219.475	-5.96
219.946	-1.06
220.418	-9.76
220.889	0.24
221.36	-6.76
221.832	-2.26
222.303	-4.16
222.774	-2.26
223.245	-6.86
223.717	-0.46
224.188	-3.76
224.659	-16.66
225.13	-2.96
225.601	-0.06
226.072	2.54
226.543	1.44
227.014	3.14
227.485	0.14
227.956	-6.96
228.427	-3.86
228.898	2.14
229.369	-1.06
229.839	-5.46
230.31	-1.26
230.781	0.94
231.252	-4.36
231.722	-5.56
232.193	-9.76
232.664	-0.66
233.135	1.54
233.605	-2.86
234.076	-4.06
234.546	-1.46
235.017	2.44
235.487	2.14
235.958	-4.06
236.428	-5.36
236.899	-0.66
237.369	-1.46
237.84	-1.96
238.31	2.24
238.78	-1.36
239.251	-3.16
239.721	-1.26
240.191	-1.46
240.662	-6.46
241.132	-2.06
241.602	-9.06
242.072	6.04
242.542	0.94
243.013	0.44
243.483	-1.66
243.953	-0.56
244.423	-4.86
244.893	-2.26
245.363	0.14
245.833	2.04
246.303	-7.66
246.773	3.64
247.243	-0.46
247.712	-5.46
248.182	0.64
248.652	0.84
249.122	-8.96
249.592	0.14
250.061	8.24
250.531	12.64
251.001	-6.56
251.471	5.64
251.94	4.74
252.41	-1.46
252.879	-6.86
253.349	6.54
253.818	6.24
254.288	-0.26
254.757	0.34
255.227	-1.76
255.696	3.14
256.166	2.34
256.635	1.44
257.105	-1.36
257.574	3.64
258.043	-2.86
258.513	-7.46
258.982	0.74
259.451	-2.76
259.92	1.54
260.389	4.04
260.859	9.84
261.328	3.54
261.797	6.84
262.266	6.44
262.735	12.04
263.204	5.14
263.673	-0.96
264.142	3.34
264.611	-4.76
265.08	-2.66
265.549	-1.86
266.018	4.54
266.487	-2.56
266.955	-3.16
267.424	-5.66
267.893	2.04
268.362	-2.16
268.83	-2.16
269.299	10.74
269.768	-0.96
270.236	5.04
270.705	0.34
271.174	-0.36
271.642	4.54
272.111	6.64
272.579	-1.56
273.048	1.34
273.516	1.24
273.985	2.64
274.453	4.44
274.922	8.44
275.39	8.74
275.858	0.34
276.327	3.84
276.795	7.84
277.263	-3.56
277.731	9.64
278.2	9.54
278.668	6.34
279.136	6.04
279.604	5.34
280.072	8.44
280.54	10.34
281.008	7.14
281.477	10.14
281.945	11.74
282.413	12.74
282.881	4.64
283.348	5.84
283.816	9.14
284.284	5.94
284.752	15.14
285.22	9.54
285.688	15.04
286.156	15.74
286.623	17.34
287.091	9.44
287.559	8.84
288.026	6.64
288.494	11.84
288.962	3.74
289.429	8.24
289.897	21.84
290.364	7.54
290.832	11.54
291.3	10.64
291.767	15.34
292.234	11.84
292.702	9.84
293.169	11.44
293.637	14.94
294.104	12.14
294.571	2.44
295.039	10.04
295.506	7.64
295.973	12.44
296.44	15.74
296.908	13.54
297.375	13.04
297.842	9.04
298.309	13.54
298.776	4.34
299.243	13.44
299.71	8.44
300.177	14.24
300.644	17.44
301.111	19.14
301.578	16.94
302.045	9.04
302.512	20.24
302.979	21.24
303.446	13.14
303.913	9.04
304.379	11.74
304.846	23.74
305.313	23.44
305.78	18.34
306.246	16.44
306.713	22.34
307.18	21.24
307.646	28.54
308.113	17.64
308.579	15.04
309.046	18.84
309.512	18.84
309.979	21.54
310.445	19.64
310.912	22.74
311.378	28.24
311.845	23.84
312.311	27.24
312.777	25.54
313.244	31.44
313.71	28.64
314.176	26.44
314.642	26.34
315.109	17.94
315.575	25.54
316.041	25.34
316.507	24.54
316.973	28.74
317.439	28.34
317.905	27.84
318.371	32.14
318.837	32.84
319.303	26.94
319.769	26.44
320.235	23.44
320.701	31.14
321.167	30.24
321.633	27.74
322.099	33.24
322.564	36.74
323.03	33.54
323.496	29.94
323.962	36.24
324.427	31.14
324.893	36.54
325.359	32.44
325.824	29.84
326.29	27.54
326.755	31.14
327.221	38.94
327.686	34.44
328.152	40.84
328.617	40.24
329.083	41.44
329.548	42.44
330.014	47.24
330.479	35.64
330.944	39.44
331.41	33.64
331.875	38.24
332.34	38.94
332.805	38.74
333.271	37.64
333.736	32.54
334.201	39.54
334.666	45.54
335.131	50.34
335.596	44.94
336.061	43.34
336.526	39.84
336.991	38.24
337.456	47.94
337.921	40.24
338.386	40.54
338.851	47.04
339.316	37.24
339.781	37.04
340.246	50.74
340.711	45.84
341.175	49.44
341.64	35.24
342.105	41.94
342.569	49.64
343.034	48.44
343.499	49.74
343.963	48.34
344.428	55.24
344.893	54.24
345.357	57.54
345.822	53.34
346.286	54.04
346.751	62.64
347.215	56.44
347.679	60.34
348.144	79.24
348.608	74.74
349.073	63.54
349.537	66.14
350.001	70.94
350.465	73.74
350.93	68.04
351.394	76.24
351.858	63.74
352.322	74.74
352.786	74.94
353.25	77.34
353.715	96.14
354.179	87.44
354.643	101.64
355.107	103.34
355.571	84.64
356.035	87.24
356.498	97.24
356.962	93.24
357.426	107.14
357.89	95.84
358.354	73.84
358.818	70.94
359.281	68.24
359.745	64.04
360.209	63.34
360.673	58.54
361.136	69.44
361.6	74.34
362.064	73.64
362.527	80.34
362.991	80.84
363.454	77.94
363.918	66.84
364.381	77.04
364.845	73.24
365.308	83.54
365.772	77.44
366.235	76.94
366.698	71.74
367.162	84.94
367.625	78.04
368.088	80.64
368.552	79.94
369.015	83.64
369.478	87.14
369.941	85.84
370.404	80.84
370.867	92.14
371.331	88.24
371.794	101.74
372.257	90.34
372.72	93.94
373.183	92.74
373.646	83.64
374.109	94.24
374.572	92.54
375.035	91.04
375.497	96.04
375.96	97.44
376.423	94.44
376.886	100.84
377.349	99.64
377.811	95.44
378.274	96.74
378.737	96.74
379.199	103.74
379.662	101.34
380.125	106.94
380.587	100.24
381.05	101.74
381.512	109.24
381.975	117.44
382.437	106.94
382.9	109.94
383.362	118.44
383.825	121.54
384.287	118.44
384.75	113.54
385.212	117.34
385.674	125.84
386.136	123.54
386.599	117.54
387.061	114.54
387.523	116.14
387.985	118.64
388.447	125.54
388.91	118.14
389.372	122.04
389.834	121.14
390.296	119.04
390.758	120.84
391.22	130.14
391.682	140.64
392.144	147.34
392.606	139.24
393.068	133.04
393.529	142.14
393.991	134.64
394.453	131.04
394.915	124.64
395.377	126.74
395.838	128.64
396.3	137.14
396.762	132.94
397.224	128.24
397.685	126.94
398.147	138.14
398.608	132.04
399.07	130.24
399.531	131.64
399.993	139.74
400.454	146.04
400.916	149.44
401.377	145.24
401.839	154.94
402.3	149.54
402.762	165.64
403.223	164.64
403.684	166.04
404.145	156.94
404.607	156.34
405.068	160.14
405.529	156.94
405.99	177.74
406.451	166.24
406.913	173.54
407.374	156.74
407.835	160.54
408.296	164.64
408.757	169.34
409.218	184.14
409.679	171.84
410.14	172.44
410.601	176.24
411.062	177.24
411.522	180.54
411.983	176.74
412.444	173.14
412.905	183.84
413.366	178.44
413.826	191.44
414.287	219.84
414.748	268.94
415.208	249.74
415.669	218.24
416.13	211.24
416.59	213.44
417.051	220.04
417.511	227.64
417.972	242.14
418.432	253.04
418.893	296.84
419.353	257.54
419.814	211.44
420.274	186.74
420.734	180.14
421.195	194.44
421.655	197.54
422.115	199.24
422.576	197.14
423.036	196.64
423.496	210.84
423.956	218.54
424.416	230.24
424.876	267.14
425.336	265.24
425.797	268.54
426.257	258.84
426.717	239.64
427.177	238.44
427.637	219.94
428.097	231.94
428.556	241.64
429.016	266.14
429.476	265.44
429.936	266.14
430.396	269.64
430.856	284.64
431.315	305.24
431.775	342.04
432.235	360.94
432.694	348.44
433.154	349.74
433.614	381.04
434.073	329.54
434.533	289.94
434.993	265.84
435.452	278.54
435.912	289.64
436.371	281.24
436.83	278.54
437.29	261.14
437.749	248.34
438.209	246.64
438.668	267.34
439.127	284.24
439.587	268.84
440.046	247.04
440.505	262.64
440.964	273.34
441.424	321.34
441.883	305.64
442.342	263.94
442.801	233.34
443.26	231.44
443.719	234.24
444.178	227.94
444.637	218.24
445.096	231.24
445.555	227.84
446.014	230.44
446.473	232.94
446.932	248.24
447.391	233.84
447.849	241.64
448.308	225.74
448.767	236.44
449.226	242.74
449.685	245.74
450.143	262.94
450.602	252.84
451.061	242.54
451.519	240.84
451.978	245.84
452.436	239.74
452.895	249.54
453.353	263.24
453.812	249.14
454.27	247.84
454.729	249.44
455.187	253.84
455.646	244.64
456.104	250.04
456.562	262.34
457.021	280.54
457.479	270.74
457.937	277.24
458.395	279.24
458.854	258.94
459.312	270.74
459.77	277.54
460.228	263.94
460.686	260.94
461.144	269.14
461.602	261.34
462.06	253.34
462.518	264.54
462.976	269.74
463.434	268.84
463.892	276.44
464.35	290.44
464.808	301.74
465.266	279.04
465.724	283.74
466.181	286.14
466.639	286.54
467.097	306.24
467.555	312.84
468.012	311.34
468.47	322.74
468.928	337.44
469.385	354.54
469.843	356.14
470.3	361.74
470.758	375.94
471.215	401.14
471.673	424.74
472.13	420.64
472.588	429.64
473.045	394.24
473.503	393.94
473.96	424.34
474.417	423.34
474.875	442.84
475.332	490.74
475.789	479.34
476.246	480.34
476.704	506.04
477.161	517.34
477.618	538.84
478.075	578.34
478.532	626.74
478.989	697.44
479.446	793.24
479.903	778.54
480.36	805.34
480.817	844.34
481.274	943.94
481.731	1038.74
482.188	1118.74
482.645	1232.54
483.102	1328.34
483.558	1443.84
484.015	1489.04
484.472	1443.14
484.929	1414.14
485.385	1377.04
485.842	1351.24
486.299	1306.14
486.755	1250.64
487.212	1075.94
487.668	920.84
488.125	856.64
488.582	789.34
489.038	764.34
489.494	728.84
489.951	698.94
490.407	685.24
490.864	654.14
491.32	657.44
491.776	657.44
492.233	674.54
492.689	646.34
493.145	631.34
493.602	620.44
494.058	640.04
494.514	632.34
494.97	652.64
495.426	669.04
495.882	639.74
496.338	640.14
496.794	654.64
497.251	643.34
497.707	656.04
498.163	666.84
498.618	665.34
499.074	675.94
499.53	702.54
499.986	693.44
500.442	667.84
500.898	639.44
501.354	635.44
501.809	636.84
502.265	648.24
502.721	666.44
503.177	669.24
503.632	670.54
504.088	676.04
504.543	699.14
504.999	723.44
505.455	683.34
505.91	662.64
506.366	667.84
506.821	661.24
507.277	666.34
507.732	667.14
508.187	662.74
508.643	681.74
509.098	670.44
509.553	695.74
510.009	706.74
510.464	704.84
510.919	727.94
511.375	731.34
511.83	756.74
512.285	756.44
512.74	794.94
513.195	814.74
513.65	804.54
514.105	817.44
514.56	813.34
515.015	828.44
515.47	844.84
515.925	814.14
516.38	823.24
516.835	825.04
517.29	824.04
517.745	821.44
518.2	806.34
518.655	790.94
519.109	778.54
519.564	785.24
520.019	766.24
520.474	751.74
520.928	767.74
521.383	750.94
521.838	743.54
522.292	744.24
522.747	754.14
523.201	748.24
523.656	736.14
524.11	722.54
524.565	726.14
525.019	722.94
525.474	735.64
525.928	739.44
526.382	736.64
526.837	733.84
527.291	736.94
527.745	734.44
528.2	734.94
528.654	711.44
529.108	724.34
529.562	731.04
530.016	724.24
530.47	725.94
530.925	719.94
531.379	722.04
531.833	731.44
532.287	735.74
532.741	728.44
533.195	747.54
533.649	750.74
534.103	757.24
534.556	738.44
535.01	746.34
535.464	733.34
535.918	738.64
536.372	758.34
536.826	753.64
537.279	745.34
537.733	744.74
538.187	755.64
538.64	754.74
539.094	763.44
539.548	772.04
540.001	761.04
540.455	758.34
540.908	772.54
541.362	782.34
541.815	790.14
542.269	799.44
542.722	791.34
543.175	816.74
543.629	803.94
544.082	822.64
544.536	832.94
544.989	827.84
545.442	831.44
545.895	827.84
546.349	828.44
546.802	845.54
547.255	849.94
547.708	855.84
548.161	858.44
548.614	872.24
549.067	881.34
549.52	861.24
549.973	848.94
550.426	850.84
550.879	839.44
551.332	843.14
551.785	855.44
552.238	854.34
552.691	869.84
553.144	884.34
553.596	894.34
554.049	907.54
554.502	945.04
554.955	953.04
555.407	961.44
555.86	958.64
556.313	943.24
556.765	935.54
557.218	933.74
557.67	935.74
558.123	919.84
558.576	917.24
559.028	918.04
559.48	939.04
559.933	920.04
560.385	899.54
560.838	853.74
561.29	835.74
561.742	833.94
562.195	811.74
562.647	807.24
563.099	815.84
563.551	806.14
564.004	816.64
564.456	827.14
564.908	806.04
565.36	778.44
565.812	769.94
566.264	761.04
566.716	756.04
567.168	735.64
567.62	748.34
568.072	738.54
568.524	727.24
568.976	732.24
569.428	716.04
569.88	720.94
570.332	720.44
570.784	718.64
571.235	732.54
571.687	740.64
572.139	744.24
572.59	747.34
573.042	742.34
573.494	741.44
573.945	740.34
574.397	731.94
574.849	723.44
575.3	731.04
575.752	718.04
576.203	714.74
576.655	719.14
577.106	707.14
577.557	702.34
578.009	703.74
578.46	708.34
578.912	705.74
579.363	708.44
579.814	707.74
580.265	701.74
580.717	701.44
581.168	712.44
581.619	719.04
582.07	722.04
582.521	706.54
582.972	706.14
583.423	713.74
583.875	714.24
584.326	707.54
584.777	728.74
585.227	746.94
585.678	763.74
586.129	779.34
586.58	796.64
587.031	816.14
587.482	844.14
587.933	878.84
588.384	853.24
588.834	815.14
589.285	806.64
589.736	811.84
590.186	805.64
590.637	793.14
591.088	786.54
591.538	779.24
591.989	770.84
592.439	761.64
592.89	751.64
593.34	739.04
593.791	726.04
594.241	723.34
594.692	735.44
595.142	723.94
595.593	732.14
596.043	732.14
596.493	744.64
596.943	735.94
597.394	763.64
597.844	748.44
598.294	761.94
598.744	797.74
599.195	812.04
599.645	865.34
600.095	902.84
600.545	961.54
600.995	1006.34
601.445	1074.24
601.895	1141.24
602.345	1189.54
602.795	1160.24
603.245	1125.14
603.695	1064.34
604.145	1007.34
604.594	960.14
605.044	916.34
605.494	849.04
605.944	797.04
606.393	787.14
606.843	766.04
607.293	764.34
607.743	752.34
608.192	776.24
608.642	784.64
609.091	794.84
609.541	794.04
609.99	786.84
610.44	794.24
610.889	746.04
611.339	729.84
611.788	710.34
612.238	723.44
612.687	730.34
613.136	719.34
613.586	736.54
614.035	729.74
614.484	740.34
614.933	740.74
615.383	732.04
615.832	729.94
616.281	726.94
616.73	707.94
617.179	689.44
617.628	674.34
618.077	655.64
618.526	654.84
618.975	650.74
619.424	639.74
619.873	640.54
620.322	643.14
620.771	637.74
621.22	626.24
621.669	621.34
622.118	620.64
622.567	602.14
623.015	592.54
623.464	588.74
623.913	584.14
624.361	575.34
624.81	577.14
625.259	577.04
625.707	565.74
626.156	575.14
626.604	585.24
627.053	584.14
627.501	595.14
627.95	598.74
628.398	604.44
628.847	590.14
629.295	591.94
629.744	602.14
630.192	604.74
630.64	583.34
631.089	573.54
631.537	561.44
631.985	546.24
632.433	554.34
632.881	547.04
633.33	556.14
633.778	543.64
634.226	542.14
634.674	552.04
635.122	558.24
635.57	578.74
636.018	585.24
636.466	589.64
636.914	575.14
637.362	588.74
637.81	597.44
638.258	609.44
638.705	606.64
639.153	646.44
639.601	637.34
640.049	665.64
640.497	695.04
640.944	722.84
641.392	670.14
641.84	637.44
642.287	607.94
642.735	591.84
643.182	583.74
643.63	582.94
644.078	581.54
644.525	591.74
644.973	609.54
645.42	610.44
645.867	638.44
646.315	655.64
646.762	680.84
647.21	701.14
647.657	728.04
648.104	755.74
648.551	780.74
648.999	838.74
649.446	909.44
649.893	992.74
650.34	1121.44
650.787	1353.54
651.234	1655.94
651.682	2136.54
652.129	2891.64
652.576	4125.04
653.023	5990.34
653.47	8115.74
653.917	10034.44
654.363	11622.74
654.81	12808.04
655.257	12081.64
655.704	8054.64
656.151	4819.84
656.598	3191.14
657.044	2283.84
657.491	1767.74
657.938	1432.44
658.385	1200.94
658.831	1051.84
659.278	954.94
659.724	849.54
660.171	783.34
660.618	720.94
661.064	702.14
661.511	677.04
661.957	659.64
662.404	653.64
662.85	666.04
663.296	633.34
663.743	577.34
664.189	552.44
664.635	554.44
665.082	545.64
665.528	538.94
665.974	529.54
666.42	531.64
666.867	519.74
667.313	507.34
667.759	472.94
668.205	464.34
668.651	468.74
669.097	460.34
669.543	463.74
669.989	460.24
670.435	463.64
670.881	463.54
671.327	470.44
671.773	483.84
672.219	507.64
672.665	569.94
673.11	612.04
673.556	665.54
674.002	704.94
674.448	689.54
674.893	567.84
675.339	500.74
675.785	465.74
676.23	438.44
676.676	409.04
677.122	391.14
677.567	390.54
678.013	385.64
678.458	380.14
678.904	374.74
679.349	366.34
679.794	367.64
680.24	364.74
680.685	363.84
681.131	366.64
681.576	367.44
682.021	371.64
682.466	361.84
682.912	372.34
683.357	375.94
683.802	401.74
684.247	434.64
684.692	481.04
685.137	518.64
685.583	563.34
686.028	589.64
686.473	541.04
686.918	460.04
687.363	439.84
687.807	403.14
688.252	383.94
688.697	377.04
689.142	357.14
689.587	355.94
690.032	345.94
690.477	355.34
690.921	374.54
691.366	400.64
691.811	417.04
692.255	454.44
692.7	482.74
693.145	529.24
693.589	745.04
694.034	1202.04
694.478	1608.94
694.923	1835.74
695.367	2375.54
695.812	1256.44
696.256	526.34
696.701	390.84
697.145	354.84
697.59	338.24
698.034	332.84
698.478	347.24
698.922	341.44
699.367	331.24
699.811	339.14
700.255	360.84
700.699	400.84
701.143	444.64
701.588	500.04
702.032	538.24
702.476	539.74
702.92	514.14
703.364	515.64
703.808	675.44
704.252	1097.44
704.696	1523.84
705.14	1768.64
705.584	2240.64
706.027	1137.14
706.471	555.94
706.915	411.34
707.359	365.04
707.803	327.94
708.246	322.24
708.69	331.74
709.134	327.04
709.577	323.14
710.021	330.74
710.465	321.54
710.908	312.44
711.352	309.84
711.795	326.74
712.239	371.74
712.682	399.04
713.126	430.74
713.569	468.04
714.012	368.34
714.456	319.94
714.899	306.14
715.342	284.14
715.786	272.44
716.229	269.24
716.672	271.74
717.115	267.24
717.558	255.94
718.002	261.94
718.445	271.44
718.888	295.24
719.331	306.64
719.774	321.14
720.217	320.94
720.66	299.74
721.103	283.94
721.546	268.24
721.989	263.84
722.432	246.74
722.874	240.14
723.317	238.04
723.76	247.24
724.203	267.44
724.645	330.34
725.088	473.84
725.531	599.54
725.974	674.24
726.416	574.04
726.859	320.64
727.301	256.94
727.744	247.34
728.187	247.24
728.629	250.04
729.071	252.54
729.514	268.14
729.956	284.74
730.399	297.84
730.841	300.94
731.283	288.74
731.726	279.64
732.168	277.14
732.61	280.64
733.053	306.14
733.495	335.14
733.937	371.44
734.379	416.64
734.821	461.34
735.263	580.54
735.705	885.54
736.148	1685.04
736.59	2735.44
737.032	3213.24
737.474	2625.54
737.916	855.84
738.357	451.24
738.799	343.84
739.241	321.04
739.683	301.54
740.125	303.04
740.567	312.54
741.008	333.14
741.45	336.34
741.892	337.94
742.334	371.44
742.775	389.34
743.217	369.54
743.658	286.94
744.1	265.34
744.542	285.24
744.983	324.94
745.425	363.54
745.866	366.44
746.307	298.24
746.749	293.54
747.19	338.74
747.632	480.84
748.073	946.04
748.514	1978.84
748.956	3010.64
749.397	3786.14
749.838	3142.14
750.279	3121.84
750.72	1588.74
751.162	581.64
751.603	337.44
752.044	270.74
752.485	228.54
752.926	219.94
753.367	214.94
753.808	211.74
754.249	200.64
754.69	198.04
755.131	195.54
755.572	200.14
756.013	190.94
756.453	201.14
756.894	199.24
757.335	192.54
757.776	203.74
758.216	203.04
758.657	207.04
759.098	212.54
759.538	231.34
759.979	275.34
760.42	402.74
760.86	757.64
761.301	1957.04
761.741	4729.44
762.182	6782.24
762.622	4771.54
763.063	1389.84
763.503	566.24
