Data from 20171114-ORNL-Ar_H_NY_Subt18_08-06-32-199.txt Node
Date: Tue Nov 14 08:06:32 EST 2017
User: Ender
Spectrometer: HR+D1039
Trigger mode: 0
Integration Time (sec): 2.730000E-2
Scans to average: 10
Electric dark correction enabled: true
Nonlinearity correction enabled: false
Boxcar width: 0
XAxis mode: Wavelengths
Number of Pixels in Spectrum: 2048
>>>>>Begin Spectral Data<<<<<
187.836	2.04
188.309	2.04
188.782	2.04
189.255	-0.56
189.728	0.24
190.201	6.04
190.674	-4.86
191.147	3.54
191.619	-5.76
192.092	0.64
192.565	6.94
193.038	-0.36
193.511	1.44
193.984	-1.56
194.456	-8.16
194.929	0.94
195.402	-1.36
195.874	0.84
196.347	-1.06
196.82	-5.86
197.292	4.64
197.765	-0.46
198.237	-7.16
198.71	7.34
199.182	-0.06
199.655	3.14
200.127	4.64
200.6	3.04
201.072	2.04
201.544	-6.56
202.017	-3.96
202.489	8.44
202.961	1.14
203.433	-2.56
203.906	-8.06
204.378	-1.46
204.85	-1.06
205.322	-8.06
205.794	0.84
206.266	-0.36
206.739	-6.26
207.211	8.14
207.683	-2.16
208.155	-2.46
208.627	-8.76
209.099	1.64
209.57	-7.96
210.042	-4.96
210.514	-3.86
210.986	-1.06
211.458	-9.06
211.93	-7.46
212.402	-3.26
212.873	-9.16
213.345	-2.56
213.817	-12.86
214.288	-5.06
214.76	-8.56
215.232	-5.06
215.703	-1.76
216.175	0.64
216.646	-3.76
217.118	-11.56
217.589	0.24
218.061	1.24
218.532	-1.26
219.004	1.44
219.475	0.84
219.946	1.14
220.418	-6.56
220.889	3.04
221.36	-1.66
221.832	-3.26
222.303	-3.06
222.774	4.24
223.245	-7.46
223.717	-11.96
224.188	-2.66
224.659	-8.26
225.13	-9.66
225.601	-4.46
226.072	-2.36
226.543	-4.26
227.014	-4.06
227.485	-5.96
227.956	-7.76
228.427	-3.66
228.898	-2.36
229.369	4.64
229.839	-7.76
230.31	-11.86
230.781	0.84
231.252	-0.36
231.722	-4.66
232.193	-6.86
232.664	-0.66
233.135	2.84
233.605	2.24
234.076	-3.16
234.546	1.84
235.017	5.74
235.487	1.94
235.958	1.64
236.428	0.24
236.899	6.24
237.369	8.74
237.84	-1.06
238.31	9.64
238.78	5.54
239.251	-3.26
239.721	6.84
240.191	5.44
240.662	-6.06
241.132	1.74
241.602	-3.16
242.072	2.54
242.542	4.64
243.013	-1.66
243.483	8.34
243.953	0.84
244.423	9.04
244.893	-0.36
245.363	4.54
245.833	3.24
246.303	-2.96
246.773	7.94
247.243	2.74
247.712	-1.66
248.182	13.54
248.652	9.74
249.122	5.84
249.592	12.94
250.061	21.14
250.531	29.44
251.001	12.54
251.471	20.74
251.94	16.64
252.41	7.04
252.879	3.94
253.349	14.44
253.818	9.64
254.288	3.14
254.757	2.14
255.227	1.04
255.696	6.14
256.166	8.14
256.635	11.24
257.105	8.94
257.574	7.04
258.043	11.84
258.513	7.94
258.982	16.94
259.451	7.74
259.92	17.84
260.389	13.84
260.859	24.74
261.328	12.14
261.797	16.64
262.266	13.24
262.735	6.54
263.204	3.14
263.673	3.14
264.142	4.24
264.611	-6.66
265.08	4.74
265.549	7.14
266.018	7.24
266.487	2.64
266.955	-3.46
267.424	2.84
267.893	11.24
268.362	5.84
268.83	5.34
269.299	8.64
269.768	6.24
270.236	2.24
270.705	4.74
271.174	7.14
271.642	8.94
272.111	12.44
272.579	15.94
273.048	22.14
273.516	29.84
273.985	25.74
274.453	25.34
274.922	19.14
275.39	14.14
275.858	8.34
276.327	11.64
276.795	19.64
277.263	13.24
277.731	32.44
278.2	52.64
278.668	62.74
279.136	52.04
279.604	18.44
280.072	14.94
280.54	9.34
281.008	14.54
281.477	17.14
281.945	15.74
282.413	14.94
282.881	14.64
283.348	6.44
283.816	12.94
284.284	17.84
284.752	16.94
285.22	18.94
285.688	19.84
286.156	19.74
286.623	45.04
287.091	53.94
287.559	27.44
288.026	16.74
288.494	17.94
288.962	6.24
289.429	13.84
289.897	19.14
290.364	17.84
290.832	19.74
291.3	13.54
291.767	23.24
292.234	21.04
292.702	20.44
293.169	17.14
293.637	25.44
294.104	18.54
294.571	13.14
295.039	11.04
295.506	15.04
295.973	13.94
296.44	17.04
296.908	22.44
297.375	16.44
297.842	19.64
298.309	19.04
298.776	15.34
299.243	22.64
299.71	13.94
300.177	20.14
300.644	21.24
301.111	25.84
301.578	27.64
302.045	17.44
302.512	28.14
302.979	24.64
303.446	21.04
303.913	20.94
304.379	22.94
304.846	31.04
305.313	23.24
305.78	21.84
306.246	31.74
306.713	25.24
307.18	27.94
307.646	35.64
308.113	25.94
308.579	23.24
309.046	25.54
309.512	28.84
309.979	15.14
310.445	33.24
310.912	34.54
311.378	37.14
311.845	29.74
312.311	30.74
312.777	26.74
313.244	31.94
313.71	36.34
314.176	34.54
314.642	30.14
315.109	34.24
315.575	44.24
316.041	41.54
316.507	37.54
316.973	42.44
317.439	33.34
317.905	42.54
318.371	36.44
318.837	36.44
319.303	36.44
319.769	36.94
320.235	36.94
320.701	34.94
321.167	39.14
321.633	37.44
322.099	46.44
322.564	50.74
323.03	41.74
323.496	39.84
323.962	48.44
324.427	41.94
324.893	44.34
325.359	41.84
325.824	42.04
326.29	42.24
326.755	39.84
327.221	45.04
327.686	42.04
328.152	49.24
328.617	46.44
329.083	47.74
329.548	53.14
330.014	50.34
330.479	45.64
330.944	50.74
331.41	46.74
331.875	44.24
332.34	42.34
332.805	46.14
333.271	47.54
333.736	43.24
334.201	52.54
334.666	46.64
335.131	54.24
335.596	50.84
336.061	51.84
336.526	52.64
336.991	50.84
337.456	57.04
337.921	46.44
338.386	41.74
338.851	47.84
339.316	53.84
339.781	46.64
340.246	56.04
340.711	49.74
341.175	51.04
341.64	43.74
342.105	57.74
342.569	53.14
343.034	63.44
343.499	62.34
343.963	55.34
344.428	66.14
344.893	60.54
345.357	63.64
345.822	67.34
346.286	67.34
346.751	76.54
347.215	68.64
347.679	72.64
348.144	98.74
348.608	81.44
349.073	73.34
349.537	81.14
350.001	86.24
350.465	94.64
350.93	84.94
351.394	81.54
351.858	77.14
352.322	87.54
352.786	87.84
353.25	108.14
353.715	107.44
354.179	106.64
354.643	124.24
355.107	126.64
355.571	111.84
356.035	104.04
356.498	120.74
356.962	129.84
357.426	134.64
357.89	119.34
358.354	101.04
358.818	85.94
359.281	86.84
359.745	80.74
360.209	80.64
360.673	85.44
361.136	82.24
361.6	90.04
362.064	76.24
362.527	94.74
362.991	95.54
363.454	91.34
363.918	78.84
364.381	87.94
364.845	86.04
365.308	85.24
365.772	92.24
366.235	91.94
366.698	88.34
367.162	95.34
367.625	95.34
368.088	87.24
368.552	89.54
369.015	93.84
369.478	97.44
369.941	95.94
370.404	100.04
370.867	109.04
371.331	114.84
371.794	123.84
372.257	112.54
372.72	121.94
373.183	110.94
373.646	106.44
374.109	105.44
374.572	110.14
375.035	110.84
375.497	113.04
375.96	113.04
376.423	104.04
376.886	117.54
377.349	111.84
377.811	106.44
378.274	104.94
378.737	109.04
379.199	120.64
379.662	114.34
380.125	125.04
380.587	121.54
381.05	127.14
381.512	127.14
381.975	136.84
382.437	140.34
382.9	132.94
383.362	137.04
383.825	147.24
384.287	157.74
384.75	145.74
385.212	143.94
385.674	143.74
386.136	141.64
386.599	130.74
387.061	130.64
387.523	136.74
387.985	141.24
388.447	143.84
388.91	151.84
389.372	168.44
389.834	169.74
390.296	153.34
390.758	167.34
391.22	179.04
391.682	218.04
392.144	320.74
392.606	238.44
393.068	174.24
393.529	171.44
393.991	160.84
394.453	158.04
394.915	166.54
395.377	203.74
395.838	231.24
396.3	164.64
396.762	148.54
397.224	130.44
397.685	136.94
398.147	140.34
398.608	136.04
399.07	133.64
399.531	140.94
399.993	142.04
400.454	156.04
400.916	147.74
401.377	156.24
401.839	158.54
402.3	162.04
402.762	170.14
403.223	185.54
403.684	184.04
404.145	175.84
404.607	174.94
405.068	171.84
405.529	173.64
405.99	196.74
406.451	180.64
406.913	181.44
407.374	170.74
407.835	163.04
408.296	171.14
408.757	180.84
409.218	198.14
409.679	184.44
410.14	184.84
410.601	190.54
411.062	196.14
411.522	204.14
411.983	199.64
412.444	191.74
412.905	189.04
413.366	189.14
413.826	198.84
414.287	233.74
414.748	273.54
415.208	258.24
415.669	219.74
416.13	213.84
416.59	211.74
417.051	211.64
417.511	229.74
417.972	247.74
418.432	256.84
418.893	299.14
419.353	258.54
419.814	208.54
420.274	186.94
420.734	195.14
421.195	206.44
421.655	211.84
422.115	207.94
422.576	204.94
423.036	207.54
423.496	212.14
423.956	218.04
424.416	241.04
424.876	280.64
425.336	267.34
425.797	271.14
426.257	266.24
426.717	248.54
427.177	241.24
427.637	232.34
428.097	243.94
428.556	260.24
429.016	283.24
429.476	274.34
429.936	286.24
430.396	292.14
430.856	302.54
431.315	331.74
431.775	362.44
432.235	397.14
432.694	371.24
433.154	379.74
433.614	406.94
434.073	354.34
434.533	303.64
434.993	280.94
435.452	286.24
435.912	310.14
436.371	297.54
436.83	288.54
437.29	284.94
437.749	258.54
438.209	253.84
438.668	280.54
439.127	309.54
439.587	281.74
440.046	257.24
440.505	265.04
440.964	291.14
441.424	337.64
441.883	326.94
442.342	270.24
442.801	234.44
443.26	227.24
443.719	227.14
444.178	229.54
444.637	217.34
445.096	230.44
445.555	227.34
446.014	232.64
446.473	237.74
446.932	245.64
447.391	232.94
447.849	237.64
448.308	228.84
448.767	228.04
449.226	252.64
449.685	254.04
450.143	259.84
450.602	247.64
451.061	241.14
451.519	243.74
451.978	247.34
452.436	244.14
452.895	247.24
453.353	268.24
453.812	249.54
454.27	251.14
454.729	257.14
455.187	250.44
455.646	254.14
456.104	258.44
456.562	271.14
457.021	276.44
457.479	276.94
457.937	290.64
458.395	276.34
458.854	259.14
459.312	268.24
459.77	283.94
460.228	267.44
460.686	250.44
461.144	260.54
461.602	261.24
462.06	253.44
462.518	264.44
462.976	264.14
463.434	269.94
463.892	270.74
464.35	285.04
464.808	297.84
465.266	280.84
465.724	279.84
466.181	279.84
466.639	281.64
467.097	299.34
467.555	307.14
468.012	319.64
468.47	314.34
468.928	337.24
469.385	350.84
469.843	363.04
470.3	366.54
470.758	380.74
471.215	398.94
471.673	420.14
472.13	423.24
472.588	430.24
473.045	395.74
473.503	390.14
473.96	407.94
474.417	416.94
474.875	456.54
475.332	494.14
475.789	473.54
476.246	486.74
476.704	512.04
477.161	529.54
477.618	538.74
478.075	580.84
478.532	632.34
478.989	725.94
479.446	850.44
479.903	805.54
480.36	834.24
480.817	892.84
481.274	1007.24
481.731	1123.64
482.188	1214.24
482.645	1364.14
483.102	1456.84
483.558	1600.74
484.015	1648.84
484.472	1643.44
484.929	1584.24
485.385	1529.04
485.842	1486.64
486.299	1428.84
486.755	1349.04
487.212	1144.44
487.668	964.74
488.125	882.74
488.582	808.34
489.038	767.84
489.494	738.64
489.951	710.94
490.407	694.64
490.864	671.04
491.32	676.04
491.776	668.94
492.233	675.24
492.689	641.24
493.145	632.44
493.602	627.84
494.058	635.14
494.514	639.64
494.97	669.44
495.426	670.84
495.882	660.44
496.338	639.94
496.794	647.84
497.251	637.04
497.707	656.04
498.163	658.24
498.618	671.34
499.074	671.44
499.53	706.54
499.986	704.64
500.442	679.24
500.898	666.44
501.354	644.34
501.809	666.34
502.265	675.34
502.721	690.64
503.177	700.04
503.632	691.74
504.088	702.64
504.543	747.24
504.999	738.84
505.455	681.44
505.91	651.64
506.366	658.64
506.821	650.14
507.277	648.54
507.732	655.44
508.187	650.74
508.643	658.04
509.098	663.84
509.553	675.84
510.009	681.34
510.464	690.54
510.919	720.24
511.375	729.04
511.83	733.84
512.285	740.44
512.74	794.44
513.195	804.74
513.65	792.24
514.105	800.04
514.56	800.84
515.015	824.84
515.47	848.64
515.925	823.04
516.38	815.14
516.835	829.64
517.29	812.64
517.745	800.04
518.2	794.04
518.655	770.74
519.109	769.84
519.564	766.54
520.019	754.24
520.474	747.04
520.928	757.44
521.383	749.34
521.838	733.44
522.292	737.84
522.747	734.34
523.201	727.84
523.656	721.34
524.11	722.84
524.565	719.34
525.019	711.24
525.474	723.34
525.928	728.24
526.382	721.14
526.837	723.64
527.291	726.24
527.745	725.94
528.2	722.54
528.654	717.74
529.108	716.64
529.562	723.64
530.016	718.74
530.47	711.14
530.925	716.44
531.379	723.84
531.833	734.34
532.287	732.04
532.741	726.94
533.195	734.14
533.649	729.24
534.103	747.04
534.556	738.14
535.01	737.04
535.464	739.94
535.918	744.44
536.372	750.34
536.826	750.94
537.279	733.94
537.733	730.74
538.187	737.64
538.64	739.24
539.094	749.84
539.548	751.74
540.001	758.54
540.455	750.24
540.908	759.24
541.362	764.44
541.815	764.74
542.269	785.44
542.722	785.84
543.175	790.64
543.629	800.54
544.082	819.84
544.536	816.44
544.989	808.74
545.442	827.64
545.895	827.04
546.349	829.14
546.802	820.04
547.255	833.74
547.708	829.54
548.161	843.34
548.614	857.44
549.067	853.54
549.52	849.84
549.973	838.14
550.426	838.64
550.879	817.84
551.332	828.24
551.785	839.84
552.238	833.64
552.691	857.54
553.144	864.04
553.596	881.04
554.049	905.04
554.502	929.94
554.955	950.14
555.407	942.14
555.86	928.04
556.313	931.84
556.765	911.34
557.218	911.84
557.67	913.54
558.123	905.64
558.576	912.64
559.028	902.64
559.48	919.94
559.933	902.04
560.385	867.74
560.838	833.74
561.29	814.44
561.742	814.34
562.195	790.14
562.647	784.84
563.099	804.74
563.551	799.84
564.004	811.44
564.456	806.14
564.908	794.64
565.36	771.34
565.812	761.74
566.264	754.54
566.716	750.74
567.168	744.94
567.62	751.54
568.072	731.64
568.524	724.94
568.976	711.64
569.428	689.94
569.88	703.14
570.332	703.84
570.784	710.94
571.235	715.24
571.687	725.94
572.139	729.64
572.59	737.84
573.042	731.64
573.494	729.94
573.945	725.04
574.397	700.94
574.849	720.24
575.3	714.34
575.752	703.94
576.203	712.34
576.655	707.54
577.106	699.74
577.557	699.84
578.009	697.54
578.46	683.84
578.912	693.54
579.363	692.04
579.814	700.34
580.265	685.74
580.717	692.14
581.168	697.64
581.619	703.04
582.07	700.64
582.521	705.94
582.972	694.24
583.423	699.44
583.875	708.64
584.326	722.84
584.777	773.94
585.227	843.74
585.678	954.44
586.129	1034.84
586.58	1113.64
587.031	1200.64
587.482	1357.94
587.933	1551.34
588.384	1345.24
588.834	1005.14
589.285	844.34
589.736	813.04
590.186	799.84
590.637	795.84
591.088	776.74
591.538	763.44
591.989	765.24
592.439	754.74
592.89	745.04
593.34	728.94
593.791	738.74
594.241	733.34
594.692	731.64
595.142	728.04
595.593	726.54
596.043	734.14
596.493	735.04
596.943	735.74
597.394	742.74
597.844	740.14
598.294	765.24
598.744	779.74
599.195	805.04
599.645	839.14
600.095	884.04
600.545	942.94
600.995	995.14
601.445	1060.64
601.895	1118.04
602.345	1166.14
602.795	1157.34
603.245	1103.94
603.695	1035.64
604.145	996.64
604.594	942.54
605.044	888.04
605.494	829.64
605.944	779.34
606.393	772.74
606.843	761.54
607.293	760.04
607.743	756.74
608.192	767.24
608.642	777.04
609.091	786.04
609.541	796.94
609.99	794.74
610.44	778.64
610.889	754.54
611.339	733.34
611.788	716.44
612.238	736.04
612.687	741.34
613.136	736.74
613.586	757.74
614.035	768.44
614.484	779.04
614.933	793.14
615.383	768.14
615.832	761.64
616.281	751.64
616.73	711.74
617.179	684.54
617.628	674.34
618.077	661.14
618.526	641.54
618.975	647.24
619.424	633.74
619.873	639.84
620.322	646.84
620.771	627.04
621.22	615.44
621.669	616.54
622.118	611.94
622.567	604.44
623.015	596.34
623.464	589.74
623.913	579.24
624.361	580.44
624.81	572.34
625.259	573.74
625.707	571.94
626.156	569.64
626.604	590.14
627.053	585.64
627.501	582.04
627.95	593.74
628.398	592.74
628.847	588.84
629.295	599.24
629.744	595.54
630.192	584.64
630.64	590.24
631.089	591.04
631.537	599.94
631.985	603.44
632.433	619.14
632.881	630.54
633.33	677.34
633.778	660.14
634.226	589.84
634.674	594.04
635.122	603.24
635.57	612.74
636.018	641.14
636.466	596.14
636.914	564.14
637.362	591.04
637.81	589.94
638.258	596.74
638.705	588.84
639.153	638.54
639.601	635.24
640.049	663.84
640.497	692.94
640.944	711.64
641.392	658.64
641.84	632.34
642.287	601.24
642.735	580.64
643.182	590.04
643.63	593.64
644.078	590.94
644.525	610.44
644.973	609.14
645.42	619.94
645.867	636.94
646.315	666.04
646.762	680.74
647.21	705.04
647.657	733.54
648.104	783.84
648.551	792.34
648.999	862.74
649.446	948.04
649.893	1037.44
650.34	1192.94
650.787	1421.94
651.234	1780.04
651.682	2303.24
652.129	3179.84
652.576	4610.14
653.023	6779.24
653.47	9303.34
653.917	11594.04
654.363	13333.54
654.81	14765.04
655.257	14027.84
655.704	9213.14
656.151	5440.94
656.598	3508.74
657.044	2486.04
657.491	1931.94
657.938	1528.04
658.385	1274.74
658.831	1122.34
659.278	993.04
659.724	883.74
660.171	814.64
660.618	739.44
661.064	712.94
661.511	678.64
661.957	676.94
662.404	662.54
662.85	668.74
663.296	645.34
663.743	571.74
664.189	550.84
664.635	553.14
665.082	537.74
665.528	545.34
665.974	527.94
666.42	530.34
666.867	516.84
667.313	512.44
667.759	496.74
668.205	497.54
668.651	490.54
669.097	497.24
669.543	515.94
669.989	481.94
670.435	466.04
670.881	452.24
671.327	465.84
671.773	476.84
672.219	500.14
672.665	565.74
673.11	605.84
673.556	652.54
674.002	690.94
674.448	672.44
674.893	562.84
675.339	484.24
675.785	446.74
676.23	437.34
676.676	414.04
677.122	391.14
677.567	384.14
678.013	377.74
678.458	364.84
678.904	366.44
679.349	354.04
679.794	365.34
680.24	362.14
680.685	352.74
681.131	360.34
681.576	370.84
682.021	359.34
682.466	360.94
682.912	358.04
683.357	359.54
683.802	391.54
684.247	427.54
684.692	473.84
685.137	512.14
685.583	554.14
686.028	573.84
686.473	528.94
686.918	452.14
687.363	427.34
687.807	405.54
688.252	381.44
688.697	366.54
689.142	348.14
689.587	345.44
690.032	336.24
690.477	353.04
690.921	361.34
691.366	398.64
691.811	409.34
692.255	446.54
692.7	472.34
693.145	519.34
693.589	713.44
694.034	1149.84
694.478	1571.04
694.923	1766.54
695.367	2325.44
695.812	1224.54
696.256	508.74
696.701	375.24
697.145	359.04
697.59	337.84
698.034	325.54
698.478	339.14
698.922	333.84
699.367	335.04
699.811	351.24
700.255	365.04
700.699	399.04
701.143	433.64
701.588	491.24
702.032	524.34
702.476	524.44
702.92	501.24
703.364	500.34
703.808	648.74
704.252	1061.14
704.696	1488.34
705.14	1712.14
705.584	2197.34
706.027	1079.44
706.471	529.84
706.915	398.24
707.359	359.24
707.803	323.24
708.246	310.84
708.69	323.24
709.134	325.24
709.577	319.84
710.021	327.74
710.465	309.94
710.908	312.94
711.352	307.84
711.795	324.74
712.239	363.24
712.682	394.24
713.126	433.34
713.569	484.54
714.012	377.54
714.456	331.44
714.899	302.64
715.342	279.34
715.786	267.04
716.229	262.84
716.672	263.14
717.115	255.64
717.558	255.84
718.002	267.14
718.445	265.34
718.888	292.04
719.331	298.44
719.774	316.94
720.217	310.24
720.66	287.64
721.103	275.54
721.546	262.54
721.989	258.04
722.432	238.24
722.874	246.84
723.317	239.04
723.76	246.54
724.203	277.34
724.645	320.14
725.088	458.94
725.531	587.54
725.974	659.04
726.416	559.14
726.859	308.54
727.301	248.04
727.744	245.54
728.187	244.04
728.629	238.94
729.071	247.44
729.514	265.14
729.956	286.94
730.399	295.34
730.841	294.24
731.283	279.04
731.726	265.44
732.168	261.64
732.61	278.54
733.053	296.74
733.495	322.04
733.937	366.54
734.379	400.34
734.821	443.04
735.263	560.84
735.705	859.14
736.148	1595.24
736.59	2637.54
737.032	3115.14
737.474	2513.94
737.916	821.04
738.357	429.54
738.799	335.44
739.241	299.24
739.683	292.54
740.125	296.74
740.567	311.14
741.008	316.94
741.45	317.04
741.892	321.04
742.334	354.34
742.775	362.14
743.217	355.74
743.658	279.64
744.1	256.64
744.542	259.44
744.983	320.64
745.425	341.54
745.866	350.14
746.307	292.04
746.749	286.44
747.19	328.84
747.632	458.14
748.073	892.24
748.514	1902.14
748.956	2900.74
749.397	3649.64
749.838	3011.54
750.279	3014.24
750.72	1529.84
751.162	553.54
751.603	323.54
752.044	260.04
752.485	223.34
752.926	206.94
753.367	201.54
753.808	189.94
754.249	190.94
754.69	191.64
755.131	184.84
755.572	191.34
756.013	189.24
756.453	189.44
756.894	192.74
757.335	198.24
757.776	201.14
758.216	202.14
758.657	201.34
759.098	208.14
759.538	229.44
759.979	271.94
760.42	376.74
760.86	712.34
761.301	1878.04
761.741	4495.24
762.182	6571.44
762.622	4631.54
