Data from 20171114-ORNL-Ar_H_NY_Subt18_08-06-03-263.txt Node
Date: Tue Nov 14 08:06:03 EST 2017
User: Ender
Spectrometer: HR+D1039
Trigger mode: 0
Integration Time (sec): 2.730000E-2
Scans to average: 10
Electric dark correction enabled: true
Nonlinearity correction enabled: false
Boxcar width: 0
XAxis mode: Wavelengths
Number of Pixels in Spectrum: 2048
>>>>>Begin Spectral Data<<<<<
187.836	-7.56
188.309	-7.56
188.782	-7.56
189.255	7.84
189.728	0.94
190.201	3.54
190.674	-2.06
191.147	1.64
191.619	-6.76
192.092	1.34
192.565	6.14
193.038	1.04
193.511	2.24
193.984	-3.06
194.456	-1.06
194.929	-3.56
195.402	-0.26
195.874	-0.46
196.347	-2.86
196.82	-7.96
197.292	5.44
197.765	-2.16
198.237	-9.26
198.71	-1.76
199.182	-2.86
199.655	5.84
200.127	-1.56
200.6	-0.26
201.072	-3.36
201.544	-2.36
202.017	1.34
202.489	-2.96
202.961	-4.76
203.433	-0.66
203.906	-7.26
204.378	-4.26
204.85	-4.16
205.322	-2.16
205.794	-2.96
206.266	0.74
206.739	-12.56
207.211	-2.26
207.683	-11.46
208.155	-0.06
208.627	-7.66
209.099	-3.76
209.57	-10.36
210.042	-7.76
210.514	-5.36
210.986	-6.56
211.458	-7.06
211.93	-1.56
212.402	0.14
212.873	-14.46
213.345	-10.16
213.817	-11.76
214.288	-3.36
214.76	-13.36
215.232	-0.06
215.703	-4.16
216.175	-5.36
216.646	-5.66
217.118	-8.36
217.589	-8.06
218.061	-6.16
218.532	-7.16
219.004	-6.66
219.475	-2.96
219.946	-0.46
220.418	-3.46
220.889	4.44
221.36	-0.06
221.832	-3.46
222.303	-9.16
222.774	5.24
223.245	-11.96
223.717	-4.16
224.188	-2.46
224.659	-12.56
225.13	-4.96
225.601	-8.16
226.072	3.24
226.543	0.84
227.014	0.44
227.485	-3.06
227.956	-13.86
228.427	-4.96
228.898	2.24
229.369	-1.96
229.839	-5.26
230.31	-5.96
230.781	-3.36
231.252	-0.76
231.722	1.84
232.193	-6.36
232.664	-0.96
233.135	0.04
233.605	-0.96
234.076	-10.06
234.546	-1.46
235.017	4.14
235.487	-0.46
235.958	1.14
236.428	1.94
236.899	6.24
237.369	0.84
237.84	-5.76
238.31	2.04
238.78	0.24
239.251	-0.06
239.721	1.14
240.191	-1.76
240.662	-5.26
241.132	-1.26
241.602	-7.26
242.072	2.74
242.542	8.24
243.013	1.64
243.483	2.74
243.953	2.04
244.423	-1.46
244.893	-2.36
245.363	8.04
245.833	6.24
246.303	-1.16
246.773	3.54
247.243	0.44
247.712	4.04
248.182	8.24
248.652	5.34
249.122	-0.76
249.592	10.44
250.061	15.54
250.531	28.74
251.001	12.04
251.471	22.24
251.94	17.34
252.41	10.54
252.879	0.54
253.349	7.54
253.818	5.24
254.288	3.74
254.757	5.74
255.227	0.74
255.696	0.04
256.166	1.74
256.635	4.04
257.105	0.74
257.574	7.64
258.043	7.24
258.513	7.34
258.982	21.74
259.451	4.44
259.92	10.44
260.389	8.14
260.859	12.84
261.328	10.74
261.797	16.64
262.266	9.04
262.735	11.24
263.204	6.04
263.673	2.04
264.142	4.54
264.611	-5.96
265.08	-2.26
265.549	-2.36
266.018	5.74
266.487	1.74
266.955	1.84
267.424	5.14
267.893	6.34
268.362	0.44
268.83	4.24
269.299	8.64
269.768	6.64
270.236	8.34
270.705	2.14
271.174	8.84
271.642	9.44
272.111	4.74
272.579	18.24
273.048	20.14
273.516	23.14
273.985	19.64
274.453	29.64
274.922	20.54
275.39	8.24
275.858	5.04
276.327	11.04
276.795	15.54
277.263	4.94
277.731	31.04
278.2	50.94
278.668	54.44
279.136	51.64
279.604	24.14
280.072	20.14
280.54	10.54
281.008	13.64
281.477	12.84
281.945	17.74
282.413	16.34
282.881	15.84
283.348	9.94
283.816	13.14
284.284	10.14
284.752	20.34
285.22	12.34
285.688	12.64
286.156	15.44
286.623	38.34
287.091	47.14
287.559	26.44
288.026	15.04
288.494	20.64
288.962	9.84
289.429	16.54
289.897	14.64
290.364	12.94
290.832	17.84
291.3	20.04
291.767	19.04
292.234	17.54
292.702	13.14
293.169	25.74
293.637	23.34
294.104	23.24
294.571	9.34
295.039	9.94
295.506	15.94
295.973	19.24
296.44	21.14
296.908	18.24
297.375	17.84
297.842	16.04
298.309	17.04
298.776	11.74
299.243	19.84
299.71	14.94
300.177	24.94
300.644	22.24
301.111	18.44
301.578	25.54
302.045	14.44
302.512	25.94
302.979	29.84
303.446	21.64
303.913	19.74
304.379	17.74
304.846	26.54
305.313	24.04
305.78	23.84
306.246	21.34
306.713	29.04
307.18	23.94
307.646	25.94
308.113	31.94
308.579	19.34
309.046	26.54
309.512	27.44
309.979	12.94
310.445	28.14
310.912	27.34
311.378	34.04
311.845	31.74
312.311	31.74
312.777	29.44
313.244	27.94
313.71	34.44
314.176	30.34
314.642	38.44
315.109	35.44
315.575	37.94
316.041	38.44
316.507	39.64
316.973	37.04
317.439	34.64
317.905	33.54
318.371	33.84
318.837	38.14
319.303	40.34
319.769	37.04
320.235	34.04
320.701	37.34
321.167	38.04
321.633	36.34
322.099	38.24
322.564	37.84
323.03	40.94
323.496	31.94
323.962	43.14
324.427	31.34
324.893	45.34
325.359	36.54
325.824	34.54
326.29	33.74
326.755	44.14
327.221	34.34
327.686	41.94
328.152	49.94
328.617	38.14
329.083	49.24
329.548	51.64
330.014	54.14
330.479	40.24
330.944	42.44
331.41	49.24
331.875	50.64
332.34	44.84
332.805	46.74
333.271	45.04
333.736	44.64
334.201	57.14
334.666	42.04
335.131	56.44
335.596	54.74
336.061	55.54
336.526	41.74
336.991	50.24
337.456	59.44
337.921	43.14
338.386	46.84
338.851	45.34
339.316	50.44
339.781	45.54
340.246	55.54
340.711	42.64
341.175	53.44
341.64	43.44
342.105	43.64
342.569	58.54
343.034	62.14
343.499	55.44
343.963	47.84
344.428	63.34
344.893	62.84
345.357	64.44
345.822	60.84
346.286	70.44
346.751	74.14
347.215	69.04
347.679	78.74
348.144	99.44
348.608	82.04
349.073	70.44
349.537	69.34
350.001	80.74
350.465	81.94
350.93	82.14
351.394	81.74
351.858	73.34
352.322	83.64
352.786	88.74
353.25	101.64
353.715	106.74
354.179	95.44
354.643	122.34
355.107	135.74
355.571	110.84
356.035	104.44
356.498	121.04
356.962	124.84
357.426	135.24
357.89	118.74
358.354	94.74
358.818	82.94
359.281	83.14
359.745	86.14
360.209	77.84
360.673	71.84
361.136	76.74
361.6	84.14
362.064	83.44
362.527	86.44
362.991	93.34
363.454	86.44
363.918	74.74
364.381	79.14
364.845	86.14
365.308	88.14
365.772	90.64
366.235	90.84
366.698	80.64
367.162	82.84
367.625	93.54
368.088	89.54
368.552	87.64
369.015	88.94
369.478	96.44
369.941	99.64
370.404	92.74
370.867	104.74
371.331	102.34
371.794	122.04
372.257	114.74
372.72	120.54
373.183	111.04
373.646	108.24
374.109	110.44
374.572	108.04
375.035	108.84
375.497	113.54
375.96	111.54
376.423	107.34
376.886	115.64
377.349	100.64
377.811	107.14
378.274	107.94
378.737	110.04
379.199	110.34
379.662	115.64
380.125	124.64
380.587	116.24
381.05	128.24
381.512	124.74
381.975	138.64
382.437	129.24
382.9	127.24
383.362	134.24
383.825	143.74
384.287	150.44
384.75	144.84
385.212	143.54
385.674	147.44
386.136	146.74
386.599	129.14
387.061	135.04
387.523	127.44
387.985	143.74
388.447	153.84
388.91	150.94
389.372	164.54
389.834	153.24
390.296	148.74
390.758	157.84
391.22	174.84
391.682	220.94
392.144	299.14
392.606	232.54
393.068	171.74
393.529	166.34
393.991	159.44
394.453	153.54
394.915	160.84
395.377	194.04
395.838	217.54
396.3	155.74
396.762	148.64
397.224	131.34
397.685	129.44
398.147	131.74
398.608	132.24
399.07	130.14
399.531	138.04
399.993	146.34
400.454	160.34
400.916	146.14
401.377	151.44
401.839	150.04
402.3	157.14
402.762	176.04
403.223	190.74
403.684	180.14
404.145	165.84
404.607	165.84
405.068	164.44
405.529	168.34
405.99	186.24
406.451	184.04
406.913	182.14
407.374	168.24
407.835	169.24
408.296	166.14
408.757	175.24
409.218	187.94
409.679	189.14
410.14	180.44
410.601	182.44
411.062	182.64
411.522	196.84
411.983	195.24
412.444	173.94
412.905	183.44
413.366	191.04
413.826	200.34
414.287	225.94
414.748	267.84
415.208	254.04
415.669	216.64
416.13	219.94
416.59	202.64
417.051	216.74
417.511	226.04
417.972	242.84
418.432	258.34
418.893	291.74
419.353	259.84
419.814	205.94
420.274	191.14
420.734	186.74
421.195	207.74
421.655	202.84
422.115	199.64
422.576	194.74
423.036	197.64
423.496	214.24
423.956	215.34
424.416	238.84
424.876	275.14
425.336	273.64
425.797	269.34
426.257	265.44
426.717	247.84
427.177	232.74
427.637	232.24
428.097	241.94
428.556	250.14
429.016	277.54
429.476	270.54
429.936	283.84
430.396	284.44
430.856	300.14
431.315	324.54
431.775	367.34
432.235	397.14
432.694	363.44
433.154	373.34
433.614	409.94
434.073	355.94
434.533	291.34
434.993	279.54
435.452	294.74
435.912	303.34
436.371	298.14
436.83	293.74
437.29	279.64
437.749	257.54
438.209	252.44
438.668	282.64
439.127	304.54
439.587	276.84
440.046	250.04
440.505	264.74
440.964	290.94
441.424	329.44
441.883	328.94
442.342	268.04
442.801	228.74
443.26	224.84
443.719	226.64
444.178	230.14
444.637	215.54
445.096	233.04
445.555	223.94
446.014	231.34
446.473	234.14
446.932	251.14
447.391	231.04
447.849	229.64
448.308	223.24
448.767	224.64
449.226	239.44
449.685	233.34
450.143	261.64
450.602	243.24
451.061	239.04
451.519	239.74
451.978	233.04
452.436	240.64
452.895	256.04
453.353	260.84
453.812	243.34
454.27	248.54
454.729	247.54
455.187	245.54
455.646	255.34
456.104	261.74
456.562	265.54
457.021	279.04
457.479	275.34
457.937	278.54
458.395	277.04
458.854	250.64
459.312	259.44
459.77	284.64
460.228	260.94
460.686	250.64
461.144	258.14
461.602	254.24
462.06	255.64
462.518	267.64
462.976	264.04
463.434	265.74
463.892	271.24
464.35	279.14
464.808	291.74
465.266	273.04
465.724	278.04
466.181	280.54
466.639	275.74
467.097	290.84
467.555	311.74
468.012	316.54
468.47	318.14
468.928	339.44
469.385	350.74
469.843	363.74
470.3	359.94
470.758	370.84
471.215	395.14
471.673	420.24
472.13	409.24
472.588	435.94
473.045	385.44
473.503	389.54
473.96	405.24
474.417	421.24
474.875	443.34
475.332	486.44
475.789	488.74
476.246	475.74
476.704	501.24
477.161	522.54
477.618	544.84
478.075	573.54
478.532	631.84
478.989	712.14
479.446	822.84
479.903	790.54
480.36	831.34
480.817	877.34
481.274	985.84
481.731	1084.64
482.188	1188.04
482.645	1341.04
483.102	1443.94
483.558	1574.24
484.015	1635.24
484.472	1605.74
484.929	1560.04
485.385	1499.54
485.842	1466.04
486.299	1406.24
486.755	1336.34
487.212	1127.54
487.668	950.34
488.125	874.64
488.582	804.94
489.038	764.24
489.494	722.24
489.951	698.24
490.407	682.14
490.864	662.24
491.32	660.64
491.776	669.34
492.233	665.54
492.689	629.44
493.145	619.64
493.602	614.84
494.058	629.54
494.514	631.44
494.97	645.54
495.426	664.74
495.882	630.74
496.338	626.24
496.794	640.34
497.251	640.74
497.707	651.84
498.163	662.24
498.618	660.94
499.074	661.64
499.53	693.54
499.986	705.54
500.442	664.54
500.898	641.84
501.354	640.74
501.809	653.14
502.265	654.54
502.721	662.54
503.177	685.14
503.632	682.54
504.088	695.74
504.543	722.14
504.999	722.74
505.455	679.94
505.91	643.84
506.366	647.44
506.821	635.24
507.277	639.14
507.732	643.64
508.187	641.14
508.643	652.84
509.098	647.04
509.553	662.54
510.009	671.64
510.464	693.04
510.919	709.64
511.375	715.34
511.83	723.74
512.285	735.84
512.74	772.24
513.195	802.04
513.65	789.54
514.105	789.64
514.56	794.94
515.015	804.74
515.47	822.14
515.925	801.44
516.38	808.64
516.835	811.04
517.29	796.74
517.745	790.84
518.2	777.34
518.655	770.24
519.109	767.34
519.564	759.74
520.019	747.94
520.474	736.84
520.928	739.04
521.383	735.94
521.838	726.24
522.292	719.94
522.747	720.94
523.201	709.64
523.656	714.34
524.11	710.74
524.565	706.14
525.019	699.94
525.474	705.74
525.928	721.54
526.382	701.54
526.837	709.84
527.291	707.14
527.745	707.44
528.2	710.34
528.654	701.74
529.108	703.64
529.562	707.74
530.016	698.04
530.47	701.14
530.925	706.34
531.379	713.84
531.833	713.64
532.287	712.24
532.741	710.94
533.195	718.44
533.649	727.74
534.103	735.34
534.556	719.84
535.01	721.54
535.464	707.84
535.918	731.34
536.372	734.14
536.826	721.74
537.279	726.54
537.733	723.54
538.187	724.94
538.64	723.64
539.094	731.94
539.548	748.94
540.001	741.14
540.455	742.24
540.908	735.44
541.362	756.44
541.815	756.04
542.269	770.14
542.722	773.44
543.175	779.24
543.629	774.44
544.082	793.54
544.536	786.84
544.989	799.14
545.442	802.54
545.895	796.64
546.349	796.94
546.802	799.04
547.255	808.24
547.708	811.34
548.161	820.34
548.614	841.84
549.067	837.24
549.52	827.44
549.973	823.44
550.426	821.24
550.879	794.84
551.332	811.44
551.785	816.24
552.238	809.94
552.691	830.64
553.144	839.04
553.596	858.04
554.049	872.44
554.502	907.64
554.955	919.14
555.407	926.04
555.86	904.44
556.313	909.54
556.765	896.84
557.218	890.14
557.67	893.24
558.123	879.24
558.576	883.34
559.028	882.54
559.48	901.14
559.933	889.24
560.385	849.94
560.838	817.34
561.29	803.64
561.742	784.84
562.195	773.54
562.647	773.14
563.099	783.44
563.551	785.34
564.004	799.54
564.456	781.54
564.908	769.94
565.36	749.94
565.812	739.34
566.264	738.44
566.716	736.34
567.168	729.84
567.62	736.74
568.072	706.04
568.524	702.64
568.976	699.64
569.428	680.54
569.88	676.64
570.332	700.24
570.784	691.24
571.235	689.64
571.687	699.94
572.139	710.34
572.59	714.64
573.042	710.64
573.494	719.14
573.945	703.14
574.397	696.54
574.849	689.74
575.3	697.14
575.752	695.64
576.203	686.04
576.655	695.94
577.106	671.34
577.557	676.94
578.009	671.94
578.46	667.64
578.912	663.24
579.363	670.74
579.814	673.24
580.265	670.04
580.717	670.54
581.168	672.94
581.619	684.94
582.07	686.04
582.521	687.44
582.972	673.14
583.423	684.84
583.875	679.54
584.326	701.44
584.777	740.14
585.227	818.24
585.678	902.74
586.129	987.34
586.58	1059.04
587.031	1143.04
587.482	1282.04
587.933	1466.34
588.384	1276.14
588.834	960.54
589.285	805.14
589.736	786.44
590.186	778.74
590.637	776.94
591.088	744.74
591.538	736.14
591.989	739.34
592.439	732.54
592.89	725.94
593.34	706.54
593.791	710.54
594.241	706.14
594.692	715.84
595.142	706.94
595.593	708.64
596.043	716.84
596.493	725.94
596.943	725.64
597.394	720.64
597.844	720.94
598.294	732.24
598.744	760.14
599.195	778.84
599.645	815.64
600.095	858.44
600.545	913.24
600.995	970.64
601.445	1015.24
601.895	1082.74
602.345	1145.14
602.795	1114.74
603.245	1065.44
603.695	1005.74
604.145	950.84
604.594	913.04
605.044	864.34
605.494	802.04
605.944	753.74
606.393	735.04
606.843	726.14
607.293	727.54
607.743	736.14
608.192	747.14
608.642	765.54
609.091	764.14
609.541	769.34
609.99	767.44
610.44	765.24
610.889	727.64
611.339	692.44
611.788	684.44
612.238	701.34
612.687	717.34
613.136	724.44
613.586	739.44
614.035	737.44
614.484	753.24
614.933	754.44
615.383	746.24
615.832	734.74
616.281	716.04
616.73	689.74
617.179	659.04
617.628	652.94
618.077	633.44
618.526	618.84
618.975	614.74
619.424	607.94
619.873	610.74
620.322	627.94
620.771	604.94
621.22	601.24
621.669	597.24
622.118	595.94
622.567	577.34
623.015	578.34
623.464	581.04
623.913	556.34
624.361	541.74
624.81	547.84
625.259	551.34
625.707	552.14
626.156	557.74
626.604	565.44
627.053	557.84
627.501	557.44
627.95	568.04
628.398	570.44
628.847	566.34
629.295	564.44
629.744	570.94
630.192	572.74
630.64	565.14
631.089	557.34
631.537	572.24
631.985	578.64
632.433	598.04
632.881	606.34
633.33	659.24
633.778	625.84
634.226	569.24
634.674	567.94
635.122	572.14
635.57	592.64
636.018	623.14
636.466	572.94
636.914	545.24
637.362	559.74
637.81	572.14
638.258	583.54
638.705	577.74
639.153	610.24
639.601	618.44
640.049	636.44
640.497	660.94
640.944	692.14
641.392	643.14
641.84	608.54
642.287	579.74
642.735	562.14
643.182	567.74
643.63	565.64
644.078	566.44
644.525	588.34
644.973	593.34
645.42	585.94
645.867	610.64
646.315	624.64
646.762	651.44
647.21	682.14
647.657	695.74
648.104	741.04
648.551	763.84
648.999	823.24
649.446	903.84
649.893	992.74
650.34	1146.24
650.787	1362.04
651.234	1716.94
651.682	2209.94
652.129	3058.64
652.576	4396.44
653.023	6454.74
653.47	8862.04
653.917	11099.04
654.363	12848.74
654.81	14228.14
655.257	13582.54
655.704	8919.94
656.151	5235.44
656.598	3418.54
657.044	2429.94
657.491	1850.14
657.938	1475.84
658.385	1240.94
658.831	1070.34
659.278	957.84
659.724	849.04
660.171	782.14
660.618	716.94
661.064	669.54
661.511	654.14
661.957	655.84
662.404	641.34
662.85	646.94
663.296	622.34
663.743	551.84
664.189	522.84
664.635	527.84
665.082	520.94
665.528	512.14
665.974	507.24
666.42	510.64
666.867	499.14
667.313	486.34
667.759	471.94
668.205	469.74
668.651	483.04
669.097	475.34
669.543	495.04
669.989	457.94
670.435	448.34
670.881	441.14
671.327	436.44
671.773	456.34
672.219	478.04
672.665	542.64
673.11	580.64
673.556	619.84
674.002	662.94
674.448	652.14
674.893	541.44
675.339	464.34
675.785	431.84
676.23	418.24
676.676	379.04
677.122	378.04
677.567	365.24
678.013	364.34
678.458	351.24
678.904	353.64
679.349	338.64
679.794	354.54
680.24	347.04
680.685	346.64
681.131	345.84
681.576	336.44
682.021	346.24
682.466	344.14
682.912	341.74
683.357	353.84
683.802	376.74
684.247	408.94
684.692	450.24
685.137	486.74
685.583	526.54
686.028	553.44
686.473	512.74
686.918	441.34
687.363	411.84
687.807	382.44
688.252	361.14
688.697	341.44
689.142	334.14
689.587	318.74
690.032	328.84
690.477	334.44
690.921	343.74
691.366	376.24
691.811	392.84
692.255	425.44
692.7	451.14
693.145	491.84
693.589	666.54
694.034	1088.94
694.478	1500.84
694.923	1704.24
695.367	2235.24
695.812	1183.64
696.256	493.54
696.701	373.94
697.145	338.04
697.59	328.54
698.034	319.54
698.478	321.74
698.922	318.74
699.367	324.94
699.811	328.74
700.255	348.64
700.699	375.04
701.143	416.34
701.588	456.54
702.032	510.44
702.476	492.24
702.92	485.14
703.364	481.14
703.808	621.54
704.252	987.74
704.696	1408.74
705.14	1648.64
705.584	2095.84
706.027	1059.44
706.471	508.14
706.915	388.04
707.359	344.54
707.803	319.94
708.246	300.24
708.69	292.44
709.134	305.94
709.577	299.34
710.021	314.14
710.465	299.34
710.908	288.24
711.352	291.84
711.795	304.94
712.239	339.44
712.682	374.94
713.126	413.04
713.569	456.84
714.012	373.94
714.456	317.94
714.899	295.94
715.342	270.64
715.786	264.44
716.229	249.44
716.672	248.04
717.115	246.34
717.558	247.64
718.002	248.64
718.445	260.64
718.888	278.14
719.331	291.44
719.774	302.54
720.217	299.64
720.66	280.94
721.103	264.24
721.546	249.94
721.989	244.34
722.432	226.94
722.874	234.04
723.317	224.14
723.76	227.04
724.203	243.84
724.645	305.44
725.088	433.44
725.531	548.84
725.974	633.34
726.416	534.54
726.859	301.24
727.301	243.64
727.744	233.84
728.187	229.64
728.629	235.84
729.071	236.44
729.514	250.84
729.956	266.84
730.399	270.04
730.841	282.64
731.283	265.44
731.726	258.14
732.168	255.84
732.61	254.84
733.053	282.04
733.495	309.24
733.937	343.24
734.379	387.54
734.821	426.14
735.263	519.74
735.705	810.64
736.148	1510.94
736.59	2500.14
737.032	3000.14
737.474	2439.44
737.916	791.24
738.357	419.94
738.799	324.14
739.241	295.24
739.683	275.54
740.125	287.44
740.567	292.94
741.008	311.44
741.45	296.34
741.892	306.74
742.334	337.54
742.775	355.24
743.217	328.24
743.658	262.04
744.1	250.24
744.542	251.24
744.983	304.74
745.425	333.64
745.866	341.04
746.307	285.64
746.749	277.34
747.19	313.14
747.632	444.24
748.073	841.64
748.514	1804.84
748.956	2780.44
749.397	3467.44
749.838	2880.24
750.279	2918.14
750.72	1471.34
751.162	533.44
751.603	318.84
752.044	248.54
752.485	208.14
752.926	205.34
753.367	194.74
753.808	190.34
754.249	191.14
754.69	181.54
755.131	177.04
755.572	177.64
756.013	179.24
756.453	181.44
756.894	181.54
757.335	196.04
757.776	192.34
758.216	188.54
758.657	192.14
759.098	196.54
759.538	216.64
759.979	261.54
760.42	364.54
760.86	677.34
761.301	1740.44
761.741	4240.14
762.182	6285.44
