Data from 20171114-ORNL-Ar_H_NY_Subt18_08-05-29-960.txt Node
Date: Tue Nov 14 08:05:29 EST 2017
User: Ender
Spectrometer: HR+D1039
Trigger mode: 0
Integration Time (sec): 2.730000E-2
Scans to average: 10
Electric dark correction enabled: true
Nonlinearity correction enabled: false
Boxcar width: 0
XAxis mode: Wavelengths
Number of Pixels in Spectrum: 2048
>>>>>Begin Spectral Data<<<<<
187.836	-4.92
188.309	-4.92
188.782	-4.92
189.255	1.38
189.728	4.78
190.201	5.88
190.674	-1.42
191.147	-1.12
191.619	-7.82
192.092	3.48
192.565	3.08
193.038	-2.02
193.511	-2.72
193.984	3.88
194.456	-1.92
194.929	0.18
195.402	0.58
195.874	-1.32
196.347	2.48
196.82	-5.42
197.292	5.68
197.765	-7.32
198.237	-0.82
198.71	3.68
199.182	2.38
199.655	5.78
200.127	1.18
200.6	4.38
201.072	-0.42
201.544	1.58
202.017	-2.62
202.489	10.68
202.961	-3.32
203.433	1.48
203.906	-3.92
204.378	-3.22
204.85	-2.62
205.322	-8.52
205.794	1.38
206.266	-0.12
206.739	-4.52
207.211	-0.72
207.683	-2.92
208.155	-2.42
208.627	-1.62
209.099	-0.62
209.57	-10.02
210.042	-1.62
210.514	-8.52
210.986	2.18
211.458	-12.42
211.93	-5.62
212.402	3.28
212.873	-8.62
213.345	-9.22
213.817	-12.62
214.288	4.38
214.76	-10.42
215.232	-0.62
215.703	-4.72
216.175	-6.22
216.646	-5.22
217.118	-5.92
217.589	-2.62
218.061	-5.82
218.532	-0.32
219.004	-2.22
219.475	-2.82
219.946	-6.02
220.418	-1.52
220.889	5.98
221.36	3.48
221.832	6.18
222.303	-6.82
222.774	5.18
223.245	-9.22
223.717	-2.62
224.188	-1.62
224.659	-8.92
225.13	-4.92
225.601	1.08
226.072	3.98
226.543	-0.92
227.014	-2.22
227.485	-7.92
227.956	-3.82
228.427	-4.02
228.898	9.28
229.369	8.18
229.839	0.58
230.31	-4.72
230.781	2.18
231.252	3.18
231.722	-9.02
232.193	4.78
232.664	3.98
233.135	5.78
233.605	0.28
234.076	-2.02
234.546	3.48
235.017	4.68
235.487	0.38
235.958	0.78
236.428	0.28
236.899	6.98
237.369	5.28
237.84	2.08
238.31	11.58
238.78	0.98
239.251	-2.62
239.721	9.38
240.191	4.38
240.662	2.28
241.132	1.28
241.602	-0.32
242.072	-1.82
242.542	5.68
243.013	1.58
243.483	7.98
243.953	6.98
244.423	-7.22
244.893	-1.72
245.363	0.48
245.833	1.58
246.303	-2.22
246.773	10.98
247.243	4.38
247.712	2.98
248.182	11.68
248.652	9.68
249.122	-0.22
249.592	9.28
250.061	26.18
250.531	30.78
251.001	22.48
251.471	28.18
251.94	22.88
252.41	9.18
252.879	-2.22
253.349	8.98
253.818	9.58
254.288	8.08
254.757	6.18
255.227	3.18
255.696	6.08
256.166	6.88
256.635	6.78
257.105	8.98
257.574	1.48
258.043	7.18
258.513	11.38
258.982	19.58
259.451	10.18
259.92	16.48
260.389	14.88
260.859	13.78
261.328	14.78
261.797	26.18
262.266	15.08
262.735	13.18
263.204	8.28
263.673	2.28
264.142	6.68
264.611	1.78
265.08	3.28
265.549	1.98
266.018	6.98
266.487	-6.82
266.955	-0.52
267.424	1.18
267.893	10.58
268.362	6.38
268.83	0.68
269.299	10.88
269.768	9.38
270.236	9.18
270.705	3.08
271.174	10.28
271.642	12.08
272.111	11.98
272.579	14.68
273.048	19.58
273.516	26.98
273.985	27.28
274.453	22.38
274.922	17.08
275.39	15.58
275.858	5.38
276.327	11.38
276.795	19.88
277.263	9.68
277.731	35.38
278.2	59.08
278.668	70.08
279.136	48.78
279.604	22.18
280.072	15.68
280.54	17.18
281.008	10.28
281.477	20.68
281.945	15.28
282.413	17.08
282.881	20.68
283.348	5.18
283.816	17.18
284.284	16.98
284.752	27.58
285.22	16.88
285.688	24.98
286.156	21.98
286.623	46.58
287.091	56.38
287.559	28.68
288.026	21.78
288.494	14.08
288.962	8.98
289.429	7.68
289.897	25.18
290.364	18.88
290.832	21.18
291.3	19.18
291.767	22.68
292.234	19.68
292.702	14.28
293.169	21.18
293.637	21.78
294.104	21.58
294.571	9.28
295.039	19.48
295.506	14.58
295.973	21.08
296.44	17.18
296.908	24.88
297.375	19.78
297.842	23.38
298.309	20.78
298.776	15.48
299.243	21.08
299.71	14.28
300.177	21.38
300.644	24.18
301.111	18.48
301.578	24.08
302.045	20.48
302.512	22.98
302.979	28.98
303.446	22.68
303.913	20.18
304.379	20.48
304.846	29.68
305.313	21.58
305.78	16.68
306.246	33.58
306.713	34.08
307.18	26.68
307.646	29.08
308.113	29.28
308.579	27.68
309.046	26.28
309.512	31.48
309.979	24.78
310.445	27.78
310.912	34.28
311.378	31.48
311.845	36.88
312.311	35.68
312.777	30.08
313.244	33.78
313.71	43.98
314.176	34.68
314.642	35.98
315.109	39.18
315.575	43.08
316.041	42.88
316.507	34.68
316.973	44.18
317.439	41.48
317.905	38.38
318.371	36.68
318.837	37.78
319.303	44.88
319.769	40.28
320.235	33.28
320.701	34.98
321.167	42.58
321.633	39.88
322.099	44.88
322.564	50.78
323.03	40.38
323.496	42.78
323.962	41.88
324.427	35.58
324.893	45.28
325.359	45.28
325.824	37.48
326.29	40.68
326.755	41.48
327.221	38.68
327.686	47.28
328.152	46.18
328.617	47.48
329.083	53.08
329.548	51.58
330.014	45.58
330.479	42.08
330.944	46.28
331.41	44.78
331.875	53.58
332.34	44.58
332.805	46.08
333.271	44.08
333.736	44.88
334.201	56.38
334.666	57.18
335.131	54.38
335.596	47.78
336.061	53.08
336.526	51.78
336.991	56.08
337.456	57.68
337.921	52.68
338.386	47.78
338.851	47.38
339.316	51.58
339.781	47.38
340.246	47.78
340.711	45.98
341.175	51.98
341.64	49.88
342.105	60.28
342.569	62.58
343.034	65.18
343.499	61.78
343.963	48.88
344.428	67.08
344.893	65.48
345.357	73.68
345.822	68.68
346.286	75.78
346.751	73.28
347.215	72.88
347.679	79.78
348.144	103.78
348.608	87.38
349.073	75.08
349.537	85.58
350.001	86.98
350.465	95.38
350.93	81.98
351.394	80.48
351.858	83.18
352.322	94.68
352.786	85.88
353.25	104.88
353.715	116.98
354.179	106.98
354.643	127.38
355.107	132.58
355.571	117.58
356.035	109.28
356.498	126.28
356.962	128.58
357.426	141.08
357.89	123.78
358.354	95.98
358.818	89.38
359.281	74.48
359.745	75.18
360.209	85.58
360.673	78.48
361.136	84.38
361.6	95.08
362.064	92.38
362.527	88.78
362.991	99.28
363.454	86.58
363.918	83.08
364.381	84.28
364.845	91.78
365.308	94.38
365.772	89.58
366.235	87.68
366.698	95.28
367.162	90.18
367.625	91.98
368.088	95.88
368.552	91.38
369.015	92.28
369.478	101.58
369.941	104.28
370.404	97.98
370.867	107.38
371.331	116.98
371.794	115.38
372.257	118.88
372.72	116.08
373.183	110.78
373.646	109.58
374.109	109.58
374.572	116.68
375.035	109.18
375.497	121.18
375.96	106.28
376.423	111.58
376.886	119.38
377.349	110.98
377.811	98.08
378.274	111.28
378.737	116.58
379.199	113.48
379.662	117.18
380.125	114.28
380.587	123.88
381.05	123.88
381.512	132.98
381.975	137.78
382.437	133.38
382.9	121.38
383.362	133.28
383.825	142.48
384.287	150.48
384.75	147.28
385.212	137.68
385.674	147.98
386.136	143.08
386.599	125.98
387.061	128.48
387.523	132.18
387.985	133.88
388.447	150.18
388.91	149.08
389.372	160.28
389.834	157.28
390.296	149.38
390.758	161.58
391.22	175.58
391.682	208.68
392.144	290.48
392.606	219.28
393.068	169.78
393.529	176.28
393.991	163.58
394.453	152.78
394.915	162.58
395.377	192.78
395.838	217.88
396.3	160.38
396.762	142.58
397.224	139.18
397.685	138.78
398.147	140.38
398.608	131.18
399.07	135.28
399.531	143.48
399.993	148.48
400.454	152.38
400.916	155.18
401.377	149.58
401.839	155.28
402.3	156.18
402.762	167.48
403.223	181.18
403.684	174.18
404.145	160.18
404.607	163.08
405.068	165.88
405.529	173.18
405.99	192.08
406.451	183.98
406.913	173.98
407.374	161.38
407.835	168.48
408.296	174.98
408.757	175.48
409.218	184.98
409.679	176.58
410.14	178.28
410.601	183.98
411.062	184.28
411.522	187.38
411.983	195.28
412.444	182.38
412.905	187.78
413.366	185.78
413.826	194.58
414.287	217.28
414.748	265.88
415.208	254.88
415.669	212.98
416.13	218.28
416.59	206.18
417.051	215.98
417.511	224.38
417.972	243.48
418.432	245.28
418.893	295.18
419.353	254.88
419.814	206.28
420.274	189.08
420.734	187.68
421.195	194.98
421.655	204.98
422.115	196.38
422.576	192.18
423.036	200.48
423.496	212.38
423.956	218.98
424.416	236.28
424.876	276.38
425.336	267.08
425.797	265.98
426.257	259.58
426.717	243.38
427.177	238.68
427.637	226.48
428.097	235.18
428.556	246.28
429.016	270.48
429.476	269.78
429.936	279.08
430.396	276.88
430.856	290.38
431.315	324.58
431.775	362.18
432.235	387.38
432.694	354.18
433.154	371.78
433.614	395.58
434.073	333.68
434.533	294.98
434.993	269.48
435.452	298.18
435.912	300.48
436.371	298.48
436.83	285.58
437.29	274.08
437.749	250.88
438.209	250.58
438.668	281.68
439.127	292.08
439.587	272.58
440.046	257.48
440.505	269.68
440.964	286.78
441.424	333.38
441.883	319.68
442.342	268.18
442.801	230.38
443.26	222.58
443.719	220.78
444.178	219.68
444.637	215.18
445.096	228.48
445.555	223.88
446.014	224.18
446.473	229.38
446.932	230.58
447.391	230.08
447.849	226.78
448.308	226.08
448.767	228.38
449.226	242.78
449.685	238.98
450.143	255.58
450.602	243.48
451.061	237.88
451.519	237.58
451.978	240.88
452.436	232.38
452.895	243.98
453.353	264.98
453.812	249.68
454.27	241.38
454.729	246.38
455.187	252.68
455.646	251.98
456.104	254.78
456.562	266.38
457.021	275.78
457.479	272.08
457.937	280.98
458.395	263.68
458.854	250.38
459.312	263.38
459.77	277.58
460.228	266.78
460.686	246.38
461.144	254.08
461.602	251.08
462.06	246.98
462.518	257.08
462.976	262.28
463.434	268.18
463.892	269.08
464.35	282.98
464.808	295.38
465.266	277.08
465.724	270.68
466.181	282.88
466.639	273.98
467.097	300.28
467.555	302.68
468.012	304.48
468.47	315.98
468.928	329.98
469.385	339.78
469.843	353.78
470.3	360.48
470.758	372.28
471.215	385.28
471.673	411.68
472.13	412.98
472.588	424.88
473.045	377.38
473.503	388.68
473.96	401.78
474.417	412.88
474.875	441.28
475.332	483.68
475.789	479.98
476.246	477.08
476.704	494.48
477.161	514.68
477.618	538.98
478.075	572.48
478.532	641.58
478.989	706.88
479.446	814.78
479.903	796.08
480.36	821.28
480.817	880.38
481.274	969.58
481.731	1089.38
482.188	1175.18
482.645	1319.68
483.102	1426.18
483.558	1558.38
484.015	1626.68
484.472	1577.98
484.929	1535.38
485.385	1497.08
485.842	1461.08
486.299	1392.08
486.755	1313.28
487.212	1109.98
487.668	952.68
488.125	864.08
488.582	784.48
489.038	752.88
489.494	719.28
489.951	696.58
490.407	673.98
490.864	663.88
491.32	662.08
491.776	651.18
492.233	661.18
492.689	622.18
493.145	615.58
493.602	613.38
494.058	618.28
494.514	632.18
494.97	653.58
495.426	661.98
495.882	640.78
496.338	624.48
496.794	646.58
497.251	631.88
497.707	647.48
498.163	658.38
498.618	664.78
499.074	666.78
499.53	694.68
499.986	694.68
500.442	656.88
500.898	638.88
501.354	628.68
501.809	650.88
502.265	655.38
502.721	669.08
503.177	683.98
503.632	671.08
504.088	688.38
504.543	720.68
504.999	728.18
505.455	671.18
505.91	649.18
506.366	643.98
506.821	647.28
507.277	634.48
507.732	632.58
508.187	631.98
508.643	645.28
509.098	646.18
509.553	661.78
510.009	670.58
510.464	678.88
510.919	701.38
511.375	701.48
511.83	717.58
512.285	732.58
512.74	780.78
513.195	802.18
513.65	788.18
514.105	779.68
514.56	787.28
515.015	806.48
515.47	834.08
515.925	815.78
516.38	808.78
516.835	801.78
517.29	806.08
517.745	802.38
518.2	782.58
518.655	773.58
519.109	753.08
519.564	752.98
520.019	753.98
520.474	736.68
520.928	735.48
521.383	736.48
521.838	719.28
522.292	727.38
522.747	735.48
523.201	724.28
523.656	705.08
524.11	707.38
524.565	706.88
525.019	706.98
525.474	711.58
525.928	717.48
526.382	697.18
526.837	716.38
527.291	718.98
527.745	711.58
528.2	709.68
528.654	699.38
529.108	701.68
529.562	700.78
530.016	699.38
530.47	705.18
530.925	705.98
531.379	705.58
531.833	715.38
532.287	710.48
532.741	719.28
533.195	717.08
533.649	728.38
534.103	732.68
534.556	723.68
535.01	723.78
535.464	726.38
535.918	739.08
536.372	736.98
536.826	734.28
537.279	715.28
537.733	737.28
538.187	722.48
538.64	733.98
539.094	730.88
539.548	742.58
540.001	737.68
540.455	736.68
540.908	741.78
541.362	741.18
541.815	760.88
542.269	770.98
542.722	779.78
543.175	789.38
543.629	782.48
544.082	794.18
544.536	797.58
544.989	796.38
545.442	814.28
545.895	804.98
546.349	798.68
546.802	801.78
547.255	814.78
547.708	821.68
548.161	823.58
548.614	835.18
549.067	837.78
549.52	822.08
549.973	818.38
550.426	812.68
550.879	810.78
551.332	807.88
551.785	810.78
552.238	812.88
552.691	831.08
553.144	827.88
553.596	857.48
554.049	871.98
554.502	906.18
554.955	925.18
555.407	918.08
555.86	912.88
556.313	905.58
556.765	892.48
557.218	884.58
557.67	897.38
558.123	896.78
558.576	886.88
559.028	884.68
559.48	893.58
559.933	880.48
560.385	850.48
560.838	818.18
561.29	788.48
561.742	786.38
562.195	770.98
562.647	771.18
563.099	771.18
563.551	775.68
564.004	789.88
564.456	764.78
564.908	766.68
565.36	763.98
565.812	738.38
566.264	733.78
566.716	728.48
567.168	721.88
567.62	734.18
568.072	706.98
568.524	708.38
568.976	694.28
569.428	680.28
569.88	681.78
570.332	688.08
570.784	683.38
571.235	684.18
571.687	695.08
572.139	707.88
572.59	720.18
573.042	711.28
573.494	715.98
573.945	714.68
574.397	696.48
574.849	701.48
575.3	691.68
575.752	684.18
576.203	692.58
576.655	686.88
577.106	676.28
577.557	667.98
578.009	669.18
578.46	676.28
578.912	667.58
579.363	669.18
579.814	666.18
580.265	663.48
580.717	667.88
581.168	676.48
581.619	679.68
582.07	686.38
582.521	678.78
582.972	671.48
583.423	686.38
583.875	672.98
584.326	701.48
584.777	741.78
585.227	810.88
585.678	901.58
586.129	985.08
586.58	1043.58
587.031	1128.48
587.482	1277.18
587.933	1448.18
588.384	1265.98
588.834	950.78
589.285	799.88
589.736	777.38
590.186	769.98
590.637	763.58
591.088	732.08
591.538	728.18
591.989	717.68
592.439	727.78
592.89	720.48
593.34	708.28
593.791	704.38
594.241	689.18
594.692	705.88
595.142	700.08
595.593	687.68
596.043	706.98
596.493	710.58
596.943	706.38
597.394	721.98
597.844	706.78
598.294	727.78
598.744	744.38
599.195	766.48
599.645	797.98
600.095	849.48
600.545	907.98
600.995	967.38
601.445	1003.68
601.895	1071.38
602.345	1123.18
602.795	1091.98
603.245	1063.98
603.695	1004.28
604.145	948.28
604.594	901.58
605.044	864.18
605.494	798.08
605.944	755.88
606.393	740.48
606.843	722.68
607.293	732.18
607.743	723.78
608.192	739.58
608.642	747.28
609.091	760.58
609.541	768.58
609.99	754.78
610.44	762.28
610.889	717.88
611.339	693.28
611.788	680.68
612.238	697.28
612.687	705.58
613.136	706.98
613.586	727.78
614.035	718.68
614.484	740.88
614.933	737.38
615.383	738.28
615.832	731.58
616.281	718.78
616.73	680.28
617.179	660.18
617.628	645.18
618.077	628.08
618.526	612.78
618.975	621.18
619.424	606.68
619.873	598.28
620.322	615.08
620.771	602.68
621.22	594.88
621.669	584.18
622.118	572.78
622.567	575.08
623.015	556.78
623.464	560.08
623.913	551.88
624.361	543.48
624.81	545.98
625.259	548.48
625.707	543.28
626.156	542.38
626.604	566.58
627.053	551.58
627.501	552.78
627.95	556.28
628.398	574.18
628.847	556.28
629.295	552.58
629.744	560.48
630.192	563.68
630.64	563.28
631.089	551.38
631.537	575.68
631.985	575.18
632.433	584.58
632.881	588.38
633.33	638.78
633.778	611.98
634.226	554.68
634.674	561.98
635.122	556.28
635.57	583.68
636.018	604.98
636.466	563.78
636.914	550.58
637.362	561.68
637.81	566.88
638.258	570.98
638.705	574.48
639.153	606.88
639.601	607.88
640.049	636.38
640.497	650.18
640.944	682.98
641.392	636.98
641.84	604.88
642.287	574.38
642.735	553.48
643.182	554.78
643.63	557.68
644.078	558.88
644.525	587.78
644.973	570.88
645.42	581.08
645.867	601.68
646.315	624.98
646.762	647.78
647.21	674.48
647.657	693.58
648.104	738.68
648.551	758.68
648.999	815.48
649.446	882.98
649.893	971.38
650.34	1116.98
650.787	1339.08
651.234	1659.88
651.682	2166.08
652.129	2944.48
652.576	4241.08
653.023	6262.48
653.47	8592.38
653.917	10785.28
654.363	12517.08
654.81	13917.78
655.257	13275.58
655.704	8694.78
656.151	5112.88
656.598	3325.18
657.044	2356.88
657.491	1810.48
657.938	1435.18
658.385	1217.38
658.831	1061.58
659.278	934.88
659.724	839.08
660.171	760.38
660.618	702.08
661.064	667.18
661.511	651.78
661.957	644.88
662.404	632.08
662.85	635.28
663.296	606.48
663.743	551.78
664.189	523.68
664.635	518.88
665.082	516.88
665.528	510.18
665.974	503.48
666.42	490.58
666.867	488.58
667.313	480.28
667.759	470.98
668.205	460.68
668.651	469.58
669.097	467.08
669.543	486.68
669.989	450.48
670.435	444.98
670.881	436.28
671.327	434.78
671.773	460.98
672.219	475.88
672.665	524.38
673.11	563.28
673.556	607.18
674.002	643.08
674.448	633.28
674.893	528.18
675.339	459.98
675.785	429.18
676.23	405.48
676.676	378.98
677.122	372.08
677.567	362.28
678.013	362.08
678.458	357.18
678.904	354.58
679.349	333.08
679.794	347.38
680.24	341.68
680.685	335.68
681.131	336.18
681.576	346.18
682.021	349.18
682.466	336.38
682.912	328.88
683.357	332.58
683.802	371.08
684.247	390.98
684.692	441.78
685.137	472.78
685.583	515.68
686.028	544.08
686.473	497.68
686.918	431.48
687.363	402.08
687.807	377.98
688.252	358.88
688.697	341.88
689.142	324.08
689.587	321.78
690.032	316.78
690.477	326.08
690.921	335.68
691.366	369.38
691.811	389.98
692.255	415.38
692.7	446.38
693.145	475.28
693.589	656.58
694.034	1078.08
694.478	1462.58
694.923	1675.98
695.367	2201.48
695.812	1152.18
696.256	480.08
696.701	356.08
697.145	338.48
697.59	316.68
698.034	305.08
698.478	317.68
698.922	317.08
699.367	314.48
699.811	324.18
700.255	352.98
700.699	367.08
701.143	404.28
701.588	457.48
702.032	493.48
702.476	488.88
702.92	478.28
703.364	474.78
703.808	602.88
704.252	975.58
704.696	1377.88
705.14	1613.98
705.584	2066.48
706.027	1030.48
706.471	500.38
706.915	376.98
707.359	338.58
707.803	310.68
708.246	297.58
708.69	300.68
709.134	304.38
709.577	304.18
710.021	295.18
710.465	297.28
710.908	289.28
711.352	287.38
711.795	288.78
712.239	335.48
712.682	372.88
713.126	400.28
713.569	457.18
714.012	357.78
714.456	309.88
714.899	280.48
715.342	261.28
715.786	254.48
716.229	250.38
716.672	243.18
717.115	241.08
717.558	245.58
718.002	236.08
718.445	253.68
718.888	271.68
719.331	280.98
719.774	290.38
720.217	290.48
720.66	267.38
721.103	251.58
721.546	239.08
721.989	242.38
722.432	234.58
722.874	228.18
723.317	228.68
723.76	229.08
724.203	245.18
724.645	302.38
725.088	416.58
725.531	550.68
725.974	625.28
726.416	526.18
726.859	289.88
727.301	238.98
727.744	233.38
728.187	221.68
728.629	231.58
729.071	233.38
729.514	250.38
729.956	262.88
730.399	266.48
730.841	276.08
731.283	270.38
731.726	253.18
732.168	248.48
732.61	255.48
733.053	275.88
733.495	301.98
733.937	338.48
734.379	382.58
734.821	415.18
735.263	500.98
735.705	770.88
736.148	1474.48
736.59	2431.48
737.032	2952.78
737.474	2416.58
737.916	781.08
738.357	413.58
738.799	316.38
739.241	286.08
739.683	274.98
740.125	281.88
740.567	285.28
741.008	304.98
741.45	295.18
741.892	293.48
742.334	326.58
742.775	346.18
743.217	333.18
743.658	258.68
744.1	241.38
744.542	250.48
744.983	300.28
745.425	332.78
745.866	325.38
746.307	276.68
746.749	271.18
747.19	305.58
747.632	431.68
748.073	819.48
748.514	1734.58
748.956	2721.28
749.397	3403.48
749.838	2835.28
750.279	2880.48
750.72	1426.18
751.162	523.28
751.603	306.68
752.044	242.18
752.485	204.28
752.926	203.88
753.367	195.98
753.808	189.68
754.249	186.08
754.69	180.98
755.131	174.88
755.572	175.48
756.013	168.18
756.453	172.58
756.894	182.58
757.335	183.78
757.776	189.48
758.216	184.28
758.657	190.98
759.098	197.88
759.538	213.78
759.979	261.88
760.42	347.08
760.86	655.48
761.301	1681.58
761.741	4134.88
762.182	6211.38
762.622	4375.68
