Data from 20171114-ORNL-Ar_H_NY_Subt18_08-05-50-707.txt Node
Date: Tue Nov 14 08:05:50 EST 2017
User: Ender
Spectrometer: HR+D1039
Trigger mode: 0
Integration Time (sec): 2.730000E-2
Scans to average: 10
Electric dark correction enabled: true
Nonlinearity correction enabled: false
Boxcar width: 0
XAxis mode: Wavelengths
Number of Pixels in Spectrum: 2048
>>>>>Begin Spectral Data<<<<<
187.836	-5.24
188.309	-5.24
188.782	-5.24
189.255	3.76
189.728	-1.44
190.201	8.36
190.674	-2.24
191.147	6.16
191.619	-6.04
192.092	-0.94
192.565	1.16
193.038	-3.04
193.511	-0.14
193.984	1.36
194.456	-1.04
194.929	0.56
195.402	2.16
195.874	-3.34
196.347	-3.84
196.82	-6.74
197.292	7.46
197.765	-0.94
198.237	-3.34
198.71	3.06
199.182	-2.44
199.655	2.86
200.127	1.46
200.6	-3.64
201.072	-4.54
201.544	-7.34
202.017	-7.24
202.489	-0.44
202.961	-0.94
203.433	-2.94
203.906	-7.44
204.378	-9.14
204.85	-9.74
205.322	-6.94
205.794	-2.54
206.266	-2.54
206.739	-4.94
207.211	-1.14
207.683	-10.44
208.155	-4.24
208.627	-10.74
209.099	-6.24
209.57	-9.04
210.042	-6.34
210.514	-1.54
210.986	-7.64
211.458	-10.04
211.93	-8.14
212.402	-2.74
212.873	-8.54
213.345	-8.44
213.817	-15.14
214.288	-5.14
214.76	-9.64
215.232	-4.74
215.703	-5.64
216.175	-1.64
216.646	0.26
217.118	-6.34
217.589	-5.74
218.061	0.26
218.532	-6.24
219.004	-8.24
219.475	-4.64
219.946	0.56
220.418	-8.54
220.889	0.96
221.36	-3.14
221.832	-5.14
222.303	-8.44
222.774	-0.94
223.245	-11.14
223.717	-11.54
224.188	-7.64
224.659	-10.34
225.13	-5.14
225.601	-1.44
226.072	-4.24
226.543	-4.24
227.014	-1.44
227.485	-5.44
227.956	-9.34
228.427	-3.24
228.898	2.26
229.369	3.26
229.839	-5.64
230.31	-6.54
230.781	4.06
231.252	-4.64
231.722	0.46
232.193	-8.84
232.664	-0.74
233.135	-3.54
233.605	-4.64
234.076	-2.74
234.546	-3.94
235.017	2.46
235.487	-5.74
235.958	-1.84
236.428	1.16
236.899	3.56
237.369	1.96
237.84	-6.24
238.31	-0.24
238.78	-2.34
239.251	-2.34
239.721	-0.94
240.191	0.86
240.662	-3.24
241.132	-3.44
241.602	-5.14
242.072	6.66
242.542	5.86
243.013	-1.64
243.483	5.76
243.953	3.36
244.423	-2.34
244.893	-7.54
245.363	3.66
245.833	-2.14
246.303	-2.04
246.773	3.66
247.243	0.66
247.712	2.96
248.182	6.66
248.652	5.56
249.122	2.86
249.592	9.06
250.061	14.06
250.531	26.56
251.001	12.36
251.471	23.16
251.94	16.36
252.41	5.16
252.879	5.46
253.349	14.46
253.818	6.76
254.288	7.06
254.757	6.76
255.227	1.16
255.696	5.86
256.166	4.56
256.635	13.06
257.105	11.86
257.574	5.86
258.043	13.86
258.513	9.96
258.982	19.86
259.451	11.06
259.92	11.96
260.389	11.16
260.859	12.46
261.328	11.86
261.797	20.26
262.266	6.66
262.735	2.66
263.204	9.56
263.673	-2.84
264.142	7.56
264.611	1.16
265.08	1.36
265.549	0.76
266.018	5.16
266.487	-2.34
266.955	-4.24
267.424	0.46
267.893	4.16
268.362	0.36
268.83	3.36
269.299	7.96
269.768	5.56
270.236	8.46
270.705	5.56
271.174	11.76
271.642	6.96
272.111	14.26
272.579	17.46
273.048	26.36
273.516	32.16
273.985	25.76
274.453	22.06
274.922	19.76
275.39	9.96
275.858	7.26
276.327	8.56
276.795	15.46
277.263	12.86
277.731	27.16
278.2	53.46
278.668	56.36
279.136	50.56
279.604	19.76
280.072	16.16
280.54	10.16
281.008	8.96
281.477	13.86
281.945	14.96
282.413	11.86
282.881	13.26
283.348	10.86
283.816	15.46
284.284	15.26
284.752	17.36
285.22	6.16
285.688	19.56
286.156	21.56
286.623	39.06
287.091	46.26
287.559	29.66
288.026	17.06
288.494	18.86
288.962	6.36
289.429	7.86
289.897	15.86
290.364	15.16
290.832	20.66
291.3	18.16
291.767	17.36
292.234	21.56
292.702	13.86
293.169	19.66
293.637	22.66
294.104	18.86
294.571	14.66
295.039	15.26
295.506	17.36
295.973	20.26
296.44	14.66
296.908	23.16
297.375	22.46
297.842	16.96
298.309	12.46
298.776	10.46
299.243	23.26
299.71	17.76
300.177	24.66
300.644	20.76
301.111	23.06
301.578	22.16
302.045	11.66
302.512	22.96
302.979	29.96
303.446	18.86
303.913	16.76
304.379	17.66
304.846	26.26
305.313	24.76
305.78	25.66
306.246	27.96
306.713	20.36
307.18	25.36
307.646	27.76
308.113	29.56
308.579	22.66
309.046	21.76
309.512	28.56
309.979	23.46
310.445	25.26
310.912	29.06
311.378	29.76
311.845	29.76
312.311	28.86
312.777	30.66
313.244	31.56
313.71	38.86
314.176	31.46
314.642	39.36
315.109	34.06
315.575	38.26
316.041	40.46
316.507	32.36
316.973	37.86
317.439	38.96
317.905	36.46
318.371	38.86
318.837	28.66
319.303	35.46
319.769	42.06
320.235	36.06
320.701	37.96
321.167	38.26
321.633	31.66
322.099	37.06
322.564	49.56
323.03	43.66
323.496	38.96
323.962	45.66
324.427	34.76
324.893	45.26
325.359	35.86
325.824	42.46
326.29	38.16
326.755	40.56
327.221	46.16
327.686	42.76
328.152	46.86
328.617	39.06
329.083	45.06
329.548	48.46
330.014	49.16
330.479	44.26
330.944	48.76
331.41	45.26
331.875	48.36
332.34	47.16
332.805	43.96
333.271	48.26
333.736	46.16
334.201	55.66
334.666	56.56
335.131	55.36
335.596	53.56
336.061	52.56
336.526	46.36
336.991	50.26
337.456	54.76
337.921	39.36
338.386	43.26
338.851	46.56
339.316	48.76
339.781	42.56
340.246	46.16
340.711	48.36
341.175	50.86
341.64	45.36
342.105	50.56
342.569	55.56
343.034	63.96
343.499	55.46
343.963	50.36
344.428	61.86
344.893	62.36
345.357	61.56
345.822	67.46
346.286	66.96
346.751	72.96
347.215	74.06
347.679	77.66
348.144	95.56
348.608	81.36
349.073	75.86
349.537	77.56
350.001	81.96
350.465	91.46
350.93	85.86
351.394	82.56
351.858	77.16
352.322	90.86
352.786	89.36
353.25	105.96
353.715	109.46
354.179	99.76
354.643	117.36
355.107	136.66
355.571	106.66
356.035	104.26
356.498	119.86
356.962	121.96
357.426	130.16
357.89	115.86
358.354	94.46
358.818	88.56
359.281	87.16
359.745	85.26
360.209	81.76
360.673	78.16
361.136	79.96
361.6	87.46
362.064	88.46
362.527	83.96
362.991	88.56
363.454	82.66
363.918	85.16
364.381	86.96
364.845	83.86
365.308	83.86
365.772	88.66
366.235	92.16
366.698	87.26
367.162	85.76
367.625	93.16
368.088	89.56
368.552	94.16
369.015	89.56
369.478	100.76
369.941	103.66
370.404	98.16
370.867	109.76
371.331	107.06
371.794	124.86
372.257	110.86
372.72	118.46
373.183	116.86
373.646	101.56
374.109	107.06
374.572	111.86
375.035	105.36
375.497	110.06
375.96	107.16
376.423	96.46
376.886	113.86
377.349	112.06
377.811	108.36
378.274	111.06
378.737	109.66
379.199	119.66
379.662	118.76
380.125	122.16
380.587	119.36
381.05	135.66
381.512	131.76
381.975	138.36
382.437	134.66
382.9	128.86
383.362	146.26
383.825	144.46
384.287	148.16
384.75	147.76
385.212	150.56
385.674	143.96
386.136	143.56
386.599	127.26
387.061	133.26
387.523	131.56
387.985	138.26
388.447	149.36
388.91	144.06
389.372	169.16
389.834	153.66
390.296	154.86
390.758	162.66
391.22	176.46
391.682	216.36
392.144	305.66
392.606	239.76
393.068	175.26
393.529	171.16
393.991	158.16
394.453	154.26
394.915	156.56
395.377	198.36
395.838	215.46
396.3	159.96
396.762	141.86
397.224	140.16
397.685	132.86
398.147	135.56
398.608	137.56
399.07	134.06
399.531	137.86
399.993	145.06
400.454	154.26
400.916	149.86
401.377	155.66
401.839	155.86
402.3	160.46
402.762	169.66
403.223	176.96
403.684	178.36
404.145	165.46
404.607	168.66
405.068	172.16
405.529	177.96
405.99	191.56
406.451	179.36
406.913	168.86
407.374	168.26
407.835	158.76
408.296	171.06
408.757	182.86
409.218	193.16
409.679	182.16
410.14	180.26
410.601	179.26
411.062	188.96
411.522	191.56
411.983	200.06
412.444	187.46
412.905	190.06
413.366	184.06
413.826	198.96
414.287	224.46
414.748	263.76
415.208	254.96
415.669	217.86
416.13	204.96
416.59	206.36
417.051	212.46
417.511	226.26
417.972	243.26
418.432	255.76
418.893	298.16
419.353	258.36
419.814	206.26
420.274	187.86
420.734	188.96
421.195	208.86
421.655	204.56
422.115	201.36
422.576	199.26
423.036	202.06
423.496	211.46
423.956	213.76
424.416	235.96
424.876	266.86
425.336	275.06
425.797	275.36
426.257	259.76
426.717	251.96
427.177	232.56
427.637	226.96
428.097	238.96
428.556	248.96
429.016	274.16
429.476	276.06
429.936	275.56
430.396	286.16
430.856	306.06
431.315	330.26
431.775	371.06
432.235	385.76
432.694	366.96
433.154	379.76
433.614	401.76
434.073	344.06
434.533	296.76
434.993	284.66
435.452	296.06
435.912	301.36
436.371	293.46
436.83	292.86
437.29	278.96
437.749	249.66
438.209	255.46
438.668	278.36
439.127	297.46
439.587	277.56
440.046	260.56
440.505	266.16
440.964	280.06
441.424	332.46
441.883	317.96
442.342	268.36
442.801	229.56
443.26	225.76
443.719	224.76
444.178	220.96
444.637	212.76
445.096	224.06
445.555	236.06
446.014	235.26
446.473	233.56
446.932	243.86
447.391	232.76
447.849	225.86
448.308	223.36
448.767	230.26
449.226	242.16
449.685	245.66
450.143	243.36
450.602	240.16
451.061	236.96
451.519	240.06
451.978	235.46
452.436	238.36
452.895	248.36
453.353	257.16
453.812	254.56
454.27	242.26
454.729	240.46
455.187	249.76
455.646	246.26
456.104	254.36
456.562	265.86
457.021	271.86
457.479	274.16
457.937	276.66
458.395	272.66
458.854	252.06
459.312	259.76
459.77	278.66
460.228	262.76
460.686	250.76
461.144	254.76
461.602	256.26
462.06	254.36
462.518	259.26
462.976	260.96
463.434	266.66
463.892	271.36
464.35	282.06
464.808	308.06
465.266	267.46
465.724	269.06
466.181	273.76
466.639	280.76
467.097	290.46
467.555	300.76
468.012	310.76
468.47	321.26
468.928	332.86
469.385	353.06
469.843	355.26
470.3	353.56
470.758	373.86
471.215	390.46
471.673	426.06
472.13	413.46
472.588	431.16
473.045	379.66
473.503	380.06
473.96	403.96
474.417	412.06
474.875	447.46
475.332	486.16
475.789	474.26
476.246	479.76
476.704	501.66
477.161	515.36
477.618	537.86
478.075	582.46
478.532	627.36
478.989	710.96
479.446	823.46
479.903	786.86
480.36	827.26
480.817	890.06
481.274	998.06
481.731	1098.66
482.188	1198.26
482.645	1329.96
483.102	1452.06
483.558	1583.86
484.015	1633.46
484.472	1625.86
484.929	1582.56
485.385	1527.76
485.842	1484.56
486.299	1398.06
486.755	1341.66
487.212	1128.86
487.668	951.66
488.125	877.66
488.582	800.46
489.038	765.86
489.494	726.96
489.951	701.76
490.407	688.06
490.864	668.76
491.32	655.16
491.776	652.86
492.233	661.86
492.689	623.56
493.145	620.66
493.602	619.56
494.058	633.76
494.514	626.96
494.97	651.06
495.426	661.06
495.882	628.66
496.338	618.86
496.794	640.36
497.251	628.16
497.707	636.86
498.163	645.86
498.618	655.56
499.074	661.26
499.53	692.56
499.986	698.76
500.442	668.46
500.898	647.06
501.354	634.86
501.809	647.56
502.265	646.16
502.721	670.66
503.177	678.36
503.632	680.56
504.088	689.56
504.543	724.36
504.999	719.96
505.455	677.16
505.91	649.86
506.366	648.36
506.821	645.86
507.277	629.66
507.732	635.96
508.187	633.06
508.643	652.96
509.098	650.86
509.553	665.86
510.009	679.36
510.464	678.06
510.919	691.06
511.375	707.86
511.83	725.06
512.285	729.06
512.74	772.76
513.195	786.26
513.65	782.56
514.105	773.26
514.56	787.46
515.015	818.86
515.47	823.16
515.925	809.96
516.38	805.26
516.835	817.06
517.29	793.46
517.745	783.96
518.2	774.26
518.655	755.66
519.109	747.46
519.564	758.46
520.019	740.36
520.474	731.26
520.928	741.66
521.383	732.96
521.838	726.86
522.292	718.76
522.747	710.66
523.201	708.76
523.656	700.06
524.11	707.06
524.565	702.26
525.019	703.76
525.474	710.36
525.928	707.76
526.382	714.96
526.837	708.76
527.291	716.16
527.745	714.16
528.2	705.36
528.654	705.26
529.108	695.66
529.562	703.56
530.016	704.76
530.47	698.76
530.925	701.86
531.379	701.56
531.833	710.96
532.287	711.56
532.741	707.66
533.195	718.26
533.649	725.46
534.103	731.86
534.556	716.46
535.01	714.36
535.464	720.46
535.918	726.36
536.372	724.26
536.826	718.16
537.279	714.06
537.733	717.76
538.187	730.16
538.64	719.66
539.094	730.96
539.548	727.26
540.001	724.16
540.455	725.76
540.908	739.76
541.362	746.76
541.815	761.06
542.269	767.56
542.722	768.56
543.175	777.46
543.629	779.06
544.082	801.26
544.536	789.06
544.989	784.86
545.442	810.46
545.895	795.56
546.349	786.96
546.802	792.46
547.255	807.36
547.708	818.26
548.161	823.46
548.614	826.56
549.067	835.36
549.52	833.76
549.973	820.86
550.426	810.06
550.879	787.26
551.332	796.86
551.785	816.86
552.238	816.16
552.691	823.16
553.144	828.06
553.596	853.86
554.049	863.26
554.502	911.46
554.955	908.86
555.407	908.76
555.86	912.96
556.313	900.16
556.765	895.86
557.218	884.66
557.67	888.26
558.123	888.96
558.576	880.86
559.028	881.46
559.48	891.86
559.933	879.16
560.385	840.66
560.838	808.36
561.29	787.16
561.742	789.96
562.195	777.26
562.647	771.06
563.099	783.06
563.551	784.76
564.004	787.06
564.456	779.86
564.908	767.96
565.36	747.86
565.812	738.76
566.264	726.86
566.716	729.36
567.168	711.66
567.62	718.96
568.072	706.06
568.524	706.76
568.976	690.36
569.428	669.66
569.88	682.56
570.332	678.46
570.784	681.46
571.235	686.86
571.687	705.36
572.139	705.46
572.59	717.96
573.042	704.06
573.494	701.96
573.945	701.96
574.397	687.26
574.849	689.66
575.3	693.16
575.752	682.16
576.203	679.66
576.655	685.66
577.106	674.86
577.557	670.16
578.009	672.36
578.46	659.26
578.912	665.06
579.363	672.26
579.814	675.46
580.265	662.46
580.717	667.76
581.168	672.56
581.619	679.46
582.07	675.66
582.521	670.36
582.972	663.06
583.423	678.76
583.875	675.36
584.326	704.86
584.777	757.26
585.227	815.36
585.678	909.96
586.129	1002.76
586.58	1061.56
587.031	1145.96
587.482	1300.86
587.933	1479.96
588.384	1288.06
588.834	966.06
589.285	804.16
589.736	780.16
590.186	771.76
590.637	764.16
591.088	747.86
591.538	729.46
591.989	739.06
592.439	719.96
592.89	718.06
593.34	707.16
593.791	708.86
594.241	702.86
594.692	705.16
595.142	696.16
595.593	686.16
596.043	708.46
596.493	702.86
596.943	708.36
597.394	708.46
597.844	716.46
598.294	725.36
598.744	747.26
599.195	772.76
599.645	797.66
600.095	840.36
600.545	897.46
600.995	964.96
601.445	1021.76
601.895	1076.26
602.345	1119.16
602.795	1110.76
603.245	1067.76
603.695	998.96
604.145	943.26
604.594	910.86
605.044	849.06
605.494	787.26
605.944	747.16
606.393	748.06
606.843	718.86
607.293	721.76
607.743	723.66
608.192	736.36
608.642	753.06
609.091	769.46
609.541	757.36
609.99	762.26
610.44	763.66
610.889	713.86
611.339	694.56
611.788	678.66
612.238	695.26
612.687	711.86
613.136	714.76
613.586	737.26
614.035	734.06
614.484	754.26
614.933	745.06
615.383	743.26
615.832	728.46
616.281	726.16
616.73	677.96
617.179	657.86
617.628	644.46
618.077	627.46
618.526	615.46
618.975	616.86
619.424	613.46
619.873	607.96
620.322	605.46
620.771	607.66
621.22	608.66
621.669	588.26
622.118	580.96
622.567	573.36
623.015	553.46
623.464	561.56
623.913	556.16
624.361	550.46
624.81	547.46
625.259	554.06
625.707	548.26
626.156	552.56
626.604	563.66
627.053	551.56
627.501	551.26
627.95	557.26
628.398	576.56
628.847	557.76
629.295	562.16
629.744	563.66
630.192	555.06
630.64	558.86
631.089	560.06
631.537	569.26
631.985	574.56
632.433	583.16
632.881	597.36
633.33	651.86
633.778	629.26
634.226	546.26
634.674	559.06
635.122	564.66
635.57	592.06
636.018	619.86
636.466	573.66
636.914	550.46
637.362	553.96
637.81	565.86
638.258	572.76
638.705	569.66
639.153	595.66
639.601	611.96
640.049	629.36
640.497	672.96
640.944	677.86
641.392	634.86
641.84	611.26
642.287	577.86
642.735	558.46
643.182	564.26
643.63	558.86
644.078	566.36
644.525	582.76
644.973	587.46
645.42	589.56
645.867	612.26
646.315	626.26
646.762	647.26
647.21	691.86
647.657	695.26
648.104	730.16
648.551	767.56
648.999	819.16
649.446	907.26
649.893	986.56
650.34	1149.96
650.787	1361.56
651.234	1701.96
651.682	2216.16
652.129	3054.06
652.576	4379.16
653.023	6451.06
653.47	8879.36
653.917	11156.16
654.363	12908.26
654.81	14326.36
655.257	13654.06
655.704	8921.76
656.151	5275.96
656.598	3410.16
657.044	2410.06
657.491	1852.16
657.938	1480.86
658.385	1226.76
658.831	1069.56
659.278	959.76
659.724	846.76
660.171	775.66
660.618	711.56
661.064	678.56
661.511	661.26
661.957	634.96
662.404	635.66
662.85	632.86
663.296	612.16
663.743	543.36
664.189	524.96
664.635	521.26
665.082	523.46
665.528	516.76
665.974	489.66
666.42	499.96
666.867	490.06
667.313	480.46
667.759	468.96
668.205	464.56
668.651	469.26
669.097	475.66
669.543	483.16
669.989	456.26
670.435	441.76
670.881	432.86
671.327	447.96
671.773	461.06
672.219	473.76
672.665	528.16
673.11	559.26
673.556	606.76
674.002	648.76
674.448	643.16
674.893	528.96
675.339	462.86
675.785	425.66
676.23	407.96
676.676	380.56
677.122	371.56
677.567	357.96
678.013	363.36
678.458	346.86
678.904	357.96
679.349	333.86
679.794	340.26
680.24	337.26
680.685	336.86
681.131	336.36
681.576	335.06
682.021	340.56
682.466	336.66
682.912	330.76
683.357	336.76
683.802	368.36
684.247	402.86
684.692	437.76
685.137	477.56
685.583	523.66
686.028	548.56
686.473	509.36
686.918	433.16
687.363	407.06
687.807	377.66
688.252	356.56
688.697	342.76
689.142	334.86
689.587	329.66
690.032	319.96
690.477	330.46
690.921	332.46
691.366	366.96
691.811	388.36
692.255	418.66
692.7	438.36
693.145	481.26
693.589	663.46
694.034	1075.76
694.478	1478.46
694.923	1691.96
695.367	2226.06
695.812	1163.66
696.256	484.96
696.701	356.06
697.145	330.56
697.59	320.06
698.034	301.76
698.478	318.76
698.922	320.66
699.367	312.96
699.811	324.36
700.255	346.96
700.699	367.56
701.143	410.96
701.588	462.96
702.032	502.36
702.476	496.16
702.92	476.96
703.364	467.66
703.808	613.36
704.252	983.66
704.696	1397.96
705.14	1630.36
705.584	2074.36
706.027	1028.56
706.471	508.06
706.915	392.16
707.359	334.46
707.803	307.66
708.246	302.76
708.69	296.76
709.134	304.06
709.577	303.66
710.021	305.96
710.465	296.86
710.908	293.36
711.352	284.86
711.795	306.16
712.239	339.66
712.682	371.06
713.126	407.96
713.569	444.46
714.012	360.36
714.456	315.46
714.899	289.56
715.342	268.06
715.786	255.66
716.229	250.86
716.672	242.56
717.115	239.36
717.558	240.76
718.002	243.06
718.445	250.96
718.888	271.46
719.331	290.76
719.774	293.06
720.217	295.86
720.66	269.46
721.103	261.86
721.546	244.86
721.989	238.76
722.432	221.76
722.874	227.86
723.317	223.46
723.76	225.26
724.203	249.16
724.645	303.76
725.088	422.06
725.531	542.86
725.974	632.26
726.416	537.26
726.859	293.86
727.301	235.56
727.744	226.26
728.187	226.26
728.629	225.56
729.071	229.46
729.514	245.36
729.956	269.06
730.399	269.86
730.841	272.06
731.283	259.76
731.726	256.06
732.168	252.06
732.61	255.26
733.053	270.06
733.495	301.76
733.937	338.96
734.379	383.66
734.821	419.26
735.263	521.66
735.705	783.06
736.148	1484.76
736.59	2473.06
737.032	2982.96
737.474	2424.16
737.916	786.76
738.357	411.96
738.799	312.96
739.241	283.86
739.683	276.66
740.125	283.56
740.567	281.16
741.008	301.86
741.45	298.16
741.892	304.66
742.334	326.76
742.775	344.16
743.217	329.46
743.658	258.86
744.1	243.16
744.542	248.76
744.983	300.16
745.425	330.46
745.866	338.86
746.307	274.46
746.749	274.06
747.19	309.46
747.632	427.76
748.073	821.36
748.514	1762.36
748.956	2741.66
749.397	3426.56
749.838	2876.96
750.279	2860.76
750.72	1440.66
751.162	521.26
751.603	311.16
752.044	238.86
752.485	207.36
752.926	208.06
753.367	201.76
753.808	180.56
754.249	182.96
754.69	179.26
755.131	172.56
755.572	176.96
756.013	171.26
756.453	179.76
756.894	179.56
757.335	179.06
757.776	192.16
758.216	185.66
758.657	189.76
759.098	188.86
759.538	218.86
759.979	260.26
760.42	358.06
760.86	666.16
761.301	1719.26
761.741	4207.56
762.182	6224.16
