Data from 20171114-ORNL-Ar_H_NY_Subt18_08-05-27-504.txt Node
Date: Tue Nov 14 08:05:27 EST 2017
User: Ender
Spectrometer: HR+D1039
Trigger mode: 0
Integration Time (sec): 2.730000E-2
Scans to average: 10
Electric dark correction enabled: true
Nonlinearity correction enabled: false
Boxcar width: 0
XAxis mode: Wavelengths
Number of Pixels in Spectrum: 2048
>>>>>Begin Spectral Data<<<<<
187.836	-5.87
188.309	-5.87
188.782	-5.87
189.255	-0.17
189.728	0.33
190.201	4.93
190.674	1.83
191.147	2.63
191.619	-6.17
192.092	-3.67
192.565	6.63
193.038	1.13
193.511	1.23
193.984	4.33
194.456	2.53
194.929	-0.37
195.402	-5.07
195.874	-4.27
196.347	-0.37
196.82	-5.17
197.292	4.13
197.765	-0.47
198.237	-5.07
198.71	1.73
199.182	-6.57
199.655	-2.07
200.127	1.63
200.6	-3.97
201.072	-0.67
201.544	-1.57
202.017	-3.37
202.489	6.23
202.961	-4.77
203.433	-1.47
203.906	-9.77
204.378	-3.17
204.85	-2.67
205.322	-11.47
205.794	-5.37
206.266	-2.97
206.739	-12.87
207.211	4.73
207.683	-5.47
208.155	-2.57
208.627	-4.37
209.099	-3.87
209.57	-2.97
210.042	-3.97
210.514	-1.57
210.986	-0.87
211.458	-6.37
211.93	-3.87
212.402	4.73
212.873	0.03
213.345	-11.17
213.817	-7.77
214.288	-5.57
214.76	-5.37
215.232	-2.07
215.703	0.63
216.175	-3.57
216.646	-8.47
217.118	-8.17
217.589	-8.47
218.061	1.43
218.532	-2.47
219.004	-6.27
219.475	-3.07
219.946	-0.07
220.418	-1.27
220.889	4.53
221.36	-1.67
221.832	-6.57
222.303	-8.97
222.774	0.43
223.245	-8.47
223.717	-3.77
224.188	-7.37
224.659	-10.67
225.13	-6.37
225.601	-5.17
226.072	1.83
226.543	-0.07
227.014	4.33
227.485	-3.07
227.956	-10.97
228.427	3.13
228.898	1.83
229.369	3.73
229.839	1.13
230.31	-8.07
230.781	0.73
231.252	-3.67
231.722	-5.07
232.193	1.53
232.664	1.73
233.135	-2.37
233.605	-0.47
234.076	-2.97
234.546	-2.07
235.017	1.73
235.487	-4.57
235.958	-2.07
236.428	-5.67
236.899	5.43
237.369	2.53
237.84	1.23
238.31	6.43
238.78	0.43
239.251	-0.57
239.721	5.43
240.191	9.23
240.662	-3.57
241.132	-1.37
241.602	-4.37
242.072	1.53
242.542	4.53
243.013	3.53
243.483	0.03
243.953	7.23
244.423	2.73
244.893	-0.17
245.363	1.53
245.833	7.13
246.303	3.53
246.773	11.13
247.243	5.33
247.712	1.83
248.182	8.73
248.652	13.93
249.122	7.53
249.592	13.63
250.061	19.63
250.531	33.83
251.001	19.53
251.471	22.43
251.94	21.33
252.41	7.93
252.879	-2.97
253.349	13.13
253.818	12.33
254.288	4.03
254.757	7.83
255.227	-1.27
255.696	5.83
256.166	8.83
256.635	6.43
257.105	8.63
257.574	4.73
258.043	8.53
258.513	10.43
258.982	13.43
259.451	9.43
259.92	9.23
260.389	6.33
260.859	12.53
261.328	10.53
261.797	17.53
262.266	5.83
262.735	15.33
263.204	8.13
263.673	4.73
264.142	6.03
264.611	-2.87
265.08	2.53
265.549	-5.17
266.018	9.73
266.487	0.83
266.955	-1.87
267.424	3.23
267.893	8.03
268.362	3.23
268.83	4.43
269.299	14.03
269.768	12.63
270.236	6.93
270.705	5.03
271.174	7.03
271.642	9.93
272.111	4.03
272.579	19.43
273.048	22.83
273.516	31.03
273.985	32.03
274.453	23.23
274.922	19.63
275.39	7.03
275.858	1.93
276.327	10.03
276.795	22.03
277.263	6.73
277.731	36.43
278.2	55.13
278.668	58.73
279.136	51.23
279.604	23.03
280.072	14.83
280.54	14.23
281.008	16.53
281.477	13.53
281.945	18.83
282.413	11.93
282.881	13.33
283.348	12.73
283.816	12.23
284.284	16.23
284.752	24.43
285.22	11.23
285.688	12.43
286.156	15.93
286.623	43.63
287.091	48.33
287.559	28.73
288.026	19.63
288.494	18.53
288.962	8.13
289.429	10.33
289.897	15.23
290.364	11.93
290.832	21.43
291.3	19.83
291.767	14.83
292.234	19.63
292.702	19.03
293.169	22.03
293.637	24.33
294.104	19.83
294.571	13.13
295.039	14.83
295.506	16.03
295.973	21.03
296.44	16.13
296.908	17.13
297.375	20.83
297.842	21.03
298.309	18.83
298.776	20.23
299.243	22.13
299.71	17.23
300.177	23.23
300.644	22.33
301.111	19.73
301.578	22.73
302.045	14.83
302.512	25.63
302.979	23.63
303.446	22.33
303.913	21.03
304.379	21.83
304.846	32.03
305.313	27.93
305.78	28.23
306.246	27.03
306.713	27.83
307.18	22.43
307.646	28.53
308.113	31.83
308.579	29.83
309.046	27.93
309.512	27.53
309.979	21.43
310.445	26.53
310.912	28.53
311.378	32.93
311.845	25.13
312.311	32.23
312.777	38.13
313.244	38.43
313.71	38.13
314.176	28.33
314.642	36.83
315.109	33.73
315.575	39.23
316.041	33.33
316.507	38.03
316.973	39.03
317.439	35.33
317.905	34.63
318.371	38.53
318.837	40.53
319.303	35.43
319.769	36.83
320.235	33.03
320.701	35.23
321.167	38.43
321.633	36.13
322.099	40.73
322.564	46.93
323.03	41.53
323.496	33.33
323.962	38.23
324.427	33.83
324.893	44.43
325.359	35.23
325.824	40.33
326.29	36.23
326.755	42.43
327.221	43.13
327.686	43.53
328.152	53.73
328.617	41.93
329.083	42.43
329.548	52.13
330.014	48.53
330.479	39.43
330.944	45.43
331.41	47.83
331.875	44.53
332.34	47.13
332.805	39.63
333.271	47.33
333.736	47.63
334.201	52.33
334.666	51.03
335.131	55.73
335.596	47.33
336.061	48.03
336.526	42.83
336.991	45.43
337.456	57.63
337.921	42.43
338.386	49.63
338.851	42.73
339.316	45.93
339.781	46.23
340.246	54.93
340.711	42.53
341.175	52.93
341.64	44.43
342.105	53.63
342.569	56.23
343.034	54.33
343.499	54.73
343.963	49.13
344.428	62.13
344.893	60.33
345.357	65.33
345.822	60.33
346.286	64.53
346.751	67.83
347.215	67.73
347.679	75.53
348.144	93.63
348.608	79.83
349.073	71.83
349.537	76.23
350.001	89.33
350.465	91.83
350.93	82.63
351.394	86.43
351.858	75.93
352.322	91.43
352.786	91.73
353.25	97.33
353.715	106.23
354.179	100.83
354.643	124.03
355.107	121.13
355.571	108.23
356.035	102.83
356.498	119.93
356.962	119.13
357.426	130.93
357.89	118.63
358.354	91.23
358.818	78.73
359.281	79.53
359.745	76.93
360.209	77.13
360.673	81.43
361.136	79.93
361.6	82.03
362.064	90.13
362.527	89.43
362.991	88.13
363.454	79.23
363.918	81.73
364.381	83.63
364.845	83.93
365.308	85.23
365.772	82.33
366.235	84.63
366.698	86.33
367.162	88.73
367.625	88.13
368.088	81.03
368.552	85.23
369.015	87.83
369.478	89.63
369.941	102.73
370.404	102.13
370.867	102.23
371.331	111.23
371.794	112.23
372.257	106.83
372.72	117.73
373.183	106.83
373.646	107.33
374.109	102.03
374.572	101.33
375.035	111.93
375.497	113.53
375.96	103.33
376.423	102.33
376.886	116.53
377.349	105.03
377.811	104.63
378.274	100.63
378.737	99.23
379.199	111.43
379.662	111.93
380.125	120.33
380.587	116.93
381.05	116.53
381.512	127.43
381.975	133.13
382.437	123.93
382.9	126.93
383.362	127.83
383.825	137.73
384.287	141.53
384.75	139.43
385.212	142.63
385.674	138.43
386.136	136.53
386.599	115.93
387.061	126.93
387.523	126.83
387.985	141.43
388.447	145.13
388.91	137.93
389.372	154.93
389.834	149.73
390.296	147.73
390.758	154.83
391.22	171.13
391.682	204.13
392.144	280.33
392.606	224.33
393.068	164.83
393.529	160.73
393.991	145.63
394.453	148.63
394.915	153.13
395.377	191.73
395.838	204.93
396.3	151.73
396.762	145.23
397.224	129.93
397.685	128.13
398.147	136.83
398.608	132.13
399.07	130.93
399.531	128.73
399.993	143.03
400.454	150.13
400.916	144.73
401.377	134.43
401.839	153.53
402.3	149.23
402.762	160.03
403.223	176.93
403.684	169.93
404.145	157.63
404.607	158.13
405.068	159.03
405.529	177.43
405.99	188.33
406.451	167.03
406.913	171.53
407.374	156.23
407.835	158.33
408.296	162.03
408.757	171.43
409.218	182.53
409.679	173.13
410.14	172.83
410.601	173.63
411.062	179.23
411.522	188.13
411.983	187.53
412.444	169.73
412.905	181.53
413.366	175.13
413.826	184.93
414.287	213.43
414.748	257.03
415.208	249.13
415.669	205.13
416.13	203.23
416.59	202.53
417.051	211.13
417.511	210.73
417.972	234.53
418.432	249.53
418.893	276.53
419.353	250.43
419.814	187.23
420.274	180.83
420.734	172.53
421.195	194.13
421.655	196.13
422.115	181.83
422.576	185.73
423.036	197.13
423.496	203.33
423.956	217.43
424.416	221.63
424.876	260.83
425.336	262.13
425.797	259.13
426.257	252.03
426.717	235.53
427.177	225.53
427.637	216.33
428.097	225.43
428.556	235.23
429.016	260.73
429.476	266.33
429.936	266.53
430.396	271.23
430.856	288.73
431.315	305.23
431.775	350.03
432.235	378.63
432.694	345.93
433.154	368.03
433.614	395.03
434.073	342.43
434.533	282.53
434.993	259.63
435.452	283.63
435.912	291.23
436.371	280.13
436.83	287.33
437.29	266.43
437.749	250.63
438.209	244.73
438.668	272.93
439.127	279.63
439.587	265.13
440.046	248.33
440.505	250.73
440.964	270.63
441.424	312.73
441.883	312.73
442.342	264.83
442.801	225.43
443.26	216.43
443.719	208.73
444.178	213.13
444.637	203.83
445.096	214.33
445.555	211.83
446.014	220.63
446.473	221.93
446.932	226.93
447.391	221.93
447.849	223.73
448.308	210.43
448.767	224.13
449.226	229.13
449.685	227.53
450.143	241.33
450.602	231.23
451.061	221.83
451.519	230.23
451.978	226.23
452.436	228.73
452.895	233.33
453.353	250.23
453.812	236.13
454.27	234.93
454.729	228.63
455.187	233.63
455.646	236.63
456.104	239.83
456.562	256.53
457.021	258.43
457.479	261.03
457.937	270.23
458.395	253.73
458.854	250.13
459.312	244.33
459.77	273.73
460.228	251.13
460.686	237.83
461.144	234.63
461.602	244.43
462.06	236.43
462.518	250.73
462.976	251.03
463.434	260.23
463.892	260.23
464.35	276.23
464.808	283.83
465.266	259.33
465.724	268.73
466.181	275.93
466.639	267.03
467.097	278.73
467.555	298.73
468.012	300.73
468.47	300.63
468.928	319.93
469.385	340.13
469.843	342.63
470.3	339.03
470.758	361.43
471.215	385.13
471.673	410.83
472.13	399.43
472.588	411.43
473.045	365.13
473.503	369.73
473.96	387.53
474.417	393.43
474.875	432.23
475.332	473.33
475.789	460.53
476.246	466.53
476.704	486.73
477.161	504.13
477.618	512.23
478.075	553.63
478.532	600.83
478.989	692.83
479.446	793.43
479.903	767.33
480.36	803.53
480.817	866.13
481.274	971.43
481.731	1061.93
482.188	1160.93
482.645	1297.13
483.102	1394.93
483.558	1531.93
484.015	1597.43
484.472	1576.73
484.929	1524.63
485.385	1474.53
485.842	1440.53
486.299	1365.33
486.755	1299.63
487.212	1090.93
487.668	917.23
488.125	858.83
488.582	772.13
489.038	747.43
489.494	715.83
489.951	690.53
490.407	668.53
490.864	647.43
491.32	650.33
491.776	637.23
492.233	648.23
492.689	612.63
493.145	603.73
493.602	593.73
494.058	596.53
494.514	617.13
494.97	638.83
495.426	646.93
495.882	619.43
496.338	611.13
496.794	622.13
497.251	619.13
497.707	637.33
498.163	632.13
498.618	649.53
499.074	641.93
499.53	678.73
499.986	670.33
500.442	651.53
500.898	634.53
501.354	625.93
501.809	628.63
502.265	636.33
502.721	656.63
503.177	666.43
503.632	663.73
504.088	668.43
504.543	705.53
504.999	700.83
505.455	654.73
505.91	627.03
506.366	629.43
506.821	620.93
507.277	621.83
507.732	621.13
508.187	615.53
508.643	627.43
509.098	626.93
509.553	649.83
510.009	655.63
510.464	669.03
510.919	676.13
511.375	693.03
511.83	706.63
512.285	720.13
512.74	755.63
513.195	781.43
513.65	762.63
514.105	759.83
514.56	762.63
515.015	784.63
515.47	802.73
515.925	779.73
516.38	788.33
516.835	789.93
517.29	780.63
517.745	774.93
518.2	757.93
518.655	740.33
519.109	733.63
519.564	738.63
520.019	732.83
520.474	715.73
520.928	716.63
521.383	714.13
521.838	711.33
522.292	707.23
522.747	712.13
523.201	692.43
523.656	679.83
524.11	687.83
524.565	684.03
525.019	676.33
525.474	695.03
525.928	691.53
526.382	691.43
526.837	685.43
527.291	693.23
527.745	680.43
528.2	692.33
528.654	681.83
529.108	681.63
529.562	684.33
530.016	684.83
530.47	679.33
530.925	686.23
531.379	689.93
531.833	705.03
532.287	699.13
532.741	693.73
533.195	696.43
533.649	700.43
534.103	715.23
534.556	701.73
535.01	708.13
535.464	708.43
535.918	716.03
536.372	710.13
536.826	713.93
537.279	699.63
537.733	702.33
538.187	705.03
538.64	701.63
539.094	722.63
539.548	721.63
540.001	712.33
540.455	714.43
540.908	721.23
541.362	729.33
541.815	731.33
542.269	740.83
542.722	750.23
543.175	760.83
543.629	761.93
544.082	783.93
544.536	777.63
544.989	775.23
545.442	783.43
545.895	780.83
546.349	775.43
546.802	781.33
547.255	789.03
547.708	795.73
548.161	804.43
548.614	810.33
549.067	823.13
549.52	810.83
549.973	799.63
550.426	802.03
550.879	787.73
551.332	786.33
551.785	799.73
552.238	794.53
552.691	805.03
553.144	811.33
553.596	829.13
554.049	853.83
554.502	883.63
554.955	892.63
555.407	895.13
555.86	889.83
556.313	885.03
556.765	881.93
557.218	867.53
557.67	868.23
558.123	872.53
558.576	855.53
559.028	861.23
559.48	867.83
559.933	851.83
560.385	832.63
560.838	797.13
561.29	766.93
561.742	779.13
562.195	760.03
562.647	746.13
563.099	763.93
563.551	759.63
564.004	768.13
564.456	757.73
564.908	748.93
565.36	730.13
565.812	717.23
566.264	711.43
566.716	705.03
567.168	701.53
567.62	713.23
568.072	683.93
568.524	689.03
568.976	678.53
569.428	669.13
569.88	667.13
570.332	658.73
570.784	667.13
571.235	661.83
571.687	679.63
572.139	680.53
572.59	700.83
573.042	694.63
573.494	699.23
573.945	692.43
574.397	670.43
574.849	673.93
575.3	679.73
575.752	666.03
576.203	660.43
576.655	665.23
577.106	650.13
577.557	650.63
578.009	652.73
578.46	646.03
578.912	633.63
579.363	653.43
579.814	655.43
580.265	647.53
580.717	654.43
581.168	648.43
581.619	664.33
582.07	660.83
582.521	656.93
582.972	653.93
583.423	661.43
583.875	665.43
584.326	679.73
584.777	730.93
585.227	808.13
585.678	884.33
586.129	971.73
586.58	1047.73
587.031	1127.93
587.482	1279.43
587.933	1461.23
588.384	1273.53
588.834	949.33
589.285	786.83
589.736	753.63
590.186	752.93
590.637	755.73
591.088	726.83
591.538	713.73
591.989	713.73
592.439	713.43
592.89	710.03
593.34	691.03
593.791	690.23
594.241	681.73
594.692	691.13
595.142	685.43
595.593	675.03
596.043	686.73
596.493	695.83
596.943	698.03
597.394	694.93
597.844	700.73
598.294	704.23
598.744	734.93
599.195	750.43
599.645	793.53
600.095	827.43
600.545	881.03
600.995	933.83
601.445	980.43
601.895	1044.53
602.345	1102.33
602.795	1077.83
603.245	1035.23
603.695	974.73
604.145	931.83
604.594	881.63
605.044	828.43
605.494	771.93
605.944	731.33
606.393	725.53
606.843	710.63
607.293	711.53
607.743	690.13
608.192	715.23
608.642	726.63
609.091	741.53
609.541	747.13
609.99	751.73
610.44	740.53
610.889	700.73
611.339	679.33
611.788	660.93
612.238	677.63
612.687	689.13
613.136	685.83
613.586	707.13
614.035	714.03
614.484	736.23
614.933	738.03
615.383	728.13
615.832	722.63
616.281	699.23
616.73	668.93
617.179	633.03
617.628	624.73
618.077	609.53
618.526	601.53
618.975	603.13
619.424	594.93
619.873	584.43
620.322	592.23
620.771	587.33
621.22	591.23
621.669	573.53
622.118	564.33
622.567	559.83
623.015	544.53
623.464	546.43
623.913	533.93
624.361	531.73
624.81	537.03
625.259	527.83
625.707	533.93
626.156	537.63
626.604	545.13
627.053	538.43
627.501	543.13
627.95	548.83
628.398	547.83
628.847	545.43
629.295	547.73
629.744	554.93
630.192	553.73
630.64	548.33
631.089	545.63
631.537	551.73
631.985	562.13
632.433	570.93
632.881	576.13
633.33	626.33
633.778	609.53
634.226	543.43
634.674	547.93
635.122	552.03
635.57	566.53
636.018	596.23
636.466	562.43
636.914	533.53
637.362	546.83
637.81	556.23
638.258	554.13
638.705	549.13
639.153	582.93
639.601	591.73
640.049	609.33
640.497	639.63
640.944	661.23
641.392	609.73
641.84	594.53
642.287	555.83
642.735	545.73
643.182	547.33
643.63	545.23
644.078	556.83
644.525	563.13
644.973	567.23
645.42	579.03
645.867	592.13
646.315	607.93
646.762	627.83
647.21	667.03
647.657	691.43
648.104	719.33
648.551	742.43
648.999	803.93
649.446	871.53
649.893	962.23
650.34	1116.33
650.787	1320.63
651.234	1638.03
651.682	2146.43
652.129	2945.53
652.576	4222.13
653.023	6266.33
653.47	8636.33
653.917	10820.03
654.363	12597.33
654.81	13964.53
655.257	13271.13
655.704	8682.23
656.151	5126.23
656.598	3299.83
657.044	2331.03
657.491	1793.03
657.938	1430.23
658.385	1196.73
658.831	1039.63
659.278	918.13
659.724	817.63
660.171	750.63
660.618	685.23
661.064	650.93
661.511	639.63
661.957	628.73
662.404	612.43
662.85	618.23
663.296	583.33
663.743	539.13
664.189	515.83
664.635	507.63
665.082	499.93
665.528	496.83
665.974	497.63
666.42	486.73
666.867	480.83
667.313	467.23
667.759	455.63
668.205	454.53
668.651	458.13
669.097	452.83
669.543	470.03
669.989	444.33
670.435	430.03
670.881	419.93
671.327	423.13
671.773	445.43
672.219	468.13
672.665	513.23
673.11	545.13
673.556	586.23
674.002	629.93
674.448	613.83
674.893	512.03
675.339	450.23
675.785	416.73
676.23	393.03
676.676	373.63
677.122	363.03
677.567	354.03
678.013	345.33
678.458	341.33
678.904	333.83
679.349	323.83
679.794	336.23
680.24	334.33
680.685	328.43
681.131	325.13
681.576	328.53
682.021	336.53
682.466	327.93
682.912	330.13
683.357	323.23
683.802	361.83
684.247	384.73
684.692	432.43
685.137	465.13
685.583	501.63
686.028	524.33
686.473	481.63
686.918	423.53
687.363	389.33
687.807	374.23
688.252	345.33
688.697	332.03
689.142	316.23
689.587	320.73
690.032	307.83
690.477	318.83
690.921	323.93
691.366	354.63
691.811	379.73
692.255	401.93
692.7	431.73
693.145	466.83
693.589	636.73
694.034	1040.73
694.478	1439.73
694.923	1643.63
695.367	2150.53
695.812	1126.53
696.256	466.03
696.701	353.53
697.145	322.53
697.59	317.43
698.034	298.33
698.478	307.53
698.922	299.83
699.367	308.13
699.811	316.23
700.255	325.33
700.699	356.13
701.143	393.93
701.588	444.33
702.032	489.63
702.476	484.53
702.92	461.83
703.364	468.13
703.808	585.23
704.252	939.83
704.696	1360.33
705.14	1568.83
705.584	2019.73
706.027	1007.43
706.471	489.63
706.915	369.03
707.359	325.53
707.803	301.33
708.246	289.63
708.69	297.13
709.134	302.93
709.577	292.63
710.021	299.43
710.465	284.73
710.908	278.93
711.352	276.33
711.795	293.53
712.239	328.63
712.682	352.93
713.126	390.33
713.569	430.23
714.012	353.73
714.456	301.53
714.899	274.83
715.342	260.53
715.786	239.23
716.229	238.93
716.672	236.13
717.115	229.83
717.558	236.03
718.002	239.53
718.445	245.43
718.888	263.23
719.331	272.03
719.774	289.23
720.217	286.53
720.66	264.13
721.103	245.13
721.546	232.23
721.989	233.23
722.432	215.63
722.874	218.03
723.317	211.63
723.76	220.63
724.203	243.13
724.645	293.13
725.088	408.13
725.531	526.33
725.974	603.63
726.416	508.43
726.859	287.43
727.301	233.93
727.744	225.13
728.187	211.63
728.629	227.23
729.071	228.83
729.514	239.23
729.956	260.63
730.399	266.33
730.841	272.63
731.283	253.93
731.726	245.33
732.168	241.33
732.61	249.13
733.053	265.63
733.495	293.53
733.937	326.83
734.379	363.03
734.821	398.83
735.263	490.43
735.705	751.73
736.148	1444.23
736.59	2389.73
737.032	2891.13
737.474	2358.13
737.916	759.33
738.357	398.73
738.799	302.43
739.241	273.43
739.683	272.43
740.125	272.93
740.567	278.43
741.008	291.53
741.45	294.23
741.892	300.43
742.334	322.23
742.775	338.63
743.217	314.33
743.658	245.53
744.1	238.33
744.542	243.03
744.983	286.83
745.425	317.63
745.866	324.43
746.307	269.13
746.749	266.93
747.19	303.53
747.632	416.13
748.073	786.83
748.514	1713.23
748.956	2641.13
749.397	3320.93
749.838	2749.73
750.279	2780.63
750.72	1399.13
751.162	506.33
751.603	297.13
752.044	237.23
752.485	201.23
752.926	201.23
753.367	191.63
753.808	180.43
754.249	169.93
754.69	170.13
755.131	173.93
755.572	169.13
756.013	167.83
756.453	174.23
756.894	175.63
757.335	175.33
757.776	182.73
758.216	179.93
758.657	187.83
759.098	190.13
759.538	210.23
759.979	250.13
760.42	344.83
760.86	643.83
761.301	1652.53
761.741	4039.63
762.182	6087.53
762.622	4268.63
