Data from 20171114-ORNL-Ar_H_NY_Subt18_08-05-44-701.txt Node
Date: Tue Nov 14 08:05:44 EST 2017
User: Ender
Spectrometer: HR+D1039
Trigger mode: 0
Integration Time (sec): 2.730000E-2
Scans to average: 10
Electric dark correction enabled: true
Nonlinearity correction enabled: false
Boxcar width: 0
XAxis mode: Wavelengths
Number of Pixels in Spectrum: 2048
>>>>>Begin Spectral Data<<<<<
187.836	-4.31
188.309	-4.31
188.782	-4.31
189.255	-0.21
189.728	-2.01
190.201	6.49
190.674	-1.51
191.147	3.79
191.619	-8.71
192.092	4.49
192.565	5.39
193.038	-0.21
193.511	2.49
193.984	1.99
194.456	-7.21
194.929	1.89
195.402	-3.71
195.874	1.39
196.347	0.09
196.82	-1.41
197.292	8.89
197.765	-4.01
198.237	-10.21
198.71	1.19
199.182	-6.91
199.655	-0.51
200.127	5.19
200.6	-1.01
201.072	-3.51
201.544	-0.71
202.017	0.69
202.489	4.89
202.961	-0.51
203.433	-5.41
203.906	-4.51
204.378	-7.31
204.85	-2.61
205.322	-7.01
205.794	1.79
206.266	-2.01
206.739	-5.11
207.211	5.19
207.683	-5.71
208.155	-2.71
208.627	-2.51
209.099	-1.01
209.57	-10.91
210.042	-3.41
210.514	1.69
210.986	2.59
211.458	-5.71
211.93	-1.71
212.402	4.89
212.873	-0.11
213.345	-13.81
213.817	-10.51
214.288	-8.61
214.76	-11.11
215.232	-3.21
215.703	-3.01
216.175	-10.21
216.646	-0.41
217.118	-3.51
217.589	-2.31
218.061	-3.51
218.532	-3.81
219.004	-0.01
219.475	-8.51
219.946	-2.71
220.418	-5.01
220.889	-1.51
221.36	4.59
221.832	-2.61
222.303	-10.11
222.774	3.79
223.245	-7.81
223.717	-3.01
224.188	0.09
224.659	-3.61
225.13	-3.61
225.601	-6.81
226.072	6.99
226.543	0.59
227.014	0.39
227.485	-1.21
227.956	-1.21
228.427	-7.11
228.898	1.29
229.369	6.79
229.839	-3.41
230.31	-6.01
230.781	3.79
231.252	-2.71
231.722	-4.51
232.193	0.69
232.664	1.49
233.135	2.39
233.605	1.89
234.076	-7.81
234.546	7.79
235.017	1.99
235.487	6.69
235.958	-1.11
236.428	-2.21
236.899	2.49
237.369	5.09
237.84	-1.31
238.31	8.29
238.78	4.49
239.251	5.29
239.721	3.69
240.191	0.29
240.662	-1.71
241.132	1.19
241.602	-2.91
242.072	2.79
242.542	5.69
243.013	-0.91
243.483	0.09
243.953	2.49
244.423	5.49
244.893	2.09
245.363	8.99
245.833	5.49
246.303	4.69
246.773	12.99
247.243	3.59
247.712	8.39
248.182	8.89
248.652	4.79
249.122	1.79
249.592	13.39
250.061	23.09
250.531	34.49
251.001	19.49
251.471	21.89
251.94	19.19
252.41	8.69
252.879	3.39
253.349	13.99
253.818	6.09
254.288	1.99
254.757	7.19
255.227	0.39
255.696	6.79
256.166	5.99
256.635	8.49
257.105	8.89
257.574	6.69
258.043	6.39
258.513	14.69
258.982	21.89
259.451	6.19
259.92	21.49
260.389	17.79
260.859	21.49
261.328	11.09
261.797	20.29
262.266	11.29
262.735	13.79
263.204	9.89
263.673	6.89
264.142	7.99
264.611	-1.01
265.08	10.19
265.549	4.39
266.018	3.99
266.487	-1.01
266.955	-2.91
267.424	2.59
267.893	3.69
268.362	-1.21
268.83	6.89
269.299	10.79
269.768	9.19
270.236	9.19
270.705	9.99
271.174	11.49
271.642	15.49
272.111	9.59
272.579	16.99
273.048	25.39
273.516	29.29
273.985	29.99
274.453	27.89
274.922	19.99
275.39	10.39
275.858	6.79
276.327	15.69
276.795	19.99
277.263	10.09
277.731	34.09
278.2	56.39
278.668	62.39
279.136	48.19
279.604	18.79
280.072	20.09
280.54	7.99
281.008	9.29
281.477	16.49
281.945	11.29
282.413	15.69
282.881	14.49
283.348	14.59
283.816	21.09
284.284	25.69
284.752	24.29
285.22	14.09
285.688	17.49
286.156	23.89
286.623	45.39
287.091	55.39
287.559	30.79
288.026	23.09
288.494	16.79
288.962	9.49
289.429	12.69
289.897	23.59
290.364	20.09
290.832	21.59
291.3	18.59
291.767	24.79
292.234	21.69
292.702	21.69
293.169	19.69
293.637	26.39
294.104	23.69
294.571	4.39
295.039	13.09
295.506	18.29
295.973	18.09
296.44	13.49
296.908	17.79
297.375	20.09
297.842	27.19
298.309	19.99
298.776	17.79
299.243	19.89
299.71	12.69
300.177	22.99
300.644	23.69
301.111	26.39
301.578	26.89
302.045	19.19
302.512	26.99
302.979	25.39
303.446	28.69
303.913	21.39
304.379	19.69
304.846	30.89
305.313	27.49
305.78	25.49
306.246	28.39
306.713	27.09
307.18	27.69
307.646	31.19
308.113	30.29
308.579	26.79
309.046	30.69
309.512	33.49
309.979	21.09
310.445	33.39
310.912	33.99
311.378	36.49
311.845	36.39
312.311	38.99
312.777	38.09
313.244	35.49
313.71	40.79
314.176	31.09
314.642	34.99
315.109	32.99
315.575	41.99
316.041	36.19
316.507	30.59
316.973	40.39
317.439	37.89
317.905	38.19
318.371	35.39
318.837	33.99
319.303	39.29
319.769	33.99
320.235	43.09
320.701	37.99
321.167	39.39
321.633	34.19
322.099	42.19
322.564	49.99
323.03	45.89
323.496	46.49
323.962	50.49
324.427	39.79
324.893	49.39
325.359	44.19
325.824	38.89
326.29	42.29
326.755	42.49
327.221	40.19
327.686	37.29
328.152	45.29
328.617	47.69
329.083	50.19
329.548	56.59
330.014	48.89
330.479	36.59
330.944	44.09
331.41	47.89
331.875	47.49
332.34	43.59
332.805	44.79
333.271	52.99
333.736	50.39
334.201	57.09
334.666	58.09
335.131	56.39
335.596	57.09
336.061	51.99
336.526	52.29
336.991	57.49
337.456	56.59
337.921	51.99
338.386	50.39
338.851	49.89
339.316	51.69
339.781	52.89
340.246	55.29
340.711	54.09
341.175	54.69
341.64	45.99
342.105	54.99
342.569	61.69
343.034	62.79
343.499	69.59
343.963	59.89
344.428	68.49
344.893	65.39
345.357	73.59
345.822	67.49
346.286	70.39
346.751	76.49
347.215	71.39
347.679	77.99
348.144	106.49
348.608	85.89
349.073	76.69
349.537	78.69
350.001	83.79
350.465	95.79
350.93	88.79
351.394	89.89
351.858	80.09
352.322	95.59
352.786	88.79
353.25	110.39
353.715	118.99
354.179	103.29
354.643	128.39
355.107	136.59
355.571	110.09
356.035	111.69
356.498	124.99
356.962	130.19
357.426	130.19
357.89	122.59
358.354	95.29
358.818	82.09
359.281	86.59
359.745	82.99
360.209	81.99
360.673	85.99
361.136	84.89
361.6	94.29
362.064	87.79
362.527	94.59
362.991	102.99
363.454	88.49
363.918	77.29
364.381	81.59
364.845	93.09
365.308	87.19
365.772	92.29
366.235	89.59
366.698	89.29
367.162	91.49
367.625	90.89
368.088	91.59
368.552	93.19
369.015	90.19
369.478	97.19
369.941	103.09
370.404	97.79
370.867	111.09
371.331	112.99
371.794	122.69
372.257	113.29
372.72	119.79
373.183	112.99
373.646	118.99
374.109	112.59
374.572	107.19
375.035	115.99
375.497	121.49
375.96	108.39
376.423	113.19
376.886	123.39
377.349	111.19
377.811	108.79
378.274	109.59
378.737	114.29
379.199	118.59
379.662	119.89
380.125	124.49
380.587	124.79
381.05	121.29
381.512	127.69
381.975	139.39
382.437	139.49
382.9	132.39
383.362	128.09
383.825	149.29
384.287	145.19
384.75	141.19
385.212	141.69
385.674	146.59
386.136	142.89
386.599	123.99
387.061	141.19
387.523	136.99
387.985	137.99
388.447	148.49
388.91	144.39
389.372	162.29
389.834	160.69
390.296	147.29
390.758	158.79
391.22	172.49
391.682	218.89
392.144	297.59
392.606	229.69
393.068	173.59
393.529	172.49
393.991	160.39
394.453	152.59
394.915	158.49
395.377	192.59
395.838	215.59
396.3	157.09
396.762	147.09
397.224	140.79
397.685	134.19
398.147	133.19
398.608	139.19
399.07	136.99
399.531	143.59
399.993	148.89
400.454	157.19
400.916	148.89
401.377	147.09
401.839	157.59
402.3	159.79
402.762	171.19
403.223	185.09
403.684	182.79
404.145	168.49
404.607	164.09
405.068	167.09
405.529	177.39
405.99	192.99
406.451	185.29
406.913	182.89
407.374	168.89
407.835	169.39
408.296	169.99
408.757	182.99
409.218	192.19
409.679	190.29
410.14	185.69
410.601	182.79
411.062	193.49
411.522	197.79
411.983	191.99
412.444	184.19
412.905	188.29
413.366	192.19
413.826	205.39
414.287	226.29
414.748	270.59
415.208	258.99
415.669	218.59
416.13	214.59
416.59	210.09
417.051	218.79
417.511	233.09
417.972	247.29
418.432	259.79
418.893	297.29
419.353	255.89
419.814	204.39
420.274	190.39
420.734	191.79
421.195	212.89
421.655	204.79
422.115	195.69
422.576	202.69
423.036	204.59
423.496	214.39
423.956	225.89
424.416	238.79
424.876	275.29
425.336	270.89
425.797	270.89
426.257	275.99
426.717	253.89
427.177	237.99
427.637	235.49
428.097	241.59
428.556	253.49
429.016	276.49
429.476	274.99
429.936	285.29
430.396	290.79
430.856	296.19
431.315	325.59
431.775	363.79
432.235	388.69
432.694	356.09
433.154	376.19
433.614	413.79
434.073	352.59
434.533	298.89
434.993	281.59
435.452	299.89
435.912	306.39
436.371	305.59
436.83	297.39
437.29	271.19
437.749	252.99
438.209	253.39
438.668	283.19
439.127	310.49
439.587	279.99
440.046	261.99
440.505	269.99
440.964	287.79
441.424	336.49
441.883	322.09
442.342	274.79
442.801	239.99
443.26	229.69
443.719	225.19
444.178	227.59
444.637	218.09
445.096	226.19
445.555	232.49
446.014	240.19
446.473	244.69
446.932	244.09
447.391	234.09
447.849	235.79
448.308	227.69
448.767	234.19
449.226	244.09
449.685	249.09
450.143	262.59
450.602	244.39
451.061	239.19
451.519	239.49
451.978	241.79
452.436	241.59
452.895	247.39
453.353	258.49
453.812	250.89
454.27	252.29
454.729	250.39
455.187	248.19
455.646	255.39
456.104	252.19
456.562	269.89
457.021	270.09
457.479	270.39
457.937	291.79
458.395	276.99
458.854	264.49
459.312	266.29
459.77	276.59
460.228	261.89
460.686	250.59
461.144	262.49
461.602	256.29
462.06	250.09
462.518	267.09
462.976	260.49
463.434	267.49
463.892	275.59
464.35	287.59
464.808	294.89
465.266	271.59
465.724	275.89
466.181	284.99
466.639	288.99
467.097	295.59
467.555	312.89
468.012	314.69
468.47	323.09
468.928	339.49
469.385	355.79
469.843	368.39
470.3	362.09
470.758	375.09
471.215	396.89
471.673	422.79
472.13	426.79
472.588	430.19
473.045	385.59
473.503	392.59
473.96	407.39
474.417	419.99
474.875	449.89
475.332	490.69
475.789	475.59
476.246	482.79
476.704	506.19
477.161	526.19
477.618	547.39
478.075	567.79
478.532	639.49
478.989	714.29
479.446	826.69
479.903	801.69
480.36	831.19
480.817	897.29
481.274	1000.99
481.731	1095.69
482.188	1193.49
482.645	1326.09
483.102	1443.79
483.558	1577.49
484.015	1637.69
484.472	1591.69
484.929	1550.79
485.385	1500.69
485.842	1476.59
486.299	1395.99
486.755	1340.39
487.212	1134.89
487.668	943.39
488.125	877.99
488.582	804.49
489.038	782.19
489.494	743.99
489.951	708.49
490.407	691.19
490.864	669.59
491.32	667.09
491.776	663.59
492.233	672.69
492.689	631.69
493.145	616.79
493.602	617.29
494.058	633.69
494.514	638.99
494.97	659.79
495.426	667.89
495.882	645.69
496.338	637.39
496.794	656.89
497.251	645.09
497.707	663.19
498.163	663.99
498.618	659.09
499.074	669.59
499.53	705.69
499.986	695.09
500.442	683.89
500.898	658.29
501.354	650.49
501.809	658.39
502.265	668.69
502.721	684.39
503.177	702.79
503.632	680.89
504.088	702.49
504.543	727.69
504.999	734.89
505.455	689.59
505.91	655.79
506.366	659.19
506.821	650.99
507.277	653.19
507.732	653.89
508.187	649.89
508.643	651.29
509.098	659.09
509.553	684.39
510.009	682.59
510.464	687.59
510.919	714.39
511.375	721.29
511.83	728.89
512.285	744.09
512.74	787.59
513.195	808.39
513.65	805.09
514.105	795.89
514.56	795.39
515.015	825.19
515.47	842.29
515.925	830.59
516.38	814.09
516.835	821.99
517.29	814.29
517.745	805.79
518.2	785.79
518.655	775.09
519.109	764.89
519.564	765.19
520.019	749.49
520.474	753.09
520.928	757.49
521.383	749.99
521.838	742.49
522.292	736.19
522.747	737.49
523.201	734.39
523.656	726.49
524.11	721.19
524.565	720.99
525.019	722.79
525.474	718.49
525.928	731.89
526.382	712.09
526.837	718.09
527.291	722.99
527.745	715.99
528.2	723.49
528.654	712.59
529.108	715.39
529.562	715.19
530.016	715.99
530.47	720.89
530.925	717.79
531.379	721.79
531.833	727.69
532.287	723.09
532.741	723.19
533.195	727.89
533.649	730.29
534.103	740.79
534.556	729.79
535.01	732.49
535.464	742.19
535.918	739.59
536.372	745.09
536.826	745.59
537.279	726.69
537.733	732.19
538.187	741.79
538.64	743.39
539.094	741.39
539.548	753.29
540.001	749.19
540.455	738.59
540.908	753.69
541.362	763.69
541.815	766.29
542.269	780.89
542.722	776.69
543.175	795.89
543.629	788.29
544.082	805.99
544.536	808.89
544.989	815.29
545.442	814.59
545.895	815.39
546.349	809.99
546.802	810.59
547.255	823.19
547.708	827.39
548.161	830.19
548.614	842.09
549.067	853.29
549.52	840.79
549.973	839.69
550.426	821.09
550.879	816.99
551.332	827.89
551.785	828.49
552.238	826.59
552.691	838.39
553.144	865.09
553.596	867.09
554.049	901.19
554.502	923.59
554.955	939.89
555.407	925.99
555.86	915.59
556.313	912.39
556.765	903.59
557.218	907.09
557.67	907.79
558.123	902.89
558.576	896.19
559.028	903.19
559.48	902.19
559.933	888.69
560.385	856.89
560.838	828.59
561.29	812.89
561.742	798.79
562.195	781.59
562.647	789.29
563.099	791.09
563.551	792.79
564.004	798.39
564.456	791.29
564.908	779.89
565.36	760.29
565.812	744.39
566.264	739.49
566.716	743.29
567.168	730.39
567.62	736.89
568.072	712.59
568.524	712.99
568.976	696.89
569.428	695.39
569.88	688.09
570.332	708.89
570.784	704.09
571.235	701.19
571.687	709.69
572.139	715.89
572.59	719.99
573.042	725.19
573.494	718.59
573.945	713.09
574.397	706.29
574.849	705.89
575.3	707.69
575.752	696.39
576.203	695.19
576.655	700.79
577.106	688.49
577.557	686.09
578.009	680.79
578.46	676.49
578.912	678.29
579.363	677.89
579.814	686.69
580.265	679.89
580.717	687.79
581.168	684.49
581.619	689.29
582.07	695.19
582.521	690.59
582.972	678.79
583.423	687.49
583.875	699.29
584.326	709.19
584.777	752.49
585.227	816.09
585.678	901.89
586.129	979.99
586.58	1033.69
587.031	1113.99
587.482	1263.09
587.933	1438.19
588.384	1253.69
588.834	964.99
589.285	820.69
589.736	794.09
590.186	791.19
590.637	777.39
591.088	752.19
591.538	746.29
591.989	743.39
592.439	737.49
592.89	726.59
593.34	719.49
593.791	715.59
594.241	711.69
594.692	726.39
595.142	713.29
595.593	716.09
596.043	723.59
596.493	722.99
596.943	733.69
597.394	727.89
597.844	727.99
598.294	729.29
598.744	768.49
599.195	782.79
599.645	821.29
600.095	863.29
600.545	916.19
600.995	982.59
601.445	1035.69
601.895	1092.59
602.345	1147.19
602.795	1128.39
603.245	1073.29
603.695	1021.59
604.145	969.59
604.594	915.19
605.044	855.69
605.494	799.19
605.944	763.29
606.393	753.09
606.843	735.69
607.293	740.49
607.743	737.19
608.192	754.09
608.642	762.59
609.091	778.19
609.541	778.89
609.99	774.79
610.44	774.49
610.889	725.09
611.339	704.39
611.788	697.49
612.238	711.69
612.687	725.29
613.136	726.69
613.586	744.39
614.035	739.89
614.484	755.09
614.933	755.89
615.383	747.59
615.832	737.89
616.281	724.09
616.73	688.49
617.179	667.19
617.628	650.89
618.077	639.59
618.526	627.49
618.975	620.99
619.424	622.89
619.873	611.49
620.322	620.29
620.771	620.29
621.22	616.39
621.669	596.69
622.118	579.69
622.567	592.19
623.015	578.69
623.464	572.29
623.913	566.29
624.361	560.09
624.81	552.09
625.259	550.69
625.707	556.79
626.156	562.49
626.604	575.19
627.053	560.39
627.501	566.49
627.95	567.69
628.398	580.29
628.847	570.89
629.295	575.49
629.744	580.39
630.192	563.69
630.64	576.29
631.089	562.49
631.537	569.39
631.985	580.49
632.433	600.39
632.881	590.49
633.33	650.69
633.778	629.89
634.226	564.99
634.674	571.79
635.122	572.89
635.57	595.79
636.018	619.69
636.466	582.69
636.914	569.99
637.362	576.79
637.81	577.39
638.258	575.19
638.705	576.89
639.153	609.79
639.601	613.59
640.049	648.79
640.497	668.09
640.944	702.19
641.392	644.19
641.84	616.79
642.287	581.89
642.735	569.99
643.182	574.19
643.63	571.39
644.078	571.09
644.525	586.59
644.973	591.89
645.42	601.59
645.867	627.99
646.315	649.89
646.762	652.59
647.21	699.49
647.657	724.69
648.104	754.39
648.551	765.29
648.999	822.99
649.446	908.29
649.893	992.29
650.34	1150.09
650.787	1363.49
651.234	1700.49
651.682	2199.49
652.129	3010.79
652.576	4328.59
653.023	6371.09
653.47	8769.19
653.917	10962.39
654.363	12735.39
654.81	14135.19
655.257	13417.69
655.704	8808.99
656.151	5221.39
656.598	3369.59
657.044	2391.09
657.491	1845.99
657.938	1481.49
658.385	1246.49
658.831	1078.59
659.278	954.99
659.724	858.59
660.171	788.49
660.618	719.49
661.064	687.69
661.511	658.09
661.957	657.59
662.404	643.39
662.85	649.19
663.296	618.79
663.743	553.39
664.189	533.99
664.635	525.39
665.082	525.99
665.528	525.49
665.974	523.79
666.42	514.99
666.867	507.59
667.313	489.99
667.759	483.99
668.205	467.29
668.651	476.69
669.097	476.89
669.543	480.09
669.989	462.49
670.435	447.99
670.881	448.09
671.327	445.19
671.773	454.69
672.219	487.19
672.665	540.79
673.11	580.19
673.556	629.19
674.002	656.69
674.448	651.89
674.893	553.09
675.339	469.89
675.785	438.29
676.23	408.99
676.676	395.09
677.122	380.69
677.567	368.29
678.013	371.99
678.458	357.09
678.904	360.19
679.349	352.29
679.794	358.49
680.24	349.89
680.685	346.49
681.131	353.49
681.576	353.49
682.021	351.89
682.466	350.19
682.912	348.69
683.357	357.49
683.802	383.59
684.247	404.49
684.692	444.59
685.137	483.09
685.583	520.09
686.028	563.09
686.473	507.39
686.918	441.99
687.363	415.49
687.807	391.69
688.252	363.09
688.697	348.59
689.142	332.79
689.587	327.89
690.032	327.59
690.477	341.59
690.921	347.39
691.366	383.99
691.811	398.29
692.255	422.39
692.7	456.09
693.145	491.49
693.589	674.39
694.034	1098.89
694.478	1500.19
694.923	1714.79
695.367	2242.89
695.812	1187.19
696.256	490.99
696.701	371.89
697.145	342.09
697.59	322.99
698.034	320.69
698.478	324.59
698.922	324.49
699.367	320.69
699.811	326.69
700.255	351.79
700.699	380.29
701.143	423.19
701.588	469.49
702.032	510.89
702.476	504.79
702.92	490.29
703.364	489.89
703.808	622.69
704.252	1004.79
704.696	1417.09
705.14	1647.59
705.584	2127.59
706.027	1050.69
706.471	508.99
706.915	390.29
707.359	349.49
707.803	315.99
708.246	310.39
708.69	307.99
709.134	307.39
709.577	306.89
710.021	310.19
710.465	301.79
710.908	299.79
711.352	294.69
711.795	318.99
712.239	348.09
712.682	382.09
713.126	417.19
713.569	464.39
714.012	368.59
714.456	333.49
714.899	304.39
715.342	274.19
715.786	255.09
716.229	251.99
716.672	251.69
717.115	245.29
717.558	245.99
718.002	248.69
718.445	263.09
718.888	273.09
719.331	290.79
719.774	303.89
720.217	298.99
720.66	285.29
721.103	264.59
721.546	250.69
721.989	244.19
722.432	232.69
722.874	237.09
723.317	222.69
723.76	229.89
724.203	254.09
724.645	301.19
725.088	440.19
725.531	554.49
725.974	638.59
726.416	543.29
726.859	308.29
727.301	239.49
727.744	234.49
728.187	227.29
728.629	233.29
729.071	236.69
729.514	257.89
729.956	266.49
730.399	275.69
730.841	280.39
731.283	271.19
731.726	266.59
732.168	259.29
732.61	269.89
733.053	282.39
733.495	297.89
733.937	351.59
734.379	398.99
734.821	427.89
735.263	529.59
735.705	796.09
736.148	1511.19
736.59	2517.79
737.032	3037.49
737.474	2462.29
737.916	796.69
738.357	419.59
738.799	321.59
739.241	290.99
739.683	282.79
740.125	289.59
740.567	291.49
741.008	317.99
741.45	308.39
741.892	316.09
742.334	336.19
742.775	362.69
743.217	339.29
743.658	270.59
744.1	252.49
744.542	257.49
744.983	305.29
745.425	343.49
745.866	343.29
746.307	288.49
746.749	281.39
747.19	316.19
747.632	445.19
748.073	846.29
748.514	1782.89
748.956	2794.99
749.397	3485.89
749.838	2922.59
750.279	2937.39
750.72	1478.69
751.162	533.89
751.603	316.79
752.044	250.99
752.485	213.79
752.926	207.89
753.367	200.09
753.808	192.89
754.249	186.39
754.69	183.59
755.131	176.89
755.572	184.19
756.013	174.69
756.453	183.09
756.894	185.09
757.335	184.79
757.776	187.89
758.216	191.39
758.657	194.79
759.098	200.09
759.538	220.19
759.979	257.49
760.42	369.29
760.86	671.19
761.301	1735.49
761.741	4264.99
762.182	6339.49
