Data from 20171114-ORNL-Ar_H_NY_Subt18_08-04-02-608.txt Node
Date: Tue Nov 14 08:04:02 EST 2017
User: Ender
Spectrometer: HR+D1039
Trigger mode: 0
Integration Time (sec): 2.730000E-2
Scans to average: 10
Electric dark correction enabled: true
Nonlinearity correction enabled: false
Boxcar width: 0
XAxis mode: Wavelengths
Number of Pixels in Spectrum: 2048
>>>>>Begin Spectral Data<<<<<
187.836	-6.28
188.309	-6.28
188.782	-6.28
189.255	-3.48
189.728	-0.58
190.201	3.62
190.674	5.92
191.147	2.22
191.619	-8.28
192.092	-0.68
192.565	1.42
193.038	4.32
193.511	2.92
193.984	3.12
194.456	1.42
194.929	-1.58
195.402	-3.08
195.874	-1.08
196.347	-2.48
196.82	-8.28
197.292	3.12
197.765	-3.28
198.237	-7.08
198.71	-3.28
199.182	2.32
199.655	0.92
200.127	5.42
200.6	-2.58
201.072	-6.08
201.544	1.42
202.017	-1.58
202.489	4.02
202.961	-3.58
203.433	-8.28
203.906	-10.08
204.378	-1.68
204.85	-5.78
205.322	-9.78
205.794	0.12
206.266	-8.18
206.739	-5.48
207.211	-2.58
207.683	-8.48
208.155	-6.78
208.627	-6.28
209.099	-5.98
209.57	-8.68
210.042	-3.08
210.514	-6.28
210.986	-0.78
211.458	-8.28
211.93	-3.48
212.402	-4.18
212.873	-1.78
213.345	-17.18
213.817	-13.38
214.288	-4.28
214.76	-13.98
215.232	-7.28
215.703	-6.78
216.175	-3.48
216.646	-7.58
217.118	-10.48
217.589	-8.18
218.061	-1.08
218.532	-1.18
219.004	-3.68
219.475	-1.68
219.946	-0.38
220.418	-11.38
220.889	-2.98
221.36	-4.68
221.832	-4.38
222.303	-9.58
222.774	3.72
223.245	-11.38
223.717	-11.18
224.188	-4.88
224.659	-8.68
225.13	-7.28
225.601	1.72
226.072	0.02
226.543	0.92
227.014	-1.78
227.485	-5.78
227.956	-8.58
228.427	-1.48
228.898	-8.18
229.369	0.82
229.839	-2.08
230.31	-8.28
230.781	2.02
231.252	-1.38
231.722	-2.28
232.193	0.72
232.664	-1.68
233.135	1.42
233.605	3.42
234.076	-3.58
234.546	-2.98
235.017	4.82
235.487	2.32
235.958	-1.18
236.428	-5.18
236.899	1.42
237.369	-0.18
237.84	-3.08
238.31	4.12
238.78	-1.68
239.251	-4.78
239.721	1.62
240.191	-1.48
240.662	0.42
241.132	-4.98
241.602	-5.28
242.072	-4.38
242.542	4.72
243.013	-3.78
243.483	-1.88
243.953	5.02
244.423	4.02
244.893	-4.88
245.363	-3.68
245.833	0.22
246.303	-3.58
246.773	7.92
247.243	-2.28
247.712	-3.08
248.182	5.12
248.652	4.02
249.122	-2.18
249.592	4.52
250.061	17.42
250.531	24.02
251.001	6.72
251.471	11.12
251.94	14.82
252.41	3.72
252.879	-5.38
253.349	9.02
253.818	8.42
254.288	2.12
254.757	0.72
255.227	-2.48
255.696	-5.38
256.166	4.72
256.635	6.32
257.105	6.32
257.574	1.22
258.043	2.42
258.513	6.52
258.982	11.52
259.451	0.22
259.92	6.22
260.389	8.22
260.859	8.32
261.328	2.02
261.797	9.42
262.266	1.72
262.735	7.52
263.204	5.02
263.673	-1.88
264.142	2.42
264.611	-5.58
265.08	-2.18
265.549	-4.08
266.018	0.22
266.487	-5.88
266.955	-2.18
267.424	-1.98
267.893	-1.28
268.362	-1.08
268.83	0.72
269.299	6.62
269.768	-3.28
270.236	7.32
270.705	5.72
271.174	-0.38
271.642	0.62
272.111	1.62
272.579	5.82
273.048	7.62
273.516	13.62
273.985	15.82
274.453	11.52
274.922	11.52
275.39	1.72
275.858	-1.58
276.327	5.82
276.795	12.12
277.263	6.62
277.731	18.62
278.2	33.72
278.668	34.82
279.136	33.12
279.604	8.12
280.072	10.32
280.54	15.12
281.008	4.22
281.477	10.22
281.945	5.82
282.413	8.52
282.881	8.82
283.348	1.62
283.816	9.72
284.284	6.82
284.752	12.12
285.22	2.82
285.688	10.92
286.156	5.52
286.623	30.82
287.091	28.62
287.559	19.32
288.026	7.62
288.494	4.82
288.962	0.42
289.429	7.22
289.897	14.92
290.364	7.52
290.832	13.32
291.3	10.02
291.767	11.82
292.234	7.62
292.702	8.42
293.169	6.42
293.637	11.82
294.104	11.22
294.571	4.62
295.039	10.32
295.506	5.12
295.973	9.12
296.44	4.12
296.908	11.02
297.375	2.52
297.842	7.82
298.309	4.42
298.776	6.42
299.243	11.52
299.71	7.82
300.177	13.82
300.644	14.32
301.111	14.82
301.578	11.92
302.045	7.42
302.512	17.32
302.979	16.02
303.446	23.22
303.913	14.32
304.379	8.42
304.846	13.42
305.313	15.32
305.78	16.52
306.246	16.02
306.713	16.12
307.18	14.72
307.646	17.32
308.113	23.52
308.579	10.62
309.046	16.22
309.512	19.92
309.979	9.52
310.445	14.72
310.912	15.32
311.378	19.42
311.845	21.32
312.311	19.02
312.777	15.82
313.244	19.52
313.71	26.32
314.176	24.02
314.642	21.42
315.109	16.82
315.575	25.12
316.041	30.12
316.507	21.22
316.973	23.42
317.439	24.32
317.905	29.12
318.371	29.62
318.837	24.92
319.303	19.12
319.769	13.72
320.235	19.72
320.701	24.92
321.167	26.62
321.633	22.12
322.099	29.72
322.564	36.82
323.03	27.92
323.496	25.82
323.962	29.62
324.427	24.32
324.893	28.32
325.359	27.62
325.824	21.22
326.29	23.92
326.755	27.82
327.221	34.62
327.686	27.02
328.152	36.02
328.617	23.82
329.083	28.32
329.548	33.92
330.014	40.02
330.479	28.62
330.944	29.62
331.41	26.32
331.875	34.82
332.34	30.12
332.805	35.22
333.271	35.92
333.736	34.92
334.201	45.02
334.666	42.62
335.131	39.82
335.596	41.42
336.061	40.82
336.526	30.82
336.991	37.72
337.456	46.12
337.921	34.92
338.386	37.72
338.851	39.12
339.316	34.02
339.781	41.62
340.246	36.72
340.711	33.92
341.175	38.02
341.64	32.72
342.105	41.92
342.569	40.22
343.034	50.12
343.499	45.02
343.963	38.32
344.428	49.22
344.893	44.62
345.357	50.22
345.822	52.52
346.286	48.02
346.751	57.72
347.215	47.92
347.679	49.82
348.144	67.22
348.608	54.72
349.073	51.62
349.537	62.82
350.001	59.12
350.465	69.02
350.93	58.52
351.394	66.92
351.858	53.62
352.322	61.72
352.786	54.02
353.25	77.72
353.715	77.72
354.179	76.72
354.643	89.42
355.107	90.62
355.571	84.12
356.035	80.42
356.498	82.02
356.962	87.92
357.426	103.12
357.89	86.02
358.354	66.22
358.818	60.12
359.281	60.62
359.745	57.42
360.209	55.32
360.673	56.12
361.136	66.42
361.6	69.32
362.064	69.62
362.527	68.32
362.991	71.12
363.454	62.82
363.918	63.62
364.381	57.42
364.845	66.02
365.308	68.52
365.772	66.82
366.235	70.82
366.698	69.32
367.162	71.32
367.625	67.32
368.088	71.22
368.552	65.12
369.015	75.42
369.478	75.82
369.941	82.72
370.404	75.92
370.867	86.82
371.331	82.82
371.794	90.92
372.257	88.92
372.72	99.72
373.183	92.62
373.646	83.62
374.109	88.42
374.572	90.12
375.035	89.62
375.497	84.32
375.96	89.62
376.423	82.62
376.886	92.42
377.349	91.72
377.811	84.52
378.274	89.22
378.737	91.22
379.199	92.02
379.662	97.22
380.125	101.52
380.587	97.72
381.05	104.42
381.512	106.82
381.975	114.42
382.437	106.32
382.9	107.12
383.362	112.92
383.825	114.62
384.287	120.82
384.75	115.92
385.212	117.12
385.674	118.12
386.136	114.92
386.599	104.12
387.061	113.92
387.523	107.02
387.985	109.12
388.447	124.02
388.91	111.52
389.372	129.82
389.834	125.32
390.296	119.02
390.758	128.92
391.22	134.02
391.682	159.72
392.144	234.02
392.606	188.22
393.068	143.82
393.529	144.32
393.991	129.22
394.453	124.82
394.915	136.22
395.377	160.22
395.838	178.12
396.3	135.02
396.762	115.62
397.224	114.92
397.685	117.92
398.147	110.62
398.608	114.32
399.07	110.62
399.531	116.72
399.993	126.42
400.454	129.72
400.916	124.12
401.377	122.82
401.839	127.52
402.3	126.52
402.762	138.62
403.223	157.62
403.684	146.12
404.145	137.02
404.607	141.52
405.068	150.82
405.529	147.72
405.99	155.12
406.451	145.32
406.913	148.62
407.374	146.92
407.835	139.02
408.296	144.82
408.757	150.32
409.218	155.22
409.679	152.62
410.14	155.72
410.601	147.42
411.062	159.62
411.522	164.92
411.983	165.12
412.444	149.02
412.905	158.82
413.366	165.32
413.826	166.42
414.287	188.72
414.748	230.72
415.208	221.02
415.669	188.62
416.13	182.82
416.59	182.92
417.051	185.52
417.511	198.92
417.972	209.32
418.432	215.92
418.893	250.22
419.353	223.22
419.814	182.82
420.274	162.62
420.734	164.62
421.195	169.52
421.655	172.92
422.115	168.32
422.576	165.92
423.036	172.72
423.496	179.82
423.956	195.42
424.416	201.72
424.876	231.32
425.336	228.12
425.797	226.32
426.257	222.92
426.717	209.02
427.177	203.02
427.637	189.52
428.097	203.02
428.556	220.52
429.016	241.12
429.476	232.92
429.936	232.02
430.396	238.12
430.856	256.92
431.315	275.52
431.775	303.72
432.235	328.32
432.694	300.72
433.154	306.02
433.614	320.82
434.073	284.52
434.533	253.02
434.993	238.12
435.452	244.72
435.912	245.62
436.371	239.22
436.83	234.52
437.29	233.92
437.749	213.82
438.209	210.92
438.668	225.52
439.127	237.32
439.587	224.22
440.046	209.42
440.505	216.42
440.964	229.62
441.424	259.32
441.883	250.32
442.342	218.42
442.801	185.92
443.26	186.82
443.719	189.72
444.178	188.92
444.637	189.12
445.096	190.22
445.555	196.82
446.014	191.82
446.473	197.82
446.932	199.62
447.391	199.62
447.849	204.32
448.308	189.82
448.767	196.32
449.226	205.22
449.685	205.82
450.143	214.72
450.602	205.92
451.061	198.42
451.519	204.12
451.978	205.92
452.436	204.52
452.895	204.52
453.353	216.72
453.812	206.42
454.27	213.12
454.729	203.32
455.187	206.22
455.646	209.22
456.104	213.62
456.562	214.22
457.021	223.42
457.479	223.42
457.937	227.52
458.395	220.22
458.854	212.82
459.312	220.52
459.77	226.82
460.228	218.02
460.686	209.82
461.144	220.82
461.602	218.22
462.06	209.12
462.518	216.12
462.976	221.72
463.434	223.62
463.892	223.82
464.35	234.62
464.808	244.62
465.266	230.02
465.724	236.72
466.181	237.82
466.639	236.02
467.097	253.02
467.555	255.82
468.012	260.92
468.47	268.92
468.928	282.22
469.385	299.12
469.843	294.62
470.3	293.62
470.758	301.22
471.215	319.52
471.673	337.62
472.13	330.42
472.588	348.82
473.045	316.72
473.503	319.52
473.96	335.12
474.417	345.42
474.875	372.82
475.332	401.92
475.789	391.92
476.246	401.32
476.704	422.22
477.161	433.62
477.618	447.82
478.075	473.92
478.532	517.52
478.989	571.22
479.446	661.92
479.903	652.22
480.36	705.62
480.817	738.12
481.274	827.02
481.731	923.92
482.188	1007.92
482.645	1114.92
483.102	1209.72
483.558	1328.02
484.015	1389.82
484.472	1370.72
484.929	1338.82
485.385	1274.42
485.842	1242.22
486.299	1176.52
486.755	1092.22
487.212	939.72
487.668	802.62
488.125	740.62
488.582	674.22
489.038	636.22
489.494	610.22
489.951	594.52
490.407	573.22
490.864	557.12
491.32	557.42
491.776	550.22
492.233	551.42
492.689	526.42
493.145	515.42
493.602	509.22
494.058	523.02
494.514	521.52
494.97	543.62
495.426	546.32
495.882	530.42
496.338	521.52
496.794	539.52
497.251	528.32
497.707	540.52
498.163	540.42
498.618	548.02
499.074	550.22
499.53	557.22
499.986	554.62
500.442	546.62
500.898	534.52
501.354	533.22
501.809	537.52
502.265	547.52
502.721	554.42
503.177	574.02
503.632	563.02
504.088	557.72
504.543	596.92
504.999	590.52
505.455	553.72
505.91	545.92
506.366	548.62
506.821	534.12
507.277	527.52
507.732	533.02
508.187	534.02
508.643	543.12
509.098	547.42
509.553	554.72
510.009	562.42
510.464	569.42
510.919	573.22
511.375	579.92
511.83	599.32
512.285	607.12
512.74	635.82
513.195	649.32
513.65	646.22
514.105	652.52
514.56	651.52
515.015	661.72
515.47	677.62
515.925	657.12
516.38	661.32
516.835	669.92
517.29	657.12
517.745	662.92
518.2	643.02
518.655	625.12
519.109	622.32
519.564	624.32
520.019	610.72
520.474	599.92
520.928	613.62
521.383	610.92
521.838	603.22
522.292	594.02
522.747	589.32
523.201	586.52
523.656	580.22
524.11	581.02
524.565	587.02
525.019	577.02
525.474	585.72
525.928	590.02
526.382	576.42
526.837	587.02
527.291	582.02
527.745	579.72
528.2	577.62
528.654	567.42
529.108	562.72
529.562	573.92
530.016	567.52
530.47	577.22
530.925	586.12
531.379	586.92
531.833	580.12
532.287	577.92
532.741	567.42
533.195	589.22
533.649	594.12
534.103	601.62
534.556	587.32
535.01	592.22
535.464	586.72
535.918	591.02
536.372	596.42
536.826	589.32
537.279	574.62
537.733	579.42
538.187	574.32
538.64	583.52
539.094	600.52
539.548	594.92
540.001	593.72
540.455	595.52
540.908	601.72
541.362	610.32
541.815	617.52
542.269	640.52
542.722	625.32
543.175	631.72
543.629	631.92
544.082	640.52
544.536	642.32
544.989	644.72
545.442	648.82
545.895	641.32
546.349	648.92
546.802	645.12
547.255	654.32
547.708	648.22
548.161	663.62
548.614	664.82
549.067	677.32
549.52	671.72
549.973	661.22
550.426	657.62
550.879	649.22
551.332	644.72
551.785	653.82
552.238	648.42
552.691	669.52
553.144	666.72
553.596	684.32
554.049	691.22
554.502	716.72
554.955	738.72
555.407	739.12
555.86	728.92
556.313	731.02
556.765	703.72
557.218	700.72
557.67	713.32
558.123	714.02
558.576	696.42
559.028	701.22
559.48	707.42
559.933	698.52
560.385	678.92
560.838	656.82
561.29	638.22
561.742	628.02
562.195	616.02
562.647	608.72
563.099	628.02
563.551	622.52
564.004	628.82
564.456	617.72
564.908	611.92
565.36	589.72
565.812	582.52
566.264	575.42
566.716	567.42
567.168	578.02
567.62	568.72
568.072	560.42
568.524	547.32
568.976	542.02
569.428	535.72
569.88	526.22
570.332	537.82
570.784	534.12
571.235	532.42
571.687	549.22
572.139	555.62
572.59	561.92
573.042	553.12
573.494	562.82
573.945	557.02
574.397	529.62
574.849	548.82
575.3	553.22
575.752	536.22
576.203	519.72
576.655	541.92
577.106	522.62
577.557	526.12
578.009	525.82
578.46	517.82
578.912	521.02
579.363	515.12
579.814	521.92
580.265	516.92
580.717	516.12
581.168	518.52
581.619	519.82
582.07	527.02
582.521	527.72
582.972	520.32
583.423	528.52
583.875	533.32
584.326	541.12
584.777	580.92
585.227	650.82
585.678	709.52
586.129	779.22
586.58	850.62
587.031	912.32
587.482	1042.32
587.933	1211.82
588.384	1036.22
588.834	761.72
589.285	630.42
589.736	609.92
590.186	597.62
590.637	591.12
591.088	573.02
591.538	565.62
591.989	561.92
592.439	564.62
592.89	555.82
593.34	542.52
593.791	553.52
594.241	548.52
594.692	543.22
595.142	540.52
595.593	534.52
596.043	539.82
596.493	535.22
596.943	543.82
597.394	544.82
597.844	547.12
598.294	561.32
598.744	581.92
599.195	591.72
599.645	612.12
600.095	651.62
600.545	698.42
600.995	731.82
601.445	785.82
601.895	828.12
602.345	864.42
602.795	871.42
603.245	823.02
603.695	775.42
604.145	726.72
604.594	688.62
605.044	655.72
605.494	602.72
605.944	569.92
606.393	558.12
606.843	554.02
607.293	549.32
607.743	551.82
608.192	562.32
608.642	573.82
609.091	576.42
609.541	575.62
609.99	574.62
610.44	575.02
610.889	541.42
611.339	527.82
611.788	520.92
612.238	527.72
612.687	547.32
613.136	538.12
613.586	560.72
614.035	551.52
614.484	569.82
614.933	560.92
615.383	557.42
615.832	554.92
616.281	547.52
616.73	514.62
617.179	501.62
617.628	492.42
618.077	476.82
618.526	468.52
618.975	471.02
619.424	465.42
619.873	458.52
620.322	460.82
620.771	450.32
621.22	449.22
621.669	436.82
622.118	441.22
622.567	433.42
623.015	420.82
623.464	410.72
623.913	421.02
624.361	411.42
624.81	404.42
625.259	412.62
625.707	414.12
626.156	410.92
626.604	412.12
627.053	415.62
627.501	416.02
627.95	425.22
628.398	429.62
628.847	424.92
629.295	420.62
629.744	427.22
630.192	424.02
630.64	421.02
631.089	410.42
631.537	420.32
631.985	420.22
632.433	432.32
632.881	427.22
633.33	461.42
633.778	447.42
634.226	405.52
634.674	411.82
635.122	420.32
635.57	433.92
636.018	452.92
636.466	435.72
636.914	413.92
637.362	418.42
637.81	419.72
638.258	426.02
638.705	425.22
639.153	445.62
639.601	444.52
640.049	465.02
640.497	497.42
640.944	509.92
641.392	468.02
641.84	447.52
642.287	429.92
642.735	417.02
643.182	416.82
643.63	417.92
644.078	423.82
644.525	431.92
644.973	443.42
645.42	440.32
645.867	455.62
646.315	466.62
646.762	477.32
647.21	509.52
647.657	517.32
648.104	547.12
648.551	560.42
648.999	605.62
649.446	657.82
649.893	725.82
650.34	826.72
650.787	994.42
651.234	1239.72
651.682	1597.92
652.129	2183.32
652.576	3129.32
653.023	4644.72
653.47	6462.12
653.917	8177.23
654.363	9650.43
654.81	10947.03
655.257	10414.62
655.704	6753.22
656.151	3926.82
656.598	2535.32
657.044	1781.12
657.491	1371.62
657.938	1086.12
658.385	914.12
658.831	788.62
659.278	704.32
659.724	623.02
660.171	572.32
660.618	523.32
661.064	497.02
661.511	471.82
661.957	466.72
662.404	450.62
662.85	453.12
663.296	439.52
663.743	397.22
664.189	398.82
664.635	384.62
665.082	374.92
665.528	380.72
665.974	368.92
666.42	364.62
666.867	363.02
667.313	346.42
667.759	343.02
668.205	342.42
668.651	352.62
669.097	346.62
669.543	359.52
669.989	338.42
670.435	331.62
670.881	325.82
671.327	323.62
671.773	337.22
672.219	352.32
672.665	385.62
673.11	417.62
673.556	454.32
674.002	486.62
674.448	467.42
674.893	404.72
675.339	354.52
675.785	329.52
676.23	299.02
676.676	286.92
677.122	276.62
677.567	263.82
678.013	260.62
678.458	256.02
678.904	260.32
679.349	245.52
679.794	248.32
680.24	252.02
680.685	248.42
681.131	245.82
681.576	250.02
682.021	261.52
682.466	256.92
682.912	239.32
683.357	243.02
683.802	270.52
684.247	286.52
684.692	325.02
685.137	348.02
685.583	387.22
686.028	412.52
686.473	367.42
686.918	314.42
687.363	295.42
687.807	279.62
688.252	257.12
688.697	259.82
689.142	241.02
689.587	236.12
690.032	229.52
690.477	239.72
690.921	245.22
691.366	274.52
691.811	288.32
692.255	299.62
692.7	329.12
693.145	348.62
693.589	479.82
694.034	785.62
694.478	1082.72
694.923	1269.22
695.367	1702.82
695.812	888.32
696.256	352.62
696.701	260.02
697.145	244.52
697.59	229.42
698.034	230.62
698.478	233.32
698.922	241.62
699.367	232.42
699.811	239.52
700.255	254.82
700.699	272.42
701.143	300.62
701.588	345.62
702.032	375.02
702.476	368.62
702.92	357.82
703.364	349.22
703.808	443.12
704.252	712.82
704.696	1023.82
705.14	1221.12
705.584	1589.22
706.027	778.02
706.471	382.12
706.915	275.32
707.359	241.92
707.803	224.32
708.246	222.22
708.69	226.12
709.134	226.42
709.577	222.52
710.021	226.52
710.465	221.72
710.908	215.42
711.352	202.82
711.795	216.82
712.239	246.92
712.682	272.72
713.126	293.02
713.569	334.02
714.012	261.22
714.456	229.12
714.899	215.52
715.342	195.02
715.786	181.42
716.229	179.22
716.672	187.72
717.115	178.82
717.558	177.32
718.002	176.02
718.445	181.42
718.888	197.62
719.331	208.12
719.774	225.22
720.217	213.32
720.66	199.22
721.103	187.82
721.546	178.82
721.989	170.52
722.432	164.02
722.874	173.02
723.317	160.62
723.76	164.12
724.203	184.22
724.645	215.42
725.088	299.72
725.531	399.72
725.974	479.42
726.416	398.52
726.859	217.82
727.301	172.92
727.744	162.92
728.187	163.42
728.629	173.22
729.071	168.62
729.514	181.22
729.956	183.02
730.399	198.12
730.841	206.92
731.283	195.42
731.726	187.82
732.168	178.42
732.61	189.42
733.053	207.62
733.495	215.92
733.937	244.62
734.379	277.92
734.821	304.32
735.263	373.22
735.705	561.32
736.148	1070.42
736.59	1827.82
737.032	2277.93
737.474	1863.22
737.916	582.32
738.357	298.62
738.799	235.02
739.241	207.92
739.683	197.82
740.125	208.22
740.567	213.72
741.008	223.82
741.45	228.52
741.892	224.32
742.334	245.42
742.775	252.92
743.217	247.62
743.658	195.52
744.1	177.62
744.542	183.92
744.983	219.42
745.425	258.92
745.866	252.72
746.307	205.92
746.749	201.72
747.19	229.42
747.632	313.02
748.073	579.72
748.514	1281.83
748.956	2049.42
749.397	2569.82
749.838	2135.02
750.279	2224.12
750.72	1110.92
751.162	395.32
751.603	223.42
752.044	180.42
752.485	152.22
752.926	146.32
753.367	143.52
753.808	139.52
754.249	129.82
754.69	127.52
755.131	128.52
755.572	125.42
756.013	118.12
756.453	127.12
756.894	131.32
757.335	131.12
757.776	132.02
758.216	136.82
758.657	133.02
759.098	137.42
759.538	152.02
759.979	179.62
760.42	252.42
760.86	489.92
761.301	1249.42
761.741	3124.72
762.182	4933.02
762.622	3468.12
763.063	969.52
763.503	385.12
763.943	247.72
764.384	251.62
