Data from 20171114-ORNL-Ar_H_NY_Subt18_08-08-34-492.txt Node
Date: Tue Nov 14 08:08:34 EST 2017
User: Ender
Spectrometer: HR+D1039
Trigger mode: 0
Integration Time (sec): 2.730000E-2
Scans to average: 10
Electric dark correction enabled: true
Nonlinearity correction enabled: false
Boxcar width: 0
XAxis mode: Wavelengths
Number of Pixels in Spectrum: 2048
>>>>>Begin Spectral Data<<<<<
187.836	-5.54
188.309	-5.54
188.782	-5.54
189.255	2.86
189.728	-1.44
190.201	1.76
190.674	1.36
191.147	0.56
191.619	-6.24
192.092	-1.14
192.565	0.56
193.038	1.16
193.511	1.66
193.984	-0.44
194.456	-1.74
194.929	1.96
195.402	3.06
195.874	1.56
196.347	-2.64
196.82	-9.04
197.292	2.36
197.765	-3.74
198.237	-7.84
198.71	-4.34
199.182	-0.24
199.655	0.66
200.127	0.86
200.6	-7.44
201.072	-3.44
201.544	-2.44
202.017	0.96
202.489	-3.04
202.961	-2.04
203.433	-1.74
203.906	-5.64
204.378	-10.44
204.85	-1.44
205.322	-10.84
205.794	-0.54
206.266	1.06
206.739	-11.14
207.211	-0.24
207.683	-5.64
208.155	-3.44
208.627	-8.74
209.099	-7.34
209.57	-9.34
210.042	0.36
210.514	-5.24
210.986	-0.14
211.458	-7.04
211.93	-1.04
212.402	2.36
212.873	-4.44
213.345	-5.14
213.817	-7.84
214.288	-6.14
214.76	-10.64
215.232	-1.64
215.703	0.16
216.175	-9.64
216.646	-2.34
217.118	-8.34
217.589	-1.64
218.061	2.66
218.532	-3.94
219.004	-3.14
219.475	1.96
219.946	0.26
220.418	-6.24
220.889	3.16
221.36	4.46
221.832	-2.24
222.303	-7.04
222.774	-1.24
223.245	-3.94
223.717	-1.54
224.188	-5.94
224.659	-8.54
225.13	-3.34
225.601	-3.04
226.072	4.46
226.543	-6.34
227.014	1.96
227.485	-2.24
227.956	-3.44
228.427	-1.84
228.898	1.06
229.369	0.56
229.839	-8.54
230.31	-10.44
230.781	2.66
231.252	-4.04
231.722	-3.64
232.193	-1.74
232.664	-1.14
233.135	-4.64
233.605	1.06
234.076	-7.04
234.546	-2.34
235.017	2.26
235.487	-1.34
235.958	-4.24
236.428	-8.34
236.899	-1.24
237.369	-2.14
237.84	-6.54
238.31	0.36
238.78	-1.94
239.251	-7.84
239.721	-6.54
240.191	-3.74
240.662	0.56
241.132	0.86
241.602	-5.44
242.072	1.56
242.542	3.36
243.013	0.26
243.483	6.16
243.953	5.46
244.423	-3.34
244.893	-5.54
245.363	1.76
245.833	-1.04
246.303	-3.24
246.773	2.56
247.243	-0.64
247.712	-0.44
248.182	2.66
248.652	0.26
249.122	-8.34
249.592	6.06
250.061	11.56
250.531	15.66
251.001	4.76
251.471	7.36
251.94	6.76
252.41	6.46
252.879	-3.14
253.349	12.06
253.818	9.76
254.288	1.76
254.757	3.96
255.227	0.26
255.696	-4.54
256.166	2.76
256.635	-0.54
257.105	9.96
257.574	-1.84
258.043	1.16
258.513	-0.44
258.982	5.06
259.451	-2.84
259.92	4.76
260.389	5.36
260.859	15.96
261.328	2.96
261.797	7.56
262.266	3.16
262.735	8.16
263.204	1.96
263.673	-1.74
264.142	7.66
264.611	-4.74
265.08	-3.54
265.549	-2.64
266.018	2.16
266.487	-1.34
266.955	-2.04
267.424	0.16
267.893	6.46
268.362	0.26
268.83	-2.54
269.299	6.46
269.768	3.76
270.236	2.76
270.705	-2.14
271.174	4.56
271.642	2.76
272.111	3.26
272.579	3.86
273.048	6.66
273.516	14.56
273.985	8.46
274.453	12.46
274.922	13.76
275.39	7.76
275.858	-0.54
276.327	7.26
276.795	9.76
277.263	9.16
277.731	25.96
278.2	21.36
278.668	31.36
279.136	29.86
279.604	15.36
280.072	14.46
280.54	7.36
281.008	4.26
281.477	3.66
281.945	7.76
282.413	11.46
282.881	11.56
283.348	7.26
283.816	14.36
284.284	13.86
284.752	16.96
285.22	9.16
285.688	11.56
286.156	16.06
286.623	28.86
287.091	24.06
287.559	16.06
288.026	15.36
288.494	6.56
288.962	-2.94
289.429	2.16
289.897	15.46
290.364	7.46
290.832	11.86
291.3	11.86
291.767	12.26
292.234	19.16
292.702	12.66
293.169	18.96
293.637	17.96
294.104	14.36
294.571	4.46
295.039	9.16
295.506	12.26
295.973	10.76
296.44	14.96
296.908	17.36
297.375	16.66
297.842	20.96
298.309	14.16
298.776	8.66
299.243	21.56
299.71	10.06
300.177	13.26
300.644	20.46
301.111	17.56
301.578	16.96
302.045	13.36
302.512	15.06
302.979	22.36
303.446	15.16
303.913	12.26
304.379	13.56
304.846	27.86
305.313	23.96
305.78	16.96
306.246	22.86
306.713	23.76
307.18	20.26
307.646	16.86
308.113	25.36
308.579	10.76
309.046	24.66
309.512	25.56
309.979	19.56
310.445	24.66
310.912	25.16
311.378	30.56
311.845	20.56
312.311	27.36
312.777	21.66
313.244	23.76
313.71	35.86
314.176	27.66
314.642	28.66
315.109	23.16
315.575	27.06
316.041	30.96
316.507	29.16
316.973	33.46
317.439	29.56
317.905	33.36
318.371	28.36
318.837	31.16
319.303	31.76
319.769	31.46
320.235	25.86
320.701	29.66
321.167	28.96
321.633	30.76
322.099	32.56
322.564	36.26
323.03	35.66
323.496	29.76
323.962	31.06
324.427	28.66
324.893	39.06
325.359	33.66
325.824	36.46
326.29	32.76
326.755	31.46
327.221	30.46
327.686	31.86
328.152	40.96
328.617	29.36
329.083	43.06
329.548	53.36
330.014	42.96
330.479	30.16
330.944	38.16
331.41	40.46
331.875	41.96
332.34	43.16
332.805	43.86
333.271	42.86
333.736	43.16
334.201	41.06
334.666	45.56
335.131	40.76
335.596	40.26
336.061	48.66
336.526	32.66
336.991	41.06
337.456	53.26
337.921	42.66
338.386	41.66
338.851	37.76
339.316	43.46
339.781	50.76
340.246	43.36
340.711	37.46
341.175	49.26
341.64	44.36
342.105	53.46
342.569	49.96
343.034	55.56
343.499	56.36
343.963	46.56
344.428	59.16
344.893	52.06
345.357	54.76
345.822	56.16
346.286	63.36
346.751	67.56
347.215	58.06
347.679	70.96
348.144	81.06
348.608	81.16
349.073	65.16
349.537	67.26
350.001	72.66
350.465	78.26
350.93	74.86
351.394	81.46
351.858	66.76
352.322	75.76
352.786	78.06
353.25	87.36
353.715	96.86
354.179	91.76
354.643	110.76
355.107	111.26
355.571	96.36
356.035	88.86
356.498	107.66
356.962	109.16
357.426	122.56
357.89	99.86
358.354	84.66
358.818	80.26
359.281	75.16
359.745	73.06
360.209	75.16
360.673	66.26
361.136	69.66
361.6	80.66
362.064	78.96
362.527	88.36
362.991	84.56
363.454	79.16
363.918	72.26
364.381	76.86
364.845	80.66
365.308	79.26
365.772	83.36
366.235	78.06
366.698	77.16
367.162	78.86
367.625	83.06
368.088	76.26
368.552	81.16
369.015	79.16
369.478	91.56
369.941	98.46
370.404	90.86
370.867	98.26
371.331	94.16
371.794	100.76
372.257	95.76
372.72	104.96
373.183	98.76
373.646	97.56
374.109	100.96
374.572	100.26
375.035	97.16
375.497	102.46
375.96	103.56
376.423	101.66
376.886	108.46
377.349	101.16
377.811	97.66
378.274	100.86
378.737	101.76
379.199	103.66
379.662	106.56
380.125	117.86
380.587	102.46
381.05	109.96
381.512	117.06
381.975	122.26
382.437	116.16
382.9	117.76
383.362	131.46
383.825	130.36
384.287	131.26
384.75	122.86
385.212	120.46
385.674	130.56
386.136	130.16
386.599	122.06
387.061	119.06
387.523	123.16
387.985	116.46
388.447	129.76
388.91	122.46
389.372	141.16
389.834	138.46
390.296	125.26
390.758	139.26
391.22	146.86
391.682	176.96
392.144	224.36
392.606	181.66
393.068	150.46
393.529	158.26
393.991	143.56
394.453	141.56
394.915	147.56
395.377	165.56
395.838	169.86
396.3	143.06
396.762	141.16
397.224	135.26
397.685	131.56
398.147	128.86
398.608	133.36
399.07	123.76
399.531	135.06
399.993	145.06
400.454	155.26
400.916	150.86
401.377	146.16
401.839	151.86
402.3	151.76
402.762	162.56
403.223	176.36
403.684	173.36
404.145	166.86
404.607	163.96
405.068	168.06
405.529	166.06
405.99	187.96
406.451	172.26
406.913	170.36
407.374	164.96
407.835	158.96
408.296	166.86
408.757	172.76
409.218	180.46
409.679	174.26
410.14	177.86
410.601	178.56
411.062	179.26
411.522	184.06
411.983	180.66
412.444	172.06
412.905	178.76
413.366	182.66
413.826	194.16
414.287	221.76
414.748	267.66
415.208	250.96
415.669	212.26
416.13	206.66
416.59	204.06
417.051	211.96
417.511	220.16
417.972	240.86
418.432	257.76
418.893	296.66
419.353	252.66
419.814	200.56
420.274	185.36
420.734	194.76
421.195	204.76
421.655	198.16
422.115	192.56
422.576	194.76
423.036	197.96
423.496	217.56
423.956	216.46
424.416	236.06
424.876	272.96
425.336	265.16
425.797	264.26
426.257	256.86
426.717	241.56
427.177	235.06
427.637	223.86
428.097	236.16
428.556	243.16
429.016	263.16
429.476	258.76
429.936	270.96
430.396	278.46
430.856	291.86
431.315	313.46
431.775	350.96
432.235	375.06
432.694	356.36
433.154	358.76
433.614	385.16
434.073	332.86
434.533	279.76
434.993	276.46
435.452	282.46
435.912	290.46
436.371	287.26
436.83	279.86
437.29	255.76
437.749	250.46
438.209	253.26
438.668	274.26
439.127	289.26
439.587	263.66
440.046	249.96
440.505	260.06
440.964	281.06
441.424	323.26
441.883	308.36
442.342	257.46
442.801	229.16
443.26	227.86
443.719	224.26
444.178	215.46
444.637	214.86
445.096	225.86
445.555	230.56
446.014	227.96
446.473	236.16
446.932	240.76
447.391	233.06
447.849	233.16
448.308	224.16
448.767	220.46
449.226	236.06
449.685	243.16
450.143	251.16
450.602	245.86
451.061	230.46
451.519	237.36
451.978	232.06
452.436	231.26
452.895	239.26
453.353	256.96
453.812	247.36
454.27	240.26
454.729	243.16
455.187	242.36
455.646	251.36
456.104	249.56
456.562	263.36
457.021	276.46
457.479	260.76
457.937	282.66
458.395	262.66
458.854	254.66
459.312	256.46
459.77	277.66
460.228	254.46
460.686	248.96
461.144	251.56
461.602	247.16
462.06	256.16
462.518	253.36
462.976	259.16
463.434	263.46
463.892	266.86
464.35	273.26
464.808	292.76
465.266	275.16
465.724	276.76
466.181	278.56
466.639	273.76
467.097	301.16
467.555	305.76
468.012	300.66
468.47	306.36
468.928	331.26
469.385	342.36
469.843	347.16
470.3	344.26
470.758	363.66
471.215	394.56
471.673	418.76
472.13	414.36
472.588	425.66
473.045	381.76
473.503	385.46
473.96	398.26
474.417	409.66
474.875	442.46
475.332	485.36
475.789	458.36
476.246	468.86
476.704	499.46
477.161	512.36
477.618	525.36
478.075	566.06
478.532	612.76
478.989	688.76
479.446	802.96
479.903	754.16
480.36	807.86
480.817	843.26
481.274	947.06
481.731	1038.16
482.188	1122.96
482.645	1245.56
483.102	1335.06
483.558	1452.36
484.015	1511.26
484.472	1471.96
484.929	1440.66
485.385	1398.36
485.842	1357.16
486.299	1311.76
486.755	1257.46
487.212	1072.36
487.668	909.26
488.125	840.56
488.582	770.36
489.038	741.16
489.494	711.96
489.951	682.46
490.407	666.26
490.864	652.36
491.32	650.96
491.776	650.26
492.233	648.56
492.689	615.96
493.145	608.86
493.602	601.16
494.058	616.36
494.514	619.76
494.97	630.66
495.426	647.86
495.882	631.06
496.338	608.66
496.794	625.36
497.251	627.26
497.707	633.86
498.163	634.16
498.618	641.96
499.074	650.66
499.53	666.36
499.986	684.06
500.442	661.36
500.898	630.76
501.354	622.16
501.809	630.76
502.265	637.96
502.721	653.36
503.177	667.86
503.632	666.76
504.088	669.56
504.543	695.66
504.999	702.66
505.455	655.26
505.91	641.46
506.366	649.56
506.821	640.86
507.277	629.06
507.732	645.86
508.187	638.86
508.643	635.16
509.098	645.46
509.553	673.56
510.009	676.76
510.464	682.86
510.919	700.56
511.375	698.36
511.83	715.26
512.285	723.56
512.74	765.56
513.195	789.06
513.65	780.96
514.105	772.86
514.56	789.26
515.015	790.26
515.47	811.66
515.925	792.06
516.38	783.06
516.835	801.66
517.29	777.46
517.745	783.16
518.2	771.86
518.655	760.96
519.109	748.56
519.564	744.36
520.019	742.06
520.474	734.76
520.928	736.36
521.383	721.06
521.838	721.46
522.292	715.26
522.747	722.06
523.201	715.76
523.656	701.86
524.11	706.96
524.565	704.66
525.019	701.46
525.474	714.46
525.928	704.36
526.382	706.06
526.837	699.36
527.291	720.36
527.745	700.16
528.2	709.86
528.654	694.86
529.108	696.96
529.562	699.96
530.016	695.06
530.47	695.56
530.925	697.56
531.379	701.86
531.833	699.66
532.287	705.76
532.741	708.16
533.195	705.46
533.649	719.16
534.103	724.06
534.556	712.86
535.01	708.26
535.464	709.36
535.918	722.96
536.372	723.06
536.826	721.46
537.279	709.66
537.733	722.96
538.187	713.76
538.64	724.06
539.094	734.86
539.548	734.26
540.001	738.76
540.455	727.36
540.908	742.66
541.362	753.96
541.815	756.86
542.269	774.76
542.722	771.56
543.175	777.86
543.629	793.46
544.082	791.26
544.536	802.76
544.989	798.16
545.442	805.86
545.895	808.16
546.349	807.76
546.802	805.96
547.255	813.16
547.708	823.96
548.161	825.86
548.614	830.36
549.067	837.56
549.52	829.56
549.973	822.46
550.426	817.46
550.879	807.36
551.332	816.26
551.785	826.66
552.238	820.96
552.691	830.86
553.144	851.96
553.596	861.06
554.049	873.96
554.502	895.66
554.955	921.46
555.407	916.06
555.86	912.16
556.313	905.56
556.765	896.26
557.218	895.26
557.67	894.76
558.123	884.06
558.576	881.96
559.028	893.56
559.48	893.36
559.933	884.26
560.385	858.26
560.838	825.36
561.29	801.06
561.742	793.66
562.195	777.46
562.647	774.26
563.099	789.36
563.551	785.26
564.004	790.26
564.456	782.66
564.908	777.16
565.36	752.06
565.812	740.66
566.264	730.76
566.716	733.56
567.168	717.16
567.62	727.66
568.072	720.76
568.524	705.36
568.976	702.46
569.428	687.86
569.88	694.56
570.332	700.86
570.784	703.46
571.235	701.26
571.687	708.16
572.139	720.56
572.59	730.46
573.042	726.06
573.494	720.46
573.945	720.06
574.397	694.36
574.849	704.26
575.3	708.36
575.752	700.46
576.203	690.16
576.655	701.16
577.106	692.36
577.557	675.46
578.009	682.06
578.46	678.96
578.912	677.46
579.363	682.46
579.814	687.36
580.265	683.56
580.717	687.86
581.168	677.66
581.619	688.36
582.07	701.86
582.521	699.76
582.972	690.56
583.423	681.46
583.875	689.36
584.326	706.96
584.777	741.96
585.227	787.76
585.678	833.06
586.129	875.96
586.58	928.26
587.031	971.36
587.482	1055.86
587.933	1172.46
588.384	1056.56
588.834	884.06
589.285	798.96
589.736	792.46
590.186	791.96
590.637	772.26
591.088	768.26
591.538	755.66
591.989	744.96
592.439	736.96
592.89	726.56
593.34	722.86
593.791	714.66
594.241	720.06
594.692	711.96
595.142	719.56
595.593	704.76
596.043	710.36
596.493	724.46
596.943	728.26
597.394	745.26
597.844	730.96
598.294	752.46
598.744	773.86
599.195	794.86
599.645	835.76
600.095	879.26
600.545	931.46
600.995	987.86
601.445	1044.66
601.895	1107.86
602.345	1149.76
602.795	1132.16
603.245	1081.66
603.695	1030.56
604.145	981.46
604.594	925.16
605.044	877.06
605.494	812.66
605.944	772.96
606.393	769.66
606.843	746.46
607.293	747.96
607.743	745.16
608.192	760.36
608.642	773.76
609.091	782.56
609.541	786.46
609.99	782.56
610.44	776.66
610.889	736.56
611.339	710.66
611.788	710.26
612.238	708.16
612.687	721.26
613.136	724.46
613.586	737.36
614.035	728.06
614.484	745.16
614.933	744.06
615.383	741.96
615.832	743.56
616.281	727.76
616.73	695.56
617.179	678.46
617.628	659.16
618.077	649.56
618.526	637.06
618.975	634.46
619.424	628.06
619.873	627.56
620.322	626.36
620.771	628.16
621.22	616.06
621.669	608.96
622.118	599.66
622.567	591.46
623.015	578.96
623.464	584.56
623.913	570.06
624.361	564.26
624.81	565.46
625.259	566.86
625.707	563.06
626.156	574.96
626.604	575.06
627.053	576.06
627.501	578.96
627.95	578.26
628.398	593.56
628.847	582.56
629.295	582.76
629.744	588.46
630.192	580.56
630.64	584.66
631.089	571.06
631.537	569.06
631.985	562.46
632.433	579.66
632.881	576.06
633.33	614.76
633.778	589.36
634.226	550.86
634.674	568.76
635.122	565.66
635.57	588.86
636.018	616.26
636.466	584.06
636.914	574.06
637.362	586.76
637.81	592.66
638.258	597.86
638.705	592.06
639.153	625.16
639.601	626.86
640.049	657.76
640.497	684.26
640.944	698.06
641.392	660.46
641.84	632.46
642.287	599.16
642.735	580.16
643.182	589.66
643.63	573.06
644.078	580.16
644.525	592.16
644.973	608.56
645.42	611.26
645.867	638.16
646.315	651.46
646.762	677.46
647.21	702.86
647.657	721.16
648.104	756.06
648.551	779.86
648.999	842.66
649.446	928.16
649.893	1007.96
650.34	1163.26
650.787	1380.46
651.234	1720.66
651.682	2243.46
652.129	3017.76
652.576	4334.06
653.023	6348.96
653.47	8602.36
653.917	10624.56
654.363	12159.26
654.81	13370.86
655.257	12692.16
655.704	8359.36
656.151	5005.06
656.598	3298.96
657.044	2356.16
657.491	1811.16
657.938	1461.76
658.385	1234.86
658.831	1086.36
659.278	958.36
659.724	846.26
660.171	791.76
660.618	728.46
661.064	697.36
661.511	674.36
661.957	660.66
662.404	652.16
662.85	651.86
663.296	636.96
663.743	577.86
664.189	553.06
664.635	545.66
665.082	540.16
665.528	545.06
665.974	527.56
666.42	510.76
666.867	519.66
667.313	490.06
667.759	479.86
668.205	470.26
668.651	477.06
669.097	470.26
669.543	471.96
669.989	466.36
670.435	463.16
670.881	459.46
671.327	467.46
671.773	482.86
672.219	511.06
672.665	559.86
673.11	598.96
673.556	651.96
674.002	682.66
674.448	669.26
674.893	567.26
675.339	489.16
675.785	462.06
676.23	433.56
676.676	408.26
677.122	396.66
677.567	390.36
678.013	381.76
678.458	368.56
678.904	373.96
679.349	356.46
679.794	358.96
680.24	355.86
680.685	359.36
681.131	361.46
681.576	357.46
682.021	369.66
682.466	358.56
682.912	361.66
683.357	369.66
683.802	398.86
684.247	429.96
684.692	475.46
685.137	508.36
685.583	563.26
686.028	583.56
686.473	529.66
686.918	464.16
687.363	428.26
687.807	405.06
688.252	379.56
688.697	363.96
689.142	351.76
689.587	342.16
690.032	336.16
690.477	352.96
690.921	362.76
691.366	393.46
691.811	418.76
692.255	444.36
692.7	469.16
693.145	532.66
693.589	743.36
694.034	1200.26
694.478	1609.76
694.923	1785.26
695.367	2307.26
695.812	1236.16
696.256	513.16
696.701	385.86
697.145	354.36
697.59	339.86
698.034	336.86
698.478	333.86
698.922	323.26
699.367	330.86
699.811	348.96
700.255	368.86
700.699	397.26
701.143	435.86
701.588	490.06
702.032	532.86
702.476	525.86
702.92	502.06
703.364	520.16
703.808	683.96
704.252	1106.56
704.696	1527.86
705.14	1712.86
705.584	2176.86
706.027	1099.26
706.471	540.96
706.915	418.06
707.359	363.46
707.803	335.66
708.246	320.86
708.69	326.56
709.134	326.96
709.577	318.96
710.021	327.96
710.465	316.76
710.908	307.06
711.352	304.56
711.795	330.96
712.239	363.16
712.682	401.36
713.126	417.06
713.569	470.96
714.012	374.76
714.456	321.96
714.899	304.06
715.342	282.06
715.786	268.56
716.229	264.06
716.672	258.66
717.115	264.46
717.558	259.26
718.002	257.46
718.445	272.96
718.888	295.76
719.331	305.76
719.774	320.66
720.217	314.96
720.66	296.66
721.103	270.26
721.546	270.76
721.989	255.86
722.432	244.26
722.874	252.96
723.317	243.16
723.76	244.46
724.203	265.56
724.645	330.96
725.088	465.16
725.531	594.96
725.974	657.46
726.416	572.06
726.859	314.36
727.301	257.96
727.744	246.56
728.187	241.16
728.629	249.06
729.071	246.06
729.514	265.26
729.956	276.46
730.399	293.36
730.841	289.16
731.283	287.76
731.726	273.96
732.168	271.06
732.61	284.06
733.053	300.66
733.495	329.56
733.937	361.56
734.379	412.56
734.821	455.16
735.263	571.36
735.705	900.16
736.148	1704.56
736.59	2716.26
737.032	3124.16
737.474	2560.36
737.916	840.06
738.357	446.16
738.799	339.16
739.241	313.76
739.683	285.56
740.125	298.56
740.567	306.16
741.008	330.46
741.45	322.26
741.892	324.56
742.334	358.46
742.775	371.36
743.217	361.26
743.658	282.26
744.1	271.86
744.542	278.56
744.983	322.66
745.425	361.96
745.866	356.06
746.307	293.96
746.749	295.06
747.19	344.36
747.632	481.96
748.073	956.06
748.514	2000.26
748.956	2947.76
749.397	3732.86
749.838	3089.66
750.279	3021.76
750.72	1544.46
751.162	576.96
751.603	338.76
752.044	262.36
752.485	225.66
752.926	226.16
753.367	211.36
753.808	202.16
754.249	197.56
754.69	193.86
755.131	184.26
755.572	189.56
756.013	189.96
756.453	195.46
756.894	198.06
757.335	192.96
757.776	195.86
758.216	205.16
758.657	202.26
759.098	206.96
759.538	227.36
759.979	281.56
760.42	400.26
760.86	757.66
761.301	2007.26
761.741	4721.26
762.182	6512.06
762.622	4607.96
763.063	1354.96
