Data from 20171114-ORNL-Ar_H_NY_Subt18_08-04-05-884.txt Node
Date: Tue Nov 14 08:04:05 EST 2017
User: Ender
Spectrometer: HR+D1039
Trigger mode: 0
Integration Time (sec): 2.730000E-2
Scans to average: 10
Electric dark correction enabled: true
Nonlinearity correction enabled: false
Boxcar width: 0
XAxis mode: Wavelengths
Number of Pixels in Spectrum: 2048
>>>>>Begin Spectral Data<<<<<
187.836	-8.95
188.309	-8.95
188.782	-8.95
189.255	2.55
189.728	1.85
190.201	6.45
190.674	1.45
191.147	2.95
191.619	-3.95
192.092	1.35
192.565	4.95
193.038	-2.35
193.511	-0.35
193.984	3.15
194.456	-4.25
194.929	0.45
195.402	-4.15
195.874	-1.15
196.347	0.65
196.82	-11.25
197.292	6.25
197.765	-5.35
198.237	-8.65
198.71	0.05
199.182	-1.15
199.655	3.55
200.127	2.95
200.6	0.35
201.072	-4.65
201.544	-5.65
202.017	-6.05
202.489	8.85
202.961	-0.05
203.433	-2.25
203.906	-1.65
204.378	-4.05
204.85	-5.15
205.322	-6.85
205.794	-3.05
206.266	-1.05
206.739	-4.85
207.211	2.35
207.683	-1.75
208.155	-4.15
208.627	-3.25
209.099	-3.45
209.57	-6.75
210.042	-11.65
210.514	-3.25
210.986	-2.45
211.458	-8.65
211.93	0.55
212.402	3.85
212.873	-6.05
213.345	-7.05
213.817	-4.95
214.288	-0.05
214.76	-6.65
215.232	1.95
215.703	-1.85
216.175	-8.45
216.646	-2.15
217.118	-5.15
217.589	-2.85
218.061	6.95
218.532	-7.05
219.004	-3.95
219.475	-3.35
219.946	0.75
220.418	-5.45
220.889	1.05
221.36	-3.15
221.832	0.65
222.303	-7.05
222.774	2.85
223.245	-12.45
223.717	-7.75
224.188	-4.15
224.659	-6.95
225.13	-8.05
225.601	-6.05
226.072	-2.95
226.543	3.95
227.014	2.35
227.485	-1.65
227.956	-4.65
228.427	-3.65
228.898	1.95
229.369	5.25
229.839	-4.75
230.31	-8.25
230.781	4.85
231.252	-5.35
231.722	-5.25
232.193	-4.55
232.664	-1.25
233.135	-2.15
233.605	-2.45
234.076	-4.15
234.546	-1.65
235.017	4.05
235.487	-2.85
235.958	-0.75
236.428	-6.65
236.899	5.05
237.369	7.05
237.84	-7.15
238.31	7.95
238.78	3.55
239.251	-3.15
239.721	-1.75
240.191	-4.85
240.662	-5.55
241.132	-5.85
241.602	-6.25
242.072	1.65
242.542	6.75
243.013	1.45
243.483	1.05
243.953	7.25
244.423	2.85
244.893	-2.35
245.363	-1.35
245.833	-0.45
246.303	2.05
246.773	6.95
247.243	0.15
247.712	6.85
248.182	3.05
248.652	3.85
249.122	-2.25
249.592	8.85
250.061	19.65
250.531	26.75
251.001	10.15
251.471	19.05
251.94	20.35
252.41	4.05
252.879	-0.85
253.349	5.05
253.818	5.45
254.288	8.95
254.757	-0.75
255.227	-0.95
255.696	2.75
256.166	0.65
256.635	8.15
257.105	8.45
257.574	3.75
258.043	9.25
258.513	6.15
258.982	12.45
259.451	6.95
259.92	11.95
260.389	13.75
260.859	14.65
261.328	5.15
261.797	9.85
262.266	3.65
262.735	6.35
263.204	4.15
263.673	3.95
264.142	7.65
264.611	-4.05
265.08	1.25
265.549	1.75
266.018	2.75
266.487	4.55
266.955	-3.95
267.424	-1.05
267.893	6.55
268.362	0.45
268.83	-0.35
269.299	9.45
269.768	4.85
270.236	2.05
270.705	-1.65
271.174	6.05
271.642	5.95
272.111	10.15
272.579	10.15
273.048	16.15
273.516	11.05
273.985	16.55
274.453	18.65
274.922	13.65
275.39	7.55
275.858	-7.75
276.327	3.75
276.795	10.15
277.263	6.45
277.731	24.15
278.2	38.05
278.668	48.75
279.136	38.05
279.604	10.65
280.072	12.05
280.54	6.75
281.008	4.95
281.477	10.35
281.945	9.05
282.413	11.15
282.881	13.15
283.348	5.55
283.816	12.05
284.284	8.55
284.752	13.95
285.22	8.85
285.688	8.35
286.156	8.25
286.623	30.55
287.091	38.45
287.559	20.75
288.026	12.55
288.494	11.55
288.962	-1.75
289.429	2.85
289.897	11.35
290.364	9.35
290.832	8.75
291.3	10.85
291.767	9.55
292.234	7.35
292.702	10.15
293.169	12.55
293.637	13.85
294.104	12.45
294.571	7.35
295.039	5.95
295.506	10.55
295.973	9.15
296.44	6.95
296.908	11.25
297.375	11.45
297.842	12.85
298.309	7.45
298.776	10.35
299.243	16.15
299.71	8.45
300.177	12.35
300.644	13.25
301.111	14.75
301.578	13.75
302.045	10.05
302.512	18.75
302.979	20.25
303.446	17.55
303.913	12.15
304.379	15.85
304.846	22.45
305.313	20.15
305.78	17.15
306.246	14.55
306.713	19.95
307.18	17.35
307.646	20.85
308.113	20.45
308.579	18.95
309.046	18.05
309.512	18.65
309.979	10.35
310.445	20.95
310.912	22.05
311.378	20.45
311.845	23.35
312.311	18.95
312.777	26.05
313.244	29.15
313.71	28.35
314.176	21.05
314.642	24.85
315.109	16.75
315.575	26.55
316.041	33.25
316.507	25.35
316.973	27.95
317.439	27.65
317.905	27.95
318.371	21.25
318.837	23.85
319.303	26.05
319.769	23.25
320.235	26.75
320.701	27.95
321.167	25.35
321.633	27.05
322.099	34.25
322.564	29.05
323.03	27.35
323.496	31.25
323.962	34.85
324.427	28.75
324.893	32.65
325.359	30.95
325.824	28.05
326.29	26.75
326.755	28.65
327.221	30.65
327.686	26.85
328.152	33.65
328.617	29.65
329.083	36.95
329.548	35.85
330.014	36.85
330.479	32.25
330.944	36.15
331.41	33.25
331.875	33.35
332.34	34.65
332.805	29.15
333.271	34.65
333.736	33.45
334.201	44.05
334.666	40.85
335.131	44.05
335.596	42.35
336.061	40.05
336.526	29.05
336.991	40.35
337.456	45.55
337.921	37.55
338.386	30.65
338.851	36.65
339.316	42.05
339.781	36.75
340.246	37.55
340.711	40.15
341.175	43.55
341.64	34.85
342.105	41.75
342.569	47.35
343.034	48.85
343.499	42.55
343.963	38.65
344.428	56.95
344.893	50.45
345.357	49.95
345.822	46.35
346.286	55.95
346.751	50.65
347.215	50.55
347.679	56.95
348.144	74.75
348.608	62.85
349.073	50.15
349.537	57.35
350.001	56.65
350.465	65.65
350.93	71.75
351.394	73.15
351.858	59.35
352.322	67.25
352.786	62.25
353.25	76.85
353.715	83.35
354.179	77.45
354.643	85.85
355.107	94.25
355.571	85.55
356.035	83.85
356.498	87.65
356.962	94.05
357.426	92.45
357.89	87.05
358.354	77.45
358.818	64.65
359.281	67.95
359.745	58.15
360.209	60.05
360.673	62.25
361.136	66.15
361.6	64.15
362.064	63.75
362.527	71.85
362.991	75.35
363.454	65.35
363.918	62.25
364.381	66.45
364.845	62.15
365.308	66.35
365.772	69.45
366.235	70.85
366.698	70.35
367.162	70.15
367.625	72.35
368.088	78.25
368.552	75.05
369.015	72.15
369.478	80.15
369.941	88.75
370.404	79.45
370.867	86.45
371.331	87.55
371.794	91.45
372.257	85.95
372.72	94.55
373.183	94.15
373.646	91.05
374.109	86.65
374.572	90.15
375.035	91.45
375.497	89.45
375.96	86.95
376.423	86.75
376.886	95.95
377.349	90.15
377.811	88.05
378.274	92.25
378.737	92.55
379.199	94.65
379.662	96.95
380.125	99.35
380.587	98.95
381.05	100.75
381.512	111.45
381.975	121.05
382.437	111.05
382.9	112.25
383.362	112.05
383.825	116.55
384.287	125.45
384.75	114.95
385.212	114.25
385.674	118.35
386.136	112.55
386.599	100.65
387.061	111.35
387.523	109.95
387.985	118.95
388.447	125.15
388.91	124.35
389.372	132.35
389.834	123.75
390.296	122.55
390.758	123.95
391.22	135.05
391.682	173.05
392.144	245.95
392.606	191.25
393.068	140.35
393.529	138.85
393.991	137.85
394.453	130.55
394.915	134.75
395.377	163.75
395.838	183.65
396.3	130.15
396.762	119.25
397.224	116.95
397.685	112.65
398.147	109.85
398.608	109.25
399.07	108.15
399.531	119.75
399.993	129.95
400.454	131.95
400.916	125.05
401.377	126.05
401.839	125.95
402.3	134.95
402.762	141.15
403.223	150.35
403.684	147.15
404.145	138.95
404.607	137.75
405.068	142.25
405.529	146.05
405.99	156.85
406.451	148.25
406.913	142.35
407.374	136.55
407.835	134.35
408.296	144.55
408.757	149.45
409.218	156.25
409.679	151.05
410.14	152.75
410.601	151.35
411.062	161.15
411.522	167.35
411.983	158.15
412.444	149.45
412.905	160.25
413.366	157.65
413.826	169.65
414.287	187.75
414.748	224.65
415.208	207.85
415.669	183.15
416.13	178.25
416.59	170.75
417.051	195.25
417.511	191.85
417.972	207.25
418.432	219.55
418.893	252.55
419.353	227.55
419.814	173.95
420.274	165.25
420.734	153.35
421.195	169.45
421.655	172.75
422.115	164.95
422.576	161.35
423.036	164.35
423.496	178.65
423.956	186.35
424.416	199.75
424.876	227.45
425.336	214.45
425.797	227.65
426.257	221.25
426.717	209.55
427.177	203.95
427.637	190.75
428.097	200.85
428.556	209.95
429.016	231.95
429.476	224.75
429.936	234.65
430.396	232.35
430.856	251.05
431.315	266.35
431.775	296.65
432.235	323.45
432.694	295.05
433.154	297.75
433.614	317.35
434.073	280.35
434.533	240.05
434.993	233.35
435.452	239.95
435.912	247.25
436.371	244.55
436.83	236.15
437.29	223.75
437.749	209.65
438.209	207.25
438.668	228.85
439.127	230.85
439.587	215.95
440.046	214.65
440.505	215.65
440.964	235.85
441.424	263.75
441.883	249.55
442.342	218.15
442.801	199.05
443.26	187.15
443.719	188.55
444.178	189.85
444.637	177.35
445.096	191.25
445.555	194.25
446.014	196.25
446.473	199.25
446.932	199.75
447.391	194.55
447.849	198.05
448.308	191.55
448.767	189.55
449.226	201.65
449.685	199.65
450.143	225.75
450.602	212.15
451.061	207.35
451.519	202.55
451.978	204.25
452.436	200.35
452.895	207.35
453.353	216.75
453.812	207.95
454.27	205.55
454.729	208.75
455.187	206.15
455.646	205.25
456.104	210.15
456.562	217.95
457.021	221.15
457.479	222.75
457.937	227.75
458.395	226.85
458.854	212.35
459.312	215.75
459.77	228.25
460.228	216.45
460.686	209.35
461.144	223.55
461.602	216.65
462.06	212.45
462.518	219.55
462.976	217.75
463.434	228.95
463.892	229.35
464.35	231.85
464.808	244.25
465.266	229.85
465.724	235.45
466.181	244.45
466.639	235.65
467.097	252.45
467.555	262.65
468.012	254.75
468.47	273.15
468.928	282.65
469.385	293.85
469.843	299.75
470.3	297.35
470.758	307.25
471.215	320.55
471.673	330.45
472.13	337.65
472.588	356.45
473.045	316.95
473.503	326.65
473.96	342.65
474.417	347.15
474.875	368.25
475.332	394.35
475.789	395.45
476.246	388.65
476.704	418.55
477.161	435.75
477.618	454.25
478.075	478.65
478.532	523.75
478.989	566.25
479.446	657.85
479.903	636.25
480.36	688.95
480.817	744.45
481.274	820.35
481.731	915.95
482.188	989.85
482.645	1109.65
483.102	1208.55
483.558	1317.45
484.015	1387.15
484.472	1361.65
484.929	1311.95
485.385	1269.35
485.842	1234.25
486.299	1176.35
486.755	1092.85
487.212	928.95
487.668	797.85
488.125	735.05
488.582	681.15
489.038	644.35
489.494	610.15
489.951	588.15
490.407	578.45
490.864	559.85
491.32	550.15
491.776	538.25
492.233	548.45
492.689	520.15
493.145	524.75
493.602	514.85
494.058	522.75
494.514	511.05
494.97	532.55
495.426	537.65
495.882	523.25
496.338	522.95
496.794	531.05
497.251	530.15
497.707	541.75
498.163	535.15
498.618	547.65
499.074	547.55
499.53	571.25
499.986	563.35
500.442	547.55
500.898	530.65
501.354	533.55
501.809	543.35
502.265	552.85
502.721	560.35
503.177	566.45
503.632	562.25
504.088	569.95
504.543	587.75
504.999	599.45
505.455	557.35
505.91	536.85
506.366	539.05
506.821	526.15
507.277	535.85
507.732	533.45
508.187	538.05
508.643	539.75
509.098	538.75
509.553	554.75
510.009	568.15
510.464	562.15
510.919	570.25
511.375	586.55
511.83	597.25
512.285	603.45
512.74	641.25
513.195	653.85
513.65	652.25
514.105	649.25
514.56	657.05
515.015	665.15
515.47	679.75
515.925	663.55
516.38	668.75
516.835	676.65
517.29	667.75
517.745	657.15
518.2	650.65
518.655	624.45
519.109	627.05
519.564	618.55
520.019	620.45
520.474	619.95
520.928	618.95
521.383	609.35
521.838	601.55
522.292	602.25
522.747	594.15
523.201	591.55
523.656	591.15
524.11	581.95
524.565	582.15
525.019	578.25
525.474	587.15
525.928	593.15
526.382	588.25
526.837	573.85
527.291	587.85
527.745	580.85
528.2	575.45
528.654	573.55
529.108	576.15
529.562	575.35
530.016	577.75
530.47	572.85
530.925	579.75
531.379	579.05
531.833	588.05
532.287	588.95
532.741	582.05
533.195	582.05
533.649	590.55
534.103	604.05
534.556	589.85
535.01	591.35
535.464	578.95
535.918	598.75
536.372	595.85
536.826	599.25
537.279	581.55
537.733	595.75
538.187	588.85
538.64	584.35
539.094	595.65
539.548	605.25
540.001	604.05
540.455	598.55
540.908	602.75
541.362	614.25
541.815	623.55
542.269	628.35
542.722	626.45
543.175	627.85
543.629	624.75
544.082	652.45
544.536	655.45
544.989	647.55
545.442	657.45
545.895	651.35
546.349	650.55
546.802	649.95
547.255	658.85
547.708	658.95
548.161	676.55
548.614	678.45
549.067	681.65
549.52	661.75
549.973	658.45
550.426	661.45
550.879	642.45
551.332	655.15
551.785	661.05
552.238	667.55
552.691	664.85
553.144	680.65
553.596	693.45
554.049	704.45
554.502	723.65
554.955	741.95
555.407	733.15
555.86	736.55
556.313	740.45
556.765	714.95
557.218	713.55
557.67	711.05
558.123	718.55
558.576	705.95
559.028	715.95
559.48	710.85
559.933	705.15
560.385	687.15
560.838	652.25
561.29	642.55
561.742	634.75
562.195	634.75
562.647	622.05
563.099	631.55
563.551	625.65
564.004	646.85
564.456	619.55
564.908	611.55
565.36	600.85
565.812	579.45
566.264	587.15
566.716	580.95
567.168	574.65
567.62	582.25
568.072	565.25
568.524	557.95
568.976	555.55
569.428	538.55
569.88	534.65
570.332	544.55
570.784	546.75
571.235	548.75
571.687	556.55
572.139	564.05
572.59	574.85
573.042	575.45
573.494	564.55
573.945	568.15
574.397	539.15
574.849	550.15
575.3	553.45
575.752	535.65
576.203	539.45
576.655	550.05
577.106	528.15
577.557	527.85
578.009	535.05
578.46	520.35
578.912	521.15
579.363	525.45
579.814	528.85
580.265	518.45
580.717	522.05
581.168	531.55
581.619	531.15
582.07	533.65
582.521	530.55
582.972	523.15
583.423	535.85
583.875	538.05
584.326	544.45
584.777	581.95
585.227	642.15
585.678	724.25
586.129	796.45
586.58	853.15
587.031	922.35
587.482	1063.65
587.933	1214.15
588.384	1056.35
588.834	776.95
589.285	646.15
589.736	620.25
590.186	616.75
590.637	600.65
591.088	572.75
591.538	579.25
591.989	568.35
592.439	568.05
592.89	568.05
593.34	558.05
593.791	550.55
594.241	554.65
594.692	550.65
595.142	547.45
595.593	543.25
596.043	548.35
596.493	549.25
596.943	549.85
597.394	562.85
597.844	549.35
598.294	564.05
598.744	577.85
599.195	600.85
599.645	625.25
600.095	650.95
600.545	713.15
600.995	748.15
601.445	785.65
601.895	843.15
602.345	877.55
602.795	861.45
603.245	821.65
603.695	784.05
604.145	743.25
604.594	700.35
605.044	661.55
605.494	619.95
605.944	572.85
606.393	566.65
606.843	569.35
607.293	562.65
607.743	555.15
608.192	561.95
608.642	577.65
609.091	581.85
609.541	590.95
609.99	581.05
610.44	576.85
610.889	557.05
611.339	531.85
611.788	523.45
612.238	537.15
612.687	554.15
613.136	543.65
613.586	565.55
614.035	565.55
614.484	579.45
614.933	572.05
615.383	559.75
615.832	557.05
616.281	555.35
616.73	532.95
617.179	505.65
617.628	500.55
618.077	490.95
618.526	475.65
618.975	469.75
619.424	469.05
619.873	470.95
620.322	470.95
620.771	463.65
621.22	457.05
621.669	455.35
622.118	443.85
622.567	441.05
623.015	436.55
623.464	430.15
623.913	429.65
624.361	419.15
624.81	414.05
625.259	418.55
625.707	423.55
626.156	421.35
626.604	439.15
627.053	425.65
627.501	426.05
627.95	434.05
628.398	439.35
628.847	430.95
629.295	428.45
629.744	442.85
630.192	434.15
630.64	436.05
631.089	417.75
631.537	429.15
631.985	437.65
632.433	444.45
632.881	448.25
633.33	480.65
633.778	475.25
634.226	424.35
634.674	424.55
635.122	428.55
635.57	440.15
636.018	454.65
636.466	446.45
636.914	414.65
637.362	432.45
637.81	433.25
638.258	431.45
638.705	438.15
639.153	454.35
639.601	462.75
640.049	480.75
640.497	503.05
640.944	522.35
641.392	487.75
641.84	459.55
642.287	444.15
642.735	421.75
643.182	424.15
643.63	428.05
644.078	428.95
644.525	442.45
644.973	444.35
645.42	453.35
645.867	462.75
646.315	479.25
646.762	492.85
647.21	508.45
647.657	536.55
648.104	542.95
648.551	564.15
648.999	620.65
649.446	671.55
649.893	737.15
650.34	849.15
650.787	1012.45
651.234	1252.25
651.682	1615.25
652.129	2209.65
652.576	3172.85
653.023	4700.05
653.47	6554.45
653.917	8297.75
654.363	9760.95
654.81	11033.85
655.257	10511.25
655.704	6840.15
656.151	3981.95
656.598	2571.95
657.044	1818.85
657.491	1389.85
657.938	1104.65
658.385	934.85
658.831	808.95
659.278	715.95
659.724	631.45
660.171	576.75
660.618	547.05
661.064	511.65
661.511	485.75
661.957	467.55
662.404	456.75
662.85	468.05
663.296	446.75
663.743	410.35
664.189	396.15
664.635	398.15
665.082	386.65
665.528	384.95
665.974	382.15
666.42	375.85
666.867	368.55
667.313	355.15
667.759	354.85
668.205	355.85
668.651	360.95
669.097	368.45
669.543	373.55
669.989	351.05
670.435	324.35
670.881	320.45
671.327	331.25
671.773	345.75
672.219	361.75
672.665	398.55
673.11	426.05
673.556	458.55
674.002	496.05
674.448	482.35
674.893	398.15
675.339	342.25
675.785	323.25
676.23	311.65
676.676	287.75
677.122	273.85
677.567	270.15
678.013	267.35
678.458	264.55
678.904	261.25
679.349	252.95
679.794	260.45
680.24	254.85
680.685	249.35
681.131	252.55
681.576	257.75
682.021	260.75
682.466	253.55
682.912	244.85
683.357	255.65
683.802	280.05
684.247	291.65
684.692	330.45
685.137	354.65
685.583	403.65
686.028	422.05
686.473	375.65
686.918	330.65
687.363	303.95
687.807	291.35
688.252	265.75
688.697	258.45
689.142	254.65
689.587	243.25
690.032	235.85
690.477	243.65
690.921	250.75
691.366	281.15
691.811	284.95
692.255	315.25
692.7	336.55
693.145	367.75
693.589	492.35
694.034	791.45
694.478	1102.95
694.923	1289.75
695.367	1722.35
695.812	892.75
696.256	376.05
696.701	264.15
697.145	249.45
697.59	241.65
698.034	229.25
698.478	235.65
698.922	240.15
699.367	239.55
699.811	240.65
700.255	254.65
700.699	276.85
701.143	309.75
701.588	347.15
702.032	378.35
702.476	378.65
702.92	354.95
703.364	355.45
703.808	445.25
704.252	721.65
704.696	1038.65
705.14	1238.55
705.584	1620.35
706.027	794.35
706.471	382.55
706.915	280.65
707.359	252.45
707.803	232.65
708.246	225.05
708.69	226.85
709.134	229.55
709.577	229.75
710.021	233.55
710.465	229.95
710.908	215.05
711.352	215.35
711.795	221.55
712.239	249.45
712.682	271.55
713.126	294.25
713.569	351.05
714.012	270.75
714.456	230.75
714.899	214.85
715.342	194.05
715.786	190.45
716.229	185.55
716.672	185.75
717.115	185.65
717.558	181.45
718.002	182.25
718.445	193.85
718.888	209.75
719.331	211.85
719.774	221.85
720.217	217.85
720.66	200.75
721.103	192.55
721.546	186.55
721.989	179.95
722.432	168.85
722.874	179.75
723.317	169.75
723.76	170.85
724.203	184.95
724.645	225.55
725.088	308.25
725.531	410.95
725.974	467.65
726.416	400.75
726.859	233.35
727.301	180.85
727.744	178.75
728.187	168.85
728.629	169.45
729.071	175.05
729.514	189.35
729.956	200.15
730.399	204.25
730.841	211.15
731.283	196.25
731.726	185.45
732.168	189.55
732.61	187.55
733.053	204.15
733.495	224.15
733.937	242.75
734.379	287.95
734.821	316.95
735.263	386.55
735.705	580.95
736.148	1094.25
736.59	1863.55
737.032	2311.75
737.474	1885.75
737.916	591.85
738.357	310.65
738.799	237.65
739.241	220.65
739.683	204.85
740.125	205.45
740.567	219.95
741.008	232.85
741.45	234.05
741.892	229.35
742.334	258.25
742.775	260.25
743.217	261.55
743.658	199.55
744.1	187.75
744.542	186.85
744.983	223.75
745.425	261.65
745.866	262.85
746.307	206.45
746.749	208.75
747.19	230.25
747.632	318.85
748.073	599.95
748.514	1302.85
748.956	2080.65
749.397	2609.55
749.838	2171.25
750.279	2248.55
750.72	1120.85
751.162	410.35
751.603	241.75
752.044	187.35
752.485	156.75
752.926	154.95
753.367	147.45
753.808	135.45
754.249	139.65
754.69	135.65
755.131	138.45
755.572	131.75
756.013	136.05
756.453	129.85
756.894	130.65
757.335	138.65
757.776	137.95
758.216	138.05
758.657	149.05
759.098	145.85
759.538	160.85
759.979	193.95
760.42	262.35
760.86	490.35
761.301	1266.45
761.741	3195.75
762.182	4951.75
762.622	3503.45
763.063	985.65
763.503	401.65
763.943	252.05
764.384	250.55
