Data from 20171114-ORNL-Ar_H_NY_Subt18_08-06-05-993.txt Node
Date: Tue Nov 14 08:06:05 EST 2017
User: Ender
Spectrometer: HR+D1039
Trigger mode: 0
Integration Time (sec): 2.730000E-2
Scans to average: 10
Electric dark correction enabled: true
Nonlinearity correction enabled: false
Boxcar width: 0
XAxis mode: Wavelengths
Number of Pixels in Spectrum: 2048
>>>>>Begin Spectral Data<<<<<
187.836	-4.46
188.309	-4.46
188.782	-4.46
189.255	-0.96
189.728	2.04
190.201	5.24
190.674	-4.56
191.147	6.44
191.619	-9.86
192.092	3.14
192.565	5.84
193.038	-3.76
193.511	5.44
193.984	-2.36
194.456	-1.76
194.929	-0.56
195.402	-2.06
195.874	2.24
196.347	0.44
196.82	-4.26
197.292	3.94
197.765	3.14
198.237	-8.76
198.71	6.64
199.182	-1.96
199.655	8.84
200.127	0.44
200.6	-2.46
201.072	-1.66
201.544	-3.26
202.017	-2.46
202.489	3.24
202.961	3.24
203.433	-6.66
203.906	-5.36
204.378	-7.16
204.85	-4.26
205.322	-8.66
205.794	-0.06
206.266	-3.26
206.739	-6.16
207.211	6.74
207.683	-9.76
208.155	-2.26
208.627	-6.66
209.099	0.34
209.57	-10.16
210.042	-0.66
210.514	-2.66
210.986	-8.86
211.458	-9.06
211.93	-11.06
212.402	2.14
212.873	-10.96
213.345	-3.16
213.817	-14.86
214.288	-4.66
214.76	-9.96
215.232	-3.86
215.703	0.34
216.175	-6.96
216.646	-0.16
217.118	-7.36
217.589	-2.96
218.061	-4.16
218.532	-4.06
219.004	-8.96
219.475	1.24
219.946	-1.36
220.418	-7.16
220.889	6.04
221.36	1.14
221.832	-8.86
222.303	-5.26
222.774	7.74
223.245	-5.06
223.717	-2.66
224.188	-0.86
224.659	-9.96
225.13	-3.86
225.601	0.34
226.072	-1.56
226.543	-5.16
227.014	0.54
227.485	-2.46
227.956	-1.86
228.427	-1.96
228.898	-1.56
229.369	6.74
229.839	-3.56
230.31	-4.56
230.781	-1.36
231.252	-5.86
231.722	-9.16
232.193	-4.16
232.664	-0.06
233.135	-1.26
233.605	-5.26
234.076	-9.86
234.546	3.94
235.017	2.54
235.487	2.14
235.958	-2.46
236.428	-3.96
236.899	5.54
237.369	5.94
237.84	-0.16
238.31	6.04
238.78	7.84
239.251	-2.96
239.721	4.04
240.191	0.24
240.662	-1.76
241.132	0.74
241.602	-4.96
242.072	-1.26
242.542	4.14
243.013	1.34
243.483	-1.76
243.953	6.14
244.423	-2.36
244.893	1.84
245.363	6.24
245.833	10.44
246.303	-5.06
246.773	9.94
247.243	1.94
247.712	-0.86
248.182	13.84
248.652	11.94
249.122	-2.26
249.592	6.44
250.061	27.14
250.531	34.04
251.001	13.64
251.471	26.84
251.94	25.64
252.41	15.24
252.879	3.04
253.349	10.54
253.818	9.24
254.288	6.24
254.757	12.74
255.227	2.74
255.696	5.84
256.166	2.44
256.635	3.84
257.105	8.44
257.574	8.84
258.043	12.44
258.513	16.04
258.982	17.54
259.451	7.94
259.92	13.14
260.389	12.24
260.859	17.44
261.328	7.94
261.797	19.14
262.266	15.14
262.735	17.04
263.204	8.84
263.673	2.04
264.142	8.74
264.611	3.74
265.08	-1.76
265.549	-4.76
266.018	10.94
266.487	4.84
266.955	-0.56
267.424	4.14
267.893	10.34
268.362	5.74
268.83	4.84
269.299	14.54
269.768	13.74
270.236	12.34
270.705	5.34
271.174	5.94
271.642	9.84
272.111	9.64
272.579	13.54
273.048	22.44
273.516	30.64
273.985	24.44
274.453	24.64
274.922	19.44
275.39	13.24
275.858	4.14
276.327	7.04
276.795	17.54
277.263	11.44
277.731	32.14
278.2	56.64
278.668	63.74
279.136	47.34
279.604	26.24
280.072	11.24
280.54	8.54
281.008	10.54
281.477	16.44
281.945	18.24
282.413	13.84
282.881	14.94
283.348	8.24
283.816	12.24
284.284	15.94
284.752	22.94
285.22	15.24
285.688	14.14
286.156	20.44
286.623	45.34
287.091	53.44
287.559	33.34
288.026	21.24
288.494	16.74
288.962	9.54
289.429	8.04
289.897	16.94
290.364	12.24
290.832	16.84
291.3	15.44
291.767	19.84
292.234	23.14
292.702	18.74
293.169	19.14
293.637	27.24
294.104	23.64
294.571	13.54
295.039	14.24
295.506	15.04
295.973	13.94
296.44	17.44
296.908	14.84
297.375	18.54
297.842	17.64
298.309	21.34
298.776	11.74
299.243	20.24
299.71	16.34
300.177	19.54
300.644	25.54
301.111	16.04
301.578	31.64
302.045	21.24
302.512	19.74
302.979	26.94
303.446	24.34
303.913	20.94
304.379	22.74
304.846	31.14
305.313	25.54
305.78	29.04
306.246	26.24
306.713	30.84
307.18	26.04
307.646	31.14
308.113	31.24
308.579	22.54
309.046	24.44
309.512	28.54
309.979	19.94
310.445	28.64
310.912	26.54
311.378	30.74
311.845	29.04
312.311	31.74
312.777	40.04
313.244	39.94
313.71	37.24
314.176	33.64
314.642	33.24
315.109	34.24
315.575	43.34
316.041	39.54
316.507	34.54
316.973	37.64
317.439	35.04
317.905	36.24
318.371	39.84
318.837	37.64
319.303	37.74
319.769	39.44
320.235	35.64
320.701	40.64
321.167	38.74
321.633	30.84
322.099	41.54
322.564	44.84
323.03	43.44
323.496	39.64
323.962	37.34
324.427	32.34
324.893	38.24
325.359	35.94
325.824	42.24
326.29	45.54
326.755	39.74
327.221	39.44
327.686	41.04
328.152	46.84
328.617	42.94
329.083	48.64
329.548	51.84
330.014	52.54
330.479	38.44
330.944	45.24
331.41	41.64
331.875	44.04
332.34	43.74
332.805	41.44
333.271	47.54
333.736	41.24
334.201	51.44
334.666	55.94
335.131	62.74
335.596	52.04
336.061	50.54
336.526	44.34
336.991	50.34
337.456	56.24
337.921	50.34
338.386	47.64
338.851	40.04
339.316	48.14
339.781	43.24
340.246	52.84
340.711	45.64
341.175	53.44
341.64	48.14
342.105	53.44
342.569	55.44
343.034	59.94
343.499	56.74
343.963	55.84
344.428	60.14
344.893	60.94
345.357	65.94
345.822	60.94
346.286	71.64
346.751	77.64
347.215	74.64
347.679	77.94
348.144	97.84
348.608	82.04
349.073	72.44
349.537	79.94
350.001	76.04
350.465	92.94
350.93	83.74
351.394	84.94
351.858	75.54
352.322	87.64
352.786	91.34
353.25	106.84
353.715	110.94
354.179	98.04
354.643	123.44
355.107	131.74
355.571	110.84
356.035	106.04
356.498	119.44
356.962	127.24
357.426	130.04
357.89	121.24
358.354	100.24
358.818	85.54
359.281	82.74
359.745	78.94
360.209	75.04
360.673	75.94
361.136	83.94
361.6	85.14
362.064	82.84
362.527	92.84
362.991	92.74
363.454	79.94
363.918	77.04
364.381	82.74
364.845	91.74
365.308	96.54
365.772	89.34
366.235	91.24
366.698	84.04
367.162	91.04
367.625	91.64
368.088	85.44
368.552	90.34
369.015	93.44
369.478	102.54
369.941	100.84
370.404	103.04
370.867	107.34
371.331	108.24
371.794	121.54
372.257	114.34
372.72	120.64
373.183	110.94
373.646	109.14
374.109	101.24
374.572	112.24
375.035	112.84
375.497	114.94
375.96	110.34
376.423	108.64
376.886	114.14
377.349	101.04
377.811	105.24
378.274	109.74
378.737	108.64
379.199	118.64
379.662	112.64
380.125	121.44
380.587	120.34
381.05	128.24
381.512	134.34
381.975	144.34
382.437	136.54
382.9	134.14
383.362	130.64
383.825	144.74
384.287	151.14
384.75	143.24
385.212	138.54
385.674	141.54
386.136	141.24
386.599	130.74
387.061	139.74
387.523	130.54
387.985	134.74
388.447	149.64
388.91	148.34
389.372	162.04
389.834	155.94
390.296	156.04
390.758	151.44
391.22	177.44
391.682	213.54
392.144	306.44
392.606	231.24
393.068	169.04
393.529	177.84
393.991	153.74
394.453	152.34
394.915	163.34
395.377	200.74
395.838	219.14
396.3	163.04
396.762	143.84
397.224	134.94
397.685	134.24
398.147	138.34
398.608	127.74
399.07	132.34
399.531	140.14
399.993	146.94
400.454	157.94
400.916	149.54
401.377	151.24
401.839	149.24
402.3	159.94
402.762	166.94
403.223	183.74
403.684	175.44
404.145	163.84
404.607	166.34
405.068	176.54
405.529	171.14
405.99	193.84
406.451	178.94
406.913	179.24
407.374	163.84
407.835	164.74
408.296	175.94
408.757	182.14
409.218	191.64
409.679	187.24
410.14	179.94
410.601	185.44
411.062	186.84
411.522	201.14
411.983	194.54
412.444	180.94
412.905	182.74
413.366	182.94
413.826	201.94
414.287	220.74
414.748	270.44
415.208	253.94
415.669	215.44
416.13	213.54
416.59	201.94
417.051	214.54
417.511	228.34
417.972	237.54
418.432	250.74
418.893	291.44
419.353	256.34
419.814	204.94
420.274	187.14
420.734	185.04
421.195	207.94
421.655	192.44
422.115	204.44
422.576	196.74
423.036	206.54
423.496	211.84
423.956	222.54
424.416	241.14
424.876	270.44
425.336	271.24
425.797	266.74
426.257	266.64
426.717	239.74
427.177	237.34
427.637	229.34
428.097	240.34
428.556	256.54
429.016	283.64
429.476	276.44
429.936	286.54
430.396	283.04
430.856	301.94
431.315	327.94
431.775	359.54
432.235	394.44
432.694	361.34
433.154	382.34
433.614	404.34
434.073	347.84
434.533	299.34
434.993	277.64
435.452	290.84
435.912	306.24
436.371	299.74
436.83	289.94
437.29	278.94
437.749	254.74
438.209	248.64
438.668	288.94
439.127	296.24
439.587	276.24
440.046	254.84
440.505	270.24
440.964	290.44
441.424	337.94
441.883	323.44
442.342	261.34
442.801	232.54
443.26	224.64
443.719	225.84
444.178	222.14
444.637	213.24
445.096	224.34
445.555	225.04
446.014	234.14
446.473	231.14
446.932	242.94
447.391	230.44
447.849	231.74
448.308	222.64
448.767	226.14
449.226	241.74
449.685	242.54
450.143	260.04
450.602	240.94
451.061	236.44
451.519	243.04
451.978	237.74
452.436	237.34
452.895	244.24
453.353	258.94
453.812	249.64
454.27	242.14
454.729	238.44
455.187	244.74
455.646	251.54
456.104	252.44
456.562	263.94
457.021	281.04
457.479	270.34
457.937	279.44
458.395	266.94
458.854	255.14
459.312	260.64
459.77	281.44
460.228	269.84
460.686	249.94
461.144	255.14
461.602	243.64
462.06	238.94
462.518	268.44
462.976	261.34
463.434	265.54
463.892	263.14
464.35	282.44
464.808	300.04
465.266	272.34
465.724	281.44
466.181	280.04
466.639	275.84
467.097	297.84
467.555	304.34
468.012	305.84
468.47	308.44
468.928	339.14
469.385	355.84
469.843	359.24
470.3	359.94
470.758	370.94
471.215	394.24
471.673	419.04
472.13	412.24
472.588	433.74
473.045	379.24
473.503	382.14
473.96	400.74
474.417	411.44
474.875	450.94
475.332	482.94
475.789	472.94
476.246	475.24
476.704	493.84
477.161	517.04
477.618	544.94
478.075	577.54
478.532	642.74
478.989	711.54
479.446	838.84
479.903	799.34
480.36	826.94
480.817	888.34
481.274	1002.94
481.731	1100.64
482.188	1190.24
482.645	1325.44
483.102	1452.74
483.558	1576.74
484.015	1633.94
484.472	1609.24
484.929	1552.64
485.385	1501.84
485.842	1470.24
486.299	1400.14
486.755	1330.74
487.212	1129.54
487.668	953.14
488.125	872.34
488.582	799.54
489.038	757.34
489.494	719.14
489.951	706.84
490.407	679.44
490.864	670.74
491.32	668.74
491.776	665.24
492.233	666.94
492.689	625.34
493.145	623.44
493.602	604.84
494.058	627.84
494.514	631.14
494.97	655.74
495.426	667.24
495.882	633.64
496.338	628.24
496.794	631.74
497.251	638.24
497.707	652.94
498.163	647.74
498.618	654.24
499.074	651.64
499.53	693.24
499.986	695.24
500.442	669.94
500.898	641.44
501.354	640.84
501.809	646.54
502.265	658.14
502.721	683.44
503.177	689.54
503.632	670.24
504.088	685.24
504.543	723.44
504.999	734.64
505.455	672.64
505.91	638.84
506.366	651.14
506.821	640.24
507.277	641.34
507.732	640.54
508.187	629.24
508.643	643.24
509.098	648.24
509.553	666.64
510.009	675.04
510.464	692.74
510.919	698.44
511.375	707.24
511.83	717.04
512.285	736.44
512.74	777.04
513.195	797.74
513.65	791.54
514.105	782.54
514.56	794.84
515.015	808.44
515.47	825.54
515.925	801.54
516.38	803.74
516.835	806.34
517.29	793.44
517.745	790.44
518.2	777.44
518.655	767.84
519.109	758.84
519.564	753.34
520.019	746.84
520.474	738.24
520.928	730.44
521.383	731.74
521.838	728.54
522.292	728.34
522.747	721.14
523.201	719.04
523.656	716.04
524.11	700.54
524.565	710.44
525.019	709.54
525.474	708.04
525.928	708.14
526.382	714.24
526.837	702.74
527.291	711.74
527.745	711.84
528.2	703.34
528.654	711.54
529.108	694.84
529.562	704.04
530.016	701.64
530.47	717.04
530.925	708.54
531.379	711.04
531.833	716.34
532.287	706.94
532.741	716.44
533.195	715.04
533.649	725.34
534.103	735.54
534.556	727.44
535.01	730.64
535.464	718.84
535.918	737.34
536.372	739.74
536.826	734.74
537.279	720.14
537.733	729.14
538.187	726.04
538.64	725.74
539.094	737.34
539.548	736.24
540.001	740.34
540.455	744.74
540.908	747.84
541.362	753.64
541.815	756.34
542.269	771.84
542.722	772.04
543.175	777.24
543.629	775.94
544.082	802.94
544.536	798.14
544.989	796.24
545.442	798.54
545.895	798.34
546.349	800.24
546.802	806.04
547.255	810.74
547.708	813.94
548.161	828.64
548.614	834.04
549.067	840.34
549.52	841.04
549.973	821.04
550.426	815.74
550.879	810.34
551.332	812.74
551.785	811.64
552.238	824.04
552.691	820.24
553.144	846.64
553.596	854.54
554.049	876.84
554.502	901.14
554.955	924.84
555.407	903.34
555.86	921.34
556.313	912.54
556.765	895.74
557.218	895.04
557.67	892.84
558.123	885.04
558.576	888.24
559.028	885.54
559.48	891.74
559.933	890.34
560.385	845.44
560.838	811.64
561.29	799.94
561.742	786.64
562.195	773.64
562.647	782.74
563.099	792.64
563.551	780.04
564.004	798.84
564.456	778.84
564.908	779.64
565.36	761.14
565.812	750.14
566.264	738.94
566.716	731.74
567.168	722.94
567.62	735.74
568.072	713.14
568.524	704.34
568.976	701.14
569.428	685.54
569.88	684.04
570.332	694.24
570.784	695.14
571.235	701.04
571.687	709.84
572.139	707.74
572.59	722.64
573.042	712.64
573.494	723.64
573.945	710.74
574.397	691.84
574.849	692.84
575.3	700.14
575.752	682.34
576.203	685.34
576.655	688.84
577.106	675.94
577.557	676.74
578.009	672.14
578.46	674.44
578.912	667.44
579.363	671.94
579.814	669.14
580.265	674.54
580.717	674.04
581.168	684.24
581.619	679.44
582.07	690.04
582.521	684.84
582.972	674.54
583.423	679.34
583.875	690.14
584.326	720.74
584.777	755.64
585.227	821.14
585.678	913.34
586.129	1003.84
586.58	1071.34
587.031	1166.54
587.482	1324.84
587.933	1494.44
588.384	1294.44
588.834	968.24
589.285	815.14
589.736	796.34
590.186	770.64
590.637	772.44
591.088	743.64
591.538	732.14
591.989	740.34
592.439	739.64
592.89	722.64
593.34	719.44
593.791	718.44
594.241	705.44
594.692	714.24
595.142	707.14
595.593	708.34
596.043	708.14
596.493	712.04
596.943	730.14
597.394	720.84
597.844	713.74
598.294	739.34
598.744	761.94
599.195	776.94
599.645	813.74
600.095	858.44
600.545	909.84
600.995	978.04
601.445	1029.84
601.895	1098.24
602.345	1144.54
602.795	1116.44
603.245	1061.54
603.695	1012.24
604.145	956.94
604.594	920.84
605.044	870.84
605.494	811.44
605.944	762.54
606.393	754.34
606.843	735.84
607.293	737.34
607.743	742.04
608.192	754.74
608.642	758.04
609.091	768.44
609.541	773.74
609.99	776.34
610.44	771.94
610.889	720.64
611.339	704.84
611.788	690.94
612.238	701.14
612.687	719.44
613.136	725.24
613.586	736.04
614.035	739.94
614.484	752.04
614.933	758.44
615.383	750.84
615.832	745.94
616.281	722.74
616.73	686.64
617.179	669.04
617.628	655.44
618.077	642.34
618.526	625.24
618.975	618.84
619.424	613.04
619.873	613.54
620.322	614.34
620.771	605.04
621.22	600.34
621.669	597.04
622.118	591.04
622.567	574.54
623.015	573.64
623.464	565.84
623.913	561.44
624.361	557.44
624.81	555.64
625.259	560.94
625.707	562.84
626.156	553.14
626.604	569.84
627.053	559.84
627.501	571.14
627.95	567.84
628.398	581.74
628.847	573.44
629.295	563.24
629.744	569.44
630.192	564.04
630.64	572.84
631.089	566.74
631.537	575.64
631.985	589.14
632.433	598.24
632.881	610.44
633.33	657.94
633.778	636.74
634.226	560.64
634.674	573.44
635.122	575.54
635.57	594.44
636.018	631.74
636.466	580.24
636.914	563.54
637.362	564.14
637.81	573.14
638.258	570.84
638.705	576.14
639.153	607.94
639.601	628.94
640.049	646.94
640.497	666.94
640.944	687.14
641.392	635.14
641.84	612.24
642.287	588.04
642.735	571.04
643.182	569.64
643.63	573.84
644.078	569.14
644.525	592.04
644.973	593.44
645.42	599.24
645.867	615.44
646.315	640.54
646.762	658.34
647.21	684.24
647.657	705.64
648.104	751.74
648.551	778.34
648.999	836.14
649.446	914.84
649.893	1005.04
650.34	1155.14
650.787	1379.24
651.234	1720.64
651.682	2245.44
652.129	3073.84
652.576	4433.84
653.023	6528.24
653.47	8999.04
653.917	11240.34
654.363	12976.54
654.81	14363.34
655.257	13688.84
655.704	8943.14
656.151	5281.14
656.598	3429.74
657.044	2433.64
657.491	1859.84
657.938	1495.54
658.385	1242.34
658.831	1080.74
659.278	963.34
659.724	852.04
660.171	796.84
660.618	713.64
661.064	692.24
661.511	665.84
661.957	656.64
662.404	647.24
662.85	648.14
663.296	628.34
663.743	564.64
664.189	546.74
664.635	535.44
665.082	531.24
665.528	523.24
665.974	509.34
666.42	512.84
666.867	505.14
667.313	495.14
667.759	481.64
668.205	476.54
668.651	480.84
669.097	479.04
669.543	502.54
669.989	467.44
670.435	443.74
670.881	447.14
671.327	440.84
671.773	458.94
672.219	483.24
672.665	540.64
673.11	589.94
673.556	623.84
674.002	660.54
674.448	654.84
674.893	548.04
675.339	475.84
675.785	444.04
676.23	414.14
676.676	384.04
677.122	380.74
677.567	371.74
678.013	371.44
678.458	354.74
678.904	359.04
679.349	344.94
679.794	352.74
680.24	348.24
680.685	349.44
681.131	347.04
681.576	348.54
682.021	347.94
682.466	342.74
682.912	343.34
683.357	340.94
683.802	377.14
684.247	401.14
684.692	451.64
685.137	490.94
685.583	535.54
686.028	556.44
686.473	511.24
686.918	435.54
687.363	414.74
687.807	387.44
688.252	353.64
688.697	352.74
689.142	332.04
689.587	326.14
690.032	316.54
690.477	334.84
690.921	349.04
691.366	380.84
691.811	399.24
692.255	424.24
692.7	458.84
693.145	490.74
693.589	678.94
694.034	1105.24
694.478	1509.34
694.923	1713.24
695.367	2229.44
695.812	1185.44
696.256	486.64
696.701	357.64
697.145	339.34
697.59	326.34
698.034	323.44
698.478	329.34
698.922	320.44
699.367	326.74
699.811	334.14
700.255	347.44
700.699	380.44
701.143	421.44
701.588	471.74
702.032	503.64
702.476	506.74
702.92	480.14
703.364	485.74
703.808	617.54
704.252	999.74
704.696	1415.84
705.14	1644.54
705.584	2100.14
706.027	1052.74
706.471	513.14
706.915	392.74
707.359	343.14
707.803	313.14
708.246	302.04
708.69	308.94
709.134	310.64
709.577	309.04
710.021	310.14
710.465	301.74
710.908	302.04
711.352	297.94
711.795	307.04
712.239	347.44
712.682	381.44
713.126	408.54
713.569	462.14
714.012	369.74
714.456	321.24
714.899	295.44
715.342	274.94
715.786	258.44
716.229	258.94
716.672	251.34
717.115	239.74
717.558	246.74
718.002	245.34
718.445	262.64
718.888	286.44
719.331	294.64
719.774	303.64
720.217	299.54
720.66	277.74
721.103	267.64
721.546	259.64
721.989	242.84
722.432	225.24
722.874	240.94
723.317	226.94
723.76	232.54
724.203	258.64
724.645	314.44
725.088	436.04
725.531	569.34
725.974	641.14
726.416	541.84
726.859	305.94
727.301	247.24
727.744	229.44
728.187	230.64
728.629	242.74
729.071	236.14
729.514	261.24
729.956	269.14
730.399	282.74
730.841	285.14
731.283	264.44
731.726	265.64
732.168	251.64
732.61	264.54
733.053	287.64
733.495	306.54
733.937	347.24
734.379	392.44
734.821	433.54
735.263	526.04
735.705	808.84
736.148	1527.94
736.59	2519.24
737.032	3004.64
737.474	2452.64
737.916	786.34
738.357	420.04
738.799	323.34
739.241	289.44
739.683	278.84
740.125	287.64
740.567	298.14
741.008	307.44
741.45	314.74
741.892	304.24
742.334	340.24
742.775	353.74
743.217	338.14
743.658	266.34
744.1	249.34
744.542	256.94
744.983	301.44
745.425	336.44
745.866	331.84
746.307	280.44
746.749	275.94
747.19	313.54
747.632	446.24
748.073	847.64
748.514	1821.54
748.956	2781.04
749.397	3480.94
749.838	2890.84
750.279	2908.64
750.72	1473.54
751.162	533.34
751.603	318.94
752.044	250.44
752.485	213.94
752.926	203.94
753.367	199.44
753.808	188.24
754.249	191.54
754.69	183.44
755.131	176.44
755.572	185.44
756.013	178.14
756.453	176.64
756.894	186.54
757.335	190.44
757.776	196.94
758.216	189.44
758.657	189.34
759.098	205.44
759.538	219.44
759.979	260.24
760.42	369.44
760.86	679.94
761.301	1756.54
761.741	4286.44
762.182	6353.44
