Data from 20171114-ORNL-Ar_H_NY_Subt18_08-06-13-364.txt Node
Date: Tue Nov 14 08:06:13 EST 2017
User: Ender
Spectrometer: HR+D1039
Trigger mode: 0
Integration Time (sec): 2.730000E-2
Scans to average: 10
Electric dark correction enabled: true
Nonlinearity correction enabled: false
Boxcar width: 0
XAxis mode: Wavelengths
Number of Pixels in Spectrum: 2048
>>>>>Begin Spectral Data<<<<<
187.836	-1.25
188.309	-1.25
188.782	-1.25
189.255	0.85
189.728	2.15
190.201	0.15
190.674	0.95
191.147	0.05
191.619	-11.95
192.092	-1.05
192.565	1.55
193.038	0.65
193.511	-1.25
193.984	3.65
194.456	-0.05
194.929	5.25
195.402	-1.95
195.874	2.25
196.347	-1.35
196.82	-6.95
197.292	6.85
197.765	-3.75
198.237	-7.15
198.71	1.45
199.182	-2.55
199.655	3.85
200.127	3.35
200.6	-3.05
201.072	-2.05
201.544	-3.15
202.017	-3.75
202.489	4.35
202.961	-4.15
203.433	-3.95
203.906	-8.85
204.378	-5.75
204.85	-1.55
205.322	-5.65
205.794	-4.25
206.266	-4.15
206.739	-6.05
207.211	-2.35
207.683	-3.35
208.155	-7.55
208.627	-8.35
209.099	-6.45
209.57	-7.55
210.042	-7.35
210.514	-1.25
210.986	-2.25
211.458	-8.15
211.93	-2.85
212.402	-2.05
212.873	-6.75
213.345	-12.55
213.817	-15.95
214.288	-5.65
214.76	-12.65
215.232	-4.35
215.703	-4.55
216.175	-4.35
216.646	-13.85
217.118	-6.65
217.589	-1.95
218.061	-0.05
218.532	-6.25
219.004	-0.45
219.475	-3.95
219.946	-4.75
220.418	-3.45
220.889	1.05
221.36	-1.25
221.832	-9.95
222.303	-6.35
222.774	2.25
223.245	-10.15
223.717	-7.45
224.188	-11.55
224.659	-6.65
225.13	-11.45
225.601	-2.35
226.072	2.25
226.543	-3.55
227.014	-4.75
227.485	-4.85
227.956	-0.55
228.427	-4.05
228.898	3.35
229.369	2.25
229.839	-2.45
230.31	-9.55
230.781	4.15
231.252	-3.15
231.722	-6.75
232.193	0.65
232.664	-4.15
233.135	-0.95
233.605	5.35
234.076	-2.55
234.546	4.55
235.017	7.15
235.487	-3.45
235.958	-6.25
236.428	-0.45
236.899	6.35
237.369	3.25
237.84	-3.05
238.31	1.85
238.78	7.25
239.251	-2.05
239.721	2.05
240.191	1.75
240.662	-7.05
241.132	4.85
241.602	-1.75
242.072	-1.55
242.542	9.55
243.013	-4.85
243.483	5.75
243.953	6.05
244.423	2.25
244.893	-2.55
245.363	1.95
245.833	4.35
246.303	-0.55
246.773	14.45
247.243	3.95
247.712	5.95
248.182	7.85
248.652	12.05
249.122	2.35
249.592	11.05
250.061	28.65
250.531	27.85
251.001	19.05
251.471	18.85
251.94	15.75
252.41	4.85
252.879	4.85
253.349	14.75
253.818	7.25
254.288	6.75
254.757	8.35
255.227	1.85
255.696	1.25
256.166	8.25
256.635	5.15
257.105	5.95
257.574	3.75
258.043	8.25
258.513	14.45
258.982	17.25
259.451	1.35
259.92	11.35
260.389	15.35
260.859	19.25
261.328	10.55
261.797	18.65
262.266	7.85
262.735	14.85
263.204	3.45
263.673	1.25
264.142	6.95
264.611	-2.35
265.08	-0.55
265.549	2.25
266.018	2.45
266.487	-4.45
266.955	7.95
267.424	-0.15
267.893	9.45
268.362	3.85
268.83	8.55
269.299	11.75
269.768	6.25
270.236	10.65
270.705	-1.05
271.174	11.85
271.642	4.35
272.111	14.05
272.579	19.95
273.048	27.25
273.516	28.55
273.985	24.65
274.453	25.45
274.922	19.55
275.39	10.65
275.858	3.95
276.327	9.15
276.795	19.05
277.263	9.45
277.731	25.55
278.2	52.85
278.668	60.95
279.136	54.65
279.604	19.95
280.072	13.65
280.54	14.25
281.008	5.05
281.477	12.45
281.945	9.75
282.413	14.75
282.881	16.15
283.348	15.65
283.816	10.55
284.284	16.25
284.752	23.05
285.22	14.75
285.688	24.75
286.156	21.65
286.623	44.15
287.091	54.55
287.559	30.35
288.026	17.25
288.494	18.75
288.962	12.65
289.429	7.65
289.897	23.15
290.364	17.05
290.832	13.45
291.3	9.35
291.767	21.65
292.234	17.85
292.702	19.75
293.169	22.85
293.637	20.25
294.104	19.55
294.571	8.75
295.039	12.95
295.506	13.65
295.973	21.45
296.44	14.25
296.908	21.85
297.375	23.05
297.842	21.15
298.309	15.05
298.776	15.15
299.243	25.45
299.71	15.65
300.177	18.15
300.644	24.75
301.111	22.95
301.578	22.05
302.045	19.05
302.512	25.05
302.979	26.25
303.446	21.55
303.913	14.55
304.379	23.25
304.846	29.35
305.313	24.85
305.78	27.75
306.246	27.25
306.713	26.15
307.18	24.75
307.646	27.55
308.113	26.05
308.579	22.15
309.046	28.35
309.512	27.85
309.979	21.15
310.445	27.05
310.912	24.15
311.378	33.15
311.845	30.05
312.311	33.45
312.777	29.35
313.244	31.65
313.71	37.35
314.176	33.15
314.642	28.85
315.109	36.55
315.575	33.35
316.041	44.65
316.507	30.95
316.973	39.85
317.439	34.65
317.905	44.55
318.371	32.05
318.837	30.25
319.303	25.95
319.769	32.75
320.235	33.05
320.701	30.65
321.167	36.35
321.633	37.65
322.099	47.55
322.564	45.25
323.03	38.95
323.496	39.75
323.962	42.65
324.427	40.15
324.893	45.15
325.359	40.45
325.824	35.35
326.29	36.35
326.755	42.05
327.221	44.75
327.686	41.65
328.152	44.65
328.617	40.85
329.083	47.45
329.548	50.85
330.014	43.85
330.479	38.15
330.944	48.45
331.41	39.35
331.875	48.55
332.34	46.25
332.805	43.75
333.271	47.75
333.736	47.95
334.201	56.05
334.666	50.25
335.131	56.55
335.596	55.35
336.061	52.85
336.526	41.05
336.991	48.65
337.456	57.05
337.921	49.15
338.386	51.85
338.851	50.95
339.316	47.35
339.781	44.35
340.246	48.35
340.711	51.95
341.175	50.05
341.64	47.45
342.105	60.65
342.569	57.15
343.034	56.75
343.499	57.45
343.963	50.35
344.428	67.35
344.893	61.05
345.357	66.45
345.822	64.15
346.286	74.35
346.751	75.85
347.215	70.25
347.679	74.25
348.144	100.45
348.608	80.95
349.073	66.95
349.537	78.65
350.001	79.95
350.465	89.75
350.93	81.95
351.394	79.45
351.858	73.75
352.322	88.05
352.786	82.75
353.25	103.15
353.715	112.45
354.179	97.05
354.643	127.75
355.107	129.65
355.571	107.75
356.035	109.05
356.498	127.55
356.962	127.55
357.426	131.65
357.89	125.05
358.354	86.05
358.818	87.05
359.281	76.15
359.745	82.55
360.209	78.85
360.673	73.95
361.136	82.05
361.6	87.85
362.064	85.95
362.527	89.95
362.991	100.85
363.454	78.65
363.918	79.35
364.381	83.25
364.845	83.45
365.308	91.95
365.772	83.95
366.235	91.05
366.698	82.65
367.162	83.95
367.625	83.65
368.088	92.05
368.552	91.35
369.015	89.15
369.478	97.85
369.941	104.85
370.404	102.45
370.867	114.65
371.331	110.25
371.794	116.15
372.257	115.45
372.72	119.35
373.183	111.65
373.646	106.55
374.109	111.25
374.572	107.45
375.035	110.05
375.497	116.45
375.96	107.55
376.423	100.85
376.886	113.75
377.349	109.65
377.811	106.55
378.274	109.05
378.737	111.45
379.199	113.75
379.662	115.35
380.125	121.25
380.587	125.15
381.05	130.75
381.512	140.35
381.975	137.55
382.437	133.45
382.9	134.45
383.362	143.95
383.825	148.85
384.287	153.95
384.75	150.85
385.212	142.05
385.674	137.25
386.136	138.85
386.599	133.05
387.061	134.55
387.523	137.55
387.985	138.05
388.447	153.65
388.91	148.85
389.372	164.25
389.834	155.75
390.296	157.05
390.758	155.15
391.22	174.55
391.682	219.05
392.144	313.85
392.606	237.25
393.068	173.15
393.529	178.85
393.991	156.35
394.453	152.65
394.915	163.45
395.377	194.05
395.838	227.15
396.3	162.55
396.762	150.35
397.224	138.35
397.685	137.25
398.147	134.85
398.608	133.25
399.07	137.45
399.531	147.95
399.993	143.35
400.454	155.45
400.916	152.65
401.377	146.05
401.839	152.25
402.3	156.45
402.762	170.35
403.223	183.35
403.684	175.15
404.145	168.45
404.607	161.85
405.068	170.35
405.529	175.15
405.99	195.35
406.451	183.65
406.913	182.15
407.374	167.15
407.835	161.85
408.296	164.25
408.757	179.65
409.218	196.35
409.679	189.15
410.14	183.55
410.601	186.65
411.062	188.65
411.522	197.75
411.983	196.15
412.444	182.75
412.905	186.45
413.366	190.05
413.826	198.15
414.287	222.15
414.748	268.95
415.208	248.15
415.669	224.35
416.13	203.55
416.59	202.35
417.051	217.05
417.511	221.15
417.972	247.35
418.432	250.95
418.893	291.25
419.353	254.25
419.814	208.05
420.274	187.75
420.734	184.55
421.195	202.95
421.655	202.95
422.115	198.45
422.576	197.45
423.036	196.95
423.496	209.55
423.956	215.35
424.416	234.55
424.876	273.85
425.336	270.15
425.797	265.35
426.257	258.85
426.717	243.55
427.177	242.15
427.637	238.55
428.097	238.05
428.556	249.25
429.016	280.15
429.476	271.05
429.936	283.75
430.396	291.05
430.856	296.75
431.315	331.65
431.775	368.85
432.235	398.25
432.694	360.65
433.154	375.55
433.614	406.85
434.073	349.05
434.533	295.35
434.993	281.55
435.452	297.35
435.912	306.25
436.371	296.85
436.83	294.05
437.29	285.35
437.749	250.45
438.209	256.15
438.668	283.45
439.127	293.65
439.587	276.35
440.046	252.75
440.505	263.75
440.964	290.25
441.424	330.85
441.883	321.05
442.342	265.45
442.801	230.45
443.26	226.75
443.719	227.25
444.178	227.65
444.637	217.95
445.096	228.15
445.555	228.85
446.014	232.25
446.473	232.55
446.932	239.55
447.391	229.55
447.849	229.75
448.308	226.25
448.767	227.25
449.226	243.25
449.685	242.35
450.143	254.35
450.602	239.95
451.061	229.95
451.519	238.65
451.978	237.35
452.436	236.55
452.895	238.85
453.353	255.05
453.812	250.85
454.27	245.35
454.729	242.75
455.187	248.35
455.646	249.65
456.104	259.45
456.562	264.15
457.021	271.35
457.479	267.15
457.937	273.95
458.395	265.15
458.854	251.95
459.312	260.25
459.77	283.05
460.228	258.55
460.686	245.55
461.144	248.65
461.602	246.65
462.06	244.45
462.518	270.85
462.976	260.65
463.434	263.35
463.892	270.35
464.35	275.65
464.808	293.85
465.266	276.85
465.724	274.65
466.181	282.35
466.639	280.65
467.097	285.25
467.555	304.25
468.012	309.05
468.47	322.95
468.928	341.25
469.385	351.65
469.843	358.65
470.3	355.45
470.758	374.05
471.215	393.05
471.673	423.65
472.13	412.05
472.588	432.45
473.045	389.05
473.503	381.85
473.96	405.05
474.417	415.15
474.875	439.05
475.332	490.35
475.789	463.35
476.246	469.45
476.704	490.95
477.161	519.55
477.618	539.45
478.075	572.65
478.532	633.15
478.989	718.95
479.446	832.15
479.903	790.55
480.36	841.05
480.817	901.45
481.274	1005.65
481.731	1111.35
482.188	1206.95
482.645	1338.85
483.102	1454.35
483.558	1606.95
484.015	1655.15
484.472	1624.45
484.929	1579.05
485.385	1524.85
485.842	1481.15
486.299	1412.95
486.755	1341.75
487.212	1130.95
487.668	956.55
488.125	876.15
488.582	794.95
489.038	767.55
489.494	728.55
489.951	714.45
490.407	678.95
490.864	660.45
491.32	660.25
491.776	652.85
492.233	661.85
492.689	633.15
493.145	618.85
493.602	621.45
494.058	634.15
494.514	641.35
494.97	647.85
495.426	666.05
495.882	631.45
496.338	626.35
496.794	639.95
497.251	629.45
497.707	652.35
498.163	646.85
498.618	653.75
499.074	658.35
499.53	697.55
499.986	686.95
500.442	660.75
500.898	649.15
501.354	644.65
501.809	652.75
502.265	661.65
502.721	679.95
503.177	691.15
503.632	693.15
504.088	701.35
504.543	725.65
504.999	728.15
505.455	671.45
505.91	650.15
506.366	645.55
506.821	640.75
507.277	627.25
507.732	637.25
508.187	631.35
508.643	646.75
509.098	642.85
509.553	666.85
510.009	681.55
510.464	687.65
510.919	701.95
511.375	704.45
511.83	713.65
512.285	740.35
512.74	779.05
513.195	809.65
513.65	783.75
514.105	782.65
514.56	797.95
515.015	806.85
515.47	820.75
515.925	805.95
516.38	795.75
516.835	799.85
517.29	799.75
517.745	782.55
518.2	773.65
518.655	762.45
519.109	748.75
519.564	752.25
520.019	749.05
520.474	735.75
520.928	746.85
521.383	738.15
521.838	726.65
522.292	722.15
522.747	722.55
523.201	717.45
523.656	703.25
524.11	698.55
524.565	710.85
525.019	713.95
525.474	720.95
525.928	719.25
526.382	709.45
526.837	708.35
527.291	721.95
527.745	714.75
528.2	699.55
528.654	702.35
529.108	699.85
529.562	697.65
530.016	701.25
530.47	701.55
530.925	700.25
531.379	711.55
531.833	716.15
532.287	710.45
532.741	712.55
533.195	727.55
533.649	726.55
534.103	734.55
534.556	724.25
535.01	726.45
535.464	727.05
535.918	732.75
536.372	751.85
536.826	731.65
537.279	719.35
537.733	723.95
538.187	718.15
538.64	729.35
539.094	734.95
539.548	744.55
540.001	733.15
540.455	733.05
540.908	736.55
541.362	754.85
541.815	754.35
542.269	774.25
542.722	762.15
543.175	778.95
543.629	781.05
544.082	794.55
544.536	812.85
544.989	792.15
545.442	804.35
545.895	802.05
546.349	803.15
546.802	803.15
547.255	811.55
547.708	823.15
548.161	828.95
548.614	833.05
549.067	837.45
549.52	830.15
549.973	817.45
550.426	808.15
550.879	802.85
551.332	800.25
551.785	816.65
552.238	812.05
552.691	843.85
553.144	853.75
553.596	858.55
554.049	871.05
554.502	904.35
554.955	918.85
555.407	922.85
555.86	915.05
556.313	899.25
556.765	904.15
557.218	900.35
557.67	894.45
558.123	877.35
558.576	876.85
559.028	888.85
559.48	894.55
559.933	877.75
560.385	847.05
560.838	826.45
561.29	794.25
561.742	790.25
562.195	773.95
562.647	772.35
563.099	779.15
563.551	781.05
564.004	802.15
564.456	787.15
564.908	774.35
565.36	755.25
565.812	741.35
566.264	738.25
566.716	738.25
567.168	721.45
567.62	728.05
568.072	712.95
568.524	704.15
568.976	697.35
569.428	695.15
569.88	680.05
570.332	694.85
570.784	683.55
571.235	690.75
571.687	692.25
572.139	712.65
572.59	729.05
573.042	715.05
573.494	713.95
573.945	714.55
574.397	693.55
574.849	702.95
575.3	705.65
575.752	688.15
576.203	685.65
576.655	689.95
577.106	675.55
577.557	670.05
578.009	682.75
578.46	674.65
578.912	671.75
579.363	680.05
579.814	675.35
580.265	674.35
580.717	680.55
581.168	683.45
581.619	683.65
582.07	694.35
582.521	681.45
582.972	676.25
583.423	690.85
583.875	693.15
584.326	714.85
584.777	761.05
585.227	836.65
585.678	943.45
586.129	1032.35
586.58	1121.65
587.031	1194.05
587.482	1367.65
587.933	1548.55
588.384	1357.45
588.834	1009.15
589.285	828.35
589.736	787.95
590.186	783.05
590.637	772.65
591.088	755.55
591.538	739.25
591.989	739.45
592.439	734.05
592.89	734.15
593.34	716.25
593.791	716.75
594.241	713.25
594.692	726.95
595.142	705.45
595.593	706.05
596.043	715.65
596.493	718.65
596.943	734.85
597.394	736.15
597.844	712.35
598.294	730.45
598.744	757.05
599.195	791.45
599.645	820.85
600.095	858.65
600.545	924.15
600.995	980.45
601.445	1036.65
601.895	1093.85
602.345	1147.35
602.795	1129.25
603.245	1081.25
603.695	1027.85
604.145	965.85
604.594	916.85
605.044	863.75
605.494	804.25
605.944	762.35
606.393	749.75
606.843	733.25
607.293	740.65
607.743	735.55
608.192	762.05
608.642	760.15
609.091	767.45
609.541	777.55
609.99	769.15
610.44	769.55
610.889	726.25
611.339	704.45
611.788	691.65
612.238	706.35
612.687	731.05
613.136	725.45
613.586	752.25
614.035	738.55
614.484	764.25
614.933	772.15
615.383	759.35
615.832	745.75
616.281	734.35
616.73	690.15
617.179	671.45
617.628	648.65
618.077	646.15
618.526	627.05
618.975	623.35
619.424	619.25
619.873	615.45
620.322	624.85
620.771	610.35
621.22	616.95
621.669	600.45
622.118	588.95
622.567	584.95
623.015	580.55
623.464	578.65
623.913	556.15
624.361	563.85
624.81	555.05
625.259	557.35
625.707	554.85
626.156	547.75
626.604	564.35
627.053	562.45
627.501	564.45
627.95	578.95
628.398	581.35
628.847	571.85
629.295	575.75
629.744	576.95
630.192	573.25
630.64	577.85
631.089	568.35
631.537	587.55
631.985	588.85
632.433	605.85
632.881	606.25
633.33	661.15
633.778	650.55
634.226	564.75
634.674	578.95
635.122	589.25
635.57	609.15
636.018	632.65
636.466	582.75
636.914	559.65
637.362	568.65
637.81	569.35
638.258	574.95
638.705	580.55
639.153	616.45
639.601	616.85
640.049	642.85
640.497	679.85
640.944	698.75
641.392	642.85
641.84	611.25
642.287	595.75
642.735	576.75
643.182	575.05
643.63	574.45
644.078	576.05
644.525	592.55
644.973	609.95
645.42	596.45
645.867	610.85
646.315	645.45
646.762	668.55
647.21	703.35
647.657	717.95
648.104	749.35
648.551	778.05
648.999	847.95
649.446	926.75
649.893	1007.55
650.34	1171.15
650.787	1406.55
651.234	1739.85
651.682	2291.75
652.129	3128.95
652.576	4516.75
653.023	6684.75
653.47	9209.05
653.917	11489.65
654.363	13282.65
654.81	14651.15
655.257	13941.65
655.704	9117.35
656.151	5374.65
656.598	3475.35
657.044	2448.85
657.491	1890.05
657.938	1513.35
658.385	1253.75
658.831	1103.85
659.278	973.85
659.724	863.35
660.171	799.35
660.618	731.75
661.064	690.25
661.511	670.85
661.957	657.85
662.404	649.45
662.85	651.05
663.296	629.75
663.743	566.85
664.189	543.85
664.635	543.05
665.082	521.05
665.528	526.35
665.974	519.65
666.42	510.35
666.867	504.95
667.313	492.95
667.759	480.65
668.205	483.15
668.651	489.65
669.097	481.25
669.543	513.95
669.989	468.25
670.435	447.45
670.881	450.65
671.327	456.45
671.773	474.45
672.219	489.15
672.665	541.35
673.11	570.85
673.556	621.55
674.002	671.85
674.448	651.25
674.893	554.65
675.339	473.85
675.785	435.75
676.23	424.05
676.676	389.45
677.122	377.85
677.567	375.55
678.013	366.05
678.458	359.45
678.904	358.75
679.349	351.15
679.794	352.05
680.24	351.55
680.685	349.75
681.131	347.75
681.576	349.25
682.021	358.45
682.466	347.05
682.912	341.95
683.357	352.55
683.802	376.95
684.247	406.25
684.692	452.75
685.137	489.15
685.583	528.15
686.028	556.25
686.473	511.35
686.918	443.95
687.363	422.25
687.807	391.05
688.252	360.75
688.697	355.95
689.142	336.45
689.587	324.65
690.032	322.65
690.477	340.25
690.921	349.15
691.366	377.25
691.811	401.05
692.255	429.45
692.7	451.65
693.145	498.95
693.589	693.95
694.034	1113.85
694.478	1511.95
694.923	1732.15
695.367	2240.95
695.812	1182.25
696.256	495.35
696.701	373.85
697.145	339.35
697.59	332.55
698.034	327.05
698.478	323.15
698.922	329.15
699.367	330.35
699.811	336.05
700.255	350.65
700.699	374.25
701.143	419.45
701.588	469.35
702.032	517.85
702.476	509.55
702.92	483.55
703.364	481.65
703.808	628.15
704.252	1019.75
704.696	1423.35
705.14	1650.55
705.584	2113.85
706.027	1055.45
706.471	516.65
706.915	394.55
707.359	350.65
707.803	315.15
708.246	302.65
708.69	313.75
709.134	312.75
709.577	307.05
710.021	315.55
710.465	309.95
710.908	295.45
711.352	296.75
711.795	307.85
712.239	347.05
712.682	379.95
713.126	414.65
713.569	462.85
714.012	371.05
714.456	327.45
714.899	296.75
715.342	275.35
715.786	254.25
716.229	251.45
716.672	254.45
717.115	243.85
717.558	252.05
718.002	252.35
718.445	265.45
718.888	278.15
719.331	288.05
719.774	293.95
720.217	303.45
720.66	281.55
721.103	259.05
721.546	253.15
721.989	241.15
722.432	227.05
722.874	235.95
723.317	221.45
723.76	231.95
724.203	264.55
724.645	305.65
725.088	432.65
725.531	558.55
725.974	639.55
726.416	536.65
726.859	302.35
727.301	243.15
727.744	238.45
728.187	222.55
728.629	232.75
729.071	236.15
729.514	255.95
729.956	274.25
730.399	286.15
730.841	283.85
731.283	271.95
731.726	252.75
732.168	251.35
732.61	259.35
733.053	281.55
733.495	310.95
733.937	345.25
734.379	387.95
734.821	427.15
735.263	527.65
735.705	821.25
736.148	1551.55
736.59	2547.95
737.032	3029.05
737.474	2464.45
737.916	794.15
738.357	423.95
738.799	324.25
739.241	293.55
739.683	278.15
740.125	286.45
740.567	291.55
741.008	308.85
741.45	306.25
741.892	305.45
742.334	348.55
742.775	355.55
743.217	335.45
743.658	260.65
744.1	251.95
744.542	258.85
744.983	310.25
745.425	334.95
745.866	339.35
746.307	281.55
746.749	282.15
747.19	317.95
747.632	440.85
748.073	853.95
748.514	1831.75
748.956	2807.15
749.397	3515.95
749.838	2909.85
750.279	2929.15
750.72	1469.55
751.162	539.95
751.603	319.65
752.044	251.65
752.485	216.55
752.926	209.25
753.367	196.75
753.808	190.15
754.249	185.05
754.69	178.05
755.131	177.65
755.572	174.75
756.013	180.95
756.453	179.55
756.894	192.05
757.335	190.85
757.776	188.15
758.216	199.05
758.657	190.05
759.098	204.15
759.538	223.95
759.979	252.65
760.42	368.05
760.86	690.25
761.301	1768.15
761.741	4314.75
