Data from 20171114-ORNL-Ar_H_NY_Subt18_08-06-10-907.txt Node
Date: Tue Nov 14 08:06:10 EST 2017
User: Ender
Spectrometer: HR+D1039
Trigger mode: 0
Integration Time (sec): 2.730000E-2
Scans to average: 10
Electric dark correction enabled: true
Nonlinearity correction enabled: false
Boxcar width: 0
XAxis mode: Wavelengths
Number of Pixels in Spectrum: 2048
>>>>>Begin Spectral Data<<<<<
187.836	-3.75
188.309	-3.75
188.782	-3.75
189.255	1.75
189.728	1.15
190.201	-0.85
190.674	-0.75
191.147	0.35
191.619	-6.05
192.092	1.15
192.565	3.35
193.038	1.85
193.511	-0.05
193.984	2.65
194.456	2.05
194.929	2.35
195.402	-4.95
195.874	-0.25
196.347	-6.35
196.82	-10.05
197.292	5.55
197.765	-2.55
198.237	-8.85
198.71	-2.05
199.182	-4.95
199.655	-1.55
200.127	1.85
200.6	-2.25
201.072	-2.45
201.544	-0.05
202.017	-4.65
202.489	3.85
202.961	-3.35
203.433	-3.05
203.906	-2.95
204.378	-8.65
204.85	-4.75
205.322	-9.05
205.794	-3.95
206.266	-8.65
206.739	-8.85
207.211	6.65
207.683	-7.25
208.155	-6.05
208.627	-1.65
209.099	-3.55
209.57	-7.15
210.042	-1.75
210.514	-5.05
210.986	1.75
211.458	-9.85
211.93	-6.75
212.402	-2.65
212.873	-7.75
213.345	-8.25
213.817	-9.15
214.288	-2.55
214.76	-14.55
215.232	-0.85
215.703	-1.05
216.175	-8.05
216.646	-4.55
217.118	-5.35
217.589	-7.85
218.061	-1.05
218.532	-0.55
219.004	0.75
219.475	-0.45
219.946	-3.35
220.418	-5.35
220.889	-0.25
221.36	1.35
221.832	-8.55
222.303	-8.95
222.774	-4.55
223.245	-11.25
223.717	-4.15
224.188	-6.75
224.659	-10.15
225.13	-7.95
225.601	-3.15
226.072	0.95
226.543	0.85
227.014	-1.25
227.485	-4.35
227.956	-5.35
228.427	-3.15
228.898	-2.65
229.369	1.75
229.839	-3.15
230.31	-9.25
230.781	2.95
231.252	0.55
231.722	-5.25
232.193	-0.45
232.664	-0.85
233.135	-1.75
233.605	3.05
234.076	-0.35
234.546	-3.15
235.017	2.35
235.487	0.45
235.958	-2.95
236.428	-2.55
236.899	2.45
237.369	-2.75
237.84	-0.15
238.31	5.75
238.78	-1.55
239.251	2.75
239.721	2.75
240.191	1.25
240.662	-4.55
241.132	3.25
241.602	-0.15
242.072	2.25
242.542	10.15
243.013	-2.25
243.483	1.55
243.953	0.55
244.423	-1.55
244.893	-5.95
245.363	4.65
245.833	-3.85
246.303	3.25
246.773	6.45
247.243	2.15
247.712	2.05
248.182	7.85
248.652	9.15
249.122	0.25
249.592	12.75
250.061	20.25
250.531	33.35
251.001	14.35
251.471	22.55
251.94	17.75
252.41	7.05
252.879	0.05
253.349	8.15
253.818	6.95
254.288	9.55
254.757	1.95
255.227	3.85
255.696	1.75
256.166	7.45
256.635	2.15
257.105	9.45
257.574	6.25
258.043	9.85
258.513	9.95
258.982	14.65
259.451	11.75
259.92	12.75
260.389	11.15
260.859	15.45
261.328	15.05
261.797	13.15
262.266	10.55
262.735	8.55
263.204	5.35
263.673	2.95
264.142	9.15
264.611	0.15
265.08	1.55
265.549	2.75
266.018	1.55
266.487	-1.95
266.955	-1.95
267.424	-5.25
267.893	5.15
268.362	-0.35
268.83	2.75
269.299	13.55
269.768	7.65
270.236	4.95
270.705	6.25
271.174	6.15
271.642	7.75
272.111	10.75
272.579	12.95
273.048	26.85
273.516	30.25
273.985	27.65
274.453	27.25
274.922	24.55
275.39	11.45
275.858	2.85
276.327	9.95
276.795	18.85
277.263	8.15
277.731	29.35
278.2	58.35
278.668	54.15
279.136	43.65
279.604	15.55
280.072	17.15
280.54	12.85
281.008	5.45
281.477	18.55
281.945	8.65
282.413	13.85
282.881	16.95
283.348	9.95
283.816	19.35
284.284	22.05
284.752	24.75
285.22	16.05
285.688	15.65
286.156	19.05
286.623	49.65
287.091	58.15
287.559	33.65
288.026	17.85
288.494	14.95
288.962	12.15
289.429	14.15
289.897	17.15
290.364	17.35
290.832	16.35
291.3	17.55
291.767	15.95
292.234	20.25
292.702	17.95
293.169	18.75
293.637	19.85
294.104	14.75
294.571	11.95
295.039	12.35
295.506	10.45
295.973	15.15
296.44	17.95
296.908	19.35
297.375	20.65
297.842	18.25
298.309	26.55
298.776	10.65
299.243	22.95
299.71	15.45
300.177	20.05
300.644	22.75
301.111	26.45
301.578	22.95
302.045	15.35
302.512	19.95
302.979	21.85
303.446	26.75
303.913	16.55
304.379	16.95
304.846	25.05
305.313	25.75
305.78	27.65
306.246	27.75
306.713	24.55
307.18	20.45
307.646	27.35
308.113	31.75
308.579	21.65
309.046	23.55
309.512	24.65
309.979	17.65
310.445	24.65
310.912	28.15
311.378	31.75
311.845	27.05
312.311	32.45
312.777	30.15
313.244	27.15
313.71	35.85
314.176	33.65
314.642	32.35
315.109	30.95
315.575	36.35
316.041	37.15
316.507	28.65
316.973	41.65
317.439	25.95
317.905	35.45
318.371	38.75
318.837	37.25
319.303	38.55
319.769	29.45
320.235	35.15
320.701	33.35
321.167	35.15
321.633	30.35
322.099	40.45
322.564	43.95
323.03	42.45
323.496	37.85
323.962	36.35
324.427	39.05
324.893	44.15
325.359	43.75
325.824	35.75
326.29	38.15
326.755	45.45
327.221	46.25
327.686	37.85
328.152	44.95
328.617	47.95
329.083	47.85
329.548	47.55
330.014	47.65
330.479	38.55
330.944	46.95
331.41	45.05
331.875	46.25
332.34	40.75
332.805	43.65
333.271	50.45
333.736	49.85
334.201	59.65
334.666	55.95
335.131	57.35
335.596	53.15
336.061	48.25
336.526	39.25
336.991	51.05
337.456	64.15
337.921	47.45
338.386	43.65
338.851	48.75
339.316	48.45
339.781	48.25
340.246	54.15
340.711	48.45
341.175	48.75
341.64	45.75
342.105	51.75
342.569	56.75
343.034	58.25
343.499	52.25
343.963	56.05
344.428	64.25
344.893	55.55
345.357	66.65
345.822	63.05
346.286	70.35
346.751	71.15
347.215	67.55
347.679	73.15
348.144	102.75
348.608	79.45
349.073	65.65
349.537	74.15
350.001	78.85
350.465	93.15
350.93	90.15
351.394	82.55
351.858	81.75
352.322	84.05
352.786	88.05
353.25	98.85
353.715	114.15
354.179	99.75
354.643	125.05
355.107	127.05
355.571	111.35
356.035	99.15
356.498	120.25
356.962	126.45
357.426	142.95
357.89	117.95
358.354	91.45
358.818	91.15
359.281	83.35
359.745	86.05
360.209	82.45
360.673	73.85
361.136	83.85
361.6	90.15
362.064	89.35
362.527	88.35
362.991	92.85
363.454	83.45
363.918	73.95
364.381	84.45
364.845	86.35
365.308	86.95
365.772	88.45
366.235	83.85
366.698	93.05
367.162	89.85
367.625	90.75
368.088	91.65
368.552	85.85
369.015	85.15
369.478	94.55
369.941	103.35
370.404	97.45
370.867	106.45
371.331	100.75
371.794	113.65
372.257	110.25
372.72	119.05
373.183	114.25
373.646	108.95
374.109	110.05
374.572	110.15
375.035	114.65
375.497	113.55
375.96	109.75
376.423	111.15
376.886	111.75
377.349	110.15
377.811	97.75
378.274	111.25
378.737	114.05
379.199	118.85
379.662	111.45
380.125	119.05
380.587	120.75
381.05	125.35
381.512	133.65
381.975	133.35
382.437	139.25
382.9	136.95
383.362	136.85
383.825	143.05
384.287	156.65
384.75	149.25
385.212	138.15
385.674	141.45
386.136	138.35
386.599	127.85
387.061	132.25
387.523	135.25
387.985	144.25
388.447	141.55
388.91	152.65
389.372	165.05
389.834	158.05
390.296	151.05
390.758	160.25
391.22	172.45
391.682	215.35
392.144	300.45
392.606	233.35
393.068	167.55
393.529	167.25
393.991	156.45
394.453	158.15
394.915	160.55
395.377	193.45
395.838	212.05
396.3	161.35
396.762	137.75
397.224	139.15
397.685	126.85
398.147	137.75
398.608	140.15
399.07	130.95
399.531	139.55
399.993	145.95
400.454	157.25
400.916	152.65
401.377	150.85
401.839	156.55
402.3	155.45
402.762	168.45
403.223	186.95
403.684	169.55
404.145	162.65
404.607	165.95
405.068	172.05
405.529	177.35
405.99	195.35
406.451	184.25
406.913	179.05
407.374	171.65
407.835	172.15
408.296	172.85
408.757	170.75
409.218	189.35
409.679	188.85
410.14	184.05
410.601	186.95
411.062	181.35
411.522	196.25
411.983	198.65
412.444	179.05
412.905	177.45
413.366	184.35
413.826	197.15
414.287	216.75
414.748	270.45
415.208	257.25
415.669	214.25
416.13	204.95
416.59	202.55
417.051	212.95
417.511	218.05
417.972	238.65
418.432	249.85
418.893	296.85
419.353	253.65
419.814	202.35
420.274	188.05
420.734	186.15
421.195	197.65
421.655	202.25
422.115	197.95
422.576	204.05
423.036	207.85
423.496	206.85
423.956	218.55
424.416	234.75
424.876	271.45
425.336	269.15
425.797	264.45
426.257	258.65
426.717	243.45
427.177	237.05
427.637	227.25
428.097	241.85
428.556	255.85
429.016	276.05
429.476	279.65
429.936	283.75
430.396	286.25
430.856	296.25
431.315	330.85
431.775	370.25
432.235	397.15
432.694	364.95
433.154	381.15
433.614	406.85
434.073	348.15
434.533	296.45
434.993	282.15
435.452	293.25
435.912	301.65
436.371	298.75
436.83	297.65
437.29	279.15
437.749	251.25
438.209	251.65
438.668	276.65
439.127	303.35
439.587	279.95
440.046	260.65
440.505	275.15
440.964	289.45
441.424	339.35
441.883	315.85
442.342	267.15
442.801	226.65
443.26	223.45
443.719	223.85
444.178	220.95
444.637	215.05
445.096	226.85
445.555	228.15
446.014	232.15
446.473	238.25
446.932	239.55
447.391	235.45
447.849	232.65
448.308	216.25
448.767	233.25
449.226	241.75
449.685	240.55
450.143	250.55
450.602	245.25
451.061	231.25
451.519	242.45
451.978	239.95
452.436	237.65
452.895	251.05
453.353	259.15
453.812	247.95
454.27	242.25
454.729	248.05
455.187	246.65
455.646	247.65
456.104	248.35
456.562	267.05
457.021	276.25
457.479	264.75
457.937	286.25
458.395	270.25
458.854	254.45
459.312	255.55
459.77	278.15
460.228	264.95
460.686	256.75
461.144	253.55
461.602	255.65
462.06	248.95
462.518	257.85
462.976	261.15
463.434	264.55
463.892	271.65
464.35	285.15
464.808	299.65
465.266	274.35
465.724	268.95
466.181	281.55
466.639	281.15
467.097	296.45
467.555	307.15
468.012	312.25
468.47	325.65
468.928	340.15
469.385	341.75
469.843	356.35
470.3	355.95
470.758	371.95
471.215	393.05
471.673	412.35
472.13	419.45
472.588	430.45
473.045	383.95
473.503	393.65
473.96	411.95
474.417	415.95
474.875	440.05
475.332	491.15
475.789	466.65
476.246	471.15
476.704	497.45
477.161	524.65
477.618	534.75
478.075	570.05
478.532	625.25
478.989	705.65
479.446	830.85
479.903	792.85
480.36	830.15
480.817	882.65
481.274	991.45
481.731	1102.75
482.188	1204.65
482.645	1346.65
483.102	1457.25
483.558	1591.75
484.015	1650.75
484.472	1626.65
484.929	1566.35
485.385	1513.65
485.842	1478.35
486.299	1407.25
486.755	1329.25
487.212	1125.95
487.668	946.05
488.125	873.25
488.582	798.25
489.038	760.15
489.494	728.25
489.951	704.05
490.407	687.45
490.864	668.45
491.32	656.05
491.776	662.55
492.233	660.75
492.689	626.05
493.145	624.45
493.602	617.05
494.058	630.25
494.514	625.35
494.97	643.15
495.426	664.25
495.882	642.85
496.338	624.35
496.794	642.85
497.251	638.75
497.707	658.55
498.163	654.15
498.618	651.55
499.074	673.75
499.53	688.15
499.986	696.95
500.442	666.05
500.898	651.25
501.354	630.85
501.809	647.25
502.265	661.35
502.721	679.05
503.177	679.25
503.632	686.95
504.088	684.75
504.543	727.05
504.999	731.65
505.455	679.25
505.91	648.15
506.366	647.05
506.821	640.45
507.277	630.85
507.732	639.85
508.187	638.45
508.643	639.45
509.098	662.85
509.553	669.35
510.009	675.15
510.464	681.65
510.919	700.75
511.375	709.75
511.83	733.45
512.285	743.85
512.74	776.55
513.195	807.85
513.65	798.25
514.105	788.65
514.56	793.65
515.015	820.15
515.47	829.95
515.925	800.65
516.38	803.85
516.835	810.85
517.29	797.75
517.745	791.95
518.2	783.25
518.655	766.85
519.109	760.45
519.564	761.15
520.019	754.65
520.474	738.95
520.928	742.55
521.383	746.65
521.838	739.25
522.292	727.35
522.747	726.95
523.201	721.25
523.656	710.55
524.11	716.25
524.565	713.95
525.019	714.65
525.474	726.45
525.928	712.35
526.382	705.65
526.837	710.35
527.291	722.65
527.745	712.25
528.2	717.55
528.654	707.25
529.108	697.35
529.562	719.75
530.016	699.75
530.47	703.75
530.925	710.75
531.379	714.65
531.833	712.75
532.287	721.45
532.741	720.75
533.195	713.05
533.649	732.15
534.103	734.65
534.556	726.25
535.01	729.85
535.464	727.85
535.918	743.35
536.372	740.25
536.826	732.75
537.279	716.35
537.733	739.95
538.187	717.15
538.64	734.25
539.094	737.05
539.548	743.85
540.001	734.05
540.455	735.25
540.908	738.15
541.362	749.85
541.815	767.25
542.269	776.75
542.722	771.65
543.175	795.25
543.629	785.95
544.082	800.55
544.536	806.35
544.989	796.05
545.442	804.25
545.895	802.95
546.349	814.85
546.802	820.15
547.255	811.65
547.708	819.35
548.161	830.35
548.614	840.55
549.067	839.75
549.52	840.05
549.973	831.05
550.426	827.85
550.879	821.15
551.332	809.25
551.785	826.85
552.238	829.05
552.691	833.95
553.144	852.75
553.596	861.25
554.049	880.35
554.502	913.15
554.955	936.05
555.407	920.85
555.86	926.65
556.313	903.45
556.765	905.25
557.218	900.25
557.67	905.75
558.123	897.75
558.576	883.35
559.028	904.65
559.48	902.35
559.933	892.15
560.385	853.25
560.838	823.25
561.29	793.35
561.742	787.15
562.195	784.75
562.647	774.45
563.099	789.45
563.551	784.25
564.004	796.95
564.456	783.35
564.908	770.65
565.36	758.35
565.812	745.95
566.264	740.15
566.716	739.45
567.168	723.35
567.62	729.15
568.072	711.95
568.524	715.55
568.976	700.65
569.428	687.15
569.88	680.25
570.332	692.15
570.784	696.25
571.235	695.15
571.687	699.25
572.139	720.25
572.59	731.15
573.042	721.55
573.494	721.05
573.945	722.75
574.397	702.85
574.849	703.25
575.3	705.15
575.752	699.55
576.203	688.45
576.655	702.25
577.106	679.45
577.557	679.45
578.009	685.75
578.46	674.15
578.912	680.65
579.363	687.15
579.814	681.35
580.265	677.95
580.717	681.35
581.168	682.55
581.619	691.35
582.07	698.35
582.521	682.55
582.972	689.05
583.423	694.55
583.875	705.85
584.326	715.75
584.777	753.45
585.227	840.25
585.678	937.75
586.129	1019.75
586.58	1096.05
587.031	1189.15
587.482	1335.15
587.933	1514.25
588.384	1331.95
588.834	990.85
589.285	816.75
589.736	796.75
590.186	791.15
590.637	782.25
591.088	760.75
591.538	747.05
591.989	746.25
592.439	738.65
592.89	729.65
593.34	720.75
593.791	724.65
594.241	714.45
594.692	716.05
595.142	713.95
595.593	705.45
596.043	715.55
596.493	718.95
596.943	724.15
597.394	732.75
597.844	722.95
598.294	742.15
598.744	757.85
599.195	781.75
599.645	829.45
600.095	864.85
600.545	924.35
600.995	976.15
601.445	1042.05
601.895	1102.55
602.345	1153.75
602.795	1129.15
603.245	1082.15
603.695	1032.15
604.145	976.65
604.594	932.85
605.044	870.05
605.494	799.15
605.944	760.05
606.393	753.05
606.843	732.25
607.293	743.05
607.743	743.45
608.192	754.25
608.642	771.75
609.091	775.25
609.541	791.75
609.99	768.95
610.44	775.85
610.889	724.45
611.339	706.25
611.788	696.15
612.238	711.25
612.687	726.75
613.136	713.75
613.586	740.75
614.035	744.95
614.484	766.05
614.933	769.85
615.383	764.75
615.832	739.15
616.281	731.15
616.73	690.05
617.179	672.65
617.628	663.05
618.077	654.65
618.526	633.05
618.975	626.95
619.424	626.65
619.873	616.65
620.322	621.75
620.771	613.45
621.22	612.95
621.669	604.15
622.118	587.85
622.567	587.05
623.015	581.75
623.464	577.75
623.913	568.25
624.361	564.25
624.81	554.65
625.259	549.75
625.707	565.45
626.156	560.15
626.604	581.85
627.053	561.15
627.501	569.55
627.95	579.85
628.398	583.85
628.847	574.65
629.295	575.75
629.744	580.25
630.192	569.75
630.64	576.75
631.089	568.95
631.537	587.25
631.985	594.65
632.433	604.25
632.881	616.85
633.33	667.55
633.778	650.95
634.226	580.15
634.674	578.05
635.122	586.95
635.57	602.65
636.018	636.45
636.466	586.75
636.914	558.35
637.362	575.35
637.81	584.35
638.258	584.75
638.705	580.45
639.153	610.35
639.601	615.15
640.049	650.95
640.497	679.35
640.944	691.85
641.392	651.15
641.84	621.85
642.287	588.25
642.735	583.45
643.182	588.65
643.63	576.95
644.078	582.65
644.525	604.65
644.973	602.25
645.42	614.75
645.867	623.95
646.315	644.25
646.762	670.95
647.21	698.85
647.657	727.95
648.104	763.55
648.551	789.05
648.999	844.35
649.446	913.95
649.893	1025.45
650.34	1176.15
650.787	1395.25
651.234	1740.25
651.682	2285.85
652.129	3118.45
652.576	4504.35
653.023	6632.95
653.47	9124.95
653.917	11418.65
654.363	13233.45
654.81	14611.65
655.257	13914.05
655.704	9141.75
656.151	5371.45
656.598	3457.55
657.044	2457.75
657.491	1897.05
657.938	1494.65
658.385	1259.95
658.831	1099.95
659.278	967.55
659.724	858.25
660.171	794.45
660.618	735.25
661.064	702.75
661.511	666.55
661.957	662.65
662.404	656.35
662.85	668.55
663.296	629.75
663.743	568.65
664.189	544.35
664.635	537.25
665.082	531.45
665.528	540.65
665.974	519.85
666.42	513.45
666.867	508.25
667.313	496.05
667.759	482.85
668.205	487.15
668.651	487.95
669.097	491.45
669.543	507.05
669.989	482.55
670.435	450.25
670.881	443.55
671.327	445.25
671.773	477.45
672.219	497.35
672.665	546.85
673.11	587.25
673.556	624.25
674.002	665.95
674.448	658.65
674.893	556.65
675.339	463.75
675.785	435.65
676.23	420.45
676.676	386.85
677.122	385.25
677.567	375.05
678.013	367.75
678.458	358.75
678.904	360.25
679.349	345.55
679.794	359.75
680.24	348.55
680.685	354.45
681.131	348.45
681.576	355.45
682.021	355.85
682.466	340.65
682.912	352.55
683.357	351.65
683.802	389.05
684.247	409.75
684.692	454.55
685.137	490.55
685.583	529.25
686.028	560.35
686.473	518.15
686.918	451.35
687.363	416.35
687.807	398.15
688.252	364.75
688.697	357.85
689.142	339.45
689.587	335.45
690.032	323.85
690.477	346.45
690.921	358.85
691.366	392.25
691.811	399.25
692.255	434.25
692.7	458.75
693.145	498.45
693.589	684.35
694.034	1110.25
694.478	1528.65
694.923	1733.95
695.367	2256.95
695.812	1190.35
696.256	497.25
696.701	365.15
697.145	347.45
697.59	328.45
698.034	329.85
698.478	333.25
698.922	325.15
699.367	324.15
699.811	334.45
700.255	351.95
700.699	375.55
701.143	419.85
701.588	467.15
702.032	516.45
702.476	516.65
702.92	491.15
703.364	487.95
703.808	633.05
704.252	1023.55
704.696	1434.05
705.14	1657.95
705.584	2116.95
706.027	1057.15
706.471	521.95
706.915	396.85
707.359	352.25
707.803	313.95
708.246	302.65
708.69	305.75
709.134	307.25
709.577	308.25
710.021	311.95
710.465	304.45
710.908	299.35
711.352	300.55
711.795	307.85
712.239	350.15
712.682	382.75
713.126	409.15
713.569	467.25
714.012	371.45
714.456	316.95
714.899	304.75
715.342	279.65
715.786	262.75
716.229	253.95
716.672	259.05
717.115	250.75
717.558	249.45
718.002	243.25
718.445	257.05
718.888	278.35
719.331	289.05
719.774	308.55
720.217	299.85
720.66	287.35
721.103	262.95
721.546	252.75
721.989	249.85
722.432	232.35
722.874	232.25
723.317	223.75
723.76	241.95
724.203	254.55
724.645	316.35
725.088	449.65
725.531	556.35
725.974	643.55
726.416	551.15
726.859	301.85
727.301	247.45
727.744	238.95
728.187	230.45
728.629	233.15
729.071	241.85
729.514	259.45
729.956	271.45
730.399	275.85
730.841	285.95
731.283	274.15
731.726	254.85
732.168	260.25
732.61	269.75
733.053	275.35
733.495	308.35
733.937	351.75
734.379	395.55
734.821	429.75
735.263	535.75
735.705	810.15
736.148	1553.05
736.59	2552.25
737.032	3039.05
737.474	2470.95
737.916	794.85
738.357	428.95
738.799	327.95
739.241	300.75
739.683	284.95
740.125	284.15
740.567	287.75
741.008	312.85
741.45	322.95
741.892	312.45
742.334	342.05
742.775	361.95
743.217	333.05
743.658	265.95
744.1	252.85
744.542	263.15
744.983	316.55
745.425	338.95
745.866	336.75
746.307	281.45
746.749	278.85
747.19	324.85
747.632	446.85
748.073	857.85
748.514	1835.85
748.956	2827.25
749.397	3542.15
749.838	2942.15
750.279	2951.95
750.72	1473.75
751.162	546.65
751.603	320.55
752.044	249.05
752.485	211.15
752.926	211.15
753.367	203.85
753.808	190.35
754.249	186.85
754.69	190.35
755.131	186.85
755.572	181.25
756.013	174.75
756.453	181.85
756.894	180.55
757.335	189.55
757.776	192.95
758.216	196.95
758.657	192.55
759.098	204.65
759.538	220.45
759.979	253.65
760.42	374.45
760.86	684.25
761.301	1775.25
761.741	4332.85
762.182	6392.35
