Data from 20171114-ORNL-Ar_H_NY_Subt18_08-07-59-005.txt Node
Date: Tue Nov 14 08:07:59 EST 2017
User: Ender
Spectrometer: HR+D1039
Trigger mode: 0
Integration Time (sec): 2.730000E-2
Scans to average: 10
Electric dark correction enabled: true
Nonlinearity correction enabled: false
Boxcar width: 0
XAxis mode: Wavelengths
Number of Pixels in Spectrum: 2048
>>>>>Begin Spectral Data<<<<<
187.836	-4.96
188.309	-4.96
188.782	-4.96
189.255	4.04
189.728	-4.56
190.201	2.94
190.674	-4.26
191.147	5.34
191.619	-5.86
192.092	-0.06
192.565	9.04
193.038	-1.76
193.511	6.34
193.984	0.84
194.456	-1.46
194.929	-5.66
195.402	-0.86
195.874	0.84
196.347	-0.06
196.82	-9.06
197.292	4.94
197.765	-2.36
198.237	-8.16
198.71	0.84
199.182	3.14
199.655	1.44
200.127	2.04
200.6	-2.36
201.072	-4.56
201.544	-4.26
202.017	0.44
202.489	4.34
202.961	-0.26
203.433	1.54
203.906	-6.86
204.378	-6.06
204.85	-4.26
205.322	-10.06
205.794	-3.46
206.266	-6.06
206.739	-7.16
207.211	9.34
207.683	-2.86
208.155	1.14
208.627	-5.36
209.099	-5.16
209.57	-10.06
210.042	-2.96
210.514	-2.16
210.986	-0.96
211.458	-6.76
211.93	-2.16
212.402	-0.26
212.873	-9.76
213.345	-12.26
213.817	-10.06
214.288	0.64
214.76	-6.66
215.232	-0.26
215.703	-4.86
216.175	-5.26
216.646	-2.56
217.118	-3.06
217.589	-0.76
218.061	3.14
218.532	-5.66
219.004	1.24
219.475	-4.56
219.946	-0.36
220.418	-3.46
220.889	1.14
221.36	1.74
221.832	1.24
222.303	-9.66
222.774	4.14
223.245	-8.26
223.717	-12.76
224.188	-5.26
224.659	-3.86
225.13	-5.36
225.601	0.64
226.072	5.14
226.543	-4.96
227.014	2.94
227.485	3.64
227.956	-0.36
228.427	-0.06
228.898	-1.06
229.369	1.64
229.839	-3.66
230.31	-3.66
230.781	-2.36
231.252	-3.86
231.722	-0.26
232.193	-6.56
232.664	4.94
233.135	0.74
233.605	3.94
234.076	-7.46
234.546	0.44
235.017	2.24
235.487	5.24
235.958	4.74
236.428	-7.66
236.899	3.14
237.369	3.54
237.84	-2.96
238.31	0.64
238.78	4.74
239.251	0.84
239.721	3.34
240.191	-1.46
240.662	-4.06
241.132	2.14
241.602	-4.06
242.072	3.54
242.542	4.14
243.013	-3.26
243.483	2.94
243.953	5.54
244.423	3.24
244.893	1.84
245.363	7.34
245.833	-0.56
246.303	-3.16
246.773	10.84
247.243	1.04
247.712	3.74
248.182	10.54
248.652	9.54
249.122	-0.36
249.592	5.14
250.061	16.74
250.531	27.34
251.001	17.94
251.471	18.84
251.94	18.04
252.41	9.64
252.879	6.34
253.349	15.04
253.818	10.14
254.288	5.94
254.757	6.34
255.227	-2.06
255.696	1.04
256.166	5.74
256.635	3.64
257.105	13.24
257.574	6.64
258.043	15.14
258.513	7.44
258.982	14.64
259.451	3.64
259.92	11.04
260.389	9.94
260.859	14.14
261.328	11.74
261.797	16.64
262.266	3.74
262.735	10.24
263.204	10.94
263.673	2.24
264.142	8.34
264.611	-1.06
265.08	2.04
265.549	-2.06
266.018	3.94
266.487	0.84
266.955	-0.36
267.424	4.44
267.893	4.14
268.362	5.84
268.83	4.24
269.299	9.54
269.768	3.64
270.236	3.94
270.705	-3.46
271.174	-0.46
271.642	7.04
272.111	8.24
272.579	11.34
273.048	20.54
273.516	26.34
273.985	29.54
274.453	25.64
274.922	18.74
275.39	10.04
275.858	3.74
276.327	11.64
276.795	15.94
277.263	10.24
277.731	28.84
278.2	50.64
278.668	52.94
279.136	40.94
279.604	18.44
280.072	12.44
280.54	12.84
281.008	7.04
281.477	10.54
281.945	14.74
282.413	5.94
282.881	16.24
283.348	10.94
283.816	15.24
284.284	17.24
284.752	20.14
285.22	14.04
285.688	17.34
286.156	15.64
286.623	44.34
287.091	50.14
287.559	28.24
288.026	16.54
288.494	15.24
288.962	11.24
289.429	10.84
289.897	16.44
290.364	15.94
290.832	18.04
291.3	19.04
291.767	20.14
292.234	19.24
292.702	9.44
293.169	14.84
293.637	25.34
294.104	20.34
294.571	9.44
295.039	12.74
295.506	9.14
295.973	12.54
296.44	14.24
296.908	18.74
297.375	15.84
297.842	20.04
298.309	16.74
298.776	11.14
299.243	20.54
299.71	15.14
300.177	20.44
300.644	25.24
301.111	18.24
301.578	22.84
302.045	16.04
302.512	25.44
302.979	22.24
303.446	20.64
303.913	20.94
304.379	20.04
304.846	28.24
305.313	26.34
305.78	19.14
306.246	19.44
306.713	26.94
307.18	21.94
307.646	27.74
308.113	27.14
308.579	25.44
309.046	22.14
309.512	19.74
309.979	20.64
310.445	27.44
310.912	29.54
311.378	36.14
311.845	22.74
312.311	24.74
312.777	28.44
313.244	35.84
313.71	38.04
314.176	28.44
314.642	34.24
315.109	28.84
315.575	33.14
316.041	39.44
316.507	35.74
316.973	36.44
317.439	32.24
317.905	33.04
318.371	29.64
318.837	30.14
319.303	30.24
319.769	29.24
320.235	34.54
320.701	38.24
321.167	36.64
321.633	32.34
322.099	37.74
322.564	43.64
323.03	44.14
323.496	36.24
323.962	39.74
324.427	32.94
324.893	39.54
325.359	35.44
325.824	30.94
326.29	33.64
326.755	42.14
327.221	39.24
327.686	39.24
328.152	42.14
328.617	36.84
329.083	47.44
329.548	46.34
330.014	45.44
330.479	44.64
330.944	37.94
331.41	46.34
331.875	46.74
332.34	41.34
332.805	42.24
333.271	41.74
333.736	43.74
334.201	49.44
334.666	51.44
335.131	50.74
335.596	43.34
336.061	48.34
336.526	39.34
336.991	53.94
337.456	57.74
337.921	41.94
338.386	44.84
338.851	42.54
339.316	47.34
339.781	44.14
340.246	52.14
340.711	40.94
341.175	46.44
341.64	42.14
342.105	50.04
342.569	53.34
343.034	63.84
343.499	54.14
343.963	53.04
344.428	63.74
344.893	59.34
345.357	65.44
345.822	59.34
346.286	67.54
346.751	74.24
347.215	65.04
347.679	75.54
348.144	92.34
348.608	83.54
349.073	71.64
349.537	74.94
350.001	79.54
350.465	88.24
350.93	81.64
351.394	74.34
351.858	72.84
352.322	88.34
352.786	80.94
353.25	101.24
353.715	114.84
354.179	95.64
354.643	121.94
355.107	123.04
355.571	108.54
356.035	97.74
356.498	113.44
356.962	122.94
357.426	131.34
357.89	120.24
358.354	93.54
358.818	81.54
359.281	78.04
359.745	77.84
360.209	77.24
360.673	77.54
361.136	76.94
361.6	78.84
362.064	78.64
362.527	84.24
362.991	86.34
363.454	74.74
363.918	77.64
364.381	68.34
364.845	84.24
365.308	82.74
365.772	83.44
366.235	85.34
366.698	76.34
367.162	83.64
367.625	90.84
368.088	82.94
368.552	87.74
369.015	79.44
369.478	94.14
369.941	97.04
370.404	96.44
370.867	103.54
371.331	104.44
371.794	114.84
372.257	100.94
372.72	111.14
373.183	106.84
373.646	100.84
374.109	104.54
374.572	106.04
375.035	102.24
375.497	113.34
375.96	106.64
376.423	101.04
376.886	118.44
377.349	112.24
377.811	103.04
378.274	108.34
378.737	109.14
379.199	108.34
379.662	109.74
380.125	111.24
380.587	107.64
381.05	121.74
381.512	126.74
381.975	134.24
382.437	123.74
382.9	129.44
383.362	129.74
383.825	133.74
384.287	145.64
384.75	137.04
385.212	138.64
385.674	132.54
386.136	133.54
386.599	126.44
387.061	130.34
387.523	125.14
387.985	133.14
388.447	145.34
388.91	141.44
389.372	156.54
389.834	155.84
390.296	142.54
390.758	161.44
391.22	174.04
391.682	207.14
392.144	288.94
392.606	233.34
393.068	167.84
393.529	168.04
393.991	155.14
394.453	146.44
394.915	158.34
395.377	186.24
395.838	218.04
396.3	149.94
396.762	135.34
397.224	132.54
397.685	132.04
398.147	129.14
398.608	125.84
399.07	128.94
399.531	137.44
399.993	144.64
400.454	156.94
400.916	142.14
401.377	140.24
401.839	146.84
402.3	157.64
402.762	164.44
403.223	186.84
403.684	170.24
404.145	161.84
404.607	164.44
405.068	167.84
405.529	169.84
405.99	188.44
406.451	176.44
406.913	175.64
407.374	163.24
407.835	160.14
408.296	167.84
408.757	168.84
409.218	190.04
409.679	182.54
410.14	171.24
410.601	171.24
411.062	186.64
411.522	195.84
411.983	192.74
412.444	177.84
412.905	176.04
413.366	186.54
413.826	198.84
414.287	215.84
414.748	254.54
415.208	237.94
415.669	217.74
416.13	208.64
416.59	197.54
417.051	208.84
417.511	214.44
417.972	236.04
418.432	250.64
418.893	286.34
419.353	252.24
419.814	194.44
420.274	183.04
420.734	178.04
421.195	194.54
421.655	197.64
422.115	199.44
422.576	193.74
423.036	190.84
423.496	208.04
423.956	215.44
424.416	225.44
424.876	266.94
425.336	263.64
425.797	255.24
426.257	254.94
426.717	242.14
427.177	232.54
427.637	224.84
428.097	234.64
428.556	252.54
429.016	272.54
429.476	267.94
429.936	274.54
430.396	280.84
430.856	295.14
431.315	324.84
431.775	349.24
432.235	378.84
432.694	357.54
433.154	370.44
433.614	391.74
434.073	338.64
434.533	290.84
434.993	271.74
435.452	280.84
435.912	297.44
436.371	293.34
436.83	280.74
437.29	271.54
437.749	250.24
438.209	246.74
438.668	278.84
439.127	285.94
439.587	256.44
440.046	244.64
440.505	254.04
440.964	278.74
441.424	322.64
441.883	314.44
442.342	263.14
442.801	223.44
443.26	215.44
443.719	225.54
444.178	218.84
444.637	218.24
445.096	222.74
445.555	215.94
446.014	226.64
446.473	230.44
446.932	231.64
447.391	221.64
447.849	230.74
448.308	215.64
448.767	224.04
449.226	236.04
449.685	227.54
450.143	247.74
450.602	231.14
451.061	223.94
451.519	237.04
451.978	225.24
452.436	236.34
452.895	244.94
453.353	253.84
453.812	241.44
454.27	246.74
454.729	234.94
455.187	234.34
455.646	240.84
456.104	244.74
456.562	267.44
457.021	270.04
457.479	257.04
457.937	268.64
458.395	262.54
458.854	254.14
459.312	255.14
459.77	274.04
460.228	251.94
460.686	239.44
461.144	246.14
461.602	242.04
462.06	247.44
462.518	254.24
462.976	252.44
463.434	256.84
463.892	266.04
464.35	273.64
464.808	289.14
465.266	265.54
465.724	264.14
466.181	268.94
466.639	267.54
467.097	286.34
467.555	303.54
468.012	291.24
468.47	302.44
468.928	326.94
469.385	340.04
469.843	339.84
470.3	350.04
470.758	364.94
471.215	387.34
471.673	400.14
472.13	403.64
472.588	427.04
473.045	370.04
473.503	367.04
473.96	392.44
474.417	398.24
474.875	429.14
475.332	472.74
475.789	456.74
476.246	465.04
476.704	480.14
477.161	513.04
477.618	523.64
478.075	549.94
478.532	611.34
478.989	683.04
479.446	807.84
479.903	766.94
480.36	808.34
480.817	853.74
481.274	957.94
481.731	1058.74
482.188	1153.94
482.645	1293.84
483.102	1393.14
483.558	1537.14
484.015	1588.34
484.472	1544.64
484.929	1509.24
485.385	1447.34
485.842	1416.24
486.299	1344.44
486.755	1282.64
487.212	1077.04
487.668	907.94
488.125	840.64
488.582	772.04
489.038	740.24
489.494	705.74
489.951	686.44
490.407	659.94
490.864	635.94
491.32	637.04
491.776	635.24
492.233	642.24
492.689	609.54
493.145	599.24
493.602	593.34
494.058	611.04
494.514	597.14
494.97	624.04
495.426	644.34
495.882	613.14
496.338	597.44
496.794	621.94
497.251	601.34
497.707	626.94
498.163	626.24
498.618	637.84
499.074	644.54
499.53	674.64
499.986	663.44
500.442	646.54
500.898	628.84
501.354	615.44
501.809	632.34
502.265	640.74
502.721	659.84
503.177	665.24
503.632	662.74
504.088	669.64
504.543	700.44
504.999	702.54
505.455	649.44
505.91	625.54
506.366	632.84
506.821	618.44
507.277	614.74
507.732	623.34
508.187	614.44
508.643	631.34
509.098	635.94
509.553	646.94
510.009	652.84
510.464	663.44
510.919	685.64
511.375	681.44
511.83	695.84
512.285	713.74
512.74	752.54
513.195	774.54
513.65	754.84
514.105	748.34
514.56	754.94
515.015	774.74
515.47	796.74
515.925	769.14
516.38	775.74
516.835	786.64
517.29	779.34
517.745	771.44
518.2	754.04
518.655	731.04
519.109	729.94
519.564	727.24
520.019	723.04
520.474	719.84
520.928	713.14
521.383	712.74
521.838	704.54
522.292	699.24
522.747	699.54
523.201	707.94
523.656	688.34
524.11	684.44
524.565	685.84
525.019	682.04
525.474	692.04
525.928	690.24
526.382	685.84
526.837	690.24
527.291	696.54
527.745	686.94
528.2	690.04
528.654	688.94
529.108	687.64
529.562	680.54
530.016	682.34
530.47	676.74
530.925	686.44
531.379	679.14
531.833	689.54
532.287	693.04
532.741	690.54
533.195	692.44
533.649	708.84
534.103	699.84
534.556	691.34
535.01	706.14
535.464	699.04
535.918	712.64
536.372	708.34
536.826	715.24
537.279	690.14
537.733	702.54
538.187	704.34
538.64	704.44
539.094	708.44
539.548	719.64
540.001	720.34
540.455	718.74
540.908	723.34
541.362	737.24
541.815	744.64
542.269	757.64
542.722	750.14
543.175	765.84
543.629	762.34
544.082	773.54
544.536	784.74
544.989	771.44
545.442	777.44
545.895	788.74
546.349	778.24
546.802	776.34
547.255	775.54
547.708	795.54
548.161	809.74
548.614	803.14
549.067	822.34
549.52	812.64
549.973	797.94
550.426	798.84
550.879	799.14
551.332	790.54
551.785	802.64
552.238	798.44
552.691	806.84
553.144	817.34
553.596	836.94
554.049	850.84
554.502	882.14
554.955	900.74
555.407	901.54
555.86	887.54
556.313	888.34
556.765	872.94
557.218	872.24
557.67	880.34
558.123	868.24
558.576	867.84
559.028	869.84
559.48	876.14
559.933	869.14
560.385	840.34
560.838	801.34
561.29	777.24
561.742	768.54
562.195	762.14
562.647	763.94
563.099	770.94
563.551	771.54
564.004	771.74
564.456	761.24
564.908	747.64
565.36	737.24
565.812	734.04
566.264	722.44
566.716	716.04
567.168	715.44
567.62	714.94
568.072	689.84
568.524	684.74
568.976	687.14
569.428	677.14
569.88	673.54
570.332	673.44
570.784	679.44
571.235	677.64
571.687	691.74
572.139	696.14
572.59	701.54
573.042	709.94
573.494	705.64
573.945	698.94
574.397	672.64
574.849	678.74
575.3	687.94
575.752	678.64
576.203	671.34
576.655	682.04
577.106	668.44
577.557	663.74
578.009	666.44
578.46	653.64
578.912	663.04
579.363	660.74
579.814	657.04
580.265	649.34
580.717	650.34
581.168	652.04
581.619	671.24
582.07	682.54
582.521	670.74
582.972	663.44
583.423	677.64
583.875	671.24
584.326	698.54
584.777	749.74
585.227	815.24
585.678	909.54
586.129	999.24
586.58	1082.64
587.031	1149.24
587.482	1294.74
587.933	1474.24
588.384	1283.84
588.834	981.54
589.285	802.54
589.736	779.54
590.186	768.74
590.637	761.24
591.088	735.24
591.538	729.64
591.989	717.14
592.439	719.34
592.89	715.14
593.34	704.84
593.791	710.54
594.241	692.94
594.692	714.54
595.142	698.34
595.593	697.24
596.043	703.04
596.493	703.34
596.943	709.64
597.394	711.24
597.844	714.74
598.294	728.84
598.744	747.44
599.195	773.84
599.645	811.94
600.095	854.44
600.545	908.34
600.995	948.24
601.445	1028.44
601.895	1079.64
602.345	1130.54
602.795	1109.54
603.245	1051.14
603.695	1003.34
604.145	949.14
604.594	909.84
605.044	849.44
605.494	794.94
605.944	741.14
606.393	744.54
606.843	719.44
607.293	725.34
607.743	731.44
608.192	742.84
608.642	755.54
609.091	765.34
609.541	764.84
609.99	769.64
610.44	760.44
610.889	725.94
611.339	696.84
611.788	682.74
612.238	700.84
612.687	718.24
613.136	723.34
613.586	733.54
614.035	740.94
614.484	752.64
614.933	755.44
615.383	749.14
615.832	740.54
616.281	715.44
616.73	687.64
617.179	662.44
617.628	651.94
618.077	624.54
618.526	612.54
618.975	618.44
619.424	611.24
619.873	610.54
620.322	613.74
620.771	609.84
621.22	604.94
621.669	585.94
622.118	586.34
622.567	583.04
623.015	564.64
623.464	563.64
623.913	561.64
624.361	556.84
624.81	548.34
625.259	547.74
625.707	554.24
626.156	551.24
626.604	572.94
627.053	551.84
627.501	562.74
627.95	563.74
628.398	578.04
628.847	563.84
629.295	564.74
629.744	568.44
630.192	566.64
630.64	566.94
631.089	568.64
631.537	581.94
631.985	588.04
632.433	611.24
632.881	611.64
633.33	662.44
633.778	650.04
634.226	560.44
634.674	568.14
635.122	581.34
635.57	602.04
636.018	631.34
636.466	587.34
636.914	550.24
637.362	571.04
637.81	574.04
638.258	582.24
638.705	582.94
639.153	601.24
639.601	615.54
640.049	642.74
640.497	671.54
640.944	685.14
641.392	641.84
641.84	613.54
642.287	583.94
642.735	571.94
643.182	564.44
643.63	573.24
644.078	584.64
644.525	596.24
644.973	589.64
645.42	595.84
645.867	617.64
646.315	643.84
646.762	656.94
647.21	692.74
647.657	702.94
648.104	754.14
648.551	766.24
648.999	834.94
649.446	914.74
649.893	1010.64
650.34	1161.74
650.787	1403.74
651.234	1745.24
651.682	2286.54
652.129	3136.24
652.576	4536.74
653.023	6694.24
653.47	9137.54
653.917	11315.24
654.363	13019.04
654.81	14322.04
655.257	13628.14
655.704	8926.84
656.151	5246.04
656.598	3389.64
657.044	2410.84
657.491	1865.74
657.938	1485.94
658.385	1246.74
658.831	1067.64
659.278	953.94
659.724	848.74
660.171	783.04
660.618	721.14
661.064	686.34
661.511	667.44
661.957	655.54
662.404	643.34
662.85	648.74
663.296	630.64
663.743	565.04
664.189	544.84
664.635	534.74
665.082	532.04
665.528	527.84
665.974	513.54
666.42	510.84
666.867	507.24
667.313	492.94
667.759	482.44
668.205	472.04
668.651	484.74
669.097	475.74
669.543	498.34
669.989	464.84
670.435	442.44
670.881	443.04
671.327	440.14
671.773	461.24
672.219	481.64
672.665	542.64
673.11	586.54
673.556	631.74
674.002	666.24
674.448	654.04
674.893	540.74
675.339	472.74
675.785	429.34
676.23	413.84
676.676	388.34
677.122	372.94
677.567	376.84
678.013	369.34
678.458	364.44
678.904	353.34
679.349	343.34
679.794	352.44
680.24	347.74
680.685	348.14
681.131	351.14
681.576	347.14
682.021	348.24
682.466	347.74
682.912	345.64
683.357	345.14
683.802	381.74
684.247	406.64
684.692	461.54
685.137	501.64
685.583	536.14
686.028	556.44
686.473	522.04
686.918	436.14
687.363	412.84
687.807	388.34
688.252	358.34
688.697	347.24
689.142	328.34
689.587	334.54
690.032	325.54
690.477	332.54
690.921	349.94
691.366	376.24
691.811	392.34
692.255	428.44
692.7	462.04
693.145	507.64
693.589	713.04
694.034	1145.24
694.478	1536.74
694.923	1726.04
695.367	2237.24
695.812	1172.24
696.256	489.44
696.701	367.94
697.145	347.74
697.59	336.84
698.034	322.34
698.478	332.84
698.922	316.54
699.367	334.54
699.811	345.84
700.255	360.74
700.699	385.94
701.143	422.44
701.588	472.24
702.032	513.24
702.476	510.64
702.92	483.54
703.364	498.84
703.808	642.84
704.252	1053.34
704.696	1456.64
705.14	1639.24
705.584	2107.04
706.027	1051.84
706.471	518.34
706.915	402.14
707.359	349.54
707.803	319.34
708.246	312.84
708.69	310.84
709.134	318.94
709.577	310.44
710.021	318.64
710.465	307.54
710.908	300.94
711.352	303.14
711.795	312.64
712.239	353.74
712.682	381.64
713.126	417.44
713.569	461.94
714.012	367.74
714.456	325.74
714.899	305.04
715.342	280.84
715.786	261.14
716.229	257.84
716.672	255.54
717.115	244.84
717.558	250.04
718.002	248.64
718.445	263.84
718.888	285.54
719.331	294.14
719.774	311.84
720.217	303.14
720.66	279.94
721.103	268.64
721.546	256.84
721.989	247.54
722.432	233.94
722.874	240.84
723.317	233.84
723.76	246.94
724.203	259.14
724.645	326.04
725.088	451.14
725.531	568.74
725.974	644.64
726.416	542.54
726.859	310.64
727.301	242.04
727.744	235.44
728.187	228.24
728.629	245.74
729.071	244.34
729.514	259.54
729.956	272.04
730.399	280.04
730.841	290.24
731.283	267.64
731.726	252.14
732.168	262.14
732.61	261.64
733.053	286.74
733.495	319.14
733.937	352.34
734.379	406.84
734.821	446.24
735.263	549.14
735.705	850.24
736.148	1609.64
736.59	2577.14
737.032	3003.84
737.474	2439.54
737.916	805.34
738.357	424.34
738.799	327.04
739.241	298.44
739.683	285.44
740.125	292.64
740.567	284.54
741.008	312.94
741.45	314.74
741.892	313.34
742.334	346.44
742.775	358.64
743.217	339.24
743.658	270.84
744.1	253.84
744.542	267.54
744.983	304.24
745.425	340.04
745.866	344.14
746.307	286.04
746.749	288.94
747.19	328.64
747.632	468.64
748.073	906.64
748.514	1901.74
748.956	2837.74
749.397	3567.34
749.838	2946.04
750.279	2900.24
750.72	1474.64
751.162	549.84
751.603	325.34
752.044	257.84
752.485	212.74
752.926	210.34
753.367	204.94
753.808	201.64
754.249	183.84
754.69	185.84
755.131	184.04
755.572	182.64
756.013	185.04
756.453	186.94
756.894	188.34
757.335	189.74
757.776	195.44
758.216	194.94
758.657	195.54
759.098	203.54
759.538	234.14
759.979	272.94
760.42	378.14
760.86	728.74
761.301	1881.34
761.741	4452.94
762.182	6268.04
762.622	4401.94
