Data from 20171114-ORNL-Ar_H_NY_Subt18_08-06-51-853.txt Node
Date: Tue Nov 14 08:06:51 EST 2017
User: Ender
Spectrometer: HR+D1039
Trigger mode: 0
Integration Time (sec): 2.730000E-2
Scans to average: 10
Electric dark correction enabled: true
Nonlinearity correction enabled: false
Boxcar width: 0
XAxis mode: Wavelengths
Number of Pixels in Spectrum: 2048
>>>>>Begin Spectral Data<<<<<
187.836	-5.26
188.309	-5.26
188.782	-5.26
189.255	2.34
189.728	-0.16
190.201	7.54
190.674	3.54
191.147	-0.06
191.619	-3.26
192.092	-0.16
192.565	4.64
193.038	-3.56
193.511	-1.26
193.984	3.04
194.456	-2.36
194.929	3.64
195.402	-2.16
195.874	-6.56
196.347	1.24
196.82	-6.26
197.292	0.34
197.765	0.34
198.237	-7.26
198.71	5.04
199.182	-3.56
199.655	-0.06
200.127	7.34
200.6	-1.86
201.072	-1.16
201.544	-6.26
202.017	-4.06
202.489	6.54
202.961	-3.96
203.433	-5.46
203.906	-4.66
204.378	-2.76
204.85	-3.46
205.322	-10.66
205.794	1.64
206.266	-0.46
206.739	-9.36
207.211	0.04
207.683	-11.06
208.155	-1.46
208.627	-1.66
209.099	-5.56
209.57	-5.86
210.042	-1.76
210.514	-2.86
210.986	-3.76
211.458	-8.86
211.93	-0.56
212.402	4.74
212.873	-4.16
213.345	-8.16
213.817	-11.76
214.288	-5.16
214.76	-5.76
215.232	-5.26
215.703	1.44
216.175	-4.36
216.646	-0.06
217.118	-4.46
217.589	-4.76
218.061	1.74
218.532	-2.06
219.004	1.34
219.475	-2.76
219.946	-5.16
220.418	-6.06
220.889	1.14
221.36	1.04
221.832	-4.16
222.303	-4.66
222.774	-2.06
223.245	-13.26
223.717	-7.06
224.188	-3.46
224.659	-8.06
225.13	-3.66
225.601	3.94
226.072	6.24
226.543	-1.26
227.014	-3.26
227.485	-2.36
227.956	-5.96
228.427	-2.26
228.898	1.74
229.369	0.44
229.839	-4.36
230.31	-2.26
230.781	2.84
231.252	-4.66
231.722	-6.56
232.193	-5.16
232.664	-6.66
233.135	0.44
233.605	1.44
234.076	-4.76
234.546	0.44
235.017	2.64
235.487	0.14
235.958	-2.56
236.428	-5.56
236.899	0.74
237.369	2.64
237.84	-0.66
238.31	3.44
238.78	-8.26
239.251	-3.56
239.721	-8.56
240.191	0.84
240.662	-6.56
241.132	1.64
241.602	-6.96
242.072	-3.06
242.542	4.54
243.013	-3.06
243.483	2.84
243.953	2.84
244.423	-2.86
244.893	-4.86
245.363	-1.86
245.833	-3.06
246.303	-4.16
246.773	4.74
247.243	6.64
247.712	4.54
248.182	5.34
248.652	4.24
249.122	-8.26
249.592	-2.16
250.061	-0.06
250.531	15.24
251.001	-4.26
251.471	6.84
251.94	8.64
252.41	-1.06
252.879	-4.36
253.349	10.84
253.818	5.04
254.288	4.04
254.757	-0.86
255.227	1.34
255.696	1.84
256.166	5.74
256.635	9.14
257.105	0.24
257.574	5.44
258.043	2.74
258.513	-1.96
258.982	6.24
259.451	-1.06
259.92	1.34
260.389	5.04
260.859	12.94
261.328	6.44
261.797	4.54
262.266	2.74
262.735	8.34
263.204	0.14
263.673	4.64
264.142	1.74
264.611	1.34
265.08	-5.06
265.549	0.24
266.018	-1.16
266.487	1.44
266.955	-5.26
267.424	-7.36
267.893	8.44
268.362	4.34
268.83	5.84
269.299	4.34
269.768	4.64
270.236	6.44
270.705	1.54
271.174	6.74
271.642	5.14
272.111	0.14
272.579	5.74
273.048	8.64
273.516	8.34
273.985	3.64
274.453	6.24
274.922	13.24
275.39	7.84
275.858	0.14
276.327	12.64
276.795	22.14
277.263	2.84
277.731	14.74
278.2	16.34
278.668	7.94
279.136	11.24
279.604	8.84
280.072	12.34
280.54	8.84
281.008	8.24
281.477	12.74
281.945	7.34
282.413	15.14
282.881	19.64
283.348	2.64
283.816	11.74
284.284	10.04
284.752	22.84
285.22	12.14
285.688	6.64
286.156	10.04
286.623	21.24
287.091	13.04
287.559	11.64
288.026	11.54
288.494	18.14
288.962	-2.56
289.429	6.54
289.897	20.34
290.364	15.34
290.832	12.94
291.3	11.14
291.767	11.04
292.234	12.74
292.702	14.64
293.169	17.54
293.637	14.74
294.104	20.84
294.571	11.04
295.039	11.04
295.506	8.84
295.973	17.04
296.44	17.64
296.908	10.54
297.375	13.24
297.842	16.34
298.309	16.04
298.776	8.54
299.243	18.24
299.71	12.34
300.177	17.84
300.644	18.14
301.111	14.84
301.578	24.84
302.045	10.04
302.512	14.64
302.979	20.84
303.446	21.54
303.913	20.94
304.379	16.24
304.846	19.54
305.313	16.94
305.78	18.44
306.246	25.14
306.713	23.34
307.18	21.14
307.646	19.04
308.113	24.54
308.579	18.94
309.046	25.24
309.512	25.84
309.979	14.14
310.445	23.94
310.912	22.04
311.378	32.84
311.845	30.04
312.311	34.24
312.777	32.94
313.244	28.64
313.71	32.84
314.176	27.94
314.642	24.84
315.109	28.44
315.575	33.54
316.041	34.14
316.507	27.44
316.973	33.94
317.439	28.54
317.905	33.14
318.371	31.34
318.837	30.34
319.303	24.64
319.769	30.74
320.235	32.94
320.701	30.24
321.167	34.44
321.633	28.64
322.099	34.54
322.564	38.14
323.03	40.54
323.496	33.84
323.962	40.94
324.427	39.74
324.893	40.64
325.359	41.74
325.824	31.84
326.29	32.64
326.755	35.54
327.221	45.04
327.686	38.74
328.152	44.04
328.617	42.34
329.083	42.84
329.548	50.74
330.014	45.54
330.479	35.54
330.944	39.54
331.41	42.24
331.875	45.64
332.34	43.14
332.805	46.54
333.271	38.64
333.736	37.84
334.201	49.54
334.666	56.14
335.131	50.54
335.596	45.34
336.061	43.34
336.526	38.84
336.991	49.24
337.456	51.64
337.921	43.94
338.386	42.54
338.851	44.74
339.316	43.24
339.781	43.74
340.246	50.94
340.711	45.84
341.175	52.54
341.64	36.84
342.105	51.14
342.569	52.74
343.034	53.14
343.499	54.44
343.963	48.84
344.428	64.64
344.893	59.44
345.357	61.74
345.822	57.14
346.286	62.74
346.751	64.44
347.215	64.54
347.679	70.94
348.144	87.44
348.608	72.24
349.073	60.64
349.537	71.64
350.001	75.94
350.465	83.44
350.93	77.64
351.394	73.84
351.858	67.34
352.322	81.94
352.786	78.94
353.25	92.54
353.715	100.84
354.179	91.84
354.643	111.94
355.107	113.54
355.571	102.84
356.035	86.64
356.498	107.04
356.962	107.54
357.426	120.84
357.89	106.14
358.354	79.64
358.818	79.44
359.281	79.04
359.745	69.94
360.209	73.94
360.673	72.24
361.136	72.04
361.6	78.24
362.064	85.14
362.527	83.94
362.991	89.84
363.454	77.04
363.918	74.94
364.381	81.14
364.845	79.84
365.308	85.54
365.772	82.64
366.235	83.84
366.698	80.84
367.162	87.14
367.625	77.04
368.088	85.94
368.552	91.04
369.015	84.04
369.478	95.54
369.941	95.34
370.404	90.14
370.867	96.24
371.331	100.64
371.794	99.94
372.257	97.94
372.72	107.04
373.183	99.24
373.646	96.24
374.109	94.94
374.572	96.54
375.035	101.84
375.497	97.34
375.96	102.74
376.423	99.94
376.886	112.44
377.349	108.04
377.811	97.34
378.274	100.64
378.737	101.54
379.199	107.04
379.662	107.64
380.125	110.14
380.587	104.34
381.05	107.04
381.512	109.94
381.975	121.94
382.437	115.74
382.9	115.44
383.362	130.64
383.825	124.14
384.287	120.74
384.75	119.84
385.212	120.94
385.674	133.94
386.136	134.44
386.599	126.84
387.061	121.84
387.523	118.64
387.985	128.54
388.447	136.64
388.91	131.34
389.372	135.84
389.834	130.04
390.296	124.64
390.758	133.34
391.22	135.14
391.682	151.24
392.144	158.44
392.606	154.44
393.068	144.04
393.529	155.74
393.991	141.04
394.453	133.74
394.915	139.04
395.377	136.94
395.838	144.34
396.3	138.64
396.762	143.44
397.224	128.94
397.685	131.94
398.147	136.74
398.608	135.34
399.07	130.14
399.531	140.94
399.993	149.44
400.454	158.54
400.916	151.94
401.377	146.54
401.839	157.24
402.3	155.94
402.762	163.94
403.223	182.94
403.684	173.74
404.145	161.74
404.607	163.14
405.068	163.84
405.529	166.34
405.99	188.54
406.451	179.64
406.913	175.44
407.374	172.64
407.835	164.64
408.296	171.84
408.757	173.64
409.218	191.24
409.679	187.14
410.14	173.14
410.601	183.54
411.062	178.74
411.522	180.24
411.983	178.44
412.444	174.94
412.905	188.34
413.366	191.34
413.826	208.04
414.287	234.64
414.748	280.44
415.208	268.94
415.669	223.84
416.13	216.74
416.59	210.64
417.051	226.14
417.511	228.14
417.972	255.24
418.432	260.24
418.893	306.74
419.353	262.34
419.814	207.94
420.274	193.74
420.734	193.64
421.195	204.04
421.655	195.64
422.115	199.04
422.576	198.34
423.036	209.24
423.496	218.54
423.956	223.44
424.416	242.24
424.876	280.74
425.336	274.34
425.797	270.84
426.257	266.94
426.717	249.34
427.177	243.94
427.637	230.34
428.097	239.84
428.556	249.24
429.016	272.94
429.476	263.84
429.936	274.44
430.396	286.54
430.856	292.44
431.315	308.54
431.775	349.94
432.235	377.54
432.694	349.34
433.154	354.44
433.614	391.94
434.073	335.84
434.533	288.54
434.993	274.34
435.452	297.64
435.912	300.14
436.371	297.54
436.83	289.14
437.29	268.44
437.749	251.44
438.209	254.54
438.668	280.34
439.127	295.64
439.587	269.64
440.046	261.94
440.505	274.14
440.964	289.34
441.424	339.34
441.883	318.14
442.342	275.94
442.801	238.84
443.26	233.44
443.719	233.04
444.178	235.34
444.637	227.14
445.096	235.84
445.555	234.54
446.014	239.54
446.473	238.04
446.932	247.14
447.391	247.14
447.849	244.54
448.308	233.64
448.767	241.44
449.226	244.94
449.685	253.94
450.143	265.04
450.602	257.44
451.061	240.84
451.519	247.24
451.978	247.04
452.436	254.54
452.895	259.24
453.353	267.34
453.812	253.34
454.27	252.44
454.729	258.64
455.187	252.34
455.646	260.84
456.104	265.44
456.562	276.64
457.021	281.14
457.479	278.64
457.937	288.34
458.395	279.54
458.854	267.24
459.312	275.34
459.77	286.34
460.228	272.24
460.686	262.64
461.144	275.04
461.602	267.64
462.06	257.04
462.518	270.04
462.976	274.64
463.434	281.14
463.892	285.54
464.35	294.54
464.808	304.24
465.266	292.24
465.724	289.34
466.181	300.04
466.639	281.94
467.097	310.14
467.555	314.54
468.012	319.94
468.47	328.84
468.928	348.54
469.385	360.54
469.843	373.14
470.3	371.24
470.758	378.14
471.215	403.34
471.673	430.14
472.13	435.54
472.588	437.34
473.045	397.04
473.503	410.64
473.96	417.04
474.417	433.94
474.875	459.04
475.332	497.34
475.789	482.24
476.246	491.84
476.704	511.24
477.161	540.24
477.618	550.24
478.075	592.24
478.532	648.14
478.989	712.94
479.446	821.34
479.903	788.94
480.36	821.44
480.817	876.74
481.274	969.84
481.731	1065.24
482.188	1145.44
482.645	1264.14
483.102	1353.94
483.558	1481.14
484.015	1525.04
484.472	1482.04
484.929	1455.54
485.385	1418.54
485.842	1387.44
486.299	1339.94
486.755	1287.14
487.212	1088.64
487.668	941.44
488.125	868.94
488.582	804.54
489.038	774.74
489.494	743.44
489.951	713.04
490.407	706.34
490.864	676.44
491.32	671.24
491.776	672.54
492.233	675.74
492.689	651.64
493.145	636.44
493.602	633.64
494.058	650.04
494.514	658.34
494.97	671.84
495.426	684.54
495.882	650.24
496.338	638.04
496.794	662.34
497.251	655.94
497.707	669.24
498.163	673.34
498.618	679.54
499.074	677.04
499.53	711.24
499.986	713.04
500.442	681.84
500.898	668.34
501.354	654.84
501.809	665.24
502.265	670.54
502.721	669.54
503.177	674.34
503.632	679.34
504.088	692.04
504.543	711.84
504.999	732.34
505.455	696.34
505.91	680.84
506.366	679.44
506.821	674.24
507.277	680.74
507.732	676.94
508.187	673.14
508.643	683.74
509.098	688.94
509.553	703.84
510.009	713.24
510.464	723.54
510.919	735.94
511.375	740.64
511.83	759.04
512.285	767.44
512.74	801.34
513.195	834.14
513.65	824.24
514.105	813.44
514.56	816.24
515.015	845.04
515.47	841.44
515.925	823.14
516.38	839.84
516.835	843.54
517.29	834.34
517.745	818.44
518.2	813.74
518.655	799.54
519.109	788.84
519.564	788.54
520.019	785.54
520.474	775.34
520.928	781.74
521.383	766.84
521.838	762.34
522.292	773.44
522.747	756.84
523.201	753.64
523.656	746.84
524.11	746.84
524.565	744.54
525.019	733.44
525.474	745.04
525.928	739.34
526.382	747.14
526.837	751.74
527.291	756.84
527.745	743.44
528.2	743.44
528.654	738.34
529.108	729.14
529.562	744.24
530.016	743.84
530.47	735.64
530.925	733.24
531.379	737.64
531.833	738.54
532.287	741.94
532.741	742.84
533.195	754.84
533.649	760.04
534.103	766.74
534.556	749.94
535.01	748.44
535.464	750.24
535.918	760.34
536.372	765.54
536.826	760.94
537.279	755.34
537.733	764.04
538.187	760.24
538.64	758.24
539.094	761.64
539.548	780.14
540.001	773.84
540.455	770.44
540.908	783.04
541.362	794.34
541.815	785.84
542.269	800.04
542.722	796.34
543.175	820.94
543.629	825.94
544.082	837.34
544.536	842.74
544.989	840.44
545.442	835.24
545.895	840.74
546.349	846.54
546.802	837.24
547.255	849.74
547.708	863.14
548.161	874.44
548.614	875.54
549.067	878.54
549.52	870.64
549.973	869.24
550.426	876.24
550.879	855.64
551.332	862.44
551.785	869.64
552.238	855.64
552.691	880.04
553.144	898.14
553.596	907.94
554.049	913.64
554.502	943.74
554.955	982.94
555.407	972.64
555.86	964.34
556.313	954.94
556.765	942.44
557.218	943.54
557.67	940.74
558.123	947.04
558.576	931.64
559.028	940.34
559.48	950.84
559.933	939.54
560.385	886.04
560.838	868.84
561.29	855.04
561.742	847.24
562.195	823.14
562.647	813.34
563.099	836.34
563.551	822.04
564.004	833.84
564.456	830.14
564.908	812.24
565.36	791.74
565.812	770.24
566.264	767.34
566.716	756.14
567.168	744.34
567.62	762.44
568.072	744.84
568.524	739.84
568.976	738.04
569.428	724.94
569.88	724.84
570.332	733.14
570.784	735.24
571.235	736.24
571.687	742.44
572.139	753.14
572.59	763.04
573.042	762.64
573.494	762.64
573.945	750.04
574.397	742.54
574.849	737.44
575.3	741.54
575.752	731.74
576.203	726.04
576.655	735.94
577.106	707.14
577.557	710.84
578.009	709.44
578.46	708.84
578.912	710.84
579.363	713.04
579.814	707.54
580.265	711.24
580.717	716.24
581.168	709.54
581.619	719.84
582.07	723.84
582.521	716.94
582.972	708.04
583.423	724.04
583.875	725.14
584.326	723.74
584.777	744.04
585.227	765.94
585.678	776.54
586.129	794.04
586.58	826.04
587.031	855.44
587.482	885.24
587.933	928.34
588.384	896.84
588.834	842.14
589.285	819.44
589.736	828.64
590.186	817.04
590.637	813.34
591.088	787.14
591.538	786.74
591.989	768.24
592.439	765.34
592.89	751.94
593.34	746.64
593.791	738.04
594.241	736.44
594.692	746.54
595.142	743.94
595.593	733.74
596.043	737.64
596.493	745.24
596.943	739.24
597.394	762.64
597.844	754.54
598.294	780.24
598.744	812.34
599.195	825.04
599.645	864.84
600.095	917.24
600.545	983.44
600.995	1028.64
601.445	1079.64
601.895	1146.04
602.345	1203.84
602.795	1183.64
603.245	1140.84
603.695	1072.94
604.145	1016.34
604.594	970.24
605.044	922.24
605.494	853.44
605.944	803.34
606.393	791.24
606.843	771.34
607.293	774.04
607.743	768.24
608.192	771.24
608.642	798.74
609.091	807.44
609.541	812.04
609.99	800.74
610.44	807.94
610.889	750.34
611.339	736.94
611.788	721.94
612.238	732.24
612.687	738.64
613.136	726.34
613.586	743.44
614.035	737.94
614.484	750.34
614.933	751.64
615.383	747.04
615.832	743.14
616.281	733.94
616.73	715.54
617.179	682.44
617.628	667.64
618.077	663.34
618.526	660.34
618.975	654.64
619.424	647.24
619.873	648.24
620.322	652.74
620.771	634.94
621.22	630.14
621.669	629.64
622.118	623.14
622.567	617.04
623.015	601.04
623.464	596.74
623.913	573.64
624.361	583.14
624.81	574.14
625.259	577.54
625.707	586.24
626.156	598.34
626.604	602.24
627.053	598.64
627.501	598.44
627.95	599.64
628.398	611.74
628.847	596.64
629.295	606.84
629.744	603.44
630.192	601.54
630.64	583.24
631.089	576.34
631.537	565.64
631.985	559.94
632.433	558.24
632.881	555.24
633.33	567.24
633.778	558.24
634.226	553.14
634.674	572.14
635.122	577.94
635.57	588.84
636.018	596.54
636.466	599.14
636.914	583.14
637.362	602.04
637.81	601.04
638.258	609.94
638.705	613.14
639.153	644.44
639.601	648.44
640.049	673.54
640.497	704.54
640.944	725.44
641.392	678.74
641.84	641.94
642.287	606.94
642.735	586.64
643.182	589.84
643.63	588.94
644.078	590.14
644.525	600.44
644.973	611.84
645.42	617.04
645.867	638.34
646.315	664.94
646.762	678.04
647.21	716.94
647.657	738.54
648.104	763.34
648.551	786.04
648.999	840.44
649.446	917.84
649.893	999.04
650.34	1150.04
650.787	1364.94
651.234	1670.64
651.682	2161.24
652.129	2921.74
652.576	4154.44
653.023	6050.74
653.47	8203.44
653.917	10228.04
654.363	11751.44
654.81	12955.84
655.257	12293.04
655.704	8163.94
656.151	4928.94
656.598	3236.54
657.044	2313.14
657.491	1801.94
657.938	1453.44
658.385	1226.04
658.831	1074.64
659.278	965.34
659.724	858.14
660.171	796.74
660.618	737.34
661.064	701.34
661.511	688.24
661.957	676.74
662.404	656.44
662.85	674.04
663.296	645.34
663.743	575.04
664.189	554.64
664.635	552.54
665.082	548.54
665.528	553.64
665.974	538.84
666.42	534.84
666.867	536.44
667.313	502.44
667.759	488.24
668.205	471.84
668.651	474.54
669.097	473.14
669.543	466.14
669.989	454.34
670.435	460.34
670.881	467.44
671.327	475.44
671.773	494.34
672.219	519.14
672.665	577.54
673.11	615.94
673.556	661.24
674.002	709.34
674.448	688.54
674.893	583.04
675.339	507.94
675.785	470.74
676.23	444.84
676.676	426.84
677.122	404.94
677.567	401.24
678.013	382.44
678.458	381.74
678.904	382.64
679.349	374.64
679.794	376.54
680.24	368.64
680.685	367.54
681.131	365.34
681.576	379.54
682.021	376.44
682.466	369.74
682.912	362.94
683.357	379.34
683.802	400.34
684.247	440.74
684.692	469.84
685.137	522.64
685.583	562.94
686.028	585.14
686.473	542.84
686.918	478.94
687.363	439.94
687.807	420.04
688.252	391.44
688.697	378.34
689.142	360.04
689.587	355.04
690.032	350.54
690.477	361.04
690.921	370.34
691.366	403.54
691.811	424.54
692.255	456.34
692.7	485.14
693.145	533.84
693.589	740.14
694.034	1207.14
694.478	1636.84
694.923	1836.94
695.367	2399.64
695.812	1265.44
696.256	529.04
696.701	396.74
697.145	364.74
697.59	353.44
698.034	340.34
698.478	343.84
698.922	335.74
699.367	338.04
699.811	349.24
700.255	370.54
700.699	393.54
701.143	445.64
701.588	502.44
702.032	540.04
702.476	543.84
702.92	514.34
703.364	517.64
703.808	678.14
704.252	1107.74
704.696	1545.14
705.14	1769.34
705.584	2255.94
706.027	1125.44
706.471	553.24
706.915	423.14
707.359	372.64
707.803	344.44
708.246	330.94
708.69	327.34
709.134	334.94
709.577	329.14
710.021	329.64
710.465	318.74
710.908	315.64
711.352	321.14
711.795	323.84
712.239	359.14
712.682	407.04
713.126	434.74
713.569	479.24
714.012	373.84
714.456	315.64
714.899	309.64
715.342	292.04
715.786	277.04
716.229	269.54
716.672	271.74
717.115	260.64
717.558	266.14
718.002	266.84
718.445	277.54
718.888	299.34
719.331	308.74
719.774	318.44
720.217	321.94
720.66	298.84
721.103	276.74
721.546	269.44
721.989	262.74
722.432	251.14
722.874	252.14
723.317	240.74
723.76	247.64
724.203	265.34
724.645	332.64
725.088	469.44
725.531	598.14
725.974	669.84
726.416	573.74
726.859	321.54
727.301	265.54
727.744	246.24
728.187	248.94
728.629	259.34
729.071	264.24
729.514	267.84
729.956	284.84
730.399	298.54
730.841	307.94
731.283	288.84
731.726	282.74
732.168	268.34
732.61	289.84
733.053	310.14
733.495	330.04
733.937	372.24
734.379	424.14
734.821	458.24
735.263	565.44
735.705	892.04
736.148	1677.24
736.59	2760.04
737.032	3252.44
737.474	2651.24
737.916	856.94
738.357	452.64
738.799	345.44
739.241	314.64
739.683	301.04
740.125	309.74
740.567	318.54
741.008	334.14
741.45	332.64
741.892	338.54
742.334	369.54
742.775	383.84
743.217	362.94
743.658	291.44
744.1	267.74
744.542	277.14
744.983	331.94
745.425	370.94
745.866	367.24
746.307	299.24
746.749	289.84
747.19	346.34
747.632	489.34
748.073	945.84
748.514	1983.24
748.956	3029.84
749.397	3812.84
749.838	3159.04
750.279	3157.84
750.72	1592.94
751.162	574.44
751.603	347.34
752.044	273.04
752.485	231.34
752.926	223.64
753.367	218.34
753.808	209.64
754.249	206.64
754.69	197.74
755.131	194.64
755.572	187.04
756.013	193.04
756.453	197.34
756.894	202.64
757.335	200.74
757.776	207.24
758.216	208.94
758.657	206.14
759.098	216.94
759.538	239.44
759.979	288.84
760.42	398.04
760.86	750.94
761.301	1957.74
761.741	4711.54
762.182	6796.64
762.622	4820.64
763.063	1401.34
