Data from 20171114-ORNL-Ar_H_NY_Subt18_08-06-57-313.txt Node
Date: Tue Nov 14 08:06:57 EST 2017
User: Ender
Spectrometer: HR+D1039
Trigger mode: 0
Integration Time (sec): 2.730000E-2
Scans to average: 10
Electric dark correction enabled: true
Nonlinearity correction enabled: false
Boxcar width: 0
XAxis mode: Wavelengths
Number of Pixels in Spectrum: 2048
>>>>>Begin Spectral Data<<<<<
187.836	-6.43
188.309	-6.43
188.782	-6.43
189.255	2.77
189.728	-4.93
190.201	4.87
190.674	0.77
191.147	0.57
191.619	-6.03
192.092	0.57
192.565	5.07
193.038	-2.43
193.511	1.57
193.984	2.27
194.456	0.77
194.929	4.97
195.402	-5.23
195.874	0.77
196.347	1.17
196.82	-0.33
197.292	0.17
197.765	-1.03
198.237	-3.23
198.71	4.97
199.182	-1.23
199.655	2.77
200.127	5.27
200.6	-1.73
201.072	-5.43
201.544	-4.13
202.017	-4.23
202.489	5.97
202.961	-0.83
203.433	-7.73
203.906	-2.53
204.378	-9.33
204.85	-2.73
205.322	-7.13
205.794	-4.53
206.266	-6.53
206.739	-5.43
207.211	2.77
207.683	-3.53
208.155	-7.93
208.627	-8.83
209.099	-1.33
209.57	-10.43
210.042	-3.93
210.514	-6.43
210.986	2.57
211.458	-10.53
211.93	0.97
212.402	0.47
212.873	-8.53
213.345	-9.73
213.817	-14.93
214.288	-5.73
214.76	-9.83
215.232	-0.13
215.703	-7.33
216.175	-3.43
216.646	-4.63
217.118	-8.03
217.589	-4.63
218.061	-2.33
218.532	-5.63
219.004	-9.33
219.475	-5.03
219.946	-1.33
220.418	-4.23
220.889	4.67
221.36	4.47
221.832	2.87
222.303	-3.33
222.774	-0.63
223.245	-12.83
223.717	-10.13
224.188	-9.23
224.659	-6.93
225.13	-6.83
225.601	-6.53
226.072	1.57
226.543	1.37
227.014	-1.23
227.485	-6.03
227.956	-3.43
228.427	-5.63
228.898	2.17
229.369	0.37
229.839	-7.83
230.31	-8.03
230.781	4.87
231.252	-4.33
231.722	-10.73
232.193	1.17
232.664	-7.03
233.135	-2.13
233.605	-2.53
234.076	-5.93
234.546	-2.73
235.017	0.47
235.487	-9.83
235.958	-2.43
236.428	-4.53
236.899	-6.93
237.369	-4.43
237.84	-3.03
238.31	-8.33
238.78	-2.23
239.251	-9.03
239.721	-3.43
240.191	-3.63
240.662	-3.63
241.132	-3.83
241.602	-7.03
242.072	-3.43
242.542	4.37
243.013	-2.83
243.483	3.57
243.953	0.17
244.423	-0.03
244.893	-10.43
245.363	-7.43
245.833	0.87
246.303	-4.53
246.773	7.57
247.243	-2.73
247.712	-1.73
248.182	3.17
248.652	0.87
249.122	-8.83
249.592	0.87
250.061	0.37
250.531	9.97
251.001	-1.53
251.471	5.97
251.94	5.67
252.41	-2.63
252.879	-3.43
253.349	4.57
253.818	5.67
254.288	2.87
254.757	-1.23
255.227	-2.33
255.696	0.47
256.166	0.27
256.635	3.77
257.105	-2.63
257.574	-2.43
258.043	1.87
258.513	-4.73
258.982	5.67
259.451	0.27
259.92	-4.73
260.389	-3.03
260.859	6.97
261.328	-4.33
261.797	2.37
262.266	-3.33
262.735	5.47
263.204	4.17
263.673	0.57
264.142	1.97
264.611	-7.33
265.08	-1.33
265.549	1.17
266.018	1.87
266.487	-3.63
266.955	-2.93
267.424	-2.53
267.893	5.97
268.362	-5.93
268.83	0.97
269.299	7.97
269.768	2.77
270.236	-1.83
270.705	0.07
271.174	-0.23
271.642	4.77
272.111	8.27
272.579	0.17
273.048	0.57
273.516	-0.73
273.985	5.37
274.453	-2.53
274.922	14.47
275.39	6.27
275.858	-4.83
276.327	6.27
276.795	11.77
277.263	5.97
277.731	9.27
278.2	8.17
278.668	11.27
279.136	6.87
279.604	-0.23
280.072	7.37
280.54	8.37
281.008	2.77
281.477	6.97
281.945	4.87
282.413	13.87
282.881	12.47
283.348	-0.13
283.816	13.97
284.284	8.57
284.752	13.37
285.22	6.77
285.688	10.77
286.156	8.17
286.623	14.77
287.091	6.27
287.559	10.07
288.026	5.57
288.494	6.87
288.962	4.07
289.429	7.47
289.897	12.97
290.364	9.87
290.832	15.97
291.3	9.57
291.767	13.47
292.234	11.87
292.702	10.07
293.169	13.37
293.637	19.57
294.104	16.77
294.571	3.57
295.039	5.47
295.506	11.07
295.973	10.77
296.44	10.07
296.908	7.87
297.375	14.57
297.842	18.27
298.309	10.37
298.776	10.17
299.243	17.07
299.71	5.67
300.177	17.07
300.644	13.67
301.111	10.67
301.578	12.67
302.045	11.17
302.512	19.07
302.979	20.87
303.446	15.27
303.913	10.47
304.379	12.77
304.846	20.37
305.313	15.67
305.78	18.37
306.246	24.67
306.713	19.67
307.18	21.77
307.646	19.47
308.113	16.27
308.579	14.47
309.046	15.17
309.512	21.67
309.979	18.47
310.445	23.07
310.912	23.47
311.378	21.27
311.845	14.47
312.311	26.67
312.777	26.07
313.244	26.57
313.71	29.77
314.176	23.97
314.642	25.97
315.109	23.47
315.575	30.27
316.041	26.97
316.507	19.37
316.973	28.77
317.439	25.67
317.905	27.97
318.371	30.37
318.837	23.57
319.303	28.97
319.769	28.87
320.235	24.07
320.701	34.37
321.167	29.87
321.633	25.37
322.099	34.97
322.564	36.47
323.03	26.27
323.496	30.07
323.962	32.97
324.427	28.47
324.893	34.37
325.359	25.37
325.824	35.47
326.29	26.27
326.755	33.87
327.221	32.67
327.686	34.87
328.152	39.87
328.617	33.87
329.083	35.57
329.548	45.27
330.014	46.47
330.479	30.67
330.944	38.07
331.41	35.07
331.875	38.67
332.34	35.57
332.805	31.67
333.271	42.37
333.736	33.37
334.201	38.07
334.666	49.97
335.131	43.77
335.596	39.27
336.061	42.87
336.526	31.47
336.991	32.37
337.456	49.27
337.921	41.87
338.386	35.67
338.851	33.77
339.316	38.67
339.781	42.17
340.246	47.47
340.711	39.67
341.175	40.37
341.64	39.87
342.105	49.07
342.569	47.37
343.034	53.07
343.499	49.57
343.963	46.77
344.428	57.47
344.893	49.77
345.357	47.57
345.822	54.87
346.286	61.57
346.751	58.17
347.215	52.97
347.679	64.37
348.144	78.87
348.608	73.27
349.073	60.37
349.537	64.47
350.001	65.87
350.465	78.77
350.93	71.77
351.394	70.57
351.858	61.07
352.322	83.37
352.786	74.17
353.25	84.47
353.715	92.77
354.179	88.37
354.643	105.67
355.107	102.47
355.571	89.27
356.035	82.67
356.498	94.97
356.962	99.97
357.426	110.17
357.89	98.27
358.354	75.27
358.818	78.07
359.281	72.97
359.745	67.87
360.209	65.07
360.673	64.97
361.136	76.97
361.6	80.57
362.064	70.97
362.527	71.87
362.991	78.17
363.454	73.17
363.918	68.87
364.381	71.47
364.845	76.17
365.308	76.97
365.772	80.37
366.235	82.07
366.698	72.97
367.162	73.67
367.625	70.47
368.088	81.47
368.552	79.37
369.015	77.97
369.478	84.17
369.941	84.67
370.404	76.37
370.867	87.37
371.331	89.87
371.794	96.77
372.257	92.87
372.72	94.17
373.183	91.67
373.646	78.17
374.109	86.97
374.572	92.27
375.035	92.47
375.497	99.47
375.96	99.87
376.423	98.67
376.886	104.07
377.349	101.37
377.811	93.37
378.274	91.27
378.737	94.47
379.199	105.47
379.662	96.67
380.125	97.17
380.587	96.17
381.05	96.57
381.512	107.27
381.975	107.47
382.437	108.87
382.9	106.17
383.362	109.07
383.825	121.07
384.287	115.87
384.75	111.37
385.212	119.07
385.674	117.17
386.136	120.27
386.599	112.77
387.061	116.77
387.523	119.47
387.985	117.87
388.447	120.17
388.91	111.97
389.372	117.77
389.834	126.97
390.296	124.37
390.758	122.27
391.22	131.17
391.682	139.37
392.144	142.57
392.606	132.37
393.068	131.77
393.529	141.07
393.991	131.07
394.453	126.77
394.915	123.87
395.377	124.87
395.838	124.57
396.3	130.07
396.762	136.17
397.224	131.37
397.685	123.87
398.147	127.07
398.608	119.27
399.07	129.17
399.531	134.97
399.993	136.07
400.454	144.37
400.916	143.87
401.377	139.07
401.839	144.37
402.3	141.37
402.762	161.27
403.223	164.97
403.684	157.87
404.145	153.47
404.607	156.47
405.068	151.97
405.529	165.37
405.99	174.47
406.451	164.27
406.913	171.27
407.374	164.17
407.835	157.07
408.296	157.67
408.757	168.77
409.218	177.57
409.679	173.27
410.14	168.27
410.601	176.77
411.062	174.37
411.522	173.97
411.983	170.77
412.444	175.57
412.905	181.27
413.366	178.67
413.826	189.97
414.287	214.87
414.748	252.37
415.208	241.17
415.669	211.77
416.13	206.47
416.59	203.87
417.051	212.67
417.511	215.77
417.972	234.77
418.432	244.97
418.893	292.27
419.353	252.07
419.814	194.97
420.274	179.97
420.734	182.27
421.195	200.57
421.655	191.57
422.115	193.87
422.576	194.77
423.036	197.77
423.496	206.97
423.956	211.77
424.416	230.47
424.876	264.87
425.336	255.87
425.797	262.87
426.257	244.37
426.717	232.37
427.177	226.57
427.637	217.07
428.097	234.77
428.556	246.07
429.016	269.27
429.476	250.67
429.936	255.87
430.396	270.07
430.856	284.97
431.315	302.67
431.775	338.07
432.235	373.27
432.694	336.07
433.154	348.87
433.614	377.17
434.073	326.47
434.533	282.07
434.993	258.47
435.452	271.87
435.912	288.77
436.371	278.27
436.83	274.27
437.29	258.97
437.749	247.47
438.209	245.67
438.668	271.37
439.127	286.17
439.587	265.37
440.046	248.47
440.505	261.07
440.964	281.37
441.424	311.47
441.883	307.37
442.342	255.77
442.801	232.77
443.26	221.47
443.719	229.57
444.178	222.87
444.637	216.57
445.096	228.67
445.555	230.17
446.014	226.67
446.473	225.57
446.932	230.97
447.391	220.27
447.849	234.67
448.308	224.17
448.767	231.97
449.226	243.47
449.685	239.47
450.143	261.47
450.602	247.07
451.061	232.77
451.519	239.17
451.978	236.97
452.436	240.57
452.895	245.47
453.353	256.57
453.812	246.77
454.27	249.27
454.729	245.17
455.187	246.47
455.646	249.27
456.104	259.17
456.562	266.37
457.021	279.07
457.479	262.87
457.937	283.47
458.395	263.87
458.854	261.37
459.312	267.17
459.77	272.87
460.228	270.07
460.686	255.07
461.144	255.97
461.602	248.77
462.06	250.67
462.518	269.97
462.976	263.57
463.434	264.97
463.892	268.57
464.35	279.87
464.808	290.47
465.266	271.97
465.724	281.97
466.181	280.87
466.639	284.27
467.097	295.27
467.555	310.37
468.012	309.37
468.47	316.27
468.928	330.47
469.385	348.87
469.843	357.07
470.3	353.17
470.758	366.77
471.215	393.67
471.673	418.27
472.13	408.27
472.588	430.87
473.045	382.67
473.503	387.97
473.96	403.17
474.417	408.47
474.875	436.77
475.332	478.17
475.789	470.87
476.246	469.57
476.704	494.27
477.161	514.87
477.618	526.27
478.075	559.07
478.532	613.97
478.989	685.47
479.446	791.17
479.903	745.77
480.36	784.67
480.817	848.77
481.274	920.77
481.731	1002.17
482.188	1084.27
482.645	1223.57
483.102	1291.67
483.558	1412.37
484.015	1465.88
484.472	1424.77
484.929	1394.57
485.385	1347.97
485.842	1316.57
486.299	1276.77
486.755	1224.27
487.212	1049.97
487.668	898.17
488.125	836.17
488.582	769.27
489.038	737.47
489.494	706.47
489.951	688.67
490.407	672.77
490.864	647.37
491.32	646.87
491.776	648.07
492.233	660.87
492.689	622.17
493.145	624.47
493.602	609.37
494.058	621.07
494.514	612.87
494.97	647.77
495.426	656.07
495.882	627.07
496.338	617.17
496.794	627.77
497.251	622.07
497.707	649.97
498.163	643.77
498.618	660.17
499.074	648.57
499.53	680.97
499.986	687.67
500.442	655.97
500.898	638.07
501.354	627.87
501.809	628.67
502.265	634.47
502.721	641.17
503.177	642.77
503.632	646.57
504.088	655.27
504.543	677.67
504.999	698.87
505.455	671.47
505.91	645.07
506.366	645.77
506.821	647.57
507.277	647.87
507.732	639.97
508.187	648.97
508.643	652.97
509.098	647.87
509.553	679.27
510.009	678.67
510.464	689.87
510.919	708.87
511.375	708.77
511.83	712.77
512.285	741.17
512.74	779.07
513.195	802.67
513.65	787.47
514.105	790.77
514.56	779.37
515.015	795.17
515.47	811.87
515.925	799.57
516.38	803.47
516.835	803.17
517.29	790.37
517.745	795.67
518.2	772.97
518.655	759.47
519.109	754.27
519.564	752.47
520.019	748.17
520.474	742.37
520.928	734.47
521.383	728.37
521.838	722.97
522.292	721.27
522.747	724.97
523.201	730.17
523.656	717.17
524.11	717.87
524.565	708.67
525.019	710.87
525.474	709.67
525.928	720.77
526.382	720.97
526.837	720.87
527.291	724.67
527.745	712.37
528.2	712.17
528.654	713.47
529.108	702.57
529.562	719.37
530.016	708.17
530.47	704.87
530.925	707.67
531.379	700.37
531.833	715.57
532.287	711.07
532.741	721.77
533.195	714.97
533.649	720.27
534.103	738.87
534.556	724.57
535.01	731.37
535.464	719.07
535.918	735.67
536.372	738.47
536.826	738.77
537.279	722.27
537.733	729.57
538.187	725.97
538.64	723.47
539.094	735.67
539.548	748.87
540.001	736.17
540.455	745.67
540.908	750.97
541.362	754.37
541.815	771.37
542.269	770.17
542.722	781.47
543.175	788.97
543.629	791.17
544.082	807.67
544.536	800.07
544.989	803.17
545.442	812.97
545.895	808.27
546.349	810.87
546.802	817.97
547.255	809.87
547.708	825.47
548.161	838.47
548.614	832.57
549.067	843.07
549.52	843.57
549.973	838.27
550.426	826.57
550.879	810.97
551.332	816.57
551.785	821.57
552.238	829.87
552.691	838.07
553.144	847.87
553.596	859.87
554.049	879.97
554.502	905.97
554.955	934.37
555.407	932.87
555.86	920.77
556.313	906.57
556.765	906.37
557.218	891.37
557.67	890.47
558.123	902.97
558.576	882.27
559.028	891.17
559.48	908.27
559.933	892.37
560.385	858.07
560.838	834.87
561.29	807.77
561.742	807.17
562.195	789.77
562.647	791.87
563.099	792.67
563.551	790.57
564.004	803.27
564.456	796.87
564.908	776.37
565.36	765.47
565.812	744.97
566.264	734.27
566.716	729.97
567.168	718.97
567.62	725.37
568.072	711.27
568.524	711.47
568.976	706.97
569.428	688.07
569.88	704.87
570.332	703.07
570.784	705.77
571.235	712.97
571.687	709.27
572.139	711.07
572.59	726.67
573.042	725.87
573.494	730.47
573.945	725.77
574.397	706.87
574.849	711.67
575.3	713.47
575.752	700.87
576.203	692.87
576.655	707.97
577.106	698.17
577.557	688.67
578.009	678.47
578.46	682.67
578.912	678.87
579.363	676.67
579.814	681.17
580.265	684.17
580.717	679.67
581.168	695.97
581.619	691.47
582.07	687.97
582.521	681.97
582.972	685.37
583.423	689.07
583.875	687.17
584.326	687.57
584.777	714.27
585.227	726.37
585.678	736.17
586.129	747.67
586.58	776.77
587.031	802.87
587.482	840.17
587.933	852.57
588.384	828.37
588.834	796.37
589.285	794.67
589.736	785.17
590.186	773.67
590.637	775.17
591.088	757.07
591.538	751.07
591.989	746.67
592.439	736.27
592.89	730.67
593.34	723.67
593.791	720.17
594.241	717.67
594.692	713.17
595.142	706.37
595.593	712.07
596.043	720.57
596.493	713.67
596.943	717.27
597.394	730.27
597.844	727.47
598.294	748.77
598.744	764.37
599.195	795.47
599.645	828.87
600.095	877.37
600.545	937.47
600.995	982.77
601.445	1043.77
601.895	1104.87
602.345	1155.87
602.795	1127.38
603.245	1090.27
603.695	1024.88
604.145	978.77
604.594	942.27
605.044	871.87
605.494	810.17
605.944	774.67
606.393	744.97
606.843	749.77
607.293	745.37
607.743	744.37
608.192	755.97
608.642	767.07
609.091	767.87
609.541	774.57
609.99	767.37
610.44	767.27
610.889	730.67
611.339	708.77
611.788	696.57
612.238	697.97
612.687	719.87
613.136	701.87
613.586	710.27
614.035	705.47
614.484	713.57
614.933	707.87
615.383	717.47
615.832	717.07
616.281	702.17
616.73	672.27
617.179	669.17
617.628	661.57
618.077	631.37
618.526	636.97
618.975	628.47
619.424	617.27
619.873	622.07
620.322	619.57
620.771	612.47
621.22	607.17
621.669	600.07
622.118	596.97
622.567	588.27
623.015	585.67
623.464	570.17
623.913	565.37
624.361	556.27
624.81	558.57
625.259	562.17
625.707	565.57
626.156	563.97
626.604	576.27
627.053	569.77
627.501	572.27
627.95	578.47
628.398	589.47
628.847	587.67
629.295	580.47
629.744	581.97
630.192	574.47
630.64	570.07
631.089	558.67
631.537	554.27
631.985	538.57
632.433	530.67
632.881	532.07
633.33	532.37
633.778	527.77
634.226	527.07
634.674	542.97
635.122	542.87
635.57	549.47
636.018	564.77
636.466	560.37
636.914	557.77
637.362	573.37
637.81	579.27
638.258	591.37
638.705	586.97
639.153	623.17
639.601	622.17
640.049	641.67
640.497	681.67
640.944	693.47
641.392	641.67
641.84	616.07
642.287	589.47
642.735	568.17
643.182	568.17
643.63	562.07
644.078	572.77
644.525	576.67
644.973	587.07
645.42	597.17
645.867	618.47
646.315	634.77
646.762	658.17
647.21	680.47
647.657	703.97
648.104	728.57
648.551	760.87
648.999	818.67
649.446	895.47
649.893	966.97
650.34	1100.17
650.787	1308.17
651.234	1604.47
651.682	2075.07
652.129	2799.47
652.576	3978.18
653.023	5808.97
653.47	7827.47
653.917	9762.77
654.363	11218.38
654.81	12416.38
655.257	11756.28
655.704	7777.58
656.151	4695.47
656.598	3095.47
657.044	2236.07
657.491	1728.38
657.938	1400.17
658.385	1181.77
658.831	1031.37
659.278	915.77
659.724	822.87
660.171	761.27
660.618	701.77
661.064	677.47
661.511	660.87
661.957	651.37
662.404	641.77
662.85	647.77
663.296	616.77
663.743	552.97
664.189	540.57
664.635	522.77
665.082	524.27
665.528	527.77
665.974	509.97
666.42	507.57
666.867	507.17
667.313	485.07
667.759	475.47
668.205	456.77
668.651	454.97
669.097	440.47
669.543	443.27
669.989	448.27
670.435	455.17
670.881	448.37
671.327	458.27
671.773	476.67
672.219	497.47
672.665	557.97
673.11	589.87
673.556	638.67
674.002	678.57
674.448	664.17
674.893	559.47
675.339	486.17
675.785	445.07
676.23	426.57
676.676	401.07
677.122	389.37
677.567	378.77
678.013	378.07
678.458	361.27
678.904	365.97
679.349	356.27
679.794	362.57
680.24	350.47
680.685	352.77
681.131	353.27
681.576	351.67
682.021	357.97
682.466	351.47
682.912	349.97
683.357	363.37
683.802	386.67
684.247	418.07
684.692	464.07
685.137	497.57
685.583	535.57
686.028	565.17
686.473	519.57
686.918	447.67
687.363	423.57
687.807	401.17
688.252	368.67
688.697	359.67
689.142	345.17
689.587	331.17
690.032	332.87
690.477	338.37
690.921	352.97
691.366	389.27
691.811	409.37
692.255	428.17
692.7	467.67
693.145	514.57
693.589	717.37
694.034	1167.88
694.478	1562.47
694.923	1771.88
695.367	2297.67
695.812	1226.57
696.256	507.57
696.701	374.87
697.145	349.67
697.59	334.37
698.034	325.47
698.478	329.97
698.922	325.27
699.367	330.97
699.811	332.77
700.255	350.57
700.699	385.17
701.143	429.67
701.588	472.87
702.032	512.67
702.476	523.97
702.92	497.27
703.364	496.77
703.808	654.57
704.252	1053.88
704.696	1489.67
705.14	1713.77
705.584	2175.17
706.027	1098.67
706.471	531.37
706.915	399.17
707.359	354.77
707.803	332.07
708.246	312.87
708.69	323.27
709.134	317.27
709.577	316.07
710.021	328.37
710.465	303.87
710.908	305.07
711.352	310.27
711.795	322.77
712.239	355.97
712.682	395.47
713.126	419.27
713.569	461.47
714.012	361.17
714.456	313.57
714.899	293.07
715.342	267.87
715.786	269.27
716.229	255.37
716.672	257.77
717.115	257.07
717.558	252.37
718.002	263.37
718.445	270.37
718.888	290.87
719.331	291.67
719.774	312.17
720.217	304.07
720.66	290.67
721.103	266.97
721.546	257.87
721.989	257.37
722.432	235.67
722.874	239.57
723.317	226.57
723.76	241.37
724.203	261.37
724.645	322.47
725.088	448.27
725.531	576.47
725.974	656.07
726.416	554.47
726.859	305.47
727.301	239.87
727.744	241.77
728.187	226.47
728.629	237.87
729.071	238.47
729.514	262.37
729.956	276.97
730.399	289.27
730.841	293.47
731.283	281.17
731.726	269.87
732.168	266.37
732.61	278.77
733.053	292.77
733.495	320.07
733.937	358.27
734.379	407.07
734.821	445.07
735.263	555.97
735.705	858.67
736.148	1616.88
736.59	2622.97
737.032	3120.38
737.474	2535.38
737.916	846.57
738.357	433.67
738.799	334.97
739.241	296.87
739.683	285.07
740.125	296.67
740.567	308.37
741.008	326.57
741.45	325.07
741.892	321.07
742.334	357.77
742.775	370.57
743.217	347.77
743.658	278.37
744.1	260.27
744.542	277.47
744.983	321.57
745.425	356.87
745.866	354.87
746.307	278.87
746.749	285.67
747.19	329.97
747.632	466.77
748.073	896.37
748.514	1922.17
748.956	2907.87
749.397	3649.47
749.838	3035.68
750.279	3043.77
750.72	1534.57
751.162	563.57
751.603	331.47
752.044	267.37
752.485	218.67
752.926	214.97
753.367	211.27
753.808	200.77
754.249	196.77
754.69	187.17
755.131	179.67
755.572	180.47
756.013	179.87
756.453	185.57
756.894	190.67
757.335	193.77
757.776	195.27
758.216	195.27
758.657	199.17
759.098	203.97
759.538	226.77
759.979	273.97
760.42	385.47
760.86	729.37
761.301	1880.07
761.741	4546.47
762.182	6574.88
762.622	4628.57
763.063	1356.17
763.503	554.57
