Data from 20171114-ORNL-Ar_H_NY_Subt18_08-06-19-369.txt Node
Date: Tue Nov 14 08:06:19 EST 2017
User: Ender
Spectrometer: HR+D1039
Trigger mode: 0
Integration Time (sec): 2.730000E-2
Scans to average: 10
Electric dark correction enabled: true
Nonlinearity correction enabled: false
Boxcar width: 0
XAxis mode: Wavelengths
Number of Pixels in Spectrum: 2048
>>>>>Begin Spectral Data<<<<<
187.836	-2.89
188.309	-2.89
188.782	-2.89
189.255	1.11
189.728	-2.49
190.201	6.61
190.674	1.51
191.147	6.41
191.619	-6.59
192.092	3.11
192.565	5.51
193.038	-3.39
193.511	-2.09
193.984	-1.19
194.456	-0.19
194.929	-1.29
195.402	-1.19
195.874	-2.99
196.347	-0.89
196.82	-4.49
197.292	3.71
197.765	-2.79
198.237	-9.99
198.71	5.41
199.182	-1.99
199.655	0.71
200.127	-1.79
200.6	-2.09
201.072	-4.59
201.544	-0.99
202.017	0.21
202.489	-1.29
202.961	-6.29
203.433	-1.79
203.906	-6.29
204.378	-3.09
204.85	-4.29
205.322	-9.69
205.794	-2.79
206.266	-3.59
206.739	-8.09
207.211	-7.59
207.683	-10.29
208.155	-3.59
208.627	-3.99
209.099	-6.39
209.57	-9.39
210.042	-5.89
210.514	-7.99
210.986	-0.49
211.458	-4.99
211.93	-0.39
212.402	5.21
212.873	-5.09
213.345	-9.19
213.817	-9.19
214.288	-7.29
214.76	-10.19
215.232	-0.99
215.703	-1.49
216.175	-2.59
216.646	-7.49
217.118	-2.39
217.589	-3.89
218.061	1.61
218.532	-5.89
219.004	-2.39
219.475	-2.59
219.946	-2.39
220.418	-7.19
220.889	5.01
221.36	-0.79
221.832	-6.29
222.303	-8.19
222.774	-2.29
223.245	-4.89
223.717	-6.79
224.188	-4.59
224.659	-10.49
225.13	-8.59
225.601	-4.49
226.072	0.51
226.543	3.11
227.014	0.71
227.485	1.31
227.956	-8.09
228.427	1.31
228.898	-3.19
229.369	2.21
229.839	-4.09
230.31	-5.69
230.781	5.01
231.252	-1.49
231.722	-4.79
232.193	1.31
232.664	1.31
233.135	3.61
233.605	3.71
234.076	-3.49
234.546	-0.19
235.017	3.91
235.487	-1.09
235.958	2.71
236.428	-1.59
236.899	5.81
237.369	2.41
237.84	-1.19
238.31	8.81
238.78	4.61
239.251	-2.99
239.721	5.01
240.191	2.91
240.662	-1.29
241.132	3.11
241.602	-4.99
242.072	1.21
242.542	9.61
243.013	0.91
243.483	11.51
243.953	7.51
244.423	5.61
244.893	-2.69
245.363	1.91
245.833	6.71
246.303	-4.09
246.773	8.01
247.243	3.71
247.712	-0.59
248.182	9.31
248.652	8.01
249.122	0.11
249.592	13.71
250.061	18.31
250.531	24.71
251.001	14.71
251.471	26.51
251.94	18.61
252.41	9.61
252.879	1.01
253.349	13.21
253.818	7.21
254.288	5.41
254.757	8.11
255.227	4.91
255.696	4.91
256.166	9.11
256.635	12.61
257.105	7.31
257.574	7.41
258.043	6.41
258.513	9.61
258.982	14.91
259.451	6.31
259.92	9.81
260.389	10.71
260.859	12.91
261.328	7.31
261.797	23.01
262.266	11.61
262.735	6.31
263.204	5.51
263.673	-2.39
264.142	6.31
264.611	-1.09
265.08	7.91
265.549	0.11
266.018	10.51
266.487	-3.99
266.955	-3.29
267.424	0.91
267.893	-5.09
268.362	-2.49
268.83	4.31
269.299	9.41
269.768	5.61
270.236	11.31
270.705	0.01
271.174	3.31
271.642	10.81
272.111	6.41
272.579	18.61
273.048	30.31
273.516	32.81
273.985	30.21
274.453	18.41
274.922	14.91
275.39	8.71
275.858	1.91
276.327	14.91
276.795	20.01
277.263	12.81
277.731	32.11
278.2	48.81
278.668	58.51
279.136	45.01
279.604	19.91
280.072	18.81
280.54	16.01
281.008	14.71
281.477	12.71
281.945	17.41
282.413	12.21
282.881	16.81
283.348	5.11
283.816	14.51
284.284	23.21
284.752	22.91
285.22	11.21
285.688	14.81
286.156	20.41
286.623	44.21
287.091	47.71
287.559	30.91
288.026	19.91
288.494	20.91
288.962	6.41
289.429	12.21
289.897	18.71
290.364	14.51
290.832	17.91
291.3	12.71
291.767	14.51
292.234	16.11
292.702	12.81
293.169	18.01
293.637	25.41
294.104	22.21
294.571	11.11
295.039	15.31
295.506	18.11
295.973	16.71
296.44	12.41
296.908	16.81
297.375	17.51
297.842	21.81
298.309	18.01
298.776	15.91
299.243	25.51
299.71	12.41
300.177	23.31
300.644	26.61
301.111	22.71
301.578	27.01
302.045	22.11
302.512	26.81
302.979	32.41
303.446	22.41
303.913	19.41
304.379	15.81
304.846	26.71
305.313	26.71
305.78	21.21
306.246	28.31
306.713	27.21
307.18	24.31
307.646	30.91
308.113	33.31
308.579	27.01
309.046	24.51
309.512	23.21
309.979	23.11
310.445	33.11
310.912	30.21
311.378	32.11
311.845	30.81
312.311	30.71
312.777	32.11
313.244	33.91
313.71	36.31
314.176	33.21
314.642	30.91
315.109	30.51
315.575	35.51
316.041	40.31
316.507	31.61
316.973	42.81
317.439	39.91
317.905	37.91
318.371	32.31
318.837	35.31
319.303	28.21
319.769	38.01
320.235	34.41
320.701	38.11
321.167	32.21
321.633	36.61
322.099	43.01
322.564	43.21
323.03	40.81
323.496	36.01
323.962	43.61
324.427	32.91
324.893	42.91
325.359	38.71
325.824	37.61
326.29	36.01
326.755	41.71
327.221	45.21
327.686	36.61
328.152	41.41
328.617	41.41
329.083	42.91
329.548	49.81
330.014	49.41
330.479	39.51
330.944	47.91
331.41	44.51
331.875	45.21
332.34	44.31
332.805	43.21
333.271	50.31
333.736	48.41
334.201	57.81
334.666	51.11
335.131	57.21
335.596	50.71
336.061	50.61
336.526	45.11
336.991	53.11
337.456	66.51
337.921	51.61
338.386	44.81
338.851	39.51
339.316	50.11
339.781	47.11
340.246	50.61
340.711	52.41
341.175	55.11
341.64	44.91
342.105	52.01
342.569	59.21
343.034	61.41
343.499	61.31
343.963	53.91
344.428	70.01
344.893	58.01
345.357	63.51
345.822	64.21
346.286	62.51
346.751	73.11
347.215	70.31
347.679	72.51
348.144	96.81
348.608	87.31
349.073	61.91
349.537	71.01
350.001	83.61
350.465	90.31
350.93	80.81
351.394	87.51
351.858	84.91
352.322	81.71
352.786	90.41
353.25	102.51
353.715	108.11
354.179	102.51
354.643	124.21
355.107	131.51
355.571	113.91
356.035	109.81
356.498	113.91
356.962	126.31
357.426	138.81
357.89	118.01
358.354	91.71
358.818	86.11
359.281	78.21
359.745	75.51
360.209	75.61
360.673	76.41
361.136	82.01
361.6	84.71
362.064	86.01
362.527	84.31
362.991	90.21
363.454	80.61
363.918	73.11
364.381	80.21
364.845	81.91
365.308	91.81
365.772	87.81
366.235	86.01
366.698	86.11
367.162	85.71
367.625	91.21
368.088	94.31
368.552	88.91
369.015	93.31
369.478	99.61
369.941	100.71
370.404	100.51
370.867	105.71
371.331	115.01
371.794	114.91
372.257	109.51
372.72	119.31
373.183	121.51
373.646	104.71
374.109	104.51
374.572	110.81
375.035	110.41
375.497	105.41
375.96	111.41
376.423	104.51
376.886	114.31
377.349	112.41
377.811	101.81
378.274	108.61
378.737	107.41
379.199	117.11
379.662	112.21
380.125	124.31
380.587	119.51
381.05	128.61
381.512	131.91
381.975	135.31
382.437	131.81
382.9	126.21
383.362	132.01
383.825	146.61
384.287	149.01
384.75	151.21
385.212	137.01
385.674	146.91
386.136	141.31
386.599	127.31
387.061	129.71
387.523	125.01
387.985	135.71
388.447	147.71
388.91	146.41
389.372	160.11
389.834	154.31
390.296	146.41
390.758	157.21
391.22	176.41
391.682	219.71
392.144	298.41
392.606	233.71
393.068	174.61
393.529	171.21
393.991	154.31
394.453	154.11
394.915	156.51
395.377	189.71
395.838	220.91
396.3	164.11
396.762	142.11
397.224	134.91
397.685	127.11
398.147	130.01
398.608	137.11
399.07	132.61
399.531	140.31
399.993	144.91
400.454	157.11
400.916	142.01
401.377	149.21
401.839	146.41
402.3	151.41
402.762	165.51
403.223	185.51
403.684	171.11
404.145	164.11
404.607	155.41
405.068	166.01
405.529	173.11
405.99	192.51
406.451	172.81
406.913	179.11
407.374	165.11
407.835	169.11
408.296	173.91
408.757	174.81
409.218	187.11
409.679	183.81
410.14	179.11
410.601	185.51
411.062	184.41
411.522	190.41
411.983	191.31
412.444	176.61
412.905	182.31
413.366	183.01
413.826	202.81
414.287	226.71
414.748	266.41
415.208	253.41
415.669	210.41
416.13	209.61
416.59	203.91
417.051	213.51
417.511	225.51
417.972	239.91
418.432	247.01
418.893	288.11
419.353	250.21
419.814	207.01
420.274	183.11
420.734	180.71
421.195	202.61
421.655	198.41
422.115	193.41
422.576	194.01
423.036	204.31
423.496	213.11
423.956	226.01
424.416	224.91
424.876	269.41
425.336	269.41
425.797	268.41
426.257	267.91
426.717	243.81
427.177	233.81
427.637	233.51
428.097	236.21
428.556	241.81
429.016	272.01
429.476	274.41
429.936	282.81
430.396	294.41
430.856	298.91
431.315	320.61
431.775	367.11
432.235	385.61
432.694	356.51
433.154	377.41
433.614	403.51
434.073	342.61
434.533	291.01
434.993	275.91
435.452	285.01
435.912	298.21
436.371	298.41
436.83	294.01
437.29	276.91
437.749	262.31
438.209	254.01
438.668	281.61
439.127	291.01
439.587	273.21
440.046	260.71
440.505	263.21
440.964	277.01
441.424	338.31
441.883	321.11
442.342	262.11
442.801	230.31
443.26	223.71
443.719	227.01
444.178	224.41
444.637	216.11
445.096	225.81
445.555	216.51
446.014	227.61
446.473	232.21
446.932	234.61
447.391	227.51
447.849	229.21
448.308	227.91
448.767	223.61
449.226	240.71
449.685	234.61
450.143	254.41
450.602	243.21
451.061	227.91
451.519	241.81
451.978	239.71
452.436	238.61
452.895	241.81
453.353	256.11
453.812	239.11
454.27	241.01
454.729	242.01
455.187	243.21
455.646	256.11
456.104	255.61
456.562	275.71
457.021	273.61
457.479	268.61
457.937	275.61
458.395	268.71
458.854	246.91
459.312	263.91
459.77	280.01
460.228	258.31
460.686	249.41
461.144	254.81
461.602	248.91
462.06	245.91
462.518	258.11
462.976	256.81
463.434	265.51
463.892	264.71
464.35	279.81
464.808	295.71
465.266	272.61
465.724	266.51
466.181	275.81
466.639	278.11
467.097	290.11
467.555	303.11
468.012	311.81
468.47	317.11
468.928	329.71
469.385	350.61
469.843	356.51
470.3	354.21
470.758	361.31
471.215	386.51
471.673	416.91
472.13	413.71
472.588	436.01
473.045	370.41
473.503	376.91
473.96	401.81
474.417	414.21
474.875	445.51
475.332	490.31
475.789	467.11
476.246	476.31
476.704	496.11
477.161	513.81
477.618	533.31
478.075	570.51
478.532	631.21
478.989	704.01
479.446	818.91
479.903	793.71
480.36	819.61
480.817	886.31
481.274	992.71
481.731	1097.11
482.188	1195.51
482.645	1332.71
483.102	1435.01
483.558	1572.01
484.015	1626.01
484.472	1619.11
484.929	1559.61
485.385	1487.61
485.842	1437.81
486.299	1375.01
486.755	1323.01
487.212	1120.01
487.668	949.71
488.125	874.61
488.582	798.81
489.038	754.31
489.494	720.01
489.951	701.31
490.407	677.21
490.864	669.21
491.32	659.61
491.776	648.71
492.233	658.11
492.689	620.51
493.145	623.71
493.602	619.11
494.058	623.11
494.514	619.21
494.97	647.61
495.426	663.41
495.882	631.31
496.338	618.51
496.794	631.61
497.251	631.01
497.707	640.61
498.163	644.71
498.618	656.91
499.074	661.01
499.53	690.21
499.986	692.91
500.442	664.11
500.898	646.31
501.354	633.31
501.809	650.01
502.265	653.61
502.721	678.01
503.177	676.41
503.632	674.11
504.088	695.51
504.543	725.51
504.999	720.81
505.455	677.31
505.91	644.71
506.366	632.51
506.821	639.01
507.277	642.71
507.732	624.91
508.187	631.11
508.643	639.31
509.098	635.71
509.553	662.51
510.009	676.71
510.464	681.81
510.919	694.91
511.375	703.11
511.83	717.51
512.285	735.71
512.74	779.11
513.195	795.31
513.65	781.11
514.105	782.11
514.56	782.91
515.015	799.31
515.47	823.21
515.925	788.51
516.38	811.71
516.835	811.61
517.29	803.61
517.745	780.91
518.2	764.71
518.655	765.51
519.109	753.01
519.564	747.81
520.019	745.01
520.474	741.51
520.928	738.21
521.383	729.41
521.838	717.21
522.292	726.51
522.747	718.21
523.201	711.71
523.656	703.01
524.11	700.11
524.565	703.31
525.019	699.21
525.474	716.71
525.928	722.11
526.382	707.01
526.837	702.81
527.291	717.41
527.745	707.11
528.2	711.81
528.654	712.91
529.108	697.61
529.562	703.21
530.016	690.61
530.47	707.41
530.925	711.31
531.379	708.51
531.833	712.91
532.287	708.91
532.741	711.01
533.195	720.91
533.649	729.31
534.103	723.51
534.556	708.01
535.01	723.31
535.464	724.51
535.918	726.01
536.372	723.31
536.826	723.41
537.279	714.21
537.733	720.81
538.187	726.91
538.64	720.91
539.094	733.21
539.548	741.51
540.001	741.01
540.455	731.81
540.908	733.91
541.362	738.91
541.815	751.91
542.269	764.11
542.722	771.81
543.175	772.21
543.629	775.51
544.082	798.01
544.536	799.51
544.989	803.01
545.442	805.81
545.895	804.51
546.349	809.11
546.802	804.11
547.255	797.81
547.708	811.41
548.161	822.21
548.614	835.31
549.067	825.81
549.52	833.41
549.973	826.31
550.426	821.11
550.879	808.61
551.332	814.01
551.785	814.21
552.238	816.91
552.691	843.31
553.144	846.61
553.596	867.01
554.049	876.11
554.502	900.51
554.955	920.21
555.407	918.21
555.86	911.01
556.313	907.81
556.765	895.41
557.218	893.31
557.67	898.31
558.123	893.21
558.576	896.01
559.028	904.41
559.48	896.41
559.933	869.21
560.385	840.61
560.838	820.31
561.29	805.01
561.742	805.11
562.195	777.51
562.647	771.41
563.099	792.21
563.551	789.41
564.004	799.91
564.456	787.11
564.908	778.31
565.36	761.81
565.812	742.21
566.264	729.61
566.716	736.51
567.168	721.91
567.62	726.41
568.072	719.61
568.524	706.11
568.976	699.41
569.428	682.01
569.88	681.21
570.332	694.01
570.784	688.71
571.235	694.51
571.687	711.31
572.139	710.81
572.59	712.91
573.042	713.11
573.494	712.51
573.945	716.41
574.397	700.91
574.849	703.61
575.3	707.71
575.752	693.01
576.203	692.41
576.655	690.21
577.106	679.71
577.557	675.41
578.009	680.61
578.46	669.41
578.912	667.81
579.363	675.31
579.814	677.81
580.265	675.51
580.717	674.51
581.168	680.81
581.619	680.71
582.07	685.21
582.521	680.21
582.972	680.41
583.423	689.71
583.875	683.81
584.326	706.91
584.777	750.71
585.227	828.51
585.678	927.91
586.129	1013.41
586.58	1097.71
587.031	1168.51
587.482	1323.81
587.933	1511.61
588.384	1310.81
588.834	991.51
589.285	815.41
589.736	799.61
590.186	781.21
590.637	777.51
591.088	748.11
591.538	745.11
591.989	741.41
592.439	737.61
592.89	727.11
593.34	711.01
593.791	710.21
594.241	705.21
594.692	712.51
595.142	715.01
595.593	707.21
596.043	713.11
596.493	717.21
596.943	723.71
597.394	727.61
597.844	718.51
598.294	734.61
598.744	754.11
599.195	779.61
599.645	828.41
600.095	871.31
600.545	925.21
600.995	965.81
601.445	1026.91
601.895	1093.71
602.345	1149.91
602.795	1123.61
603.245	1085.61
603.695	1008.11
604.145	959.71
604.594	932.81
605.044	861.71
605.494	812.01
605.944	760.01
606.393	747.31
606.843	735.51
607.293	736.41
607.743	731.51
608.192	749.01
608.642	756.61
609.091	777.71
609.541	765.71
609.99	778.51
610.44	780.71
610.889	728.11
611.339	706.71
611.788	690.51
612.238	701.11
612.687	716.21
613.136	723.41
613.586	748.91
614.035	742.91
614.484	762.51
614.933	768.01
615.383	765.61
615.832	744.61
616.281	727.71
616.73	695.21
617.179	670.91
617.628	654.41
618.077	643.41
618.526	635.51
618.975	624.21
619.424	624.01
619.873	622.91
620.322	624.21
620.771	612.31
621.22	609.41
621.669	595.81
622.118	594.41
622.567	582.01
623.015	572.41
623.464	572.11
623.913	567.41
624.361	555.61
624.81	553.01
625.259	560.21
625.707	558.91
626.156	555.71
626.604	576.11
627.053	559.31
627.501	571.01
627.95	571.71
628.398	577.31
628.847	569.81
629.295	569.01
629.744	568.91
630.192	569.51
630.64	570.41
631.089	563.61
631.537	590.01
631.985	586.61
632.433	602.71
632.881	614.41
633.33	664.51
633.778	646.61
634.226	578.31
634.674	572.71
635.122	581.51
635.57	604.01
636.018	633.91
636.466	592.51
636.914	562.71
637.362	583.51
637.81	579.01
638.258	584.01
638.705	575.51
639.153	615.21
639.601	611.31
640.049	636.91
640.497	676.71
640.944	691.21
641.392	645.61
641.84	613.91
642.287	591.11
642.735	568.01
643.182	571.41
643.63	577.71
644.078	577.11
644.525	602.81
644.973	603.71
645.42	611.31
645.867	628.01
646.315	644.71
646.762	671.41
647.21	701.01
647.657	712.81
648.104	749.01
648.551	779.71
648.999	848.71
649.446	927.31
649.893	1014.11
650.34	1158.21
650.787	1402.51
651.234	1737.21
651.682	2263.91
652.129	3119.81
652.576	4496.71
653.023	6660.81
653.47	9070.01
653.917	11344.71
654.363	13111.21
654.81	14486.51
655.257	13791.51
655.704	9047.91
656.151	5350.31
656.598	3458.31
657.044	2445.01
657.491	1876.11
657.938	1502.81
658.385	1257.91
658.831	1091.31
659.278	964.51
659.724	858.31
660.171	794.51
660.618	720.21
661.064	690.21
661.511	667.61
661.957	656.61
662.404	647.51
662.85	654.11
663.296	627.61
663.743	567.41
664.189	546.31
664.635	536.01
665.082	531.31
665.528	533.21
665.974	530.11
666.42	513.41
666.867	506.71
667.313	493.31
667.759	484.11
668.205	483.71
668.651	493.61
669.097	484.81
669.543	499.11
669.989	473.21
670.435	454.21
670.881	447.81
671.327	445.71
671.773	467.21
672.219	483.01
672.665	545.41
673.11	575.51
673.556	629.11
674.002	671.31
674.448	653.21
674.893	545.61
675.339	478.51
675.785	440.21
676.23	414.51
676.676	396.41
677.122	384.91
677.567	371.41
678.013	359.81
678.458	362.61
678.904	364.31
679.349	348.61
679.794	350.71
680.24	349.91
680.685	347.81
681.131	346.51
681.576	343.11
682.021	349.51
682.466	350.71
682.912	346.31
683.357	354.11
683.802	381.51
684.247	408.01
684.692	450.31
685.137	495.91
685.583	541.91
686.028	550.41
686.473	511.21
686.918	436.11
687.363	410.31
687.807	388.11
688.252	371.81
688.697	361.91
689.142	337.31
689.587	319.41
690.032	320.61
690.477	339.71
690.921	342.31
691.366	378.01
691.811	392.91
692.255	428.71
692.7	461.01
693.145	505.31
693.589	695.11
694.034	1118.01
694.478	1533.71
694.923	1729.51
695.367	2270.51
695.812	1183.31
696.256	498.91
696.701	364.61
697.145	342.61
697.59	332.41
698.034	329.81
698.478	330.41
698.922	327.31
699.367	325.91
699.811	332.81
700.255	348.61
700.699	382.21
701.143	424.41
701.588	476.51
702.032	519.21
702.476	511.21
702.92	486.11
703.364	473.91
703.808	632.71
704.252	1034.31
704.696	1433.21
705.14	1654.71
705.584	2111.11
706.027	1052.21
706.471	511.71
706.915	396.11
707.359	350.71
707.803	326.01
708.246	307.41
708.69	307.71
709.134	314.21
709.577	312.61
710.021	315.81
710.465	309.31
710.908	293.01
711.352	296.61
711.795	309.21
712.239	347.91
712.682	394.01
713.126	414.51
713.569	457.61
714.012	365.31
714.456	314.51
714.899	293.41
715.342	272.91
715.786	258.91
716.229	247.41
716.672	251.71
717.115	242.51
717.558	251.11
718.002	256.01
718.445	262.11
718.888	287.81
719.331	293.51
719.774	310.51
720.217	303.01
720.66	282.31
721.103	262.51
721.546	244.71
721.989	244.11
722.432	220.71
722.874	236.81
723.317	231.81
723.76	231.21
724.203	257.11
724.645	314.31
725.088	449.91
725.531	574.91
725.974	637.01
726.416	542.81
726.859	304.31
727.301	249.01
727.744	238.71
728.187	229.21
728.629	233.81
729.071	242.71
729.514	260.91
729.956	273.71
730.399	279.31
730.841	286.71
731.283	270.71
731.726	273.01
732.168	253.31
732.61	265.51
733.053	288.11
733.495	308.51
733.937	350.41
734.379	392.31
734.821	431.81
735.263	531.51
735.705	826.11
736.148	1542.81
736.59	2522.41
737.032	3015.21
737.474	2472.11
737.916	803.51
738.357	423.81
738.799	330.61
739.241	296.91
739.683	284.71
740.125	295.91
740.567	296.71
741.008	315.01
741.45	318.21
741.892	316.61
742.334	342.81
742.775	361.41
743.217	335.11
743.658	258.61
744.1	246.21
744.542	255.21
744.983	306.11
745.425	345.01
745.866	349.01
746.307	281.01
746.749	280.01
747.19	322.01
747.632	453.21
748.073	867.01
748.514	1840.41
748.956	2816.91
749.397	3530.91
749.838	2920.21
750.279	2918.41
750.72	1478.31
751.162	535.51
751.603	315.41
752.044	249.01
752.485	213.01
752.926	208.41
753.367	203.81
753.808	187.31
754.249	185.71
754.69	179.41
755.131	183.81
755.572	183.31
756.013	177.81
756.453	182.01
756.894	186.21
757.335	192.01
757.776	200.01
758.216	195.41
758.657	191.11
759.098	202.81
759.538	222.01
759.979	258.81
760.42	366.71
760.86	689.51
761.301	1787.41
761.741	4340.31
762.182	6361.01
