Data from 20171114-ORNL-Ar_H_NY_Subt18_08-06-55-675.txt Node
Date: Tue Nov 14 08:06:55 EST 2017
User: Ender
Spectrometer: HR+D1039
Trigger mode: 0
Integration Time (sec): 2.730000E-2
Scans to average: 10
Electric dark correction enabled: true
Nonlinearity correction enabled: false
Boxcar width: 0
XAxis mode: Wavelengths
Number of Pixels in Spectrum: 2048
>>>>>Begin Spectral Data<<<<<
187.836	-4.36
188.309	-4.36
188.782	-4.36
189.255	4.14
189.728	-0.96
190.201	5.44
190.674	-1.86
191.147	2.94
191.619	-10.16
192.092	2.24
192.565	4.94
193.038	-1.86
193.511	0.74
193.984	0.84
194.456	-2.06
194.929	0.14
195.402	1.24
195.874	-1.36
196.347	2.24
196.82	-8.36
197.292	2.84
197.765	-0.66
198.237	-7.76
198.71	2.84
199.182	-0.86
199.655	3.94
200.127	3.94
200.6	-8.06
201.072	-5.76
201.544	-8.86
202.017	-4.16
202.489	2.54
202.961	-1.46
203.433	-7.26
203.906	-11.66
204.378	-5.26
204.85	-7.26
205.322	-12.36
205.794	-7.56
206.266	-5.06
206.739	-6.96
207.211	-2.86
207.683	-11.46
208.155	-5.06
208.627	-10.06
209.099	-4.46
209.57	-6.76
210.042	-4.86
210.514	-8.96
210.986	-0.56
211.458	-6.36
211.93	-1.36
212.402	6.54
212.873	-7.86
213.345	-7.66
213.817	-12.76
214.288	-5.26
214.76	-11.26
215.232	-2.06
215.703	-3.26
216.175	-1.06
216.646	-6.66
217.118	-12.16
217.589	-4.46
218.061	-6.16
218.532	0.04
219.004	-1.16
219.475	-7.76
219.946	-7.56
220.418	-5.96
220.889	2.04
221.36	2.44
221.832	-3.36
222.303	-8.06
222.774	-2.86
223.245	-8.26
223.717	-6.86
224.188	-1.16
224.659	-5.26
225.13	-6.16
225.601	-4.36
226.072	-2.56
226.543	-4.36
227.014	0.94
227.485	-3.16
227.956	-11.36
228.427	-2.16
228.898	-2.06
229.369	0.24
229.839	-7.86
230.31	-7.46
230.781	0.04
231.252	-6.66
231.722	-7.46
232.193	-8.46
232.664	-2.26
233.135	-3.06
233.605	-5.16
234.076	-3.96
234.546	0.14
235.017	0.64
235.487	0.54
235.958	-7.36
236.428	-8.16
236.899	-4.06
237.369	-9.06
237.84	-6.86
238.31	0.94
238.78	-3.96
239.251	-3.86
239.721	-4.76
240.191	-4.46
240.662	-1.26
241.132	-1.16
241.602	-10.16
242.072	-4.46
242.542	2.94
243.013	-0.86
243.483	-2.46
243.953	-3.36
244.423	-1.56
244.893	-5.16
245.363	3.34
245.833	-3.46
246.303	-5.16
246.773	3.54
247.243	4.14
247.712	-1.56
248.182	2.74
248.652	6.24
249.122	-13.86
249.592	-0.56
250.061	-1.06
250.531	4.94
251.001	-1.46
251.471	9.84
251.94	3.94
252.41	-2.26
252.879	-7.36
253.349	6.74
253.818	3.14
254.288	3.14
254.757	-5.16
255.227	-6.16
255.696	-2.36
256.166	0.34
256.635	2.44
257.105	-2.46
257.574	-0.46
258.043	-1.36
258.513	-6.06
258.982	4.44
259.451	-3.46
259.92	3.64
260.389	2.64
260.859	7.34
261.328	-5.46
261.797	1.94
262.266	-4.66
262.735	-2.06
263.204	7.04
263.673	-5.16
264.142	5.64
264.611	-9.46
265.08	1.64
265.549	-1.96
266.018	3.34
266.487	-3.46
266.955	-1.66
267.424	-5.96
267.893	6.64
268.362	-4.96
268.83	-1.16
269.299	-0.36
269.768	-1.36
270.236	4.94
270.705	-2.36
271.174	6.44
271.642	0.64
272.111	-0.36
272.579	2.14
273.048	1.64
273.516	3.44
273.985	2.44
274.453	5.04
274.922	11.74
275.39	5.84
275.858	-5.16
276.327	6.74
276.795	8.64
277.263	6.24
277.731	11.44
278.2	2.54
278.668	4.44
279.136	7.54
279.604	-2.66
280.072	5.14
280.54	9.64
281.008	6.44
281.477	11.64
281.945	4.74
282.413	7.74
282.881	7.34
283.348	6.74
283.816	9.64
284.284	4.24
284.752	15.54
285.22	8.74
285.688	12.64
286.156	11.84
286.623	11.94
287.091	11.64
287.559	9.64
288.026	9.44
288.494	8.84
288.962	-1.96
289.429	8.54
289.897	14.14
290.364	14.04
290.832	18.94
291.3	14.94
291.767	8.24
292.234	11.74
292.702	8.24
293.169	14.34
293.637	17.34
294.104	15.74
294.571	3.24
295.039	14.74
295.506	12.84
295.973	8.54
296.44	13.34
296.908	9.04
297.375	13.44
297.842	13.04
298.309	7.54
298.776	5.24
299.243	14.24
299.71	9.74
300.177	15.74
300.644	11.54
301.111	13.04
301.578	24.74
302.045	11.24
302.512	20.44
302.979	18.94
303.446	19.54
303.913	8.54
304.379	4.64
304.846	25.34
305.313	21.54
305.78	12.64
306.246	20.44
306.713	16.24
307.18	25.24
307.646	24.44
308.113	22.64
308.579	18.44
309.046	25.04
309.512	24.54
309.979	14.64
310.445	22.54
310.912	20.64
311.378	28.14
311.845	21.74
312.311	18.14
312.777	25.34
313.244	27.84
313.71	31.34
314.176	24.14
314.642	19.64
315.109	26.34
315.575	30.44
316.041	30.24
316.507	23.04
316.973	36.24
317.439	29.14
317.905	29.94
318.371	28.94
318.837	27.54
319.303	20.04
319.769	27.74
320.235	30.04
320.701	27.94
321.167	33.14
321.633	31.64
322.099	31.34
322.564	30.54
323.03	26.74
323.496	32.14
323.962	31.44
324.427	30.64
324.893	33.34
325.359	32.94
325.824	36.14
326.29	31.84
326.755	33.64
327.221	29.74
327.686	36.44
328.152	42.84
328.617	37.24
329.083	37.94
329.548	45.04
330.014	41.34
330.479	31.44
330.944	36.44
331.41	37.94
331.875	43.94
332.34	36.64
332.805	32.84
333.271	38.74
333.736	32.94
334.201	46.34
334.666	42.54
335.131	47.14
335.596	45.84
336.061	39.64
336.526	32.64
336.991	46.74
337.456	52.44
337.921	42.74
338.386	38.84
338.851	37.84
339.316	43.64
339.781	45.34
340.246	50.64
340.711	39.24
341.175	44.94
341.64	41.04
342.105	49.74
342.569	49.54
343.034	48.04
343.499	50.44
343.963	44.34
344.428	65.84
344.893	55.44
345.357	52.74
345.822	55.34
346.286	63.44
346.751	66.44
347.215	60.24
347.679	69.14
348.144	85.84
348.608	77.84
349.073	64.14
349.537	69.44
350.001	68.84
350.465	74.24
350.93	75.94
351.394	74.64
351.858	71.34
352.322	72.14
352.786	73.24
353.25	89.24
353.715	95.14
354.179	88.84
354.643	106.24
355.107	110.94
355.571	96.94
356.035	95.54
356.498	99.24
356.962	99.44
357.426	112.44
357.89	98.44
358.354	85.24
358.818	78.64
359.281	72.34
359.745	69.74
360.209	69.04
360.673	71.04
361.136	73.74
361.6	71.74
362.064	82.34
362.527	81.24
362.991	88.84
363.454	73.14
363.918	69.64
364.381	74.24
364.845	75.94
365.308	87.24
365.772	79.34
366.235	87.34
366.698	76.04
367.162	81.04
367.625	80.94
368.088	80.14
368.552	79.64
369.015	82.24
369.478	92.14
369.941	90.24
370.404	83.64
370.867	89.54
371.331	97.74
371.794	93.64
372.257	89.84
372.72	94.64
373.183	89.84
373.646	90.04
374.109	91.94
374.572	90.84
375.035	88.94
375.497	103.74
375.96	99.04
376.423	101.44
376.886	106.54
377.349	99.24
377.811	92.94
378.274	97.24
378.737	98.04
379.199	102.34
379.662	98.74
380.125	108.14
380.587	101.34
381.05	107.34
381.512	108.64
381.975	120.84
382.437	119.84
382.9	116.34
383.362	124.14
383.825	127.24
384.287	119.94
384.75	107.64
385.212	121.74
385.674	129.54
386.136	128.14
386.599	117.14
387.061	119.74
387.523	111.84
387.985	129.74
388.447	129.44
388.91	125.04
389.372	129.44
389.834	129.94
390.296	117.74
390.758	129.34
391.22	136.44
391.682	144.24
392.144	151.14
392.606	148.04
393.068	138.24
393.529	147.44
393.991	137.04
394.453	135.54
394.915	123.64
395.377	137.94
395.838	133.64
396.3	130.14
396.762	140.84
397.224	139.74
397.685	137.84
398.147	132.84
398.608	131.64
399.07	129.64
399.531	139.44
399.993	140.44
400.454	157.24
400.916	143.34
401.377	143.74
401.839	149.34
402.3	154.74
402.762	165.94
403.223	177.54
403.684	165.94
404.145	163.24
404.607	163.34
405.068	161.74
405.529	164.14
405.99	180.94
406.451	182.74
406.913	175.34
407.374	163.74
407.835	159.44
408.296	166.94
408.757	173.54
409.218	185.94
409.679	184.04
410.14	176.64
410.601	175.84
411.062	182.34
411.522	177.94
411.983	179.74
412.444	177.04
412.905	181.64
413.366	192.94
413.826	202.84
414.287	225.74
414.748	274.84
415.208	255.74
415.669	220.14
416.13	214.24
416.59	203.74
417.051	222.04
417.511	232.04
417.972	246.24
418.432	262.74
418.893	301.54
419.353	261.04
419.814	205.64
420.274	190.94
420.734	184.74
421.195	200.14
421.655	195.04
422.115	198.64
422.576	198.84
423.036	204.64
423.496	219.64
423.956	225.64
424.416	240.04
424.876	276.94
425.336	266.24
425.797	268.24
426.257	263.84
426.717	242.14
427.177	240.04
427.637	235.04
428.097	238.04
428.556	254.44
429.016	275.84
429.476	267.44
429.936	271.94
430.396	275.74
430.856	294.74
431.315	317.44
431.775	349.74
432.235	383.64
432.694	356.14
433.154	366.34
433.614	390.34
434.073	338.34
434.533	289.14
434.993	273.84
435.452	281.94
435.912	290.14
436.371	285.84
436.83	276.04
437.29	261.94
437.749	255.44
438.209	252.94
438.668	279.34
439.127	290.24
439.587	272.14
440.046	259.84
440.505	273.24
440.964	292.44
441.424	330.34
441.883	314.74
442.342	262.04
442.801	236.94
443.26	237.34
443.719	236.74
444.178	229.44
444.637	225.34
445.096	228.14
445.555	235.34
446.014	234.74
446.473	243.24
446.932	243.44
447.391	240.34
447.849	244.44
448.308	227.34
448.767	233.54
449.226	244.14
449.685	255.94
450.143	260.14
450.602	252.74
451.061	249.54
451.519	245.64
451.978	245.34
452.436	250.04
452.895	247.34
453.353	263.54
453.812	253.64
454.27	259.94
454.729	253.24
455.187	250.64
455.646	256.04
456.104	269.34
456.562	275.64
457.021	286.44
457.479	276.84
457.937	286.14
458.395	272.84
458.854	266.54
459.312	270.14
459.77	285.34
460.228	272.94
460.686	261.64
461.144	267.74
461.602	265.74
462.06	264.94
462.518	273.34
462.976	274.74
463.434	276.74
463.892	275.24
464.35	302.84
464.808	307.24
465.266	282.74
465.724	291.64
466.181	287.54
466.639	283.84
467.097	304.14
467.555	320.44
468.012	321.74
468.47	331.64
468.928	347.64
469.385	361.54
469.843	365.44
470.3	370.64
470.758	385.94
471.215	406.04
471.673	436.94
472.13	425.74
472.588	430.34
473.045	387.94
473.503	400.24
473.96	420.24
474.417	423.64
474.875	460.24
475.332	498.04
475.789	480.74
476.246	486.84
476.704	512.14
477.161	530.14
477.618	550.14
478.075	587.34
478.532	639.24
478.989	705.34
479.446	820.54
479.903	789.64
480.36	809.84
480.817	873.34
481.274	953.64
481.731	1059.44
482.188	1134.94
482.645	1251.44
483.102	1336.34
483.558	1469.24
484.015	1513.74
484.472	1481.54
484.929	1439.84
485.385	1408.84
485.842	1371.04
486.299	1326.94
486.755	1276.74
487.212	1081.14
487.668	934.84
488.125	866.44
488.582	795.04
489.038	763.34
489.494	730.74
489.951	715.14
490.407	701.54
490.864	672.44
491.32	669.94
491.776	670.64
492.233	681.54
492.689	647.14
493.145	649.24
493.602	624.84
494.058	644.14
494.514	649.44
494.97	664.04
495.426	680.24
495.882	656.74
496.338	644.94
496.794	648.84
497.251	648.04
497.707	668.94
498.163	673.44
498.618	678.34
499.074	676.74
499.53	701.04
499.986	698.94
500.442	675.94
500.898	656.34
501.354	651.14
501.809	651.84
502.265	659.24
502.721	664.44
503.177	670.04
503.632	670.44
504.088	684.74
504.543	704.94
504.999	729.54
505.455	696.74
505.91	676.34
506.366	674.04
506.821	674.04
507.277	666.84
507.732	675.44
508.187	679.34
508.643	682.14
509.098	679.44
509.553	689.64
510.009	714.54
510.464	714.44
510.919	734.54
511.375	738.04
511.83	746.74
512.285	763.84
512.74	798.04
513.195	827.04
513.65	822.14
514.105	814.94
514.56	818.64
515.015	843.44
515.47	848.34
515.925	832.54
516.38	829.94
516.835	833.54
517.29	818.14
517.745	823.44
518.2	818.04
518.655	792.14
519.109	786.24
519.564	785.34
520.019	772.24
520.474	765.64
520.928	765.94
521.383	764.14
521.838	748.84
522.292	759.74
522.747	759.84
523.201	748.64
523.656	734.24
524.11	734.34
524.565	738.34
525.019	720.34
525.474	737.94
525.928	743.84
526.382	736.14
526.837	751.64
527.291	735.64
527.745	729.14
528.2	736.54
528.654	731.24
529.108	738.34
529.562	739.04
530.016	730.74
530.47	732.24
530.925	725.84
531.379	729.64
531.833	740.44
532.287	743.64
532.741	744.94
533.195	744.24
533.649	752.84
534.103	766.94
534.556	748.94
535.01	751.44
535.464	739.84
535.918	765.44
536.372	758.84
536.826	765.84
537.279	750.04
537.733	749.84
538.187	753.44
538.64	751.64
539.094	761.84
539.548	771.94
540.001	770.54
540.455	769.94
540.908	780.94
541.362	786.94
541.815	799.64
542.269	800.94
542.722	802.04
543.175	812.74
543.629	826.44
544.082	846.54
544.536	836.54
544.989	843.14
545.442	837.34
545.895	843.14
546.349	846.94
546.802	845.34
547.255	858.94
547.708	856.94
548.161	871.44
548.614	870.24
549.067	876.14
549.52	874.94
549.973	857.84
550.426	861.14
550.879	846.84
551.332	853.54
551.785	862.94
552.238	864.84
552.691	877.04
553.144	890.34
553.596	908.64
554.049	923.44
554.502	947.44
554.955	968.34
555.407	967.14
555.86	964.94
556.313	942.34
556.765	941.84
557.218	944.54
557.67	949.34
558.123	938.64
558.576	935.44
559.028	937.24
559.48	934.24
559.933	932.14
560.385	896.54
560.838	865.84
561.29	842.84
561.742	835.44
562.195	829.34
562.647	817.44
563.099	816.54
563.551	822.94
564.004	830.54
564.456	826.44
564.908	817.44
565.36	794.04
565.812	764.34
566.264	756.24
566.716	760.94
567.168	750.74
567.62	757.14
568.072	738.34
568.524	738.04
568.976	733.64
569.428	717.44
569.88	712.54
570.332	721.34
570.784	722.54
571.235	724.84
571.687	741.54
572.139	746.24
572.59	759.94
573.042	747.14
573.494	751.64
573.945	750.94
574.397	734.14
574.849	739.04
575.3	734.74
575.752	726.04
576.203	721.34
576.655	726.64
577.106	719.54
577.557	701.04
578.009	712.04
578.46	702.84
578.912	705.34
579.363	705.84
579.814	707.14
580.265	704.64
580.717	706.74
581.168	714.74
581.619	719.84
582.07	722.44
582.521	713.04
582.972	704.04
583.423	715.34
583.875	714.04
584.326	718.54
584.777	733.14
585.227	749.14
585.678	773.04
586.129	790.74
586.58	807.34
587.031	826.14
587.482	856.44
587.933	886.04
588.384	865.34
588.834	833.14
589.285	812.44
589.736	815.74
590.186	812.64
590.637	808.34
591.088	782.34
591.538	777.34
591.989	769.64
592.439	764.94
592.89	760.04
593.34	753.84
593.791	752.14
594.241	736.14
594.692	739.44
595.142	732.64
595.593	734.24
596.043	736.64
596.493	746.14
596.943	742.74
597.394	755.74
597.844	764.54
598.294	769.44
598.744	795.94
599.195	815.94
599.645	861.54
600.095	901.14
600.545	967.24
600.995	1018.64
601.445	1077.54
601.895	1144.64
602.345	1208.54
602.795	1168.74
603.245	1140.94
603.695	1071.24
604.145	1021.04
604.594	964.14
605.044	918.34
605.494	841.94
605.944	803.64
606.393	780.44
606.843	763.74
607.293	767.34
607.743	768.34
608.192	779.34
608.642	792.34
609.091	784.84
609.541	796.04
609.99	801.34
610.44	798.74
610.889	751.24
611.339	734.74
611.788	717.94
612.238	726.04
612.687	742.54
613.136	733.34
613.586	737.64
614.035	726.74
614.484	750.24
614.933	735.14
615.383	742.14
615.832	737.94
616.281	731.34
616.73	699.74
617.179	687.64
617.628	671.84
618.077	651.14
618.526	641.34
618.975	644.14
619.424	646.74
619.873	637.54
620.322	642.24
620.771	628.54
621.22	626.74
621.669	620.64
622.118	612.94
622.567	603.64
623.015	596.44
623.464	598.64
623.913	588.24
624.361	575.64
624.81	580.14
625.259	579.04
625.707	583.74
626.156	576.24
626.604	594.04
627.053	589.74
627.501	589.44
627.95	599.74
628.398	614.24
628.847	601.34
629.295	592.34
629.744	609.44
630.192	592.94
630.64	581.14
631.089	567.44
631.537	560.64
631.985	557.64
632.433	562.64
632.881	549.04
633.33	555.64
633.778	551.14
634.226	552.24
634.674	552.34
635.122	569.04
635.57	575.74
636.018	584.84
636.466	596.44
636.914	574.24
637.362	602.74
637.81	602.44
638.258	609.04
638.705	616.34
639.153	640.24
639.601	646.54
640.049	669.24
640.497	709.84
640.944	724.84
641.392	675.94
641.84	642.54
642.287	606.94
642.735	585.84
643.182	589.24
643.63	588.64
644.078	587.64
644.525	600.54
644.973	605.94
645.42	614.44
645.867	635.54
646.315	663.44
646.762	684.54
647.21	708.64
647.657	730.14
648.104	759.94
648.551	780.44
648.999	841.24
649.446	920.64
649.893	1007.64
650.34	1134.14
650.787	1345.34
651.234	1663.84
651.682	2137.54
652.129	2907.24
652.576	4137.04
653.023	6012.34
653.47	8170.64
653.917	10134.74
654.363	11670.74
654.81	12874.24
655.257	12205.74
655.704	8094.44
656.151	4884.94
656.598	3204.24
657.044	2297.04
657.491	1785.94
657.938	1450.44
658.385	1213.94
658.831	1067.24
659.278	958.84
659.724	848.74
660.171	789.74
660.618	726.94
661.064	696.54
661.511	677.34
661.957	664.44
662.404	660.14
662.85	668.74
663.296	641.24
663.743	572.64
664.189	551.94
664.635	542.24
665.082	550.34
665.528	549.44
665.974	529.94
666.42	533.54
666.867	524.24
667.313	501.44
667.759	484.54
668.205	472.14
668.651	468.84
669.097	464.14
669.543	460.34
669.989	460.44
670.435	470.54
670.881	462.64
671.327	471.74
671.773	498.34
672.219	504.44
672.665	562.54
673.11	612.74
673.556	662.14
674.002	697.84
674.448	698.64
674.893	578.54
675.339	504.44
675.785	462.84
676.23	431.24
676.676	413.14
677.122	408.64
677.567	385.94
678.013	388.54
678.458	379.34
678.904	383.84
679.349	366.44
679.794	367.84
680.24	362.94
680.685	366.24
681.131	362.44
681.576	373.04
682.021	368.94
682.466	367.44
682.912	362.54
683.357	371.24
683.802	396.14
684.247	423.84
684.692	467.14
685.137	517.44
685.583	555.64
686.028	580.74
686.473	541.54
686.918	464.84
687.363	432.64
687.807	415.34
688.252	380.24
688.697	371.64
689.142	355.94
689.587	339.54
690.032	340.04
690.477	356.74
690.921	369.34
691.366	398.24
691.811	421.94
692.255	450.84
692.7	486.54
693.145	527.54
693.589	739.04
694.034	1195.24
694.478	1625.64
694.923	1839.64
695.367	2405.94
695.812	1263.94
696.256	531.84
696.701	385.34
697.145	363.14
697.59	344.64
698.034	336.24
698.478	332.04
698.922	330.54
699.367	337.44
699.811	351.04
700.255	363.24
700.699	401.54
701.143	447.84
701.588	501.14
702.032	534.64
702.476	537.14
702.92	520.84
703.364	525.54
703.808	671.24
704.252	1096.14
704.696	1534.84
705.14	1763.54
705.584	2257.14
706.027	1131.24
706.471	550.54
706.915	421.34
707.359	371.14
707.803	337.44
708.246	327.84
708.69	330.54
709.134	324.74
709.577	322.34
710.021	332.14
710.465	313.74
710.908	310.34
711.352	304.44
711.795	329.14
712.239	372.34
712.682	402.44
713.126	433.34
713.569	470.44
714.012	378.34
714.456	318.04
714.899	306.34
715.342	284.14
715.786	280.44
716.229	270.84
716.672	267.54
717.115	262.34
717.558	261.74
718.002	261.24
718.445	269.74
718.888	299.84
719.331	306.84
719.774	322.34
720.217	315.04
720.66	297.54
721.103	280.14
721.546	271.74
721.989	265.44
722.432	243.74
722.874	248.14
723.317	246.94
723.76	244.34
724.203	271.74
724.645	327.84
725.088	464.44
725.531	596.84
725.974	684.54
726.416	571.34
726.859	323.24
727.301	258.74
727.744	245.64
728.187	239.84
728.629	241.64
729.071	257.74
729.514	267.54
729.956	282.64
730.399	295.54
730.841	301.74
731.283	285.74
731.726	280.34
732.168	279.74
732.61	280.24
733.053	295.34
733.495	332.24
733.937	375.34
734.379	421.34
734.821	462.54
735.263	578.34
735.705	893.94
736.148	1688.74
736.59	2738.24
737.032	3247.34
737.474	2639.94
737.916	864.44
738.357	457.54
738.799	342.94
739.241	306.94
739.683	298.54
740.125	303.44
740.567	306.24
741.008	331.94
741.45	337.14
741.892	329.44
742.334	367.54
742.775	392.54
743.217	367.24
743.658	283.14
744.1	270.14
744.542	289.84
744.983	337.84
745.425	368.34
745.866	353.54
746.307	294.14
746.749	297.74
747.19	338.14
747.632	482.14
748.073	946.34
748.514	1978.14
748.956	3030.94
749.397	3783.84
749.838	3157.24
750.279	3119.84
750.72	1587.24
751.162	572.44
751.603	336.24
752.044	264.64
752.485	229.44
752.926	218.14
753.367	209.74
753.808	198.84
754.249	200.64
754.69	195.94
755.131	191.84
755.572	196.04
756.013	195.44
756.453	198.84
756.894	202.04
757.335	203.14
757.776	199.34
758.216	201.04
758.657	205.34
759.098	218.44
759.538	241.74
759.979	283.54
760.42	399.34
760.86	753.84
761.301	1948.84
761.741	4714.64
762.182	6806.54
762.622	4824.64
763.063	1390.34
