Data from 20171114-ORNL-Ar_H_NY_Subt18_08-04-20-898.txt Node
Date: Tue Nov 14 08:04:20 EST 2017
User: Ender
Spectrometer: HR+D1039
Trigger mode: 0
Integration Time (sec): 2.730000E-2
Scans to average: 10
Electric dark correction enabled: true
Nonlinearity correction enabled: false
Boxcar width: 0
XAxis mode: Wavelengths
Number of Pixels in Spectrum: 2048
>>>>>Begin Spectral Data<<<<<
187.836	-4.55
188.309	-4.55
188.782	-4.55
189.255	2.25
189.728	3.05
190.201	5.35
190.674	0.95
191.147	-2.65
191.619	-9.65
192.092	4.65
192.565	5.75
193.038	-2.35
193.511	-2.75
193.984	-2.65
194.456	1.55
194.929	-1.65
195.402	-1.95
195.874	4.65
196.347	-4.75
196.82	-8.55
197.292	7.35
197.765	-3.75
198.237	-5.15
198.71	2.05
199.182	-4.55
199.655	4.65
200.127	4.65
200.6	-3.15
201.072	-1.25
201.544	-5.45
202.017	-5.15
202.489	2.45
202.961	-3.95
203.433	-3.95
203.906	-4.95
204.378	-4.25
204.85	-1.35
205.322	-12.85
205.794	-0.75
206.266	-3.95
206.739	-8.35
207.211	0.35
207.683	-9.05
208.155	-0.35
208.627	-10.25
209.099	-4.75
209.57	-15.75
210.042	-4.25
210.514	-7.15
210.986	2.35
211.458	-12.15
211.93	-0.25
212.402	-3.85
212.873	-9.45
213.345	-7.75
213.817	-15.75
214.288	-5.15
214.76	-8.55
215.232	4.75
215.703	-4.15
216.175	-0.65
216.646	-6.45
217.118	-11.45
217.589	-4.95
218.061	-5.35
218.532	-5.85
219.004	-4.65
219.475	-5.25
219.946	-2.25
220.418	-0.85
220.889	4.05
221.36	4.25
221.832	-1.45
222.303	-9.25
222.774	-2.55
223.245	-14.85
223.717	-4.45
224.188	-2.25
224.659	-8.15
225.13	-7.95
225.601	-4.95
226.072	3.65
226.543	-8.45
227.014	-3.15
227.485	-2.95
227.956	-7.05
228.427	-4.75
228.898	-0.55
229.369	3.55
229.839	3.85
230.31	-2.55
230.781	-1.05
231.252	-4.35
231.722	-6.35
232.193	3.75
232.664	-0.05
233.135	8.35
233.605	-3.15
234.076	-3.65
234.546	-2.65
235.017	3.85
235.487	-3.65
235.958	2.35
236.428	-2.35
236.899	10.25
237.369	6.35
237.84	-0.05
238.31	9.75
238.78	6.55
239.251	7.85
239.721	4.65
240.191	-2.95
240.662	5.05
241.132	1.05
241.602	-4.55
242.072	3.45
242.542	7.15
243.013	-1.05
243.483	1.25
243.953	3.95
244.423	6.25
244.893	-3.45
245.363	7.35
245.833	0.15
246.303	5.45
246.773	9.05
247.243	7.05
247.712	7.65
248.182	15.45
248.652	8.45
249.122	0.05
249.592	7.35
250.061	25.55
250.531	36.15
251.001	16.25
251.471	18.65
251.94	19.75
252.41	14.35
252.879	2.75
253.349	12.05
253.818	8.75
254.288	4.15
254.757	3.15
255.227	5.95
255.696	5.05
256.166	9.75
256.635	5.75
257.105	4.85
257.574	11.95
258.043	8.15
258.513	14.85
258.982	20.55
259.451	14.15
259.92	20.05
260.389	15.45
260.859	20.05
261.328	16.05
261.797	18.95
262.266	8.15
262.735	10.05
263.204	7.25
263.673	4.75
264.142	7.15
264.611	-1.75
265.08	0.95
265.549	8.95
266.018	7.15
266.487	0.75
266.955	-1.25
267.424	0.15
267.893	6.25
268.362	4.75
268.83	1.05
269.299	13.45
269.768	9.05
270.236	10.35
270.705	4.05
271.174	13.15
271.642	12.85
272.111	8.85
272.579	10.65
273.048	18.75
273.516	31.75
273.985	26.45
274.453	33.85
274.922	15.55
275.39	10.15
275.858	4.35
276.327	14.45
276.795	16.45
277.263	8.45
277.731	32.85
278.2	58.05
278.668	56.55
279.136	44.45
279.604	16.35
280.072	12.05
280.54	17.25
281.008	11.95
281.477	13.95
281.945	11.75
282.413	12.55
282.881	16.95
283.348	12.95
283.816	11.75
284.284	18.25
284.752	16.25
285.22	17.25
285.688	19.55
286.156	17.85
286.623	48.15
287.091	54.85
287.559	24.95
288.026	14.05
288.494	17.95
288.962	7.65
289.429	12.25
289.897	13.95
290.364	14.55
290.832	18.05
291.3	11.55
291.767	15.85
292.234	16.45
292.702	17.65
293.169	18.65
293.637	16.75
294.104	23.55
294.571	7.45
295.039	11.15
295.506	18.05
295.973	16.25
296.44	14.15
296.908	11.75
297.375	26.55
297.842	16.85
298.309	17.35
298.776	18.75
299.243	20.25
299.71	14.35
300.177	16.95
300.644	22.25
301.111	20.95
301.578	21.25
302.045	12.65
302.512	28.75
302.979	24.65
303.446	23.85
303.913	15.75
304.379	18.15
304.846	31.25
305.313	19.65
305.78	21.65
306.246	28.95
306.713	30.15
307.18	26.55
307.646	32.35
308.113	28.35
308.579	29.15
309.046	27.35
309.512	26.55
309.979	19.25
310.445	27.25
310.912	26.05
311.378	33.25
311.845	29.85
312.311	29.95
312.777	30.45
313.244	26.75
313.71	36.45
314.176	33.35
314.642	31.45
315.109	29.45
315.575	30.45
316.041	37.85
316.507	30.65
316.973	35.05
317.439	34.55
317.905	35.45
318.371	37.15
318.837	29.05
319.303	31.25
319.769	34.15
320.235	29.75
320.701	30.05
321.167	36.25
321.633	34.35
322.099	37.15
322.564	42.35
323.03	38.15
323.496	35.95
323.962	36.45
324.427	29.85
324.893	41.25
325.359	35.45
325.824	35.65
326.29	30.95
326.755	36.85
327.221	36.05
327.686	36.45
328.152	42.65
328.617	42.55
329.083	40.05
329.548	52.55
330.014	47.65
330.479	37.05
330.944	42.55
331.41	44.55
331.875	45.55
332.34	42.95
332.805	40.65
333.271	45.65
333.736	41.25
334.201	48.55
334.666	47.65
335.131	48.45
335.596	48.85
336.061	51.75
336.526	40.05
336.991	52.05
337.456	51.15
337.921	48.65
338.386	36.05
338.851	36.85
339.316	44.55
339.781	45.25
340.246	51.25
340.711	39.85
341.175	48.05
341.64	43.45
342.105	51.95
342.569	49.35
343.034	48.75
343.499	51.15
343.963	48.85
344.428	61.25
344.893	54.25
345.357	53.25
345.822	58.25
346.286	65.05
346.751	66.55
347.215	67.55
347.679	65.85
348.144	92.75
348.608	80.95
349.073	68.25
349.537	67.35
350.001	74.75
350.465	87.15
350.93	74.45
351.394	73.85
351.858	59.05
352.322	80.95
352.786	80.65
353.25	93.65
353.715	102.85
354.179	98.85
354.643	109.45
355.107	113.35
355.571	105.85
356.035	95.35
356.498	106.15
356.962	103.85
357.426	120.05
357.89	101.75
358.354	88.25
358.818	75.15
359.281	74.45
359.745	72.35
360.209	70.45
360.673	66.15
361.136	71.85
361.6	76.35
362.064	78.85
362.527	81.45
362.991	80.05
363.454	74.65
363.918	79.45
364.381	67.35
364.845	74.75
365.308	82.85
365.772	79.55
366.235	78.05
366.698	74.45
367.162	80.25
367.625	77.25
368.088	91.45
368.552	81.15
369.015	83.55
369.478	95.55
369.941	95.95
370.404	86.95
370.867	99.55
371.331	96.45
371.794	106.95
372.257	102.75
372.72	108.95
373.183	99.05
373.646	99.05
374.109	91.05
374.572	99.25
375.035	98.25
375.497	99.75
375.96	96.55
376.423	94.25
376.886	91.65
377.349	105.35
377.811	92.75
378.274	92.55
378.737	97.05
379.199	102.25
379.662	114.55
380.125	109.35
380.587	117.05
381.05	114.75
381.512	118.85
381.975	121.25
382.437	118.05
382.9	115.85
383.362	122.35
383.825	127.95
384.287	132.95
384.75	131.25
385.212	123.75
385.674	128.75
386.136	126.45
386.599	117.95
387.061	114.45
387.523	121.05
387.985	123.75
388.447	137.95
388.91	132.55
389.372	143.65
389.834	138.35
390.296	131.85
390.758	143.55
391.22	145.55
391.682	192.35
392.144	266.65
392.606	206.95
393.068	154.55
393.529	157.05
393.991	147.95
394.453	133.05
394.915	144.05
395.377	178.25
395.838	193.75
396.3	145.35
396.762	131.15
397.224	124.45
397.685	121.85
398.147	120.65
398.608	115.25
399.07	117.25
399.531	122.05
399.993	133.85
400.454	134.45
400.916	133.65
401.377	131.35
401.839	140.45
402.3	142.05
402.762	145.45
403.223	165.05
403.684	150.75
404.145	143.85
404.607	146.55
405.068	147.95
405.529	151.05
405.99	166.65
406.451	153.15
406.913	162.65
407.374	151.85
407.835	150.05
408.296	154.05
408.757	159.55
409.218	168.35
409.679	160.45
410.14	159.95
410.601	163.45
411.062	168.85
411.522	167.85
411.983	170.65
412.444	164.35
412.905	167.45
413.366	171.05
413.826	174.45
414.287	205.75
414.748	241.05
415.208	233.15
415.669	191.35
416.13	181.45
416.59	185.95
417.051	198.35
417.511	193.95
417.972	223.45
418.432	233.95
418.893	265.05
419.353	234.35
419.814	186.95
420.274	161.35
420.734	169.65
421.195	181.75
421.655	180.35
422.115	176.35
422.576	176.35
423.036	187.15
423.496	195.35
423.956	189.85
424.416	211.45
424.876	244.05
425.336	238.95
425.797	236.05
426.257	232.95
426.717	223.05
427.177	214.65
427.637	202.35
428.097	221.15
428.556	227.65
429.016	246.45
429.476	232.75
429.936	249.35
430.396	255.65
430.856	269.65
431.315	289.95
431.775	309.45
432.235	352.75
432.694	320.95
433.154	327.25
433.614	354.15
434.073	304.15
434.533	259.35
434.993	245.35
435.452	258.05
435.912	264.75
436.371	259.45
436.83	247.35
437.29	243.15
437.749	224.55
438.209	218.35
438.668	242.65
439.127	250.35
439.587	237.55
440.046	221.95
440.505	234.15
440.964	244.95
441.424	275.45
441.883	272.05
442.342	234.25
442.801	200.55
443.26	201.65
443.719	205.05
444.178	198.85
444.637	191.55
445.096	206.55
445.555	202.95
446.014	197.95
446.473	203.25
446.932	206.65
447.391	206.05
447.849	210.05
448.308	195.45
448.767	202.85
449.226	205.65
449.685	221.05
450.143	223.45
450.602	216.95
451.061	205.55
451.519	216.85
451.978	216.65
452.436	211.95
452.895	219.05
453.353	227.35
453.812	224.35
454.27	218.65
454.729	221.25
455.187	212.25
455.646	221.15
456.104	224.95
456.562	239.95
457.021	240.45
457.479	228.75
457.937	236.65
458.395	240.35
458.854	221.95
459.312	225.05
459.77	236.55
460.228	225.15
460.686	213.95
461.144	224.15
461.602	219.95
462.06	224.65
462.518	222.05
462.976	228.65
463.434	233.55
463.892	241.75
464.35	251.75
464.808	265.25
465.266	247.55
465.724	254.55
466.181	253.75
466.639	246.65
467.097	266.55
467.555	274.35
468.012	281.05
468.47	287.25
468.928	305.55
469.385	322.55
469.843	311.75
470.3	310.45
470.758	324.05
471.215	341.25
471.673	360.45
472.13	363.95
472.588	375.95
473.045	338.05
473.503	342.35
473.96	361.25
474.417	360.75
474.875	384.85
475.332	431.65
475.789	416.05
476.246	426.85
476.704	429.45
477.161	458.95
477.618	469.85
478.075	504.85
478.532	554.55
478.989	617.75
479.446	714.55
479.903	692.55
480.36	729.85
480.817	785.55
481.274	883.65
481.731	975.15
482.188	1060.65
482.645	1196.15
483.102	1291.05
483.558	1412.35
484.015	1476.45
484.472	1453.75
484.929	1409.05
485.385	1362.45
485.842	1317.85
486.299	1255.15
486.755	1177.75
487.212	1002.25
487.668	848.55
488.125	777.35
488.582	721.15
489.038	675.25
489.494	648.85
489.951	626.25
490.407	612.95
490.864	592.45
491.32	584.15
491.776	586.45
492.233	589.85
492.689	551.75
493.145	548.55
493.602	541.75
494.058	555.55
494.514	555.75
494.97	573.15
495.426	585.75
495.882	561.75
496.338	549.65
496.794	582.95
497.251	565.35
497.707	577.75
498.163	577.45
498.618	587.85
499.074	582.35
499.53	609.85
499.986	604.75
500.442	589.75
500.898	572.05
501.354	572.95
501.809	581.15
502.265	585.95
502.721	600.35
503.177	605.35
503.632	602.05
504.088	609.45
504.543	647.85
504.999	642.85
505.455	595.65
505.91	578.45
506.366	579.75
506.821	573.55
507.277	568.25
507.732	563.75
508.187	562.35
508.643	568.55
509.098	578.05
509.553	592.25
510.009	599.95
510.464	597.35
510.919	618.95
511.375	628.95
511.83	638.15
512.285	655.95
512.74	679.25
513.195	703.25
513.65	698.65
514.105	691.85
514.56	698.85
515.015	720.75
515.47	725.65
515.925	711.95
516.38	724.05
516.835	719.75
517.29	710.35
517.745	696.05
518.2	704.65
518.655	682.85
519.109	668.15
519.564	669.65
520.019	660.15
520.474	659.25
520.928	662.05
521.383	652.05
521.838	642.15
522.292	643.55
522.747	639.75
523.201	638.85
523.656	626.65
524.11	630.95
524.565	625.95
525.019	625.55
525.474	632.25
525.928	625.05
526.382	626.65
526.837	628.35
527.291	630.45
527.745	623.95
528.2	628.55
528.654	623.65
529.108	613.75
529.562	627.85
530.016	624.45
530.47	628.85
530.925	623.45
531.379	629.95
531.833	632.55
532.287	633.45
532.741	633.05
533.195	633.95
533.649	649.25
534.103	651.75
534.556	644.65
535.01	644.25
535.464	634.85
535.918	645.25
536.372	638.95
536.826	643.95
537.279	639.55
537.733	634.15
538.187	631.35
538.64	633.85
539.094	646.35
539.548	654.65
540.001	647.55
540.455	636.05
540.908	647.45
541.362	655.25
541.815	669.45
542.269	681.35
542.722	676.25
543.175	685.05
543.629	682.05
544.082	699.85
544.536	697.65
544.989	702.95
545.442	708.45
545.895	691.75
546.349	702.65
546.802	703.65
547.255	702.95
547.708	711.35
548.161	724.85
548.614	730.15
549.067	737.15
549.52	728.35
549.973	724.75
550.426	716.95
550.879	701.45
551.332	711.45
551.785	717.05
552.238	715.15
552.691	725.25
553.144	731.35
553.596	750.85
554.049	764.15
554.502	801.05
554.955	809.15
555.407	810.35
555.86	802.45
556.313	780.75
556.765	781.85
557.218	773.95
557.67	775.35
558.123	778.25
558.576	776.05
559.028	774.65
559.48	768.85
559.933	768.95
560.385	745.35
560.838	708.75
561.29	684.55
561.742	679.95
562.195	669.15
562.647	666.75
563.099	682.75
563.551	671.35
564.004	689.15
564.456	666.45
564.908	672.95
565.36	658.35
565.812	639.05
566.264	640.55
566.716	628.35
567.168	624.55
567.62	636.45
568.072	617.75
568.524	604.95
568.976	602.65
569.428	584.95
569.88	591.45
570.332	594.45
570.784	587.35
571.235	601.05
571.687	602.35
572.139	611.55
572.59	625.75
573.042	619.55
573.494	618.95
573.945	603.55
574.397	596.95
574.849	608.25
575.3	584.95
575.752	592.25
576.203	591.85
576.655	588.35
577.106	584.85
577.557	570.25
578.009	584.25
578.46	574.15
578.912	576.85
579.363	564.95
579.814	581.45
580.265	577.75
580.717	576.65
581.168	578.35
581.619	577.45
582.07	590.85
582.521	585.95
582.972	580.95
583.423	586.75
583.875	582.85
584.326	599.85
584.777	637.35
585.227	712.15
585.678	787.75
586.129	879.15
586.58	943.55
587.031	1014.65
587.482	1174.75
587.933	1353.55
588.384	1156.65
588.834	855.55
589.285	699.25
589.736	683.25
590.186	663.35
590.637	665.65
591.088	635.95
591.538	623.85
591.989	631.45
592.439	633.85
592.89	619.85
593.34	614.55
593.791	615.35
594.241	605.65
594.692	603.65
595.142	602.25
595.593	596.25
596.043	598.35
596.493	604.95
596.943	611.35
597.394	619.05
597.844	605.95
598.294	627.25
598.744	636.15
599.195	662.65
599.645	691.75
600.095	729.85
600.545	776.15
600.995	814.35
601.445	870.85
601.895	927.95
602.345	972.45
602.795	956.95
603.245	920.35
603.695	870.55
604.145	818.35
604.594	776.15
605.044	723.65
605.494	670.95
605.944	639.35
606.393	623.95
606.843	617.55
607.293	614.55
607.743	620.05
608.192	636.15
608.642	639.15
609.091	650.35
609.541	656.65
609.99	647.15
610.44	645.25
610.889	611.05
611.339	593.55
611.788	581.75
612.238	587.65
612.687	602.75
613.136	615.75
613.586	629.75
614.035	621.45
614.484	634.35
614.933	636.75
615.383	630.95
615.832	629.85
616.281	607.95
616.73	576.85
617.179	551.55
617.628	545.35
618.077	532.15
618.526	526.65
618.975	514.75
619.424	512.05
619.873	515.05
620.322	519.75
620.771	501.35
621.22	510.85
621.669	498.95
622.118	494.15
622.567	487.55
623.015	478.15
623.464	474.85
623.913	473.85
624.361	468.55
624.81	458.15
625.259	463.85
625.707	464.55
626.156	457.65
626.604	473.25
627.053	464.65
627.501	463.45
627.95	474.05
628.398	480.25
628.847	471.65
629.295	474.85
629.744	486.45
630.192	477.55
630.64	467.75
631.089	466.25
631.537	470.15
631.985	487.45
632.433	501.35
632.881	498.95
633.33	546.75
633.778	520.65
634.226	466.35
634.674	475.55
635.122	483.15
635.57	497.05
636.018	516.75
636.466	483.95
636.914	460.65
637.362	473.45
637.81	485.45
638.258	483.15
638.705	484.05
639.153	503.65
639.601	507.85
640.049	520.15
640.497	563.75
640.944	572.65
641.392	528.55
641.84	516.75
642.287	478.45
642.735	462.95
643.182	469.15
643.63	471.95
644.078	473.95
644.525	490.75
644.973	500.55
645.42	500.65
645.867	512.75
646.315	526.35
646.762	541.65
647.21	570.15
647.657	588.35
648.104	617.95
648.551	638.25
648.999	694.25
649.446	743.25
649.893	821.05
650.34	959.65
650.787	1133.45
651.234	1402.55
651.682	1827.15
652.129	2479.15
652.576	3568.45
653.023	5298.15
653.47	7364.45
653.917	9316.45
654.363	10926.45
654.81	12312.05
655.257	11682.85
655.704	7547.45
656.151	4441.25
656.598	2867.95
657.044	2033.95
657.491	1554.75
657.938	1236.85
658.385	1033.35
658.831	890.35
659.278	805.65
659.724	710.75
660.171	650.85
660.618	583.95
661.064	557.35
661.511	545.05
661.957	521.75
662.404	520.85
662.85	528.25
663.296	507.95
663.743	447.25
664.189	441.25
664.635	425.35
665.082	424.85
665.528	433.75
665.974	425.35
666.42	425.85
666.867	404.35
667.313	394.45
667.759	389.25
668.205	394.45
668.651	396.25
669.097	391.55
669.543	410.05
669.989	386.15
670.435	361.45
670.881	364.45
671.327	367.05
671.773	382.35
672.219	396.85
672.665	445.65
673.11	467.75
673.556	508.35
674.002	550.35
674.448	543.75
674.893	450.65
675.339	379.95
675.785	358.05
676.23	340.85
676.676	320.55
677.122	315.45
677.567	297.85
678.013	301.75
678.458	291.35
678.904	289.95
679.349	276.65
679.794	284.95
680.24	286.45
680.685	279.85
681.131	284.35
681.576	284.35
682.021	289.95
682.466	282.55
682.912	278.05
683.357	283.35
683.802	302.45
684.247	329.25
684.692	362.45
685.137	405.25
685.583	441.75
686.028	463.05
686.473	421.35
686.918	360.05
687.363	344.45
687.807	315.35
688.252	295.45
688.697	289.65
689.142	268.25
689.587	264.75
690.032	256.25
690.477	278.55
690.921	283.85
691.366	303.95
691.811	325.75
692.255	360.55
692.7	375.95
693.145	395.95
693.589	538.35
694.034	881.95
694.478	1233.05
694.923	1440.05
695.367	1893.45
695.812	977.95
696.256	407.65
696.701	303.45
697.145	276.95
697.59	266.55
698.034	261.75
698.478	268.85
698.922	256.75
699.367	264.05
699.811	280.65
700.255	285.85
700.699	315.75
701.143	341.45
701.588	381.35
702.032	426.15
702.476	413.75
702.92	393.15
703.364	388.05
703.808	498.85
704.252	798.25
704.696	1157.15
705.14	1376.35
705.584	1779.95
706.027	867.25
706.471	421.45
706.915	318.05
707.359	279.05
707.803	257.95
708.246	247.35
708.69	250.35
709.134	256.55
709.577	249.35
710.021	251.55
710.465	250.55
710.908	236.25
711.352	234.85
711.795	256.15
712.239	284.55
712.682	307.35
713.126	331.85
713.569	378.25
714.012	306.15
714.456	263.75
714.899	240.65
715.342	229.45
715.786	209.65
716.229	210.75
716.672	203.85
717.115	199.35
717.558	202.95
718.002	204.25
718.445	214.35
718.888	229.05
719.331	236.65
719.774	248.75
720.217	248.65
720.66	232.05
721.103	214.75
721.546	196.65
721.989	202.15
722.432	183.95
722.874	196.75
723.317	177.95
723.76	180.25
724.203	206.05
724.645	247.45
725.088	349.25
725.531	447.35
725.974	536.75
726.416	453.15
726.859	249.35
727.301	197.05
727.744	196.65
728.187	182.35
728.629	186.25
729.071	193.75
729.514	209.55
729.956	216.15
730.399	222.65
730.841	241.25
731.283	213.55
731.726	202.15
732.168	203.95
732.61	211.95
733.053	227.25
733.495	251.15
733.937	281.15
734.379	320.35
734.821	344.25
735.263	422.45
735.705	646.25
736.148	1229.55
736.59	2058.25
737.032	2550.85
737.474	2072.55
737.916	658.35
738.357	348.95
738.799	263.65
739.241	232.55
739.683	222.85
740.125	231.85
740.567	236.55
741.008	253.95
741.45	248.65
741.892	254.85
742.334	271.15
742.775	290.25
743.217	282.15
743.658	216.05
744.1	201.55
744.542	205.35
744.983	250.05
745.425	279.05
745.866	283.25
746.307	230.15
746.749	226.45
747.19	256.55
747.632	348.65
748.073	677.05
748.514	1447.45
748.956	2301.75
749.397	2868.65
749.838	2407.55
750.279	2466.15
750.72	1233.15
751.162	436.85
751.603	268.95
752.044	202.15
752.485	168.05
752.926	168.35
753.367	162.65
753.808	152.15
754.249	150.05
754.69	145.55
755.131	144.25
755.572	152.55
756.013	144.55
756.453	143.65
756.894	149.55
757.335	149.95
757.776	152.55
758.216	149.95
758.657	153.25
759.098	154.45
759.538	178.25
759.979	205.95
760.42	287.65
760.86	536.25
761.301	1401.75
761.741	3498.35
762.182	5437.45
762.622	3815.35
763.063	1070.15
