Data from 20171114-ORNL-Ar_H_NY_Subt18_08-08-19-206.txt Node
Date: Tue Nov 14 08:08:19 EST 2017
User: Ender
Spectrometer: HR+D1039
Trigger mode: 0
Integration Time (sec): 2.730000E-2
Scans to average: 10
Electric dark correction enabled: true
Nonlinearity correction enabled: false
Boxcar width: 0
XAxis mode: Wavelengths
Number of Pixels in Spectrum: 2048
>>>>>Begin Spectral Data<<<<<
187.836	-1.36
188.309	-1.36
188.782	-1.36
189.255	-1.06
189.728	-1.46
190.201	-1.66
190.674	1.54
191.147	-3.06
191.619	-8.76
192.092	1.04
192.565	2.94
193.038	2.14
193.511	1.04
193.984	2.24
194.456	2.94
194.929	4.34
195.402	-1.36
195.874	0.44
196.347	-1.66
196.82	-5.36
197.292	8.54
197.765	0.34
198.237	0.04
198.71	-1.36
199.182	2.54
199.655	2.34
200.127	4.94
200.6	-0.46
201.072	-5.26
201.544	-5.16
202.017	2.94
202.489	6.64
202.961	-3.26
203.433	-4.56
203.906	-8.26
204.378	-6.36
204.85	-3.76
205.322	-7.26
205.794	-4.26
206.266	-2.96
206.739	-9.06
207.211	2.94
207.683	-7.76
208.155	-6.06
208.627	-9.96
209.099	-4.26
209.57	-6.56
210.042	-5.76
210.514	-6.46
210.986	-4.16
211.458	0.54
211.93	1.34
212.402	-0.36
212.873	-4.56
213.345	-6.16
213.817	-11.26
214.288	-4.86
214.76	-7.56
215.232	-1.16
215.703	-2.66
216.175	-3.86
216.646	-7.16
217.118	-9.86
217.589	-2.36
218.061	-4.06
218.532	-1.76
219.004	-3.16
219.475	-2.96
219.946	-7.86
220.418	-5.46
220.889	2.64
221.36	2.34
221.832	-2.76
222.303	-4.76
222.774	-2.06
223.245	-10.76
223.717	-5.86
224.188	-4.66
224.659	-4.56
225.13	-5.56
225.601	-1.16
226.072	5.34
226.543	2.14
227.014	-0.46
227.485	-2.76
227.956	-6.16
228.427	0.04
228.898	0.34
229.369	-1.36
229.839	-2.66
230.31	-5.36
230.781	3.74
231.252	-4.66
231.722	-5.56
232.193	-0.36
232.664	-1.06
233.135	3.84
233.605	0.14
234.076	-7.36
234.546	1.74
235.017	4.24
235.487	-3.36
235.958	-0.86
236.428	0.54
236.899	5.74
237.369	0.34
237.84	-6.06
238.31	10.64
238.78	0.54
239.251	1.14
239.721	0.44
240.191	4.74
240.662	0.14
241.132	-1.96
241.602	2.94
242.072	1.54
242.542	7.94
243.013	-3.26
243.483	3.24
243.953	3.54
244.423	3.54
244.893	-4.36
245.363	5.24
245.833	6.14
246.303	-3.66
246.773	3.94
247.243	4.74
247.712	4.84
248.182	3.04
248.652	6.14
249.122	-4.76
249.592	15.84
250.061	16.44
250.531	33.94
251.001	15.04
251.471	23.54
251.94	19.84
252.41	4.44
252.879	3.54
253.349	13.54
253.818	10.04
254.288	10.14
254.757	7.74
255.227	5.64
255.696	4.04
256.166	4.84
256.635	6.14
257.105	8.54
257.574	6.64
258.043	11.74
258.513	6.44
258.982	18.24
259.451	6.44
259.92	8.84
260.389	7.94
260.859	18.54
261.328	7.44
261.797	8.94
262.266	9.44
262.735	11.54
263.204	2.64
263.673	5.54
264.142	4.44
264.611	-5.16
265.08	-0.66
265.549	1.54
266.018	1.54
266.487	-0.86
266.955	3.54
267.424	6.64
267.893	5.54
268.362	6.54
268.83	1.34
269.299	10.14
269.768	7.04
270.236	7.14
270.705	6.14
271.174	8.64
271.642	8.44
272.111	7.94
272.579	16.34
273.048	20.04
273.516	23.64
273.985	29.54
274.453	27.64
274.922	16.54
275.39	10.44
275.858	-0.26
276.327	10.94
276.795	21.14
277.263	10.14
277.731	27.64
278.2	50.14
278.668	50.34
279.136	46.04
279.604	20.04
280.072	18.54
280.54	11.84
281.008	12.24
281.477	19.04
281.945	13.64
282.413	15.44
282.881	12.54
283.348	11.44
283.816	11.74
284.284	9.04
284.752	20.14
285.22	10.24
285.688	18.64
286.156	16.44
286.623	40.94
287.091	57.24
287.559	30.34
288.026	14.84
288.494	17.84
288.962	8.44
289.429	7.24
289.897	11.64
290.364	14.14
290.832	19.74
291.3	19.34
291.767	19.64
292.234	14.04
292.702	16.54
293.169	17.14
293.637	24.54
294.104	17.14
294.571	9.44
295.039	13.64
295.506	11.34
295.973	14.64
296.44	16.24
296.908	19.64
297.375	17.74
297.842	20.14
298.309	18.24
298.776	11.54
299.243	15.74
299.71	15.04
300.177	16.54
300.644	25.14
301.111	19.64
301.578	20.34
302.045	21.44
302.512	22.54
302.979	25.94
303.446	22.34
303.913	18.24
304.379	19.04
304.846	27.04
305.313	19.14
305.78	21.44
306.246	26.94
306.713	25.44
307.18	20.14
307.646	15.74
308.113	26.64
308.579	21.84
309.046	22.24
309.512	22.44
309.979	21.34
310.445	26.94
310.912	23.44
311.378	31.34
311.845	25.94
312.311	27.04
312.777	28.94
313.244	30.24
313.71	34.54
314.176	29.34
314.642	27.94
315.109	28.34
315.575	33.74
316.041	33.14
316.507	33.04
316.973	36.74
317.439	35.94
317.905	33.44
318.371	39.44
318.837	37.84
319.303	35.54
319.769	32.84
320.235	31.34
320.701	30.84
321.167	32.64
321.633	27.14
322.099	38.14
322.564	44.64
323.03	36.74
323.496	32.24
323.962	38.84
324.427	39.54
324.893	44.14
325.359	38.24
325.824	36.84
326.29	36.24
326.755	35.04
327.221	35.74
327.686	41.24
328.152	40.24
328.617	40.44
329.083	45.04
329.548	50.44
330.014	45.24
330.479	39.14
330.944	43.54
331.41	34.24
331.875	40.34
332.34	42.44
332.805	45.24
333.271	45.84
333.736	47.14
334.201	50.04
334.666	51.84
335.131	52.24
335.596	45.44
336.061	41.34
336.526	42.34
336.991	46.64
337.456	55.24
337.921	47.84
338.386	40.44
338.851	43.34
339.316	46.44
339.781	42.24
340.246	44.64
340.711	49.34
341.175	55.74
341.64	45.34
342.105	55.24
342.569	51.74
343.034	59.74
343.499	53.64
343.963	53.24
344.428	62.24
344.893	61.94
345.357	62.04
345.822	63.14
346.286	62.64
346.751	72.54
347.215	65.64
347.679	74.84
348.144	101.84
348.608	77.94
349.073	65.54
349.537	78.44
350.001	79.54
350.465	85.64
350.93	79.94
351.394	81.44
351.858	67.34
352.322	80.64
352.786	75.74
353.25	103.74
353.715	108.44
354.179	92.04
354.643	125.14
355.107	127.64
355.571	108.24
356.035	98.64
356.498	118.44
356.962	126.84
357.426	129.64
357.89	119.94
358.354	90.74
358.818	83.54
359.281	77.14
359.745	69.24
360.209	77.14
360.673	75.44
361.136	75.04
361.6	87.84
362.064	85.84
362.527	80.54
362.991	91.24
363.454	80.44
363.918	75.54
364.381	80.94
364.845	84.74
365.308	83.84
365.772	83.34
366.235	84.44
366.698	82.74
367.162	87.54
367.625	84.94
368.088	82.34
368.552	84.34
369.015	88.94
369.478	92.74
369.941	102.64
370.404	93.64
370.867	105.84
371.331	105.14
371.794	115.94
372.257	113.24
372.72	115.04
373.183	111.34
373.646	101.34
374.109	106.94
374.572	106.54
375.035	110.54
375.497	109.84
375.96	98.64
376.423	106.44
376.886	112.14
377.349	114.94
377.811	103.84
378.274	112.14
378.737	104.34
379.199	105.14
379.662	114.04
380.125	112.34
380.587	117.14
381.05	122.54
381.512	129.04
381.975	128.74
382.437	134.14
382.9	128.74
383.362	131.84
383.825	136.14
384.287	141.34
384.75	141.34
385.212	142.74
385.674	143.44
386.136	138.54
386.599	124.24
387.061	130.24
387.523	126.74
387.985	135.54
388.447	147.14
388.91	142.84
389.372	151.94
389.834	155.14
390.296	148.94
390.758	156.64
391.22	167.04
391.682	214.44
392.144	308.44
392.606	238.04
393.068	175.14
393.529	161.54
393.991	157.84
394.453	146.74
394.915	159.64
395.377	194.24
395.838	213.94
396.3	160.04
396.762	145.04
397.224	133.94
397.685	132.54
398.147	134.54
398.608	129.94
399.07	135.34
399.531	135.64
399.993	143.54
400.454	154.04
400.916	142.44
401.377	147.54
401.839	149.04
402.3	148.24
402.762	165.94
403.223	183.24
403.684	168.74
404.145	160.84
404.607	154.74
405.068	158.94
405.529	172.54
405.99	193.14
406.451	171.64
406.913	176.34
407.374	165.44
407.835	155.34
408.296	166.24
408.757	169.04
409.218	189.64
409.679	181.44
410.14	181.04
410.601	173.04
411.062	186.44
411.522	197.44
411.983	187.94
412.444	181.14
412.905	176.74
413.366	184.04
413.826	192.24
414.287	215.74
414.748	263.44
415.208	237.54
415.669	206.74
416.13	202.94
416.59	198.74
417.051	209.64
417.511	217.54
417.972	234.84
418.432	238.44
418.893	278.34
419.353	246.34
419.814	197.84
420.274	180.24
420.734	182.74
421.195	199.14
421.655	199.04
422.115	198.54
422.576	194.64
423.036	202.84
423.496	207.14
423.956	219.64
424.416	226.54
424.876	264.24
425.336	257.34
425.797	260.54
426.257	257.54
426.717	237.34
427.177	233.24
427.637	224.24
428.097	230.44
428.556	242.94
429.016	267.94
429.476	269.54
429.936	275.84
430.396	278.24
430.856	295.44
431.315	310.24
431.775	348.34
432.235	384.84
432.694	355.94
433.154	366.74
433.614	399.14
434.073	345.54
434.533	285.14
434.993	277.84
435.452	286.74
435.912	291.04
436.371	291.84
436.83	282.24
437.29	276.94
437.749	254.84
438.209	248.44
438.668	284.74
439.127	289.44
439.587	264.74
440.046	246.14
440.505	263.64
440.964	271.94
441.424	319.94
441.883	307.04
442.342	259.34
442.801	228.54
443.26	218.24
443.719	227.74
444.178	225.94
444.637	215.64
445.096	220.64
445.555	228.64
446.014	221.64
446.473	232.94
446.932	234.54
447.391	226.24
447.849	230.34
448.308	218.94
448.767	219.04
449.226	230.34
449.685	234.44
450.143	253.64
450.602	235.84
451.061	224.34
451.519	233.04
451.978	232.84
452.436	232.04
452.895	239.04
453.353	250.94
453.812	236.44
454.27	244.04
454.729	231.24
455.187	243.44
455.646	240.74
456.104	251.74
456.562	265.44
457.021	261.44
457.479	268.54
457.937	274.44
458.395	259.04
458.854	248.04
459.312	252.74
459.77	280.24
460.228	258.04
460.686	244.74
461.144	251.34
461.602	246.64
462.06	241.84
462.518	253.74
462.976	257.14
463.434	247.74
463.892	254.44
464.35	272.74
464.808	280.54
465.266	261.14
465.724	269.04
466.181	269.34
466.639	268.04
467.097	283.54
467.555	294.14
468.012	299.84
468.47	305.84
468.928	317.84
469.385	336.64
469.843	351.24
470.3	345.54
470.758	362.64
471.215	383.74
471.673	412.74
472.13	412.44
472.588	416.44
473.045	383.14
473.503	378.84
473.96	389.04
474.417	406.04
474.875	435.84
475.332	469.24
475.789	456.64
476.246	466.64
476.704	482.24
477.161	511.14
477.618	520.44
478.075	568.04
478.532	616.94
478.989	697.04
479.446	807.14
479.903	764.64
480.36	803.74
480.817	856.74
481.274	957.44
481.731	1055.94
482.188	1149.34
482.645	1289.74
483.102	1408.34
483.558	1551.54
484.015	1574.84
484.472	1557.04
484.929	1511.14
485.385	1448.84
485.842	1418.24
486.299	1347.34
486.755	1300.94
487.212	1083.94
487.668	919.24
488.125	847.94
488.582	771.04
489.038	737.24
489.494	706.24
489.951	676.94
490.407	655.94
490.864	636.24
491.32	637.74
491.776	636.94
492.233	636.14
492.689	605.44
493.145	594.34
493.602	588.54
494.058	601.24
494.514	609.24
494.97	627.94
495.426	646.14
495.882	613.64
496.338	600.94
496.794	602.94
497.251	604.84
497.707	630.64
498.163	633.04
498.618	638.84
499.074	629.74
499.53	662.54
499.986	670.44
500.442	644.34
500.898	623.04
501.354	613.34
501.809	628.54
502.265	637.84
502.721	642.84
503.177	669.14
503.632	661.74
504.088	676.64
504.543	705.34
504.999	695.24
505.455	646.74
505.91	615.64
506.366	626.04
506.821	613.54
507.277	606.34
507.732	605.24
508.187	607.94
508.643	616.44
509.098	625.84
509.553	642.44
510.009	652.24
510.464	652.34
510.919	679.34
511.375	674.84
511.83	691.64
512.285	713.94
512.74	746.24
513.195	781.24
513.65	752.84
514.105	751.04
514.56	753.34
515.015	783.34
515.47	795.14
515.925	773.54
516.38	776.94
516.835	780.24
517.29	766.24
517.745	759.74
518.2	751.14
518.655	732.94
519.109	727.14
519.564	732.84
520.019	710.64
520.474	714.04
520.928	708.54
521.383	706.94
521.838	700.64
522.292	696.94
522.747	700.24
523.201	689.34
523.656	683.04
524.11	680.24
524.565	685.64
525.019	679.54
525.474	689.44
525.928	699.04
526.382	683.04
526.837	685.64
527.291	691.74
527.745	675.44
528.2	692.14
528.654	687.14
529.108	671.64
529.562	678.94
530.016	668.74
530.47	677.34
530.925	674.84
531.379	690.14
531.833	695.74
532.287	686.04
532.741	695.84
533.195	688.74
533.649	703.04
534.103	698.14
534.556	690.64
535.01	693.14
535.464	692.14
535.918	707.04
536.372	696.34
536.826	698.34
537.279	693.04
537.733	691.74
538.187	694.54
538.64	701.44
539.094	713.84
539.548	724.84
540.001	714.14
540.455	708.54
540.908	716.04
541.362	725.24
541.815	737.84
542.269	747.64
542.722	746.64
543.175	755.74
543.629	763.14
544.082	768.84
544.536	774.64
544.989	763.64
545.442	771.94
545.895	782.34
546.349	777.74
546.802	783.64
547.255	788.44
547.708	788.34
548.161	801.84
548.614	803.54
549.067	822.74
549.52	806.04
549.973	795.34
550.426	780.84
550.879	771.54
551.332	782.14
551.785	793.24
552.238	788.44
552.691	809.54
553.144	815.74
553.596	829.14
554.049	849.04
554.502	874.04
554.955	897.14
555.407	887.84
555.86	885.24
556.313	871.94
556.765	865.94
557.218	865.04
557.67	870.74
558.123	869.44
558.576	858.44
559.028	858.74
559.48	856.94
559.933	845.34
560.385	819.14
560.838	794.14
561.29	774.64
561.742	770.74
562.195	750.64
562.647	757.04
563.099	758.14
563.551	750.24
564.004	769.84
564.456	752.84
564.908	751.14
565.36	736.74
565.812	714.64
566.264	702.74
566.716	711.84
567.168	710.74
567.62	713.54
568.072	694.54
568.524	688.44
568.976	680.14
569.428	660.84
569.88	664.04
570.332	679.74
570.784	671.14
571.235	670.94
571.687	677.04
572.139	685.74
572.59	694.24
573.042	697.34
573.494	696.14
573.945	692.34
574.397	680.24
574.849	680.44
575.3	674.74
575.752	676.44
576.203	671.84
576.655	666.74
577.106	667.04
577.557	658.34
578.009	665.84
578.46	656.24
578.912	660.44
579.363	660.64
579.814	657.14
580.265	650.24
580.717	657.24
581.168	656.74
581.619	657.64
582.07	668.04
582.521	659.04
582.972	661.44
583.423	667.14
583.875	675.94
584.326	698.54
584.777	747.84
585.227	828.84
585.678	922.34
586.129	1019.84
586.58	1102.94
587.031	1186.24
587.482	1329.54
587.933	1535.84
588.384	1318.44
588.834	982.24
589.285	804.24
589.736	783.04
590.186	770.34
590.637	758.84
591.088	732.34
591.538	726.64
591.989	721.24
592.439	723.44
592.89	712.74
593.34	705.24
593.791	703.64
594.241	699.64
594.692	707.14
595.142	693.34
595.593	686.34
596.043	708.84
596.493	712.34
596.943	707.04
597.394	723.04
597.844	710.74
598.294	719.64
598.744	746.14
599.195	773.04
599.645	808.84
600.095	849.94
600.545	902.54
600.995	957.14
601.445	1019.54
601.895	1069.94
602.345	1118.44
602.795	1103.24
603.245	1059.14
603.695	1000.24
604.145	945.54
604.594	898.24
605.044	844.94
605.494	789.24
605.944	746.04
606.393	735.74
606.843	728.54
607.293	725.04
607.743	729.04
608.192	735.64
608.642	758.74
609.091	753.64
609.541	770.04
609.99	761.34
610.44	768.24
610.889	717.54
611.339	697.44
611.788	681.54
612.238	700.64
612.687	716.34
613.136	726.94
613.586	739.04
614.035	737.84
614.484	753.84
614.933	762.14
615.383	748.74
615.832	739.94
616.281	718.24
616.73	683.14
617.179	655.84
617.628	643.34
618.077	632.04
618.526	624.14
618.975	614.64
619.424	611.24
619.873	620.04
620.322	612.04
620.771	607.24
621.22	600.04
621.669	596.44
622.118	582.24
622.567	585.84
623.015	568.04
623.464	570.04
623.913	552.84
624.361	554.04
624.81	548.64
625.259	541.04
625.707	552.24
626.156	552.34
626.604	560.54
627.053	557.44
627.501	556.04
627.95	557.54
628.398	572.84
628.847	561.64
629.295	561.74
629.744	577.64
630.192	566.94
630.64	564.84
631.089	565.44
631.537	586.64
631.985	591.54
632.433	593.54
632.881	604.94
633.33	669.44
633.778	648.04
634.226	572.14
634.674	567.24
635.122	580.64
635.57	595.64
636.018	628.04
636.466	586.74
636.914	558.94
637.362	560.24
637.81	581.54
638.258	577.14
638.705	581.74
639.153	606.74
639.601	618.34
640.049	640.24
640.497	671.94
640.944	696.14
641.392	636.84
641.84	598.04
642.287	578.24
642.735	568.74
643.182	569.84
643.63	574.64
644.078	574.94
644.525	590.44
644.973	592.94
645.42	609.24
645.867	628.44
646.315	637.84
646.762	661.64
647.21	693.04
647.657	713.74
648.104	750.84
648.551	766.44
648.999	843.54
649.446	919.64
649.893	1021.04
650.34	1172.54
650.787	1411.24
651.234	1746.34
651.682	2293.24
652.129	3175.24
652.576	4589.44
653.023	6783.24
653.47	9248.44
653.917	11397.24
654.363	13118.74
654.81	14398.94
655.257	13683.24
655.704	8962.84
656.151	5302.34
656.598	3410.34
657.044	2423.34
657.491	1855.14
657.938	1487.54
658.385	1234.24
658.831	1074.84
659.278	965.64
659.724	851.94
660.171	795.54
660.618	726.14
661.064	687.84
661.511	674.24
661.957	655.54
662.404	646.24
662.85	645.74
663.296	624.74
663.743	560.34
664.189	537.94
664.635	534.44
665.082	525.54
665.528	520.24
665.974	513.74
666.42	505.24
666.867	503.44
667.313	499.94
667.759	486.04
668.205	485.54
668.651	493.04
669.097	491.94
669.543	509.34
669.989	472.44
670.435	445.74
670.881	449.04
671.327	447.44
671.773	463.54
672.219	488.74
672.665	542.74
673.11	582.34
673.556	627.94
674.002	670.94
674.448	658.74
674.893	547.94
675.339	464.84
675.785	438.64
676.23	415.04
676.676	386.54
677.122	378.34
677.567	363.94
678.013	365.14
678.458	361.14
678.904	362.84
679.349	351.14
679.794	353.14
680.24	348.74
680.685	352.64
681.131	347.84
681.576	348.04
682.021	351.54
682.466	339.04
682.912	344.84
683.357	357.44
683.802	381.74
684.247	409.44
684.692	456.44
685.137	494.44
685.583	537.84
686.028	554.14
686.473	513.24
686.918	443.34
687.363	418.14
687.807	392.74
688.252	365.24
688.697	349.64
689.142	327.44
689.587	328.64
690.032	333.44
690.477	350.64
690.921	352.84
691.366	380.94
691.811	405.34
692.255	430.94
692.7	459.54
693.145	508.24
693.589	704.64
694.034	1150.74
694.478	1549.14
694.923	1713.24
695.367	2214.84
695.812	1173.84
696.256	491.34
696.701	367.44
697.145	345.64
697.59	328.34
698.034	326.04
698.478	327.44
698.922	320.84
699.367	328.14
699.811	339.14
700.255	357.54
700.699	389.84
701.143	420.44
701.588	482.34
702.032	514.04
702.476	514.24
702.92	483.34
703.364	495.44
703.808	658.44
704.252	1057.34
704.696	1462.64
705.14	1657.34
705.584	2079.64
706.027	1047.94
706.471	521.34
706.915	399.54
707.359	348.54
707.803	322.84
708.246	319.24
708.69	308.64
709.134	316.54
709.577	303.44
710.021	311.54
710.465	308.24
710.908	300.34
711.352	305.24
711.795	317.44
712.239	359.24
712.682	388.04
713.126	415.94
713.569	459.54
714.012	377.64
714.456	318.74
714.899	293.44
715.342	277.84
715.786	257.24
716.229	258.14
716.672	255.44
717.115	251.94
717.558	252.14
718.002	251.94
718.445	263.44
718.888	282.44
719.331	299.14
719.774	303.74
720.217	308.24
720.66	283.84
721.103	265.04
721.546	260.24
721.989	243.34
722.432	229.84
722.874	239.64
723.317	229.54
723.76	235.64
724.203	264.54
724.645	321.84
725.088	449.24
725.531	570.34
725.974	641.24
726.416	541.24
726.859	306.44
727.301	242.74
727.744	234.54
728.187	233.64
728.629	240.74
729.071	249.64
729.514	262.94
729.956	276.54
730.399	283.54
730.841	286.34
731.283	273.34
731.726	258.64
732.168	264.64
732.61	273.04
733.053	288.64
733.495	313.24
733.937	352.24
734.379	396.04
734.821	433.64
735.263	538.64
735.705	861.74
736.148	1627.24
736.59	2583.14
737.032	2967.44
737.474	2449.34
737.916	793.64
738.357	426.94
738.799	320.24
739.241	302.04
739.683	289.64
740.125	291.44
740.567	298.54
741.008	306.94
741.45	307.44
741.892	310.04
742.334	345.14
742.775	360.64
743.217	332.04
743.658	268.44
744.1	258.74
744.542	261.24
744.983	312.14
745.425	335.14
745.866	335.64
746.307	280.04
746.749	282.14
747.19	332.34
747.632	466.44
748.073	910.84
748.514	1895.14
748.956	2838.04
749.397	3560.14
749.838	2955.34
750.279	2891.94
750.72	1474.84
751.162	552.74
751.603	314.84
752.044	251.84
752.485	217.04
752.926	210.14
753.367	200.04
753.808	192.44
754.249	189.84
754.69	185.84
755.131	182.04
755.572	177.24
756.013	180.64
756.453	182.14
756.894	189.24
757.335	191.94
757.776	193.14
758.216	201.34
758.657	193.44
759.098	204.34
759.538	228.34
759.979	267.34
760.42	381.54
760.86	735.14
761.301	1893.34
761.741	4479.74
762.182	6233.34
762.622	4402.24
