Data from 20171114-ORNL-Ar_H_NY_Subt18_08-08-54-993.txt Node
Date: Tue Nov 14 08:08:54 EST 2017
User: Ender
Spectrometer: HR+D1039
Trigger mode: 0
Integration Time (sec): 2.730000E-2
Scans to average: 10
Electric dark correction enabled: true
Nonlinearity correction enabled: false
Boxcar width: 0
XAxis mode: Wavelengths
Number of Pixels in Spectrum: 2048
>>>>>Begin Spectral Data<<<<<
187.836	-6.95
188.309	-6.95
188.782	-6.95
189.255	4.95
189.728	-4.65
190.201	-0.15
190.674	-3.55
191.147	4.05
191.619	-7.35
192.092	3.65
192.565	6.15
193.038	0.75
193.511	3.35
193.984	-0.95
194.456	1.55
194.929	0.05
195.402	0.65
195.874	-1.55
196.347	-5.35
196.82	-9.95
197.292	0.75
197.765	-2.85
198.237	-9.05
198.71	2.45
199.182	-1.85
199.655	4.85
200.127	1.65
200.6	1.15
201.072	-2.65
201.544	-0.95
202.017	-3.85
202.489	3.35
202.961	-2.25
203.433	-8.75
203.906	-10.75
204.378	-11.45
204.85	-0.15
205.322	-7.45
205.794	-5.35
206.266	-5.65
206.739	-13.75
207.211	-1.05
207.683	-4.45
208.155	-3.95
208.627	-4.35
209.099	-2.55
209.57	-9.95
210.042	-6.75
210.514	-4.95
210.986	-2.15
211.458	-10.15
211.93	-1.75
212.402	2.05
212.873	-5.45
213.345	-5.65
213.817	-13.55
214.288	-3.05
214.76	-5.25
215.232	-1.75
215.703	-1.15
216.175	-7.95
216.646	0.45
217.118	-10.45
217.589	-2.95
218.061	-2.45
218.532	-5.05
219.004	-7.55
219.475	-7.35
219.946	1.65
220.418	-6.35
220.889	0.35
221.36	1.75
221.832	-7.15
222.303	-8.15
222.774	3.65
223.245	-11.45
223.717	-5.85
224.188	-6.55
224.659	-7.95
225.13	-6.35
225.601	-0.85
226.072	1.85
226.543	-11.35
227.014	1.45
227.485	-1.75
227.956	-10.15
228.427	-3.65
228.898	-0.45
229.369	2.35
229.839	-4.15
230.31	-6.25
230.781	3.65
231.252	-0.95
231.722	-4.25
232.193	-10.55
232.664	-2.75
233.135	1.75
233.605	2.25
234.076	-6.35
234.546	0.95
235.017	3.25
235.487	-0.55
235.958	-7.05
236.428	-6.75
236.899	1.05
237.369	4.25
237.84	-4.25
238.31	-1.85
238.78	0.75
239.251	-3.55
239.721	-5.75
240.191	-1.45
240.662	0.05
241.132	-3.15
241.602	-8.05
242.072	-2.65
242.542	6.15
243.013	-9.35
243.483	-1.15
243.953	-1.15
244.423	-2.95
244.893	-7.95
245.363	-2.05
245.833	-3.05
246.303	-4.15
246.773	2.25
247.243	0.55
247.712	-2.65
248.182	6.65
248.652	0.75
249.122	-7.25
249.592	5.75
250.061	10.95
250.531	15.25
251.001	1.45
251.471	14.15
251.94	7.75
252.41	0.25
252.879	-0.55
253.349	7.35
253.818	5.75
254.288	-3.55
254.757	5.25
255.227	-9.85
255.696	4.55
256.166	2.45
256.635	2.05
257.105	1.75
257.574	0.65
258.043	5.05
258.513	1.25
258.982	4.35
259.451	-2.25
259.92	-1.75
260.389	0.15
260.859	11.35
261.328	-1.55
261.797	5.75
262.266	-2.85
262.735	10.35
263.204	1.75
263.673	0.25
264.142	6.05
264.611	-6.25
265.08	-1.25
265.549	-3.45
266.018	-0.35
266.487	-0.55
266.955	-1.85
267.424	-5.15
267.893	2.35
268.362	-6.75
268.83	-4.05
269.299	9.95
269.768	-2.65
270.236	6.05
270.705	0.15
271.174	3.05
271.642	3.45
272.111	1.05
272.579	6.55
273.048	8.25
273.516	8.55
273.985	13.55
274.453	9.05
274.922	11.85
275.39	1.05
275.858	-3.85
276.327	8.65
276.795	6.35
277.263	1.25
277.731	18.35
278.2	24.55
278.668	24.15
279.136	19.65
279.604	8.85
280.072	10.95
280.54	8.95
281.008	4.75
281.477	6.05
281.945	10.95
282.413	6.35
282.881	9.05
283.348	8.55
283.816	11.35
284.284	6.25
284.752	13.85
285.22	7.95
285.688	7.05
286.156	9.85
286.623	24.55
287.091	20.15
287.559	15.85
288.026	7.55
288.494	9.95
288.962	3.65
289.429	10.75
289.897	10.95
290.364	9.05
290.832	11.05
291.3	10.75
291.767	5.15
292.234	11.05
292.702	5.45
293.169	9.95
293.637	15.05
294.104	12.45
294.571	-2.55
295.039	5.05
295.506	7.65
295.973	8.65
296.44	7.55
296.908	15.25
297.375	13.75
297.842	11.95
298.309	10.75
298.776	9.55
299.243	10.15
299.71	1.85
300.177	14.25
300.644	15.55
301.111	13.55
301.578	18.25
302.045	10.75
302.512	16.25
302.979	13.45
303.446	14.55
303.913	11.35
304.379	12.15
304.846	17.55
305.313	22.75
305.78	17.85
306.246	17.25
306.713	23.25
307.18	13.65
307.646	17.75
308.113	18.45
308.579	17.65
309.046	17.95
309.512	13.75
309.979	16.85
310.445	15.25
310.912	18.25
311.378	27.65
311.845	20.65
312.311	18.05
312.777	22.15
313.244	22.35
313.71	31.65
314.176	19.95
314.642	19.15
315.109	21.55
315.575	20.95
316.041	30.05
316.507	22.35
316.973	28.65
317.439	25.35
317.905	22.35
318.371	24.25
318.837	26.75
319.303	23.35
319.769	30.15
320.235	25.35
320.701	31.95
321.167	27.25
321.633	27.75
322.099	27.55
322.564	33.05
323.03	33.85
323.496	31.25
323.962	32.65
324.427	27.55
324.893	33.75
325.359	30.65
325.824	25.55
326.29	28.25
326.755	28.45
327.221	36.05
327.686	22.05
328.152	35.05
328.617	31.65
329.083	36.15
329.548	43.35
330.014	42.65
330.479	21.45
330.944	29.55
331.41	30.25
331.875	35.75
332.34	36.55
332.805	33.55
333.271	36.75
333.736	35.05
334.201	41.85
334.666	37.75
335.131	46.15
335.596	39.75
336.061	38.65
336.526	32.25
336.991	31.95
337.456	43.45
337.921	37.45
338.386	33.95
338.851	35.35
339.316	41.55
339.781	39.45
340.246	41.15
340.711	37.65
341.175	40.05
341.64	33.35
342.105	41.55
342.569	49.55
343.034	48.15
343.499	45.65
343.963	37.15
344.428	53.95
344.893	52.15
345.357	46.25
345.822	51.35
346.286	58.15
346.751	59.85
347.215	55.35
347.679	56.75
348.144	74.95
348.608	63.45
349.073	62.35
349.537	59.15
350.001	62.95
350.465	71.45
350.93	67.65
351.394	63.35
351.858	61.25
352.322	73.75
352.786	71.45
353.25	80.05
353.715	81.75
354.179	84.25
354.643	100.75
355.107	103.05
355.571	91.45
356.035	83.75
356.498	94.35
356.962	99.45
357.426	103.25
357.89	95.25
358.354	75.35
358.818	75.25
359.281	63.35
359.745	57.55
360.209	65.55
360.673	61.35
361.136	62.85
361.6	77.45
362.064	71.95
362.527	67.85
362.991	77.75
363.454	66.95
363.918	64.75
364.381	71.15
364.845	72.95
365.308	78.75
365.772	74.35
366.235	78.75
366.698	73.85
367.162	73.55
367.625	71.45
368.088	77.15
368.552	78.25
369.015	72.95
369.478	81.85
369.941	85.25
370.404	78.35
370.867	89.45
371.331	92.55
371.794	96.15
372.257	92.75
372.72	99.65
373.183	97.05
373.646	93.75
374.109	89.75
374.572	93.75
375.035	88.65
375.497	96.55
375.96	98.85
376.423	87.05
376.886	99.05
377.349	103.95
377.811	91.85
378.274	96.15
378.737	93.65
379.199	101.45
379.662	100.65
380.125	101.45
380.587	95.55
381.05	102.15
381.512	111.35
381.975	117.85
382.437	111.95
382.9	104.85
383.362	114.55
383.825	127.85
384.287	124.75
384.75	118.45
385.212	122.25
385.674	123.35
386.136	120.55
386.599	110.25
387.061	108.55
387.523	119.35
387.985	119.75
388.447	130.35
388.91	120.45
389.372	129.95
389.834	132.45
390.296	123.65
390.758	137.65
391.22	141.85
391.682	166.25
392.144	207.95
392.606	166.15
393.068	145.05
393.529	150.15
393.991	141.55
394.453	129.15
394.915	137.25
395.377	150.55
395.838	164.45
396.3	134.15
396.762	142.25
397.224	120.65
397.685	122.95
398.147	123.55
398.608	125.35
399.07	123.35
399.531	125.45
399.993	136.25
400.454	139.95
400.916	140.55
401.377	141.05
401.839	139.15
402.3	140.95
402.762	157.15
403.223	169.25
403.684	163.95
404.145	153.85
404.607	153.05
405.068	155.75
405.529	159.15
405.99	165.65
406.451	162.55
406.913	160.05
407.374	161.25
407.835	149.75
408.296	160.85
408.757	164.35
409.218	182.35
409.679	163.55
410.14	165.35
410.601	172.55
411.062	174.65
411.522	175.65
411.983	176.15
412.444	166.65
412.905	167.85
413.366	172.75
413.826	191.65
414.287	210.45
414.748	251.85
415.208	240.85
415.669	209.05
416.13	206.45
416.59	201.85
417.051	211.75
417.511	217.55
417.972	226.15
418.432	242.15
418.893	285.05
419.353	245.85
419.814	200.65
420.274	179.85
420.734	181.25
421.195	192.25
421.655	187.35
422.115	188.45
422.576	190.25
423.036	197.35
423.496	202.95
423.956	204.15
424.416	225.75
424.876	259.05
425.336	251.25
425.797	258.15
426.257	247.65
426.717	234.15
427.177	231.35
427.637	223.25
428.097	225.95
428.556	235.05
429.016	262.25
429.476	257.75
429.936	266.65
430.396	261.95
430.856	278.45
431.315	303.75
431.775	341.85
432.235	371.55
432.694	334.85
433.154	350.05
433.614	366.75
434.073	325.55
434.533	275.15
434.993	258.75
435.452	271.75
435.912	281.75
436.371	271.75
436.83	271.75
437.29	256.65
437.749	240.35
438.209	242.15
438.668	261.45
439.127	277.85
439.587	258.75
440.046	236.75
440.505	249.15
440.964	266.45
441.424	308.95
441.883	294.95
442.342	255.45
442.801	221.55
443.26	217.95
443.719	216.75
444.178	221.05
444.637	217.35
445.096	228.75
445.555	222.75
446.014	221.25
446.473	223.95
446.932	227.05
447.391	223.25
447.849	231.05
448.308	210.35
448.767	221.75
449.226	241.15
449.685	240.05
450.143	248.25
450.602	245.35
451.061	233.15
451.519	235.65
451.978	227.15
452.436	227.35
452.895	236.05
453.353	254.25
453.812	244.15
454.27	233.75
454.729	242.45
455.187	237.75
455.646	239.85
456.104	243.55
456.562	258.45
457.021	267.85
457.479	254.25
457.937	268.35
458.395	264.85
458.854	245.65
459.312	246.75
459.77	270.55
460.228	252.75
460.686	237.15
461.144	255.15
461.602	247.95
462.06	241.55
462.518	259.45
462.976	262.05
463.434	257.95
463.892	261.85
464.35	269.55
464.808	283.15
465.266	264.35
465.724	272.95
466.181	273.35
466.639	271.15
467.097	286.45
467.555	299.75
468.012	296.45
468.47	309.25
468.928	330.75
469.385	338.35
469.843	339.55
470.3	344.75
470.758	357.35
471.215	377.05
471.673	398.05
472.13	404.75
472.588	419.25
473.045	367.05
473.503	383.85
473.96	394.85
474.417	399.25
474.875	427.75
475.332	476.65
475.789	458.95
476.246	472.45
476.704	480.95
477.161	502.85
477.618	522.05
478.075	556.35
478.532	602.85
478.989	675.75
479.446	790.05
479.903	753.55
480.36	784.35
480.817	835.35
481.274	931.95
481.731	1020.15
482.188	1102.95
482.645	1236.85
483.102	1318.25
483.558	1449.55
484.015	1483.65
484.472	1457.05
484.929	1415.45
485.385	1387.05
485.842	1348.45
486.299	1276.45
486.755	1242.65
487.212	1053.35
487.668	897.35
488.125	821.75
488.582	770.85
489.038	731.05
489.494	700.85
489.951	677.15
490.407	660.75
490.864	637.55
491.32	629.35
491.776	635.55
492.233	635.75
492.689	608.55
493.145	604.85
493.602	598.85
494.058	601.05
494.514	609.95
494.97	624.85
495.426	646.25
495.882	616.25
496.338	617.05
496.794	607.85
497.251	603.55
497.707	630.45
498.163	627.15
498.618	626.75
499.074	646.15
499.53	665.35
499.986	675.85
500.442	646.35
500.898	623.75
501.354	622.75
501.809	636.85
502.265	635.05
502.721	642.55
503.177	649.95
503.632	649.05
504.088	668.35
504.543	683.05
504.999	704.15
505.455	655.25
505.91	635.85
506.366	634.35
506.821	628.95
507.277	635.75
507.732	642.65
508.187	635.75
508.643	648.25
509.098	648.65
509.553	655.95
510.009	679.45
510.464	674.15
510.919	702.05
511.375	694.95
511.83	715.15
512.285	725.65
512.74	749.45
513.195	785.65
513.65	771.75
514.105	762.45
514.56	771.95
515.015	788.35
515.47	794.35
515.925	790.05
516.38	798.65
516.835	797.35
517.29	789.45
517.745	786.35
518.2	773.15
518.655	749.65
519.109	742.35
519.564	745.55
520.019	731.85
520.474	728.65
520.928	716.55
521.383	727.35
521.838	717.95
522.292	719.85
522.747	717.15
523.201	712.35
523.656	705.95
524.11	698.25
524.565	698.05
525.019	701.75
525.474	708.75
525.928	697.45
526.382	706.25
526.837	701.85
527.291	701.75
527.745	699.95
528.2	697.05
528.654	689.75
529.108	689.95
529.562	693.95
530.016	698.65
530.47	679.35
530.925	689.35
531.379	691.15
531.833	701.55
532.287	694.45
532.741	709.45
533.195	713.15
533.649	706.65
534.103	722.85
534.556	701.55
535.01	715.45
535.464	718.45
535.918	721.15
536.372	713.25
536.826	719.95
537.279	710.25
537.733	716.75
538.187	721.65
538.64	725.85
539.094	731.65
539.548	732.95
540.001	731.85
540.455	736.35
540.908	743.35
541.362	742.55
541.815	747.35
542.269	755.85
542.722	762.15
543.175	777.95
543.629	774.45
544.082	794.25
544.536	792.25
544.989	794.45
545.442	810.95
545.895	802.75
546.349	798.65
546.802	807.85
547.255	808.85
547.708	826.85
548.161	826.05
548.614	830.85
549.067	847.45
549.52	832.65
549.973	823.85
550.426	815.95
550.879	801.15
551.332	805.85
551.785	826.45
552.238	824.35
552.691	830.65
553.144	846.15
553.596	847.75
554.049	863.15
554.502	898.45
554.955	923.55
555.407	919.25
555.86	906.45
556.313	914.85
556.765	904.35
557.218	895.35
557.67	891.05
558.123	889.65
558.576	886.45
559.028	886.05
559.48	877.35
559.933	892.45
560.385	854.45
560.838	825.65
561.29	799.35
561.742	795.25
562.195	776.25
562.647	776.25
563.099	790.45
563.551	783.05
564.004	791.95
564.456	774.65
564.908	776.55
565.36	756.85
565.812	739.55
566.264	733.85
566.716	723.95
567.168	718.35
567.62	726.65
568.072	715.65
568.524	708.35
568.976	708.65
569.428	685.45
569.88	691.65
570.332	699.75
570.784	697.15
571.235	697.95
571.687	703.95
572.139	718.55
572.59	728.85
573.042	717.45
573.494	729.75
573.945	720.85
574.397	704.55
574.849	707.15
575.3	705.15
575.752	699.95
576.203	687.15
576.655	694.05
577.106	675.55
577.557	679.15
578.009	682.35
578.46	677.95
578.912	672.05
579.363	676.75
579.814	685.05
580.265	679.95
580.717	681.45
581.168	678.55
581.619	693.75
582.07	693.65
582.521	691.15
582.972	686.55
583.423	695.95
583.875	694.55
584.326	709.85
584.777	734.75
585.227	789.65
585.678	828.25
586.129	884.85
586.58	919.95
587.031	984.25
587.482	1059.55
587.933	1178.85
588.384	1062.45
588.834	889.25
589.285	810.85
589.736	797.85
590.186	786.85
590.637	782.15
591.088	759.55
591.538	756.65
591.989	742.05
592.439	744.05
592.89	731.15
593.34	732.85
593.791	728.25
594.241	706.95
594.692	716.35
595.142	716.65
595.593	716.85
596.043	724.25
596.493	722.55
596.943	722.85
597.394	744.75
597.844	734.95
598.294	754.75
598.744	777.85
599.195	801.45
599.645	831.45
600.095	877.75
600.545	939.25
600.995	992.15
601.445	1050.95
601.895	1110.45
602.345	1166.75
602.795	1137.65
603.245	1087.75
603.695	1038.95
604.145	981.55
604.594	928.55
605.044	880.45
605.494	819.85
605.944	779.45
606.393	754.55
606.843	747.65
607.293	748.55
607.743	747.55
608.192	765.05
608.642	775.55
609.091	788.75
609.541	786.25
609.99	776.45
610.44	784.35
610.889	738.15
611.339	725.05
611.788	706.35
612.238	714.25
612.687	730.45
613.136	726.95
613.586	742.45
614.035	735.75
614.484	741.95
614.933	750.95
615.383	742.25
615.832	734.85
616.281	721.85
616.73	699.95
617.179	675.55
617.628	663.55
618.077	650.85
618.526	643.35
618.975	629.05
619.424	632.65
619.873	625.05
620.322	631.15
620.771	623.15
621.22	621.15
621.669	609.65
622.118	613.65
622.567	600.15
623.015	587.45
623.464	594.55
623.913	569.45
624.361	563.35
624.81	567.95
625.259	567.25
625.707	567.65
626.156	568.85
626.604	583.85
627.053	573.05
627.501	577.65
627.95	586.35
628.398	604.65
628.847	582.45
629.295	580.95
629.744	592.35
630.192	581.25
630.64	581.15
631.089	569.95
631.537	572.05
631.985	567.95
632.433	576.55
632.881	579.85
633.33	604.25
633.778	589.05
634.226	556.05
634.674	573.65
635.122	569.35
635.57	594.55
636.018	613.45
636.466	577.05
636.914	561.55
637.362	581.15
637.81	591.15
638.258	597.95
638.705	598.65
639.153	629.55
639.601	634.65
640.049	648.25
640.497	687.25
640.944	712.55
641.392	657.55
641.84	639.45
642.287	597.75
642.735	577.05
643.182	582.55
643.63	588.55
644.078	589.45
644.525	600.95
644.973	598.05
645.42	610.15
645.867	640.95
646.315	658.35
646.762	672.85
647.21	710.25
647.657	714.95
648.104	765.05
648.551	773.95
648.999	839.05
649.446	914.15
649.893	1015.35
650.34	1164.95
650.787	1393.55
651.234	1717.95
651.682	2233.85
652.129	3064.65
652.576	4358.05
653.023	6382.05
653.47	8652.65
653.917	10668.05
654.363	12254.55
654.81	13378.45
655.257	12726.25
655.704	8408.75
656.151	5006.15
656.598	3275.55
657.044	2353.95
657.491	1808.05
657.938	1461.65
658.385	1230.95
658.831	1075.85
659.278	965.75
659.724	861.45
660.171	789.65
660.618	734.15
661.064	702.25
661.511	681.05
661.957	667.45
662.404	654.15
662.85	663.05
663.296	639.75
663.743	568.45
664.189	550.65
664.635	550.35
665.082	548.85
665.528	543.65
665.974	540.35
666.42	525.75
666.867	527.25
667.313	493.25
667.759	484.15
668.205	478.05
668.651	480.85
669.097	469.35
669.543	473.45
669.989	465.25
670.435	455.75
670.881	458.35
671.327	475.95
671.773	493.25
672.219	507.85
672.665	565.55
673.11	612.75
673.556	650.55
674.002	696.95
674.448	674.25
674.893	572.25
675.339	496.75
675.785	456.55
676.23	442.75
676.676	414.55
677.122	405.65
677.567	388.25
678.013	389.85
678.458	371.45
678.904	370.05
679.349	362.45
679.794	368.95
680.24	361.75
680.685	358.55
681.131	363.05
681.576	369.45
682.021	368.05
682.466	358.75
682.912	357.05
683.357	360.15
683.802	397.75
684.247	430.75
684.692	475.75
685.137	521.35
685.583	554.85
686.028	578.55
686.473	541.15
686.918	461.25
687.363	427.75
687.807	407.25
688.252	378.05
688.697	368.75
689.142	355.15
689.587	347.15
690.032	335.35
690.477	360.15
690.921	358.15
691.366	401.25
691.811	414.15
692.255	440.75
692.7	484.15
693.145	534.35
693.589	749.95
694.034	1207.95
694.478	1621.55
694.923	1800.75
695.367	2348.35
695.812	1256.55
696.256	519.65
696.701	377.65
697.145	350.35
697.59	335.25
698.034	330.85
698.478	349.55
698.922	335.85
699.367	338.45
699.811	341.85
700.255	368.55
700.699	398.45
701.143	445.95
701.588	495.15
702.032	539.05
702.476	530.15
702.92	513.75
703.364	522.05
703.808	690.05
704.252	1119.95
704.696	1546.75
705.14	1734.55
705.584	2189.65
706.027	1113.25
706.471	543.85
706.915	417.65
707.359	368.75
707.803	338.05
708.246	328.15
708.69	326.85
709.134	326.45
709.577	318.55
710.021	328.35
710.465	317.05
710.908	318.65
711.352	302.25
711.795	326.35
712.239	367.15
712.682	410.75
713.126	427.05
713.569	475.75
714.012	382.45
714.456	320.15
714.899	302.75
715.342	284.25
715.786	272.65
716.229	265.55
716.672	269.05
717.115	260.45
717.558	263.25
718.002	261.75
718.445	276.75
718.888	299.05
719.331	313.75
719.774	322.85
720.217	315.65
720.66	290.95
721.103	276.15
721.546	263.45
721.989	264.25
722.432	239.35
722.874	244.55
723.317	240.65
723.76	243.85
724.203	275.05
724.645	349.05
725.088	477.85
725.531	613.65
725.974	668.95
726.416	565.05
726.859	317.75
727.301	251.95
727.744	246.55
728.187	246.15
728.629	246.85
729.071	255.35
729.514	277.05
729.956	292.75
730.399	294.75
730.841	296.05
731.283	286.45
731.726	281.15
732.168	267.15
732.61	275.55
733.053	308.95
733.495	337.65
733.937	373.35
734.379	417.85
734.821	459.45
735.263	580.35
735.705	918.35
736.148	1725.65
736.59	2750.15
737.032	3155.35
737.474	2590.15
737.916	861.85
738.357	447.85
738.799	339.95
739.241	313.55
739.683	298.15
740.125	303.55
740.567	313.05
741.008	331.55
741.45	331.75
741.892	337.05
742.334	368.55
742.775	375.15
743.217	355.35
743.658	284.35
744.1	265.25
744.542	275.35
744.983	326.05
745.425	360.85
745.866	366.85
746.307	296.75
746.749	294.05
747.19	345.15
747.632	492.25
748.073	981.25
748.514	2035.15
748.956	3009.65
749.397	3828.95
749.838	3117.35
750.279	3049.65
750.72	1571.35
751.162	583.25
751.603	342.05
752.044	260.95
752.485	218.55
752.926	217.25
753.367	217.65
753.808	199.85
754.249	202.45
754.69	198.85
755.131	193.95
755.572	187.75
756.013	186.85
756.453	194.85
756.894	201.45
757.335	194.15
757.776	200.75
758.216	209.85
758.657	199.45
759.098	218.45
759.538	239.05
759.979	284.95
760.42	408.35
760.86	784.35
761.301	2054.85
761.741	4818.75
762.182	6622.75
762.622	4678.95
763.063	1371.55
763.503	569.75
