Data from 20171114-ORNL-Ar_H_NY_Subt18_08-07-53-819.txt Node
Date: Tue Nov 14 08:07:53 EST 2017
User: Ender
Spectrometer: HR+D1039
Trigger mode: 0
Integration Time (sec): 2.730000E-2
Scans to average: 10
Electric dark correction enabled: true
Nonlinearity correction enabled: false
Boxcar width: 0
XAxis mode: Wavelengths
Number of Pixels in Spectrum: 2048
>>>>>Begin Spectral Data<<<<<
187.836	-2.14
188.309	-2.14
188.782	-2.14
189.255	-3.54
189.728	-2.04
190.201	6.06
190.674	-1.24
191.147	0.66
191.619	-9.04
192.092	3.06
192.565	4.76
193.038	3.36
193.511	4.36
193.984	-0.14
194.456	-0.44
194.929	-2.14
195.402	0.36
195.874	-1.84
196.347	2.36
196.82	-3.94
197.292	2.46
197.765	-5.24
198.237	-4.24
198.71	3.16
199.182	1.66
199.655	3.66
200.127	0.66
200.6	-3.34
201.072	-1.24
201.544	-6.44
202.017	-2.04
202.489	-3.34
202.961	-2.44
203.433	-4.84
203.906	-5.64
204.378	-7.54
204.85	-5.84
205.322	-8.34
205.794	-2.74
206.266	-5.74
206.739	-7.64
207.211	0.96
207.683	-9.94
208.155	-5.14
208.627	-6.64
209.099	-4.14
209.57	-10.34
210.042	-1.84
210.514	-8.14
210.986	2.06
211.458	-8.94
211.93	-8.94
212.402	1.56
212.873	-6.54
213.345	-10.34
213.817	-15.74
214.288	-3.04
214.76	-9.64
215.232	-3.74
215.703	-6.24
216.175	-2.84
216.646	-4.24
217.118	-11.54
217.589	0.36
218.061	5.66
218.532	-0.34
219.004	-1.34
219.475	-3.74
219.946	-6.04
220.418	-3.94
220.889	-0.94
221.36	-3.74
221.832	-0.64
222.303	-7.34
222.774	2.06
223.245	-7.14
223.717	-5.94
224.188	-4.54
224.659	-12.44
225.13	-7.24
225.601	-4.24
226.072	0.46
226.543	-5.64
227.014	-1.54
227.485	-6.84
227.956	-8.94
228.427	-1.44
228.898	0.46
229.369	1.66
229.839	-2.34
230.31	-2.24
230.781	3.46
231.252	-5.04
231.722	-9.54
232.193	-0.44
232.664	-4.44
233.135	-1.94
233.605	-0.34
234.076	-4.04
234.546	1.26
235.017	3.56
235.487	2.26
235.958	-3.94
236.428	0.26
236.899	3.16
237.369	5.16
237.84	-3.54
238.31	2.46
238.78	-1.04
239.251	0.76
239.721	1.96
240.191	-0.74
240.662	4.26
241.132	2.66
241.602	-3.24
242.072	1.26
242.542	10.36
243.013	1.66
243.483	0.06
243.953	1.26
244.423	-4.04
244.893	-7.24
245.363	1.56
245.833	-2.04
246.303	-0.94
246.773	7.16
247.243	3.46
247.712	-4.84
248.182	10.26
248.652	6.56
249.122	-2.34
249.592	5.86
250.061	15.86
250.531	26.66
251.001	14.56
251.471	14.46
251.94	12.26
252.41	7.26
252.879	-3.34
253.349	13.56
253.818	4.96
254.288	5.36
254.757	7.76
255.227	3.16
255.696	6.96
256.166	2.26
256.635	5.46
257.105	7.46
257.574	2.66
258.043	4.46
258.513	9.66
258.982	15.96
259.451	8.46
259.92	13.46
260.389	6.46
260.859	13.26
261.328	4.46
261.797	17.36
262.266	8.06
262.735	12.46
263.204	11.56
263.673	1.36
264.142	4.66
264.611	-4.04
265.08	-2.74
265.549	-2.74
266.018	6.16
266.487	0.16
266.955	-5.44
267.424	-7.04
267.893	5.56
268.362	7.36
268.83	3.16
269.299	10.96
269.768	3.66
270.236	7.76
270.705	5.06
271.174	8.76
271.642	7.26
272.111	8.16
272.579	14.86
273.048	23.86
273.516	30.66
273.985	22.46
274.453	20.66
274.922	17.76
275.39	4.56
275.858	-1.14
276.327	15.46
276.795	19.06
277.263	10.26
277.731	29.36
278.2	47.36
278.668	52.16
279.136	42.76
279.604	17.66
280.072	15.86
280.54	8.76
281.008	7.86
281.477	17.76
281.945	14.26
282.413	12.96
282.881	18.66
283.348	6.16
283.816	14.26
284.284	10.26
284.752	18.36
285.22	10.66
285.688	15.76
286.156	16.16
286.623	43.36
287.091	53.06
287.559	26.56
288.026	19.36
288.494	10.86
288.962	1.56
289.429	14.56
289.897	16.06
290.364	12.16
290.832	11.46
291.3	8.96
291.767	14.26
292.234	20.46
292.702	11.76
293.169	16.66
293.637	18.96
294.104	21.56
294.571	9.06
295.039	7.76
295.506	12.36
295.973	13.56
296.44	14.96
296.908	17.36
297.375	17.56
297.842	17.86
298.309	15.16
298.776	11.36
299.243	19.06
299.71	10.96
300.177	17.06
300.644	20.06
301.111	17.26
301.578	18.26
302.045	17.26
302.512	24.96
302.979	25.56
303.446	19.36
303.913	18.66
304.379	12.16
304.846	30.66
305.313	22.96
305.78	19.66
306.246	23.66
306.713	25.26
307.18	26.76
307.646	24.46
308.113	23.86
308.579	21.16
309.046	21.46
309.512	21.36
309.979	16.96
310.445	27.36
310.912	22.16
311.378	28.86
311.845	21.06
312.311	25.36
312.777	26.66
313.244	30.86
313.71	35.86
314.176	28.76
314.642	33.66
315.109	28.36
315.575	29.26
316.041	32.36
316.507	32.66
316.973	40.66
317.439	28.06
317.905	32.76
318.371	28.36
318.837	28.26
319.303	29.76
319.769	29.36
320.235	27.56
320.701	30.56
321.167	36.86
321.633	37.56
322.099	31.36
322.564	46.86
323.03	45.76
323.496	35.76
323.962	31.06
324.427	35.96
324.893	41.96
325.359	33.66
325.824	36.36
326.29	37.36
326.755	36.56
327.221	40.26
327.686	37.16
328.152	48.06
328.617	34.46
329.083	47.86
329.548	53.56
330.014	44.86
330.479	34.26
330.944	34.06
331.41	45.26
331.875	44.16
332.34	41.66
332.805	41.96
333.271	47.36
333.736	39.76
334.201	57.96
334.666	51.46
335.131	51.46
335.596	43.46
336.061	45.66
336.526	42.46
336.991	45.26
337.456	53.46
337.921	43.86
338.386	45.76
338.851	49.56
339.316	48.46
339.781	48.06
340.246	45.96
340.711	42.86
341.175	49.36
341.64	51.26
342.105	44.86
342.569	49.76
343.034	49.76
343.499	52.36
343.963	49.36
344.428	62.66
344.893	60.86
345.357	55.46
345.822	53.96
346.286	65.86
346.751	70.26
347.215	65.86
347.679	71.86
348.144	84.86
348.608	77.26
349.073	65.46
349.537	71.96
350.001	73.46
350.465	82.56
350.93	76.56
351.394	79.96
351.858	73.36
352.322	77.76
352.786	77.36
353.25	91.16
353.715	112.36
354.179	92.66
354.643	109.16
355.107	123.76
355.571	110.46
356.035	94.16
356.498	116.06
356.962	122.66
357.426	132.76
357.89	110.76
358.354	91.16
358.818	81.76
359.281	75.46
359.745	73.86
360.209	83.26
360.673	74.16
361.136	80.06
361.6	78.36
362.064	82.76
362.527	76.86
362.991	81.26
363.454	79.66
363.918	74.56
364.381	75.36
364.845	78.96
365.308	90.56
365.772	77.36
366.235	78.86
366.698	82.66
367.162	82.26
367.625	84.86
368.088	84.76
368.552	90.06
369.015	87.06
369.478	93.06
369.941	98.26
370.404	91.06
370.867	102.06
371.331	109.96
371.794	113.76
372.257	111.06
372.72	116.56
373.183	101.96
373.646	100.16
374.109	107.56
374.572	104.86
375.035	113.06
375.497	108.76
375.96	103.56
376.423	103.26
376.886	105.86
377.349	102.66
377.811	101.36
378.274	104.76
378.737	106.76
379.199	117.16
379.662	111.76
380.125	115.16
380.587	117.96
381.05	118.06
381.512	122.66
381.975	131.56
382.437	120.46
382.9	131.36
383.362	130.06
383.825	139.46
384.287	149.66
384.75	142.86
385.212	134.56
385.674	137.36
386.136	132.96
386.599	129.76
387.061	124.76
387.523	135.66
387.985	135.16
388.447	140.06
388.91	140.36
389.372	168.46
389.834	158.26
390.296	143.56
390.758	151.76
391.22	173.26
391.682	207.26
392.144	308.36
392.606	233.06
393.068	164.76
393.529	171.46
393.991	152.86
394.453	147.46
394.915	147.96
395.377	192.16
395.838	220.46
396.3	152.06
396.762	136.76
397.224	126.16
397.685	131.26
398.147	130.86
398.608	126.46
399.07	131.26
399.531	133.36
399.993	148.56
400.454	144.86
400.916	146.26
401.377	151.06
401.839	148.86
402.3	146.16
402.762	167.76
403.223	176.36
403.684	169.96
404.145	164.96
404.607	157.66
405.068	166.46
405.529	173.56
405.99	187.06
406.451	169.46
406.913	176.36
407.374	166.56
407.835	154.46
408.296	167.36
408.757	173.66
409.218	193.56
409.679	179.36
410.14	174.46
410.601	184.06
411.062	179.26
411.522	189.46
411.983	189.46
412.444	175.26
412.905	181.76
413.366	183.36
413.826	196.06
414.287	216.76
414.748	257.46
415.208	241.36
415.669	216.16
416.13	204.66
416.59	201.16
417.051	210.76
417.511	218.86
417.972	234.56
418.432	237.96
418.893	286.16
419.353	251.16
419.814	197.46
420.274	184.76
420.734	175.16
421.195	194.26
421.655	197.96
422.115	197.96
422.576	190.06
423.036	200.96
423.496	206.66
423.956	217.46
424.416	228.06
424.876	266.66
425.336	261.86
425.797	263.26
426.257	249.46
426.717	238.36
427.177	232.06
427.637	227.46
428.097	229.06
428.556	243.46
429.016	270.66
429.476	266.36
429.936	276.66
430.396	279.86
430.856	288.16
431.315	318.36
431.775	352.26
432.235	385.76
432.694	353.86
433.154	364.26
433.614	392.76
434.073	342.36
434.533	282.46
434.993	271.16
435.452	286.46
435.912	295.06
436.371	284.66
436.83	282.66
437.29	271.46
437.749	254.66
438.209	243.96
438.668	268.36
439.127	282.26
439.587	275.96
440.046	255.36
440.505	259.26
440.964	278.86
441.424	323.46
441.883	309.86
442.342	263.86
442.801	226.46
443.26	216.06
443.719	220.26
444.178	228.46
444.637	211.16
445.096	216.66
445.555	222.86
446.014	216.56
446.473	224.26
446.932	236.06
447.391	226.26
447.849	223.96
448.308	220.56
448.767	221.36
449.226	237.16
449.685	229.66
450.143	244.96
450.602	231.16
451.061	227.06
451.519	227.46
451.978	227.26
452.436	237.36
452.895	241.96
453.353	249.56
453.812	238.46
454.27	239.46
454.729	238.96
455.187	246.56
455.646	244.66
456.104	243.96
456.562	261.36
457.021	262.46
457.479	264.46
457.937	263.36
458.395	266.56
458.854	252.86
459.312	251.26
459.77	266.66
460.228	251.56
460.686	242.46
461.144	240.56
461.602	241.86
462.06	239.56
462.518	248.86
462.976	251.06
463.434	250.26
463.892	260.56
464.35	273.76
464.808	287.86
465.266	264.06
465.724	267.76
466.181	269.76
466.639	268.66
467.097	289.76
467.555	298.76
468.012	295.06
468.47	306.86
468.928	328.76
469.385	333.06
469.843	339.86
470.3	346.86
470.758	361.76
471.215	383.46
471.673	402.86
472.13	410.26
472.588	413.56
473.045	375.76
473.503	380.06
473.96	401.36
474.417	397.96
474.875	429.36
475.332	477.26
475.789	457.36
476.246	463.16
476.704	475.06
477.161	498.96
477.618	528.36
478.075	567.56
478.532	615.86
478.989	686.96
479.446	796.56
479.903	774.36
480.36	809.86
480.817	865.56
481.274	961.16
481.731	1072.76
482.188	1162.16
482.645	1291.36
483.102	1397.86
483.558	1533.06
484.015	1594.16
484.472	1575.26
484.929	1528.56
485.385	1472.26
485.842	1416.86
486.299	1361.26
486.755	1296.66
487.212	1093.86
487.668	915.76
488.125	841.66
488.582	762.96
489.038	744.16
489.494	704.56
489.951	682.56
490.407	659.86
490.864	642.06
491.32	636.86
491.776	637.26
492.233	642.96
492.689	603.96
493.145	601.06
493.602	591.06
494.058	602.76
494.514	605.06
494.97	629.76
495.426	638.66
495.882	607.66
496.338	604.66
496.794	612.76
497.251	607.46
497.707	626.06
498.163	626.16
498.618	638.16
499.074	633.16
499.53	679.06
499.986	675.86
500.442	645.06
500.898	624.16
501.354	621.26
501.809	623.36
502.265	637.46
502.721	658.06
503.177	662.36
503.632	661.06
504.088	667.36
504.543	698.16
504.999	699.66
505.455	653.56
505.91	622.46
506.366	622.56
506.821	621.36
507.277	608.26
507.732	621.06
508.187	617.66
508.643	619.16
509.098	629.86
509.553	644.76
510.009	654.06
510.464	662.26
510.919	687.96
511.375	682.26
511.83	703.46
512.285	713.26
512.74	749.76
513.195	766.36
513.65	769.06
514.105	754.96
514.56	762.36
515.015	773.36
515.47	794.46
515.925	787.76
516.38	774.56
516.835	775.66
517.29	768.86
517.745	765.16
518.2	763.46
518.655	732.86
519.109	724.66
519.564	733.56
520.019	720.96
520.474	712.16
520.928	721.66
521.383	713.96
521.838	706.66
522.292	702.26
522.747	702.76
523.201	690.86
523.656	695.76
524.11	684.96
524.565	684.66
525.019	692.56
525.474	694.36
525.928	689.36
526.382	685.86
526.837	682.06
527.291	693.06
527.745	692.16
528.2	686.96
528.654	674.66
529.108	683.56
529.562	687.56
530.016	663.56
530.47	674.66
530.925	674.06
531.379	687.96
531.833	694.66
532.287	701.46
532.741	700.46
533.195	690.86
533.649	708.36
534.103	701.46
534.556	698.96
535.01	706.16
535.464	703.16
535.918	707.16
536.372	705.36
536.826	707.46
537.279	699.26
537.733	699.26
538.187	704.86
538.64	699.26
539.094	717.36
539.548	715.76
540.001	711.16
540.455	703.96
540.908	717.06
541.362	728.86
541.815	732.56
542.269	754.06
542.722	754.16
543.175	756.26
543.629	765.26
544.082	779.36
544.536	775.36
544.989	774.86
545.442	781.86
545.895	773.26
546.349	780.86
546.802	784.26
547.255	782.96
547.708	794.46
548.161	801.76
548.614	807.06
549.067	809.26
549.52	810.16
549.973	806.06
550.426	802.36
550.879	778.86
551.332	788.56
551.785	799.66
552.238	797.26
552.691	801.76
553.144	823.56
553.596	830.06
554.049	842.66
554.502	885.86
554.955	903.26
555.407	901.16
555.86	890.06
556.313	868.86
556.765	868.46
557.218	878.56
557.67	863.76
558.123	863.46
558.576	857.86
559.028	861.46
559.48	867.66
559.933	861.86
560.385	829.46
560.838	796.26
561.29	773.06
561.742	772.16
562.195	765.66
562.647	757.46
563.099	760.66
563.551	765.66
564.004	776.56
564.456	751.56
564.908	745.76
565.36	740.16
565.812	720.76
566.264	706.36
566.716	721.56
567.168	709.76
567.62	720.26
568.072	698.86
568.524	688.86
568.976	672.86
569.428	663.96
569.88	668.26
570.332	675.86
570.784	687.56
571.235	673.96
571.687	686.76
572.139	699.76
572.59	707.56
573.042	697.96
573.494	699.26
573.945	693.96
574.397	679.46
574.849	675.66
575.3	673.76
575.752	679.06
576.203	665.86
576.655	677.76
577.106	665.56
577.557	659.96
578.009	665.16
578.46	649.06
578.912	662.66
579.363	656.96
579.814	660.06
580.265	653.06
580.717	661.76
581.168	657.06
581.619	670.76
582.07	678.56
582.521	663.46
582.972	668.76
583.423	675.96
583.875	689.26
584.326	699.66
584.777	755.06
585.227	835.56
585.678	920.96
586.129	1008.36
586.58	1086.46
587.031	1169.76
587.482	1328.96
587.933	1516.26
588.384	1324.16
588.834	970.56
589.285	805.96
589.736	773.06
590.186	775.26
590.637	754.06
591.088	735.86
591.538	727.36
591.989	716.56
592.439	716.06
592.89	713.36
593.34	706.26
593.791	704.06
594.241	694.06
594.692	697.56
595.142	693.96
595.593	701.06
596.043	705.16
596.493	711.56
596.943	711.36
597.394	699.46
597.844	714.56
598.294	710.96
598.744	746.26
599.195	763.16
599.645	805.46
600.095	845.86
600.545	911.86
600.995	955.56
601.445	1016.26
601.895	1071.16
602.345	1124.66
602.795	1105.86
603.245	1061.86
603.695	1001.56
604.145	947.06
604.594	900.86
605.044	839.06
605.494	786.06
605.944	740.16
606.393	735.56
606.843	718.26
607.293	723.86
607.743	725.06
608.192	733.96
608.642	753.96
609.091	762.86
609.541	764.16
609.99	765.96
610.44	769.66
610.889	723.26
611.339	699.66
611.788	683.46
612.238	694.06
612.687	719.46
613.136	724.56
613.586	740.46
614.035	737.46
614.484	766.06
614.933	754.36
615.383	752.56
615.832	727.76
616.281	725.66
616.73	686.86
617.179	663.26
617.628	646.36
618.077	625.46
618.526	620.96
618.975	614.56
619.424	614.56
619.873	605.66
620.322	622.86
620.771	606.26
621.22	586.36
621.669	590.16
622.118	586.66
622.567	570.36
623.015	571.76
623.464	563.36
623.913	561.96
624.361	551.36
624.81	540.66
625.259	552.16
625.707	548.66
626.156	547.66
626.604	567.16
627.053	558.56
627.501	570.26
627.95	560.86
628.398	570.56
628.847	569.76
629.295	561.76
629.744	567.56
630.192	563.86
630.64	566.96
631.089	563.26
631.537	581.36
631.985	590.36
632.433	600.46
632.881	609.16
633.33	654.96
633.778	640.46
634.226	569.16
634.674	572.16
635.122	571.26
635.57	597.46
636.018	633.26
636.466	575.56
636.914	554.96
637.362	569.66
637.81	577.26
638.258	576.26
638.705	580.46
639.153	602.46
639.601	612.76
640.049	632.36
640.497	666.16
640.944	698.76
641.392	643.86
641.84	607.86
642.287	581.56
642.735	563.36
643.182	564.06
643.63	565.56
644.078	583.86
644.525	591.16
644.973	596.66
645.42	602.66
645.867	614.56
646.315	636.86
646.762	650.26
647.21	693.06
647.657	713.66
648.104	750.46
648.551	766.26
648.999	852.86
649.446	920.26
649.893	1015.86
650.34	1171.86
650.787	1404.26
651.234	1755.96
651.682	2297.46
652.129	3170.96
652.576	4599.86
653.023	6749.06
653.47	9238.66
653.917	11467.86
654.363	13195.46
654.81	14439.46
655.257	13784.46
655.704	8973.86
656.151	5290.76
656.598	3409.76
657.044	2426.26
657.491	1866.66
657.938	1485.06
658.385	1235.86
658.831	1073.96
659.278	958.26
659.724	855.16
660.171	788.66
660.618	719.06
661.064	699.16
661.511	662.86
661.957	646.66
662.404	652.06
662.85	657.06
663.296	618.16
663.743	564.56
664.189	534.46
664.635	526.86
665.082	519.56
665.528	525.36
665.974	517.36
666.42	509.66
666.867	503.36
667.313	485.86
667.759	480.36
668.205	483.86
668.651	487.06
669.097	484.56
669.543	499.96
669.989	467.16
670.435	445.16
670.881	438.26
671.327	450.96
671.773	463.96
672.219	488.86
672.665	538.86
673.11	580.76
673.556	620.06
674.002	659.46
674.448	647.76
674.893	538.36
675.339	468.16
675.785	433.06
676.23	422.56
676.676	393.06
677.122	375.56
677.567	370.56
678.013	367.46
678.458	354.36
678.904	353.56
679.349	353.56
679.794	353.06
680.24	349.06
680.685	345.16
681.131	335.86
681.576	351.96
682.021	353.56
682.466	340.26
682.912	345.76
683.357	348.06
683.802	382.06
684.247	402.86
684.692	453.96
685.137	498.76
685.583	536.96
686.028	555.36
686.473	506.76
686.918	442.46
687.363	413.36
687.807	384.36
688.252	363.26
688.697	349.86
689.142	338.06
689.587	331.36
690.032	322.36
690.477	340.56
690.921	351.96
691.366	378.66
691.811	403.86
692.255	424.16
692.7	460.76
693.145	510.26
693.589	697.06
694.034	1144.56
694.478	1532.26
694.923	1704.36
695.367	2202.16
695.812	1174.36
696.256	488.66
696.701	374.36
697.145	342.56
697.59	331.96
698.034	320.76
698.478	328.66
698.922	321.56
699.367	321.76
699.811	338.36
700.255	348.06
700.699	384.06
701.143	418.56
701.588	480.86
702.032	506.86
702.476	504.46
702.92	480.46
703.364	484.96
703.808	635.96
704.252	1043.06
704.696	1453.06
705.14	1636.76
705.584	2104.16
706.027	1043.36
706.471	522.06
706.915	388.06
707.359	349.56
707.803	315.96
708.246	302.96
708.69	310.96
709.134	315.06
709.577	307.86
710.021	307.76
710.465	305.86
710.908	298.76
711.352	294.46
711.795	310.96
712.239	345.26
712.682	375.86
713.126	407.86
713.569	461.36
714.012	366.56
714.456	320.66
714.899	296.76
715.342	271.76
715.786	263.16
716.229	253.46
716.672	257.36
717.115	249.46
717.558	240.66
718.002	248.56
718.445	255.96
718.888	271.96
719.331	294.16
719.774	308.16
720.217	307.76
720.66	282.16
721.103	265.06
721.546	252.76
721.989	250.06
722.432	228.06
722.874	231.66
723.317	229.76
723.76	236.56
724.203	259.36
724.645	319.36
725.088	452.06
725.531	571.06
725.974	638.26
726.416	537.26
726.859	300.76
727.301	246.16
727.744	243.06
728.187	232.06
728.629	236.86
729.071	238.06
729.514	252.86
729.956	272.56
730.399	277.06
730.841	282.56
731.283	273.26
731.726	260.36
732.168	262.46
732.61	263.86
733.053	281.66
733.495	307.66
733.937	354.46
734.379	391.06
734.821	426.06
735.263	556.26
735.705	849.76
736.148	1605.06
736.59	2576.46
737.032	2976.96
737.474	2427.36
737.916	793.76
738.357	429.86
738.799	326.46
739.241	293.36
739.683	281.76
740.125	293.56
740.567	292.36
741.008	311.66
741.45	313.66
741.892	318.36
742.334	351.76
742.775	342.06
743.217	326.46
743.658	261.56
744.1	254.46
744.542	265.16
744.983	315.16
745.425	342.66
745.866	340.06
746.307	284.06
746.749	287.36
747.19	330.06
747.632	462.16
748.073	892.76
748.514	1890.46
748.956	2839.76
749.397	3532.86
749.838	2955.76
750.279	2900.06
750.72	1461.26
751.162	537.36
751.603	312.66
752.044	253.36
752.485	214.86
752.926	208.56
753.367	204.46
753.808	189.66
754.249	194.56
754.69	176.46
755.131	178.06
755.572	172.96
756.013	174.36
756.453	184.36
756.894	180.36
757.335	186.56
757.776	197.06
758.216	193.36
758.657	195.36
759.098	194.96
759.538	231.86
759.979	268.36
760.42	375.26
760.86	719.06
761.301	1863.66
761.741	4435.56
762.182	6258.16
