Data from 20171114-ORNL-Ar_H_NY_Subt18_08-05-21-771.txt Node
Date: Tue Nov 14 08:05:21 EST 2017
User: Ender
Spectrometer: HR+D1039
Trigger mode: 0
Integration Time (sec): 2.730000E-2
Scans to average: 10
Electric dark correction enabled: true
Nonlinearity correction enabled: false
Boxcar width: 0
XAxis mode: Wavelengths
Number of Pixels in Spectrum: 2048
>>>>>Begin Spectral Data<<<<<
187.836	-1.55
188.309	-1.55
188.782	-1.55
189.255	-0.25
189.728	-1.35
190.201	2.75
190.674	0.75
191.147	3.55
191.619	-4.05
192.092	3.65
192.565	2.95
193.038	-0.45
193.511	4.45
193.984	-1.15
194.456	-0.95
194.929	-5.25
195.402	-3.95
195.874	0.85
196.347	-2.85
196.82	-5.15
197.292	6.95
197.765	-0.65
198.237	-7.95
198.71	-1.05
199.182	-3.15
199.655	0.65
200.127	5.55
200.6	-5.25
201.072	-7.95
201.544	-8.05
202.017	-11.75
202.489	1.85
202.961	-6.55
203.433	-1.25
203.906	-6.85
204.378	-4.15
204.85	3.55
205.322	-6.05
205.794	-0.95
206.266	-7.05
206.739	-4.95
207.211	0.85
207.683	-9.45
208.155	-3.45
208.627	-0.75
209.099	0.15
209.57	-4.05
210.042	0.25
210.514	-2.45
210.986	-6.55
211.458	-10.55
211.93	-2.55
212.402	1.75
212.873	-12.65
213.345	-3.05
213.817	-12.25
214.288	-9.15
214.76	-3.35
215.232	2.25
215.703	-4.05
216.175	-1.75
216.646	-3.75
217.118	-7.05
217.589	-0.85
218.061	-3.15
218.532	-3.25
219.004	0.05
219.475	-5.55
219.946	-0.45
220.418	-5.35
220.889	4.25
221.36	3.25
221.832	-6.85
222.303	-7.05
222.774	2.05
223.245	-6.95
223.717	-9.85
224.188	-2.15
224.659	-1.55
225.13	-4.15
225.601	-4.95
226.072	0.15
226.543	-0.75
227.014	1.85
227.485	2.15
227.956	-5.95
228.427	-4.15
228.898	1.45
229.369	1.65
229.839	-7.95
230.31	-8.15
230.781	5.05
231.252	-3.65
231.722	-5.05
232.193	-0.55
232.664	-4.15
233.135	4.45
233.605	0.15
234.076	-2.25
234.546	1.65
235.017	3.55
235.487	3.05
235.958	1.45
236.428	-3.75
236.899	7.25
237.369	0.85
237.84	-1.65
238.31	12.35
238.78	1.05
239.251	-4.95
239.721	0.25
240.191	-1.85
240.662	-0.45
241.132	0.95
241.602	2.35
242.072	0.95
242.542	8.05
243.013	-1.75
243.483	4.85
243.953	2.15
244.423	2.05
244.893	-5.35
245.363	6.75
245.833	4.35
246.303	-1.45
246.773	9.05
247.243	5.45
247.712	11.25
248.182	8.65
248.652	13.25
249.122	3.75
249.592	11.05
250.061	23.75
250.531	32.35
251.001	11.75
251.471	29.65
251.94	20.95
252.41	10.35
252.879	1.25
253.349	13.75
253.818	9.45
254.288	6.55
254.757	4.35
255.227	5.35
255.696	7.45
256.166	1.45
256.635	7.05
257.105	7.25
257.574	7.85
258.043	15.65
258.513	6.35
258.982	20.85
259.451	7.35
259.92	9.95
260.389	12.55
260.859	12.65
261.328	9.65
261.797	23.15
262.266	11.35
262.735	12.65
263.204	6.65
263.673	3.55
264.142	6.55
264.611	-2.45
265.08	1.95
265.549	2.05
266.018	5.55
266.487	-1.45
266.955	0.25
267.424	1.85
267.893	9.35
268.362	2.05
268.83	0.25
269.299	13.95
269.768	8.35
270.236	9.05
270.705	6.95
271.174	8.15
271.642	8.95
272.111	10.25
272.579	20.65
273.048	26.95
273.516	34.35
273.985	32.15
274.453	26.05
274.922	15.85
275.39	13.85
275.858	5.95
276.327	14.95
276.795	20.85
277.263	13.35
277.731	35.65
278.2	60.65
278.668	68.35
279.136	58.15
279.604	21.05
280.072	16.15
280.54	14.65
281.008	8.85
281.477	20.85
281.945	16.15
282.413	16.95
282.881	15.55
283.348	9.15
283.816	15.35
284.284	16.85
284.752	24.75
285.22	12.85
285.688	20.55
286.156	19.75
286.623	46.85
287.091	57.35
287.559	35.55
288.026	22.05
288.494	13.75
288.962	8.55
289.429	13.05
289.897	18.25
290.364	16.65
290.832	16.55
291.3	21.15
291.767	19.25
292.234	17.55
292.702	17.45
293.169	25.05
293.637	26.85
294.104	23.05
294.571	11.95
295.039	9.45
295.506	17.95
295.973	19.35
296.44	12.85
296.908	19.65
297.375	19.15
297.842	23.75
298.309	21.45
298.776	19.65
299.243	22.95
299.71	21.55
300.177	18.75
300.644	30.15
301.111	18.35
301.578	22.85
302.045	17.65
302.512	24.85
302.979	21.85
303.446	24.25
303.913	24.35
304.379	27.35
304.846	34.55
305.313	28.35
305.78	25.55
306.246	27.05
306.713	32.55
307.18	28.75
307.646	30.55
308.113	35.15
308.579	32.85
309.046	29.65
309.512	27.95
309.979	21.65
310.445	36.05
310.912	29.05
311.378	28.25
311.845	33.45
312.311	25.35
312.777	32.05
313.244	32.95
313.71	36.15
314.176	32.65
314.642	35.65
315.109	38.15
315.575	45.95
316.041	38.95
316.507	38.15
316.973	43.15
317.439	38.45
317.905	41.65
318.371	42.55
318.837	36.65
319.303	37.25
319.769	38.65
320.235	39.75
320.701	42.25
321.167	43.95
321.633	38.05
322.099	45.35
322.564	46.45
323.03	44.45
323.496	46.45
323.962	42.15
324.427	38.05
324.893	43.45
325.359	44.55
325.824	44.15
326.29	37.45
326.755	45.75
327.221	47.35
327.686	43.25
328.152	47.65
328.617	46.55
329.083	54.45
329.548	49.25
330.014	50.35
330.479	42.35
330.944	48.05
331.41	49.05
331.875	48.25
332.34	47.55
332.805	46.95
333.271	48.45
333.736	42.95
334.201	55.15
334.666	55.55
335.131	57.85
335.596	59.75
336.061	59.05
336.526	48.55
336.991	45.75
337.456	58.85
337.921	56.95
338.386	50.05
338.851	50.15
339.316	52.05
339.781	45.25
340.246	50.45
340.711	45.45
341.175	46.65
341.64	50.75
342.105	58.25
342.569	54.45
343.034	60.95
343.499	61.55
343.963	54.75
344.428	67.05
344.893	63.75
345.357	60.15
345.822	63.65
346.286	65.65
346.751	72.85
347.215	70.65
347.679	76.55
348.144	108.05
348.608	86.55
349.073	71.55
349.537	75.45
350.001	86.55
350.465	96.55
350.93	75.05
351.394	86.95
351.858	77.35
352.322	97.25
352.786	87.15
353.25	107.85
353.715	117.55
354.179	101.75
354.643	126.25
355.107	130.55
355.571	107.15
356.035	101.35
356.498	118.55
356.962	128.15
357.426	141.25
357.89	112.35
358.354	97.25
358.818	89.65
359.281	90.55
359.745	85.15
360.209	76.45
360.673	77.85
361.136	80.55
361.6	83.35
362.064	82.75
362.527	84.35
362.991	91.95
363.454	88.75
363.918	78.65
364.381	83.95
364.845	84.45
365.308	83.45
365.772	90.05
366.235	97.15
366.698	80.65
367.162	90.45
367.625	90.45
368.088	95.75
368.552	93.25
369.015	88.15
369.478	99.15
369.941	100.35
370.404	93.95
370.867	104.55
371.331	105.05
371.794	113.55
372.257	113.95
372.72	119.65
373.183	113.15
373.646	104.65
374.109	105.55
374.572	110.55
375.035	108.45
375.497	108.05
375.96	97.65
376.423	99.75
376.886	114.55
377.349	103.15
377.811	98.05
378.274	108.85
378.737	113.85
379.199	117.95
379.662	121.45
380.125	115.05
380.587	116.25
381.05	126.15
381.512	133.15
381.975	130.65
382.437	130.55
382.9	129.05
383.362	139.15
383.825	147.15
384.287	151.55
384.75	139.25
385.212	144.45
385.674	139.55
386.136	140.85
386.599	130.35
387.061	135.45
387.523	126.05
387.985	132.65
388.447	143.15
388.91	144.95
389.372	153.35
389.834	150.25
390.296	141.15
390.758	160.45
391.22	159.25
391.682	213.25
392.144	298.35
392.606	230.75
393.068	171.15
393.529	163.65
393.991	156.65
394.453	147.55
394.915	160.95
395.377	193.25
395.838	219.95
396.3	154.75
396.762	144.85
397.224	130.65
397.685	131.25
398.147	134.45
398.608	138.05
399.07	128.15
399.531	135.45
399.993	144.15
400.454	156.65
400.916	142.55
401.377	149.65
401.839	151.15
402.3	149.05
402.762	170.85
403.223	179.15
403.684	176.15
404.145	164.95
404.607	157.95
405.068	161.85
405.529	166.45
405.99	189.75
406.451	175.45
406.913	178.55
407.374	161.45
407.835	163.85
408.296	170.55
408.757	174.55
409.218	189.65
409.679	182.05
410.14	181.65
410.601	182.15
411.062	186.45
411.522	198.35
411.983	186.35
412.444	172.95
412.905	182.35
413.366	181.95
413.826	198.75
414.287	218.75
414.748	261.95
415.208	247.45
415.669	207.15
416.13	201.35
416.59	208.15
417.051	212.95
417.511	220.15
417.972	243.45
418.432	244.05
418.893	288.45
419.353	248.95
419.814	199.35
420.274	186.85
420.734	184.95
421.195	194.35
421.655	193.55
422.115	193.65
422.576	193.75
423.036	201.35
423.496	207.45
423.956	213.65
424.416	228.55
424.876	262.15
425.336	274.75
425.797	267.55
426.257	256.15
426.717	246.35
427.177	230.55
427.637	222.05
428.097	236.75
428.556	248.05
429.016	270.55
429.476	264.75
429.936	282.55
430.396	282.05
430.856	289.85
431.315	317.55
431.775	351.95
432.235	377.55
432.694	358.25
433.154	366.15
433.614	383.25
434.073	340.25
434.533	284.05
434.993	267.05
435.452	283.35
435.912	300.55
436.371	292.65
436.83	283.45
437.29	264.45
437.749	254.45
438.209	242.25
438.668	274.25
439.127	290.35
439.587	264.95
440.046	252.95
440.505	259.75
440.964	281.15
441.424	325.35
441.883	307.35
442.342	257.95
442.801	226.55
443.26	220.25
443.719	224.35
444.178	214.15
444.637	214.85
445.096	217.85
445.555	216.95
446.014	226.05
446.473	227.15
446.932	233.15
447.391	222.85
447.849	228.25
448.308	219.85
448.767	221.35
449.226	235.65
449.685	240.95
450.143	246.65
450.602	240.25
451.061	224.45
451.519	243.25
451.978	234.15
452.436	228.25
452.895	236.65
453.353	256.55
453.812	246.15
454.27	237.75
454.729	238.15
455.187	242.15
455.646	237.15
456.104	249.95
456.562	259.65
457.021	271.75
457.479	256.25
457.937	272.45
458.395	266.65
458.854	247.65
459.312	248.95
459.77	268.05
460.228	259.85
460.686	237.85
461.144	246.85
461.602	243.05
462.06	247.05
462.518	257.85
462.976	249.95
463.434	252.35
463.892	267.55
464.35	275.25
464.808	289.35
465.266	270.85
465.724	273.45
466.181	271.55
466.639	273.55
467.097	287.65
467.555	296.35
468.012	301.55
468.47	308.15
468.928	330.85
469.385	342.35
469.843	355.75
470.3	354.35
470.758	365.75
471.215	388.25
471.673	410.95
472.13	411.05
472.588	422.15
473.045	374.05
473.503	372.05
473.96	391.65
474.417	399.55
474.875	421.95
475.332	478.45
475.789	458.25
476.246	461.45
476.704	498.75
477.161	511.55
477.618	518.95
478.075	562.75
478.532	607.75
478.989	686.85
479.446	799.45
479.903	767.45
480.36	816.25
480.817	875.25
481.274	968.85
481.731	1080.35
482.188	1176.95
482.645	1289.15
483.102	1422.45
483.558	1561.25
484.015	1598.45
484.472	1572.65
484.929	1534.75
485.385	1478.65
485.842	1432.15
486.299	1383.85
486.755	1297.95
487.212	1110.15
487.668	936.25
488.125	848.05
488.582	790.95
489.038	753.75
489.494	711.35
489.951	696.55
490.407	674.15
490.864	645.55
491.32	649.25
491.776	650.85
492.233	635.75
492.689	601.85
493.145	610.25
493.602	604.65
494.058	611.05
494.514	618.45
494.97	647.55
495.426	650.85
495.882	628.25
496.338	616.85
496.794	636.05
497.251	626.55
497.707	640.95
498.163	637.05
498.618	645.65
499.074	650.45
499.53	680.55
499.986	674.65
500.442	657.35
500.898	634.45
501.354	633.45
501.809	634.15
502.265	653.55
502.721	664.65
503.177	679.15
503.632	672.85
504.088	679.55
504.543	708.75
504.999	712.25
505.455	663.45
505.91	640.15
506.366	633.75
506.821	630.85
507.277	623.65
507.732	629.35
508.187	627.15
508.643	628.05
509.098	635.25
509.553	657.05
510.009	666.15
510.464	669.15
510.919	691.75
511.375	707.55
511.83	711.85
512.285	724.55
512.74	755.35
513.195	781.85
513.65	780.45
514.105	776.15
514.56	776.65
515.015	785.35
515.47	818.25
515.925	800.65
516.38	788.15
516.835	796.65
517.29	790.25
517.745	767.65
518.2	769.25
518.655	752.65
519.109	742.45
519.564	740.45
520.019	727.65
520.474	730.15
520.928	728.45
521.383	731.55
521.838	713.75
522.292	723.45
522.747	707.25
523.201	703.15
523.656	695.95
524.11	697.15
524.565	695.75
525.019	687.05
525.474	691.65
525.928	697.15
526.382	689.95
526.837	696.05
527.291	701.55
527.745	700.35
528.2	702.05
528.654	698.95
529.108	692.05
529.562	691.45
530.016	684.55
530.47	693.05
530.925	686.65
531.379	697.55
531.833	698.65
532.287	703.45
532.741	703.65
533.195	707.05
533.649	710.05
534.103	721.55
534.556	704.55
535.01	709.25
535.464	714.95
535.918	718.55
536.372	724.35
536.826	711.35
537.279	709.05
537.733	712.45
538.187	702.25
538.64	709.85
539.094	733.55
539.548	722.75
540.001	714.95
540.455	721.85
540.908	724.95
541.362	726.45
541.815	751.55
542.269	750.85
542.722	750.95
543.175	762.85
543.629	760.95
544.082	773.65
544.536	778.35
544.989	780.35
545.442	785.15
545.895	785.25
546.349	784.65
546.802	785.25
547.255	795.95
547.708	795.15
548.161	810.65
548.614	816.25
549.067	827.05
549.52	814.85
549.973	803.55
550.426	804.15
550.879	793.45
551.332	793.15
551.785	803.15
552.238	809.85
552.691	819.35
553.144	827.75
553.596	839.75
554.049	853.45
554.502	890.25
554.955	904.25
555.407	905.55
555.86	901.25
556.313	887.55
556.765	877.35
557.218	876.15
557.67	866.15
558.123	868.55
558.576	875.35
559.028	864.15
559.48	880.85
559.933	858.45
560.385	827.55
560.838	809.55
561.29	781.45
561.742	779.45
562.195	764.35
562.647	761.25
563.099	766.05
563.551	766.85
564.004	776.85
564.456	761.35
564.908	749.65
565.36	746.85
565.812	724.05
566.264	713.15
566.716	714.55
567.168	703.85
567.62	710.55
568.072	702.35
568.524	691.25
568.976	681.85
569.428	658.55
569.88	665.75
570.332	671.95
570.784	669.25
571.235	673.05
571.687	685.35
572.139	698.75
572.59	695.85
573.042	704.25
573.494	698.05
573.945	690.45
574.397	675.75
574.849	681.45
575.3	689.55
575.752	668.15
576.203	669.05
576.655	673.05
577.106	667.35
577.557	656.45
578.009	657.05
578.46	645.55
578.912	646.55
579.363	651.75
579.814	657.25
580.265	655.45
580.717	662.55
581.168	666.95
581.619	672.45
582.07	665.85
582.521	660.95
582.972	662.35
583.423	664.45
583.875	663.25
584.326	686.65
584.777	731.25
585.227	801.65
585.678	887.25
586.129	978.75
586.58	1045.05
587.031	1139.95
587.482	1289.25
587.933	1450.25
588.384	1275.05
588.834	953.75
589.285	785.25
589.736	757.55
590.186	761.45
590.637	751.65
591.088	735.15
591.538	730.15
591.989	716.05
592.439	704.25
592.89	710.75
593.34	689.65
593.791	695.05
594.241	696.45
594.692	700.15
595.142	684.05
595.593	674.95
596.043	688.25
596.493	695.65
596.943	696.55
597.394	706.35
597.844	696.65
598.294	699.65
598.744	734.75
599.195	758.55
599.645	788.05
600.095	826.75
600.545	882.85
600.995	929.75
601.445	995.55
601.895	1052.35
602.345	1107.45
602.795	1088.65
603.245	1026.55
603.695	986.45
604.145	925.35
604.594	883.15
605.044	836.05
605.494	786.45
605.944	734.35
606.393	721.15
606.843	709.65
607.293	719.55
607.743	708.95
608.192	720.05
608.642	734.65
609.091	749.05
609.541	742.35
609.99	750.05
610.44	741.95
610.889	700.25
611.339	672.65
611.788	668.35
612.238	681.15
612.687	693.55
613.136	688.75
613.586	714.45
614.035	712.25
614.484	729.05
614.933	737.35
615.383	724.35
615.832	716.45
616.281	702.15
616.73	663.55
617.179	644.85
617.628	624.65
618.077	606.05
618.526	599.45
618.975	594.05
619.424	590.25
619.873	596.05
620.322	606.85
620.771	587.55
621.22	582.05
621.669	573.95
622.118	568.95
622.567	559.45
623.015	544.15
623.464	559.35
623.913	549.65
624.361	537.95
624.81	525.85
625.259	537.65
625.707	542.85
626.156	534.85
626.604	546.15
627.053	543.95
627.501	541.95
627.95	550.15
628.398	554.65
628.847	551.85
629.295	554.85
629.744	551.25
630.192	558.65
630.64	553.95
631.089	536.75
631.537	553.95
631.985	561.55
632.433	573.15
632.881	576.25
633.33	630.85
633.778	611.85
634.226	544.25
634.674	557.75
635.122	552.85
635.57	571.95
636.018	606.85
636.466	561.25
636.914	537.65
637.362	543.65
637.81	551.85
638.258	554.35
638.705	554.55
639.153	581.25
639.601	584.65
640.049	617.25
640.497	644.25
640.944	666.15
641.392	614.15
641.84	588.95
642.287	557.65
642.735	547.15
643.182	550.45
643.63	544.85
644.078	546.15
644.525	565.45
644.973	574.65
645.42	567.95
645.867	596.25
646.315	612.75
646.762	639.15
647.21	658.75
647.657	681.75
648.104	712.45
648.551	737.65
648.999	800.25
649.446	871.75
649.893	963.55
650.34	1109.75
650.787	1312.35
651.234	1642.25
651.682	2128.65
652.129	2919.75
652.576	4208.25
653.023	6204.35
653.47	8558.25
653.917	10716.65
654.363	12450.85
654.81	13897.95
655.257	13204.05
655.704	8600.45
656.151	5062.85
656.598	3269.55
657.044	2327.15
657.491	1793.55
657.938	1414.95
658.385	1200.35
658.831	1035.75
659.278	930.25
659.724	817.35
660.171	753.15
660.618	687.65
661.064	660.65
661.511	641.15
661.957	627.75
662.404	616.45
662.85	619.75
663.296	604.55
663.743	534.05
664.189	519.05
664.635	506.85
665.082	503.65
665.528	496.65
665.974	490.45
666.42	490.25
666.867	492.75
667.313	472.65
667.759	461.55
668.205	459.35
668.651	463.15
669.097	463.45
669.543	475.35
669.989	434.25
670.435	432.65
670.881	427.35
671.327	434.15
671.773	447.45
672.219	466.65
672.665	518.75
673.11	552.05
673.556	595.05
674.002	635.15
674.448	622.05
674.893	517.65
675.339	449.55
675.785	424.95
676.23	401.85
676.676	367.25
677.122	365.55
677.567	354.85
678.013	355.95
678.458	334.35
678.904	338.85
679.349	333.95
679.794	339.65
680.24	330.35
680.685	329.15
681.131	336.85
681.576	334.75
682.021	344.25
682.466	333.45
682.912	325.55
683.357	327.15
683.802	354.45
684.247	381.05
684.692	432.45
685.137	469.05
685.583	509.65
686.028	526.15
686.473	482.95
686.918	419.65
687.363	395.25
687.807	373.85
688.252	343.15
688.697	335.55
689.142	320.65
689.587	318.25
690.032	300.25
690.477	311.15
690.921	326.65
691.366	360.95
691.811	385.65
692.255	405.65
692.7	436.65
693.145	479.55
693.589	644.65
694.034	1046.85
694.478	1421.05
694.923	1641.45
695.367	2153.65
695.812	1133.65
696.256	474.25
696.701	354.15
697.145	322.55
697.59	308.75
698.034	306.35
698.478	307.15
698.922	303.55
699.367	303.35
699.811	324.25
700.255	332.15
700.699	360.25
701.143	391.25
701.588	452.95
702.032	484.85
702.476	484.25
702.92	461.65
703.364	456.05
703.808	594.25
704.252	961.95
704.696	1347.15
705.14	1577.55
705.584	2015.95
706.027	1005.25
706.471	502.05
706.915	375.55
707.359	337.05
707.803	304.35
708.246	292.85
708.69	294.65
709.134	294.65
709.577	297.55
710.021	297.75
710.465	285.15
710.908	278.35
711.352	273.85
711.795	284.65
712.239	322.85
712.682	360.95
713.126	397.95
713.569	437.75
714.012	349.65
714.456	302.15
714.899	286.55
715.342	257.85
715.786	245.85
716.229	246.15
716.672	233.75
717.115	231.55
717.558	238.35
718.002	237.95
718.445	244.65
718.888	274.35
719.331	281.95
719.774	287.25
720.217	282.15
720.66	268.65
721.103	247.95
721.546	235.05
721.989	238.35
722.432	217.85
722.874	224.15
723.317	219.35
723.76	222.25
724.203	234.05
724.645	290.85
725.088	408.65
725.531	529.05
725.974	599.55
726.416	516.15
726.859	290.55
727.301	232.05
727.744	224.05
728.187	222.35
728.629	222.55
729.071	224.55
729.514	240.25
729.956	253.45
730.399	265.65
730.841	269.65
731.283	257.45
731.726	241.95
732.168	244.15
732.61	250.65
733.053	266.95
733.495	291.35
733.937	327.15
734.379	372.05
734.821	407.85
735.263	498.35
735.705	772.35
736.148	1441.85
736.59	2382.25
737.032	2891.45
737.474	2353.75
737.916	756.45
738.357	404.75
738.799	308.55
739.241	283.55
739.683	264.85
740.125	271.45
740.567	277.35
741.008	294.95
741.45	295.35
741.892	292.45
742.334	324.85
742.775	337.95
743.217	324.65
743.658	253.75
744.1	241.35
744.542	250.05
744.983	291.55
745.425	324.25
745.866	327.35
746.307	272.25
746.749	271.55
747.19	306.85
747.632	419.35
748.073	799.85
748.514	1703.85
748.956	2668.65
749.397	3326.25
749.838	2747.15
750.279	2807.55
750.72	1402.95
751.162	513.75
751.603	297.95
752.044	239.95
752.485	199.95
752.926	195.75
753.367	181.45
753.808	183.65
754.249	177.25
754.69	173.35
755.131	172.75
755.572	170.05
756.013	164.75
756.453	169.65
756.894	169.45
757.335	178.05
757.776	186.45
758.216	180.35
758.657	184.85
759.098	193.35
759.538	212.95
759.979	243.55
760.42	348.15
760.86	629.15
761.301	1632.95
761.741	4061.75
762.182	6104.25
762.622	4285.35
