Data from 20171114-ORNL-Ar_H_NY_Subt18_08-05-51-798.txt Node
Date: Tue Nov 14 08:05:51 EST 2017
User: Ender
Spectrometer: HR+D1039
Trigger mode: 0
Integration Time (sec): 2.730000E-2
Scans to average: 10
Electric dark correction enabled: true
Nonlinearity correction enabled: false
Boxcar width: 0
XAxis mode: Wavelengths
Number of Pixels in Spectrum: 2048
>>>>>Begin Spectral Data<<<<<
187.836	-1.34
188.309	-1.34
188.782	-1.34
189.255	-2.94
189.728	-1.14
190.201	8.16
190.674	-3.54
191.147	3.66
191.619	-7.54
192.092	1.26
192.565	4.66
193.038	0.86
193.511	-0.24
193.984	-0.14
194.456	-2.74
194.929	1.16
195.402	0.46
195.874	-0.54
196.347	1.96
196.82	-7.24
197.292	5.16
197.765	-4.74
198.237	-5.74
198.71	1.66
199.182	-2.74
199.655	3.76
200.127	2.06
200.6	-2.34
201.072	-3.54
201.544	-2.04
202.017	-5.14
202.489	4.66
202.961	-4.84
203.433	-5.34
203.906	-9.74
204.378	-6.64
204.85	-1.44
205.322	-8.44
205.794	-3.24
206.266	-3.44
206.739	-9.04
207.211	-0.94
207.683	-3.44
208.155	-8.64
208.627	-5.24
209.099	3.16
209.57	-6.94
210.042	-6.84
210.514	-4.74
210.986	-0.84
211.458	-5.54
211.93	-1.74
212.402	0.86
212.873	-6.14
213.345	-10.84
213.817	-13.54
214.288	-5.64
214.76	-13.04
215.232	-0.34
215.703	-4.24
216.175	4.76
216.646	1.46
217.118	-9.74
217.589	-5.34
218.061	-1.54
218.532	-5.04
219.004	1.96
219.475	1.06
219.946	0.66
220.418	-5.54
220.889	1.66
221.36	4.06
221.832	-6.94
222.303	-6.64
222.774	2.96
223.245	-6.44
223.717	-10.04
224.188	-3.94
224.659	-6.04
225.13	-9.24
225.601	-0.44
226.072	-3.74
226.543	-2.74
227.014	-1.34
227.485	-4.54
227.956	-2.84
228.427	2.06
228.898	2.56
229.369	5.46
229.839	-1.04
230.31	1.36
230.781	7.76
231.252	-2.54
231.722	-6.24
232.193	3.16
232.664	1.46
233.135	3.46
233.605	-0.54
234.076	-6.24
234.546	-0.84
235.017	5.76
235.487	2.76
235.958	1.06
236.428	-0.24
236.899	1.76
237.369	1.56
237.84	-4.74
238.31	4.86
238.78	4.26
239.251	2.36
239.721	2.06
240.191	-3.34
240.662	-1.14
241.132	-5.04
241.602	-7.04
242.072	-2.44
242.542	5.66
243.013	1.96
243.483	1.26
243.953	3.46
244.423	-0.14
244.893	-0.84
245.363	4.96
245.833	0.56
246.303	-4.34
246.773	4.76
247.243	5.76
247.712	6.56
248.182	14.16
248.652	12.46
249.122	1.16
249.592	13.86
250.061	21.06
250.531	29.26
251.001	15.56
251.471	25.06
251.94	21.26
252.41	10.26
252.879	0.26
253.349	9.96
253.818	1.36
254.288	9.76
254.757	2.16
255.227	2.46
255.696	4.36
256.166	6.46
256.635	6.66
257.105	8.36
257.574	3.36
258.043	12.76
258.513	15.16
258.982	15.16
259.451	8.66
259.92	17.16
260.389	8.96
260.859	16.56
261.328	11.86
261.797	19.16
262.266	5.76
262.735	9.16
263.204	1.66
263.673	5.56
264.142	9.76
264.611	-3.94
265.08	4.06
265.549	-2.94
266.018	5.36
266.487	-2.54
266.955	-4.44
267.424	3.66
267.893	8.06
268.362	6.46
268.83	8.36
269.299	17.66
269.768	2.36
270.236	4.96
270.705	4.76
271.174	7.96
271.642	9.66
272.111	13.86
272.579	20.66
273.048	23.96
273.516	25.96
273.985	35.36
274.453	32.16
274.922	19.06
275.39	11.96
275.858	4.56
276.327	14.46
276.795	17.26
277.263	11.66
277.731	30.16
278.2	56.16
278.668	54.36
279.136	54.26
279.604	24.56
280.072	16.96
280.54	15.26
281.008	11.86
281.477	17.56
281.945	10.66
282.413	16.56
282.881	18.66
283.348	7.76
283.816	16.26
284.284	13.26
284.752	20.26
285.22	13.76
285.688	19.16
286.156	18.96
286.623	42.86
287.091	55.46
287.559	29.56
288.026	19.56
288.494	8.66
288.962	6.86
289.429	10.26
289.897	20.86
290.364	15.46
290.832	21.16
291.3	19.66
291.767	18.26
292.234	17.36
292.702	17.76
293.169	19.56
293.637	24.16
294.104	26.96
294.571	10.76
295.039	10.36
295.506	17.16
295.973	21.76
296.44	17.86
296.908	23.46
297.375	18.36
297.842	14.46
298.309	21.56
298.776	15.16
299.243	21.16
299.71	14.36
300.177	18.46
300.644	25.16
301.111	20.16
301.578	21.76
302.045	15.16
302.512	19.66
302.979	20.46
303.446	23.86
303.913	24.66
304.379	20.26
304.846	30.16
305.313	22.56
305.78	22.46
306.246	27.56
306.713	28.16
307.18	25.96
307.646	28.66
308.113	28.76
308.579	22.76
309.046	30.66
309.512	28.16
309.979	20.56
310.445	34.46
310.912	30.46
311.378	30.26
311.845	32.66
312.311	28.16
312.777	33.46
313.244	34.06
313.71	37.16
314.176	32.86
314.642	26.26
315.109	38.76
315.575	32.36
316.041	43.86
316.507	34.26
316.973	43.36
317.439	34.16
317.905	39.46
318.371	38.06
318.837	30.66
319.303	36.26
319.769	36.26
320.235	37.66
320.701	41.96
321.167	43.76
321.633	36.86
322.099	38.06
322.564	47.96
323.03	42.66
323.496	43.76
323.962	40.76
324.427	35.86
324.893	43.16
325.359	43.66
325.824	41.36
326.29	38.86
326.755	43.76
327.221	43.06
327.686	36.46
328.152	41.16
328.617	41.96
329.083	46.36
329.548	48.36
330.014	47.16
330.479	38.06
330.944	42.36
331.41	47.96
331.875	46.76
332.34	48.96
332.805	48.46
333.271	48.86
333.736	47.96
334.201	55.46
334.666	48.56
335.131	52.96
335.596	56.46
336.061	54.96
336.526	45.46
336.991	54.76
337.456	51.56
337.921	53.66
338.386	46.36
338.851	42.56
339.316	46.76
339.781	45.46
340.246	55.36
340.711	43.16
341.175	54.06
341.64	37.16
342.105	53.76
342.569	57.26
343.034	62.06
343.499	50.36
343.963	52.26
344.428	64.36
344.893	61.46
345.357	64.36
345.822	61.36
346.286	64.46
346.751	67.46
347.215	72.46
347.679	74.66
348.144	96.36
348.608	85.96
349.073	70.16
349.537	76.06
350.001	81.46
350.465	83.56
350.93	79.36
351.394	82.36
351.858	67.66
352.322	89.36
352.786	89.56
353.25	102.06
353.715	115.46
354.179	95.96
354.643	129.46
355.107	129.06
355.571	112.26
356.035	104.16
356.498	123.46
356.962	128.86
357.426	134.76
357.89	123.66
358.354	93.76
358.818	81.36
359.281	79.36
359.745	78.96
360.209	75.56
360.673	75.96
361.136	86.76
361.6	81.26
362.064	91.16
362.527	84.26
362.991	92.96
363.454	81.26
363.918	80.96
364.381	81.16
364.845	84.26
365.308	88.36
365.772	91.86
366.235	87.66
366.698	81.36
367.162	85.46
367.625	83.26
368.088	92.86
368.552	91.46
369.015	90.86
369.478	92.06
369.941	100.96
370.404	89.56
370.867	104.86
371.331	107.46
371.794	116.06
372.257	111.76
372.72	119.36
373.183	110.46
373.646	104.96
374.109	106.26
374.572	106.36
375.035	109.96
375.497	113.96
375.96	106.66
376.423	105.46
376.886	109.06
377.349	109.46
377.811	104.86
378.274	105.76
378.737	106.86
379.199	116.46
379.662	115.86
380.125	110.46
380.587	119.26
381.05	117.56
381.512	133.26
381.975	132.46
382.437	131.06
382.9	125.36
383.362	136.96
383.825	148.56
384.287	144.66
384.75	138.16
385.212	134.86
385.674	141.06
386.136	142.36
386.599	121.26
387.061	133.96
387.523	134.86
387.985	139.96
388.447	144.96
388.91	140.36
389.372	157.26
389.834	150.86
390.296	145.66
390.758	152.36
391.22	175.56
391.682	212.56
392.144	307.06
392.606	231.16
393.068	170.06
393.529	165.66
393.991	154.56
394.453	147.86
394.915	156.76
395.377	194.96
395.838	209.16
396.3	159.26
396.762	140.36
397.224	134.86
397.685	124.96
398.147	129.66
398.608	125.06
399.07	124.96
399.531	132.66
399.993	137.96
400.454	155.86
400.916	139.86
401.377	146.06
401.839	149.46
402.3	153.36
402.762	173.66
403.223	180.76
403.684	170.76
404.145	160.76
404.607	158.86
405.068	167.96
405.529	168.16
405.99	188.46
406.451	176.96
406.913	174.46
407.374	162.96
407.835	162.96
408.296	165.86
408.757	168.66
409.218	182.46
409.679	177.66
410.14	173.06
410.601	177.36
411.062	179.26
411.522	188.36
411.983	192.56
412.444	177.96
412.905	180.66
413.366	179.96
413.826	196.66
414.287	218.96
414.748	264.36
415.208	249.06
415.669	214.96
416.13	203.76
416.59	201.36
417.051	211.96
417.511	216.26
417.972	225.16
418.432	242.86
418.893	291.76
419.353	251.66
419.814	200.16
420.274	177.36
420.734	178.26
421.195	199.16
421.655	197.46
422.115	189.26
422.576	195.56
423.036	194.26
423.496	202.96
423.956	213.86
424.416	230.96
424.876	265.76
425.336	265.66
425.797	258.26
426.257	258.46
426.717	234.86
427.177	228.06
427.637	225.16
428.097	244.86
428.556	251.76
429.016	263.36
429.476	261.16
429.936	272.46
430.396	279.16
430.856	294.26
431.315	313.96
431.775	347.06
432.235	382.16
432.694	359.46
433.154	365.06
433.614	380.96
434.073	335.46
434.533	292.56
434.993	265.16
435.452	287.06
435.912	290.06
436.371	293.76
436.83	280.16
437.29	269.56
437.749	246.16
438.209	239.36
438.668	280.16
439.127	284.56
439.587	268.46
440.046	253.16
440.505	258.56
440.964	280.96
441.424	326.76
441.883	315.16
442.342	263.56
442.801	225.56
443.26	218.16
443.719	220.86
444.178	219.26
444.637	210.06
445.096	217.96
445.555	218.36
446.014	223.06
446.473	223.76
446.932	231.56
447.391	228.46
447.849	226.16
448.308	215.66
448.767	222.86
449.226	232.06
449.685	234.36
450.143	250.66
450.602	234.76
451.061	221.66
451.519	231.46
451.978	234.36
452.436	232.06
452.895	242.96
453.353	251.16
453.812	241.46
454.27	241.26
454.729	243.26
455.187	234.56
455.646	244.86
456.104	247.96
456.562	253.46
457.021	271.76
457.479	259.46
457.937	273.76
458.395	261.46
458.854	245.16
459.312	262.46
459.77	271.96
460.228	249.06
460.686	237.36
461.144	249.86
461.602	245.76
462.06	240.06
462.518	250.76
462.976	260.56
463.434	262.66
463.892	262.26
464.35	278.46
464.808	291.16
465.266	263.36
465.724	267.06
466.181	273.46
466.639	269.36
467.097	285.96
467.555	309.06
468.012	308.46
468.47	310.96
468.928	330.26
469.385	338.46
469.843	353.96
470.3	350.66
470.758	362.16
471.215	387.56
471.673	419.86
472.13	402.46
472.588	420.06
473.045	364.66
473.503	372.86
473.96	391.36
474.417	406.26
474.875	434.86
475.332	481.36
475.789	458.06
476.246	464.56
476.704	490.16
477.161	510.16
477.618	515.16
478.075	560.96
478.532	627.26
478.989	709.56
479.446	812.86
479.903	781.26
480.36	815.86
480.817	877.96
481.274	979.16
481.731	1094.36
482.188	1194.16
482.645	1316.36
483.102	1419.16
483.558	1563.96
484.015	1616.26
484.472	1586.16
484.929	1534.26
485.385	1489.16
485.842	1443.76
486.299	1368.36
486.755	1301.76
487.212	1099.76
487.668	932.26
488.125	866.96
488.582	790.06
489.038	755.66
489.494	717.66
489.951	698.86
490.407	676.66
490.864	661.46
491.32	659.76
491.776	647.36
492.233	656.56
492.689	623.46
493.145	610.06
493.602	607.76
494.058	616.36
494.514	621.26
494.97	645.46
495.426	658.66
495.882	631.46
496.338	615.86
496.794	631.06
497.251	633.66
497.707	641.86
498.163	640.66
498.618	645.16
499.074	658.46
499.53	683.36
499.986	683.36
500.442	664.36
500.898	643.66
501.354	633.46
501.809	640.16
502.265	653.06
502.721	667.96
503.177	673.96
503.632	663.56
504.088	691.46
504.543	716.76
504.999	716.26
505.455	653.66
505.91	651.06
506.366	633.76
506.821	628.26
507.277	621.36
507.732	623.46
508.187	634.56
508.643	632.06
509.098	632.06
509.553	658.66
510.009	664.86
510.464	678.26
510.919	694.16
511.375	705.96
511.83	708.16
512.285	734.76
512.74	763.86
513.195	799.76
513.65	783.26
514.105	775.36
514.56	776.16
515.015	787.16
515.47	809.36
515.925	792.16
516.38	802.06
516.835	790.76
517.29	790.16
517.745	783.76
518.2	779.96
518.655	750.06
519.109	739.56
519.564	740.46
520.019	733.66
520.474	737.36
520.928	735.16
521.383	718.36
521.838	725.96
522.292	706.46
522.747	709.96
523.201	712.16
523.656	699.86
524.11	702.46
524.565	702.26
525.019	690.46
525.474	705.16
525.928	709.56
526.382	703.66
526.837	699.86
527.291	705.46
527.745	703.96
528.2	701.76
528.654	697.86
529.108	687.66
529.562	701.36
530.016	688.96
530.47	702.26
530.925	697.16
531.379	705.46
531.833	708.16
532.287	710.26
532.741	711.76
533.195	712.26
533.649	723.26
534.103	712.76
534.556	715.76
535.01	715.76
535.464	721.56
535.918	720.46
536.372	731.86
536.826	720.16
537.279	705.76
537.733	722.86
538.187	722.36
538.64	716.06
539.094	737.06
539.548	734.56
540.001	730.16
540.455	728.76
540.908	739.36
541.362	742.36
541.815	743.16
542.269	761.26
542.722	768.76
543.175	769.06
543.629	770.16
544.082	787.96
544.536	789.36
544.989	780.76
545.442	794.16
545.895	796.46
546.349	797.26
546.802	789.26
547.255	805.86
547.708	812.06
548.161	823.66
548.614	817.76
549.067	834.26
549.52	830.36
549.973	817.56
550.426	813.56
550.879	785.56
551.332	805.56
551.785	816.16
552.238	808.36
552.691	825.46
553.144	833.86
553.596	851.16
554.049	869.46
554.502	899.06
554.955	920.86
555.407	918.06
555.86	904.96
556.313	901.86
556.765	887.26
557.218	890.66
557.67	887.86
558.123	884.46
558.576	880.46
559.028	890.46
559.48	889.06
559.933	869.56
560.385	836.36
560.838	816.86
561.29	783.56
561.742	790.36
562.195	767.66
562.647	776.46
563.099	779.76
563.551	772.56
564.004	791.66
564.456	773.66
564.908	760.86
565.36	744.46
565.812	734.16
566.264	726.86
566.716	720.06
567.168	719.46
567.62	722.96
568.072	710.96
568.524	697.86
568.976	688.46
569.428	672.76
569.88	674.36
570.332	685.56
570.784	682.46
571.235	684.56
571.687	699.66
572.139	701.96
572.59	708.26
573.042	721.96
573.494	706.16
573.945	700.26
574.397	690.16
574.849	677.06
575.3	691.86
575.752	683.96
576.203	684.46
576.655	679.76
577.106	676.06
577.557	665.26
578.009	670.16
578.46	660.96
578.912	664.86
579.363	662.76
579.814	663.56
580.265	666.66
580.717	670.96
581.168	676.66
581.619	671.86
582.07	689.06
582.521	671.26
582.972	672.26
583.423	679.66
583.875	679.56
584.326	699.36
584.777	739.86
585.227	815.06
585.678	915.76
586.129	995.56
586.58	1070.56
587.031	1159.16
587.482	1323.26
587.933	1514.16
588.384	1305.06
588.834	968.16
589.285	804.86
589.736	780.06
590.186	779.96
590.637	764.66
591.088	743.66
591.538	738.26
591.989	725.16
592.439	732.66
592.89	725.06
593.34	715.66
593.791	715.36
594.241	696.76
594.692	712.96
595.142	699.46
595.593	699.26
596.043	704.46
596.493	700.46
596.943	725.76
597.394	722.26
597.844	708.76
598.294	728.36
598.744	747.26
599.195	767.26
599.645	815.86
600.095	850.26
600.545	897.26
600.995	965.46
601.445	1030.56
601.895	1081.46
602.345	1126.56
602.795	1100.76
603.245	1062.16
603.695	1009.96
604.145	957.16
604.594	915.76
605.044	853.46
605.494	785.66
605.944	751.56
606.393	737.96
606.843	724.46
607.293	737.26
607.743	728.46
608.192	732.76
608.642	758.56
609.091	759.56
609.541	763.86
609.99	765.96
610.44	759.86
610.889	707.66
611.339	698.76
611.788	684.56
612.238	684.46
612.687	716.26
613.136	706.46
613.586	736.36
614.035	725.86
614.484	742.26
614.933	751.66
615.383	748.06
615.832	742.16
616.281	724.66
616.73	682.56
617.179	650.06
617.628	645.76
618.077	629.86
618.526	614.96
618.975	610.16
619.424	620.86
619.873	605.56
620.322	611.36
620.771	601.66
621.22	595.26
621.669	601.06
622.118	579.46
622.567	568.76
623.015	556.66
623.464	565.36
623.913	546.66
624.361	553.36
624.81	539.76
625.259	556.66
625.707	551.76
626.156	549.16
626.604	560.96
627.053	552.96
627.501	553.46
627.95	559.46
628.398	577.36
628.847	570.86
629.295	563.66
629.744	574.26
630.192	561.86
630.64	556.96
631.089	561.36
631.537	570.26
631.985	583.96
632.433	588.26
632.881	601.16
633.33	643.16
633.778	637.16
634.226	557.56
634.674	564.36
635.122	569.86
635.57	597.76
636.018	617.66
636.466	572.56
636.914	550.06
637.362	562.16
637.81	572.36
638.258	569.76
638.705	567.16
639.153	598.86
639.601	602.56
640.049	632.36
640.497	664.16
640.944	686.76
641.392	628.26
641.84	600.56
642.287	572.96
642.735	556.26
643.182	568.06
643.63	560.26
644.078	562.86
644.525	582.86
644.973	594.06
645.42	595.36
645.867	617.46
646.315	639.46
646.762	646.66
647.21	690.96
647.657	702.46
648.104	744.46
648.551	765.46
648.999	814.76
649.446	905.96
649.893	998.46
650.34	1148.26
650.787	1387.16
651.234	1709.46
651.682	2224.16
652.129	3067.86
652.576	4388.36
653.023	6462.96
653.47	8915.76
653.917	11132.26
654.363	12896.56
654.81	14313.36
655.257	13632.96
655.704	8941.46
656.151	5266.46
656.598	3429.76
657.044	2399.46
657.491	1846.76
657.938	1475.56
658.385	1218.66
658.831	1064.86
659.278	941.96
659.724	845.56
660.171	783.66
660.618	709.06
661.064	681.16
661.511	651.46
661.957	642.66
662.404	640.26
662.85	639.06
663.296	624.16
663.743	555.06
664.189	526.36
664.635	530.56
665.082	520.56
665.528	518.96
665.974	505.26
666.42	504.06
666.867	502.76
667.313	475.06
667.759	472.26
668.205	465.16
668.651	476.96
669.097	478.66
669.543	484.56
669.989	458.16
670.435	430.86
670.881	436.66
671.327	436.06
671.773	457.96
672.219	481.56
672.665	532.56
673.11	567.36
673.556	610.66
674.002	645.96
674.448	644.26
674.893	525.56
675.339	455.06
675.785	426.36
676.23	406.86
676.676	387.26
677.122	378.66
677.567	367.26
678.013	359.26
678.458	353.16
678.904	356.46
679.349	343.66
679.794	352.06
680.24	340.36
680.685	344.36
681.131	338.76
681.576	343.26
682.021	349.96
682.466	340.66
682.912	340.86
683.357	343.36
683.802	368.86
684.247	393.56
684.692	446.26
685.137	478.06
685.583	527.56
686.028	548.56
686.473	499.56
686.918	434.56
687.363	404.76
687.807	380.36
688.252	352.66
688.697	351.46
689.142	332.36
689.587	315.26
690.032	305.26
690.477	334.86
690.921	339.46
691.366	366.76
691.811	398.96
692.255	421.46
692.7	457.66
693.145	488.96
693.589	663.96
694.034	1082.76
694.478	1500.46
694.923	1698.56
695.367	2226.96
695.812	1154.06
696.256	490.06
696.701	369.56
697.145	342.86
697.59	323.76
698.034	315.86
698.478	324.86
698.922	324.96
699.367	315.56
699.811	331.16
700.255	344.86
700.699	376.06
701.143	416.56
701.588	461.86
702.032	499.66
702.476	488.66
702.92	480.06
703.364	476.96
703.808	612.26
704.252	995.16
704.696	1410.56
705.14	1625.66
705.584	2073.96
706.027	1032.56
706.471	510.56
706.915	393.16
707.359	349.06
707.803	311.66
708.246	293.26
708.69	307.96
709.134	304.26
709.577	296.86
710.021	307.46
710.465	302.36
710.908	294.06
711.352	295.66
711.795	302.16
712.239	344.36
712.682	380.56
713.126	407.86
713.569	444.56
714.012	357.86
714.456	318.56
714.899	288.26
715.342	273.16
715.786	253.76
716.229	251.46
716.672	253.66
717.115	238.26
717.558	237.66
718.002	242.86
718.445	253.46
718.888	273.06
719.331	277.66
719.774	302.26
720.217	292.96
720.66	274.86
721.103	258.06
721.546	252.96
721.989	249.16
722.432	229.66
722.874	233.16
723.317	219.96
723.76	233.36
724.203	253.76
724.645	306.76
725.088	438.06
725.531	549.16
725.974	625.26
726.416	531.36
726.859	299.66
727.301	238.66
727.744	229.76
728.187	229.16
728.629	231.96
729.071	244.26
729.514	246.96
729.956	262.06
730.399	279.76
730.841	281.56
731.283	269.86
731.726	256.96
732.168	247.86
732.61	258.76
733.053	270.86
733.495	303.66
733.937	340.56
734.379	382.56
734.821	423.66
735.263	519.26
735.705	790.66
736.148	1505.46
736.59	2481.26
737.032	2978.26
737.474	2426.16
737.916	782.26
738.357	421.36
738.799	326.56
739.241	292.56
739.683	276.16
740.125	281.56
740.567	286.36
741.008	308.26
741.45	309.76
741.892	303.16
742.334	332.06
742.775	346.06
743.217	342.66
743.658	259.36
744.1	251.76
744.542	256.26
744.983	299.66
745.425	331.96
745.866	336.26
746.307	275.36
746.749	267.16
747.19	309.16
747.632	443.26
748.073	837.06
748.514	1763.96
748.956	2739.26
749.397	3455.36
749.838	2867.66
750.279	2875.66
750.72	1459.56
751.162	526.46
751.603	308.06
752.044	235.56
752.485	215.26
752.926	202.06
753.367	193.36
753.808	192.46
754.249	183.96
754.69	177.36
755.131	174.26
755.572	180.46
756.013	174.86
756.453	174.96
756.894	183.06
757.335	187.56
757.776	190.26
758.216	189.96
758.657	190.86
759.098	193.86
759.538	210.46
759.979	264.96
760.42	353.26
760.86	673.96
761.301	1713.56
761.741	4207.96
762.182	6278.96
762.622	4406.76
