Data from 20171114-ORNL-Ar_H_NY_Subt18_08-04-33-727.txt Node
Date: Tue Nov 14 08:04:33 EST 2017
User: Ender
Spectrometer: HR+D1039
Trigger mode: 0
Integration Time (sec): 2.730000E-2
Scans to average: 10
Electric dark correction enabled: true
Nonlinearity correction enabled: false
Boxcar width: 0
XAxis mode: Wavelengths
Number of Pixels in Spectrum: 2048
>>>>>Begin Spectral Data<<<<<
187.836	-4.19
188.309	-4.19
188.782	-4.19
189.255	1.41
189.728	-0.39
190.201	3.11
190.674	2.41
191.147	2.81
191.619	-9.49
192.092	2.21
192.565	6.21
193.038	-2.29
193.511	1.91
193.984	0.31
194.456	1.21
194.929	-0.59
195.402	-3.09
195.874	-1.49
196.347	-4.19
196.82	-4.59
197.292	2.01
197.765	-0.49
198.237	-4.59
198.71	0.71
199.182	2.81
199.655	8.91
200.127	2.01
200.6	4.31
201.072	5.51
201.544	-0.19
202.017	-0.59
202.489	6.61
202.961	-2.89
203.433	1.01
203.906	-5.59
204.378	-6.79
204.85	-2.29
205.322	-1.69
205.794	-1.49
206.266	-3.29
206.739	-11.79
207.211	4.31
207.683	-7.49
208.155	-7.99
208.627	2.71
209.099	0.91
209.57	-7.39
210.042	-8.19
210.514	0.11
210.986	0.11
211.458	-0.49
211.93	3.31
212.402	-2.59
212.873	-8.89
213.345	-7.99
213.817	-6.99
214.288	-2.49
214.76	-0.09
215.232	-0.29
215.703	-5.69
216.175	-3.09
216.646	-4.19
217.118	-0.29
217.589	3.11
218.061	-2.89
218.532	-3.79
219.004	1.41
219.475	-2.09
219.946	-0.79
220.418	-6.59
220.889	-1.19
221.36	4.81
221.832	1.81
222.303	-2.89
222.774	0.51
223.245	-10.09
223.717	-4.59
224.188	-0.59
224.659	-5.29
225.13	-6.39
225.601	2.61
226.072	-0.19
226.543	0.21
227.014	-0.89
227.485	-3.39
227.956	-3.99
228.427	-1.09
228.898	1.21
229.369	6.11
229.839	5.21
230.31	-2.19
230.781	6.91
231.252	4.61
231.722	1.51
232.193	0.41
232.664	2.41
233.135	-2.89
233.605	-0.39
234.076	0.81
234.546	4.51
235.017	10.41
235.487	-1.69
235.958	2.01
236.428	2.91
236.899	9.31
237.369	4.81
237.84	4.01
238.31	9.61
238.78	6.11
239.251	6.41
239.721	2.41
240.191	5.01
240.662	1.51
241.132	1.71
241.602	0.61
242.072	10.01
242.542	14.51
243.013	2.61
243.483	3.81
243.953	5.91
244.423	4.61
244.893	2.21
245.363	11.31
245.833	-0.09
246.303	-0.39
246.773	6.61
247.243	6.11
247.712	2.01
248.182	15.61
248.652	10.01
249.122	5.01
249.592	17.61
250.061	28.61
250.531	35.31
251.001	17.91
251.471	26.31
251.94	23.91
252.41	7.11
252.879	2.81
253.349	19.81
253.818	14.51
254.288	9.31
254.757	3.81
255.227	3.21
255.696	8.71
256.166	10.01
256.635	15.41
257.105	10.01
257.574	10.21
258.043	11.81
258.513	14.01
258.982	21.01
259.451	9.91
259.92	13.61
260.389	13.11
260.859	19.31
261.328	14.71
261.797	16.01
262.266	16.41
262.735	18.31
263.204	10.51
263.673	1.81
264.142	7.61
264.611	0.31
265.08	4.81
265.549	2.41
266.018	9.61
266.487	1.31
266.955	3.31
267.424	10.71
267.893	10.61
268.362	8.21
268.83	12.91
269.299	14.31
269.768	10.31
270.236	9.01
270.705	12.21
271.174	9.21
271.642	10.01
272.111	10.51
272.579	15.51
273.048	28.91
273.516	29.21
273.985	29.01
274.453	26.41
274.922	19.81
275.39	12.71
275.858	6.81
276.327	11.41
276.795	21.51
277.263	11.21
277.731	31.21
278.2	60.61
278.668	65.71
279.136	52.41
279.604	23.81
280.072	19.51
280.54	14.31
281.008	17.81
281.477	16.81
281.945	16.61
282.413	15.31
282.881	22.51
283.348	12.61
283.816	19.81
284.284	21.41
284.752	22.01
285.22	15.21
285.688	14.91
286.156	23.11
286.623	51.91
287.091	48.61
287.559	35.71
288.026	19.51
288.494	21.21
288.962	9.51
289.429	11.21
289.897	18.01
290.364	14.31
290.832	21.41
291.3	18.41
291.767	30.01
292.234	20.11
292.702	16.81
293.169	18.91
293.637	32.11
294.104	30.31
294.571	12.51
295.039	13.41
295.506	14.41
295.973	20.91
296.44	17.71
296.908	20.91
297.375	23.21
297.842	22.21
298.309	19.51
298.776	20.61
299.243	21.71
299.71	15.21
300.177	29.11
300.644	21.41
301.111	25.61
301.578	19.91
302.045	20.71
302.512	27.01
302.979	29.31
303.446	28.11
303.913	15.91
304.379	21.91
304.846	35.81
305.313	28.51
305.78	26.31
306.246	25.71
306.713	31.01
307.18	29.71
307.646	27.81
308.113	30.21
308.579	28.01
309.046	27.51
309.512	31.21
309.979	20.11
310.445	32.31
310.912	28.21
311.378	38.01
311.845	35.51
312.311	34.31
312.777	35.41
313.244	34.71
313.71	38.71
314.176	29.01
314.642	33.81
315.109	37.81
315.575	38.31
316.041	43.41
316.507	42.41
316.973	39.81
317.439	32.11
317.905	38.71
318.371	38.51
318.837	40.31
319.303	37.31
319.769	38.11
320.235	35.01
320.701	39.41
321.167	40.61
321.633	36.61
322.099	46.61
322.564	46.21
323.03	47.11
323.496	37.91
323.962	44.61
324.427	43.01
324.893	42.61
325.359	39.41
325.824	44.41
326.29	37.71
326.755	40.61
327.221	52.11
327.686	43.01
328.152	51.61
328.617	47.71
329.083	51.41
329.548	52.41
330.014	47.31
330.479	45.31
330.944	49.21
331.41	43.31
331.875	42.81
332.34	45.81
332.805	50.21
333.271	48.81
333.736	43.71
334.201	50.71
334.666	56.01
335.131	56.11
335.596	57.51
336.061	49.81
336.526	47.11
336.991	56.01
337.456	54.31
337.921	54.21
338.386	54.31
338.851	52.21
339.316	47.01
339.781	48.01
340.246	55.11
340.711	46.21
341.175	48.21
341.64	48.41
342.105	52.81
342.569	57.61
343.034	57.11
343.499	51.11
343.963	49.81
344.428	64.51
344.893	63.81
345.357	63.71
345.822	65.41
346.286	66.11
346.751	75.01
347.215	68.21
347.679	72.91
348.144	100.91
348.608	78.61
349.073	71.21
349.537	81.71
350.001	86.31
350.465	85.01
350.93	84.31
351.394	79.51
351.858	79.91
352.322	86.41
352.786	83.41
353.25	104.41
353.715	114.31
354.179	101.61
354.643	128.21
355.107	126.11
355.571	106.81
356.035	106.61
356.498	114.21
356.962	116.51
357.426	133.01
357.89	112.71
358.354	94.61
358.818	79.31
359.281	84.31
359.745	75.61
360.209	77.91
360.673	75.41
361.136	77.01
361.6	85.71
362.064	80.81
362.527	88.31
362.991	92.71
363.454	86.21
363.918	71.21
364.381	77.11
364.845	82.81
365.308	90.81
365.772	85.81
366.235	90.71
366.698	83.91
367.162	87.91
367.625	93.81
368.088	92.21
368.552	89.01
369.015	86.61
369.478	98.51
369.941	96.91
370.404	92.41
370.867	104.11
371.331	102.81
371.794	110.81
372.257	107.91
372.72	119.31
373.183	109.91
373.646	105.81
374.109	101.61
374.572	103.41
375.035	104.31
375.497	110.41
375.96	99.71
376.423	99.61
376.886	119.31
377.349	106.31
377.811	99.01
378.274	101.61
378.737	102.71
379.199	113.11
379.662	107.61
380.125	118.81
380.587	112.41
381.05	116.91
381.512	128.21
381.975	135.21
382.437	124.31
382.9	121.91
383.362	128.81
383.825	131.11
384.287	145.41
384.75	135.41
385.212	132.21
385.674	128.11
386.136	129.31
386.599	125.71
387.061	122.81
387.523	125.71
387.985	125.61
388.447	143.01
388.91	132.21
389.372	145.41
389.834	142.61
390.296	137.11
390.758	148.51
391.22	156.41
391.682	201.71
392.144	280.51
392.606	213.41
393.068	161.51
393.529	168.31
393.991	150.11
394.453	144.31
394.915	153.61
395.377	191.21
395.838	205.21
396.3	152.41
396.762	139.31
397.224	125.11
397.685	121.61
398.147	123.61
398.608	128.61
399.07	122.31
399.531	129.11
399.993	142.51
400.454	151.31
400.916	148.41
401.377	142.91
401.839	144.31
402.3	147.51
402.762	162.31
403.223	172.21
403.684	159.61
404.145	151.11
404.607	154.41
405.068	160.31
405.529	159.41
405.99	180.11
406.451	170.61
406.913	165.01
407.374	154.71
407.835	152.61
408.296	153.21
408.757	167.01
409.218	177.71
409.679	169.91
410.14	169.31
410.601	164.61
411.062	170.71
411.522	181.31
411.983	186.81
412.444	168.91
412.905	168.21
413.366	175.71
413.826	183.71
414.287	206.01
414.748	251.81
415.208	238.01
415.669	200.71
416.13	195.01
416.59	189.01
417.051	201.11
417.511	210.61
417.972	224.21
418.432	235.51
418.893	273.71
419.353	236.91
419.814	189.71
420.274	170.01
420.734	173.51
421.195	185.31
421.655	187.61
422.115	182.21
422.576	180.81
423.036	188.11
423.496	197.41
423.956	208.51
424.416	221.81
424.876	253.41
425.336	249.11
425.797	251.81
426.257	235.91
426.717	226.81
427.177	223.41
427.637	213.11
428.097	219.71
428.556	239.21
429.016	249.41
429.476	249.01
429.936	255.21
430.396	254.01
430.856	273.51
431.315	298.71
431.775	323.51
432.235	358.31
432.694	334.01
433.154	337.81
433.614	357.51
434.073	308.61
434.533	272.91
434.993	259.21
435.452	272.61
435.912	280.51
436.371	273.51
436.83	264.81
437.29	252.21
437.749	231.71
438.209	230.91
438.668	254.31
439.127	262.71
439.587	243.21
440.046	232.11
440.505	250.31
440.964	261.91
441.424	291.51
441.883	288.11
442.342	247.51
442.801	217.71
443.26	205.41
443.719	207.81
444.178	208.41
444.637	199.11
445.096	209.01
445.555	209.71
446.014	214.21
446.473	212.11
446.932	211.11
447.391	213.81
447.849	214.41
448.308	206.91
448.767	204.81
449.226	222.51
449.685	222.11
450.143	245.31
450.602	225.11
451.061	212.61
451.519	216.21
451.978	217.81
452.436	217.41
452.895	222.51
453.353	241.61
453.812	225.21
454.27	228.91
454.729	224.31
455.187	231.31
455.646	235.21
456.104	234.31
456.562	247.71
457.021	246.91
457.479	244.31
457.937	259.71
458.395	243.21
458.854	230.41
459.312	241.11
459.77	258.81
460.228	238.41
460.686	222.11
461.144	228.31
461.602	226.41
462.06	234.31
462.518	237.11
462.976	241.51
463.434	243.81
463.892	253.71
464.35	262.61
464.808	274.21
465.266	250.01
465.724	258.61
466.181	253.81
466.639	251.71
467.097	275.21
467.555	284.71
468.012	285.01
468.47	303.51
468.928	313.61
469.385	321.21
469.843	323.41
470.3	322.71
470.758	338.81
471.215	359.61
471.673	384.91
472.13	377.81
472.588	386.01
473.045	342.71
473.503	349.51
473.96	370.91
474.417	376.71
474.875	410.41
475.332	445.51
475.789	430.91
476.246	435.51
476.704	464.71
477.161	481.41
477.618	484.21
478.075	523.51
478.532	578.91
478.989	649.31
479.446	737.11
479.903	732.41
480.36	757.01
480.817	811.31
481.274	909.71
481.731	1005.71
482.188	1093.31
482.645	1220.21
483.102	1328.81
483.558	1453.11
484.015	1499.51
484.472	1471.21
484.929	1437.61
485.385	1389.11
485.842	1358.81
486.299	1278.51
486.755	1219.41
487.212	1023.41
487.668	872.51
488.125	800.71
488.582	740.51
489.038	713.91
489.494	671.91
489.951	647.01
490.407	640.41
490.864	619.01
491.32	609.71
491.776	598.71
492.233	606.41
492.689	576.61
493.145	576.01
493.602	566.91
494.058	574.91
494.514	581.31
494.97	602.21
495.426	611.01
495.882	594.81
496.338	593.41
496.794	596.41
497.251	593.01
497.707	600.61
498.163	602.01
498.618	608.91
499.074	613.81
499.53	635.11
499.986	646.81
500.442	609.51
500.898	590.71
501.354	586.01
501.809	600.21
502.265	601.61
502.721	624.31
503.177	623.61
503.632	619.31
504.088	630.71
504.543	668.01
504.999	664.61
505.455	619.91
505.91	599.71
506.366	596.91
506.821	593.71
507.277	590.21
507.732	591.31
508.187	582.31
508.643	596.91
509.098	593.31
509.553	619.41
510.009	627.21
510.464	623.91
510.919	648.31
511.375	653.11
511.83	658.31
512.285	681.91
512.74	714.21
513.195	733.91
513.65	719.51
514.105	725.61
514.56	728.11
515.015	747.51
515.47	760.01
515.925	756.81
516.38	737.81
516.835	741.71
517.29	736.51
517.745	735.01
518.2	723.81
518.655	707.41
519.109	693.01
519.564	696.61
520.019	691.61
520.474	683.21
520.928	690.31
521.383	675.11
521.838	668.61
522.292	669.81
522.747	663.91
523.201	654.81
523.656	649.31
524.11	640.31
524.565	647.81
525.019	648.71
525.474	648.61
525.928	655.41
526.382	654.61
526.837	659.21
527.291	649.01
527.745	659.91
528.2	653.01
528.654	650.51
529.108	640.31
529.562	639.51
530.016	634.61
530.47	651.61
530.925	643.31
531.379	643.81
531.833	654.71
532.287	666.31
532.741	657.81
533.195	662.31
533.649	671.01
534.103	675.21
534.556	665.21
535.01	679.81
535.464	661.31
535.918	674.31
536.372	687.81
536.826	674.31
537.279	655.61
537.733	670.91
538.187	665.01
538.64	672.91
539.094	680.11
539.548	672.51
540.001	677.01
540.455	671.91
540.908	687.11
541.362	690.01
541.815	693.71
542.269	696.61
542.722	706.01
543.175	713.21
543.629	725.61
544.082	731.81
544.536	726.11
544.989	725.81
545.442	744.81
545.895	736.11
546.349	734.71
546.802	723.91
547.255	732.21
547.708	746.21
548.161	753.81
548.614	762.91
549.067	770.71
549.52	755.11
549.973	755.51
550.426	740.11
550.879	727.81
551.332	738.91
551.785	748.41
552.238	752.11
552.691	756.01
553.144	764.01
553.596	783.71
554.049	795.71
554.502	836.81
554.955	850.11
555.407	847.61
555.86	832.91
556.313	824.81
556.765	827.61
557.218	812.41
557.67	814.21
558.123	808.91
558.576	807.61
559.028	819.61
559.48	808.91
559.933	795.11
560.385	775.31
560.838	750.41
561.29	716.01
561.742	722.21
562.195	702.91
562.647	707.01
563.099	717.61
563.551	709.21
564.004	721.51
564.456	715.41
564.908	704.91
565.36	692.01
565.812	676.21
566.264	666.51
566.716	658.21
567.168	660.71
567.62	663.01
568.072	638.91
568.524	635.11
568.976	625.71
569.428	611.01
569.88	609.51
570.332	626.01
570.784	628.41
571.235	622.41
571.687	631.31
572.139	634.51
572.59	645.11
573.042	649.51
573.494	652.41
573.945	644.11
574.397	631.41
574.849	628.91
575.3	623.51
575.752	621.51
576.203	624.91
576.655	623.41
577.106	604.51
577.557	598.81
578.009	604.21
578.46	609.61
578.912	598.21
579.363	601.61
579.814	611.81
580.265	598.31
580.717	601.71
581.168	607.91
581.619	614.81
582.07	613.61
582.521	617.21
582.972	608.71
583.423	613.61
583.875	619.01
584.326	634.31
584.777	670.21
585.227	736.31
585.678	819.71
586.129	897.11
586.58	964.01
587.031	1043.41
587.482	1186.01
587.933	1345.11
588.384	1173.31
588.834	882.91
589.285	731.21
589.736	710.91
590.186	695.01
590.637	691.51
591.088	666.61
591.538	670.31
591.989	659.31
592.439	653.51
592.89	654.91
593.34	644.21
593.791	642.01
594.241	633.31
594.692	637.51
595.142	635.71
595.593	625.11
596.043	638.51
596.493	643.91
596.943	641.81
597.394	643.91
597.844	646.41
598.294	652.61
598.744	670.11
599.195	704.71
599.645	729.11
600.095	763.41
600.545	822.11
600.995	866.41
601.445	919.51
601.895	979.81
602.345	1017.31
602.795	1003.61
603.245	960.01
603.695	902.81
604.145	859.51
604.594	814.91
605.044	768.71
605.494	714.81
605.944	676.71
606.393	671.51
606.843	644.01
607.293	643.61
607.743	654.21
608.192	666.11
608.642	674.91
609.091	680.51
609.541	685.91
609.99	697.11
610.44	671.91
610.889	635.81
611.339	619.51
611.788	608.21
612.238	611.71
612.687	631.41
613.136	640.61
613.586	650.71
614.035	648.81
614.484	669.91
614.933	669.21
615.383	655.41
615.832	654.61
616.281	635.41
616.73	598.01
617.179	588.21
617.628	575.81
618.077	555.11
618.526	544.21
618.975	540.11
619.424	538.61
619.873	543.01
620.322	538.31
620.771	535.01
621.22	536.31
621.669	533.91
622.118	516.21
622.567	507.31
623.015	495.11
623.464	494.11
623.913	498.51
624.361	482.01
624.81	485.21
625.259	482.11
625.707	493.61
626.156	496.61
626.604	494.41
627.053	497.71
627.501	494.21
627.95	502.21
628.398	508.71
628.847	499.61
629.295	498.01
629.744	504.81
630.192	498.91
630.64	502.11
631.089	489.11
631.537	496.41
631.985	518.91
632.433	517.91
632.881	527.51
633.33	569.81
633.778	555.21
634.226	487.81
634.674	489.91
635.122	496.11
635.57	515.61
636.018	552.01
636.466	521.51
636.914	487.61
637.362	498.91
637.81	505.01
638.258	504.01
638.705	511.11
639.153	532.91
639.601	539.31
640.049	556.31
640.497	577.21
640.944	602.21
641.392	560.61
641.84	524.51
642.287	510.01
642.735	502.11
643.182	500.31
643.63	496.71
644.078	496.51
644.525	506.01
644.973	517.11
645.42	516.81
645.867	540.01
646.315	559.51
646.762	570.91
647.21	599.51
647.657	614.01
648.104	659.31
648.551	676.11
648.999	722.51
649.446	782.01
649.893	863.01
650.34	987.51
650.787	1180.81
651.234	1459.01
651.682	1896.71
652.129	2604.61
652.576	3720.51
653.023	5488.21
653.47	7558.31
653.917	9611.91
654.363	11218.01
654.81	12604.51
655.257	11972.21
655.704	7786.81
656.151	4577.61
656.598	2967.31
657.044	2098.51
657.491	1607.61
657.938	1296.51
658.385	1076.31
658.831	930.31
659.278	832.21
659.724	732.71
660.171	683.01
660.618	621.71
661.064	591.41
661.511	566.21
661.957	564.41
662.404	543.71
662.85	548.51
663.296	533.71
663.743	482.61
664.189	463.61
664.635	462.61
665.082	459.01
665.528	443.11
665.974	448.41
666.42	437.61
666.867	435.41
667.313	419.21
667.759	410.41
668.205	410.11
668.651	412.11
669.097	419.01
669.543	427.81
669.989	406.91
670.435	381.71
670.881	382.41
671.327	387.81
671.773	400.61
672.219	417.31
672.665	463.31
673.11	498.91
673.556	536.31
674.002	576.31
674.448	565.01
674.893	467.41
675.339	408.11
675.785	378.81
676.23	356.41
676.676	337.91
677.122	324.91
677.567	316.11
678.013	315.51
678.458	305.11
678.904	302.31
679.349	295.01
679.794	299.21
680.24	300.71
680.685	291.91
681.131	292.71
681.576	287.51
682.021	300.41
682.466	305.11
682.912	291.81
683.357	292.91
683.802	320.11
684.247	343.01
684.692	383.41
685.137	422.61
685.583	450.01
686.028	484.41
686.473	447.11
686.918	377.51
687.363	352.31
687.807	338.21
688.252	315.31
688.697	304.91
689.142	293.41
689.587	283.41
690.032	283.01
690.477	291.31
690.921	304.41
691.366	332.71
691.811	344.91
692.255	368.01
692.7	390.41
693.145	420.41
693.589	569.11
694.034	934.01
694.478	1289.71
694.923	1504.81
695.367	1979.11
695.812	1036.21
696.256	425.71
696.701	319.91
697.145	288.41
697.59	275.51
698.034	273.71
698.478	279.71
698.922	277.61
699.367	276.81
699.811	286.61
700.255	299.71
700.699	331.61
701.143	358.21
701.588	394.61
702.032	435.81
702.476	437.21
702.92	414.81
703.364	422.61
703.808	528.71
704.252	852.51
704.696	1209.51
705.14	1439.31
705.584	1853.61
706.027	913.91
706.471	444.41
706.915	343.31
707.359	295.71
707.803	268.71
708.246	262.11
708.69	265.81
709.134	271.51
709.577	264.91
710.021	261.61
710.465	259.01
710.908	256.91
711.352	252.51
711.795	267.91
712.239	296.11
712.682	328.61
713.126	353.61
713.569	394.61
714.012	310.31
714.456	266.61
714.899	252.01
715.342	232.01
715.786	222.71
716.229	212.01
716.672	214.91
717.115	208.61
717.558	205.31
718.002	208.21
718.445	220.61
718.888	245.11
719.331	243.11
719.774	262.91
720.217	266.41
720.66	238.61
721.103	223.61
721.546	220.41
721.989	210.51
722.432	197.01
722.874	199.91
723.317	194.91
723.76	201.51
724.203	212.81
724.645	265.91
725.088	370.61
725.531	481.91
725.974	562.11
726.416	480.31
726.859	260.61
727.301	206.41
727.744	203.41
728.187	202.91
728.629	208.11
729.071	204.51
729.514	219.61
729.956	228.81
730.399	243.81
730.841	243.21
731.283	228.21
731.726	228.41
732.168	217.71
732.61	224.11
733.053	240.51
733.495	268.51
733.937	292.11
734.379	324.91
734.821	370.01
735.263	450.31
735.705	686.91
736.148	1292.61
736.59	2167.71
737.032	2662.01
737.474	2159.31
737.916	681.21
738.357	359.71
738.799	272.01
739.241	249.31
739.683	236.61
740.125	247.21
740.567	252.91
741.008	272.81
741.45	273.01
741.892	261.01
742.334	295.01
742.775	307.51
743.217	293.41
743.658	232.91
744.1	219.11
744.542	220.11
744.983	265.71
745.425	291.41
745.866	300.21
746.307	239.81
746.749	235.51
747.19	271.21
747.632	374.81
748.073	701.31
748.514	1528.81
748.956	2420.61
749.397	3025.71
749.838	2517.31
750.279	2579.51
750.72	1287.41
751.162	464.51
751.603	277.71
752.044	212.11
752.485	181.81
752.926	179.61
753.367	175.11
753.808	161.01
754.249	156.31
754.69	159.21
755.131	152.41
755.572	150.51
756.013	148.51
756.453	160.71
756.894	163.51
757.335	157.31
757.776	162.81
758.216	170.91
758.657	165.01
759.098	176.41
759.538	185.51
759.979	222.81
760.42	313.01
760.86	567.51
761.301	1483.11
761.741	3664.81
762.182	5644.91
762.622	3976.91
