Data from 20171114-ORNL-Ar_H_NY_Subt18_08-06-35-748.txt Node
Date: Tue Nov 14 08:06:35 EST 2017
User: Ender
Spectrometer: HR+D1039
Trigger mode: 0
Integration Time (sec): 2.730000E-2
Scans to average: 10
Electric dark correction enabled: true
Nonlinearity correction enabled: false
Boxcar width: 0
XAxis mode: Wavelengths
Number of Pixels in Spectrum: 2048
>>>>>Begin Spectral Data<<<<<
187.836	-6.6
188.309	-6.6
188.782	-6.6
189.255	1.7
189.728	-3.7
190.201	6.7
190.674	4.1
191.147	-0.2
191.619	-10.1
192.092	-0.8
192.565	4.5
193.038	2.8
193.511	2.8
193.984	-3.1
194.456	2.8
194.929	-1.5
195.402	-3.2
195.874	3.8
196.347	-0.7
196.82	-4.3
197.292	8.6
197.765	5.1
198.237	-6.1
198.71	0.1
199.182	-2.7
199.655	1.7
200.127	0.8
200.6	-9.6
201.072	-5.8
201.544	-11
202.017	-2.4
202.489	0.7
202.961	0.7
203.433	-0
203.906	-7
204.378	-1.2
204.85	-9.4
205.322	-8.4
205.794	-3.2
206.266	-0.5
206.739	-9.8
207.211	5
207.683	-6.2
208.155	-7.4
208.627	-9.2
209.099	-7.4
209.57	-7
210.042	-5.5
210.514	-6.3
210.986	-1.3
211.458	-5.7
211.93	-0.4
212.402	5.2
212.873	-7.6
213.345	-8.9
213.817	-15.7
214.288	-6
214.76	-11.8
215.232	-7.8
215.703	-3.8
216.175	-6.3
216.646	-8.3
217.118	-0.7
217.589	2.1
218.061	-4.9
218.532	-1.9
219.004	-5.3
219.475	-1
219.946	0.2
220.418	-3.9
220.889	2.6
221.36	3.9
221.832	-4.5
222.303	-7.9
222.774	-2
223.245	-12.1
223.717	-9.6
224.188	-3.8
224.659	-6.4
225.13	-3.6
225.601	-1.9
226.072	0.6
226.543	0.9
227.014	-3
227.485	-1.4
227.956	-6.6
228.427	-4.1
228.898	1.5
229.369	6.4
229.839	-2.7
230.31	-3.9
230.781	4.6
231.252	-5.7
231.722	-6.6
232.193	-0.8
232.664	-2.7
233.135	1.1
233.605	-1.1
234.076	-6.2
234.546	2.2
235.017	5.8
235.487	1.3
235.958	3.4
236.428	-0.8
236.899	0.4
237.369	8
237.84	-3.2
238.31	5.8
238.78	6.3
239.251	-1.2
239.721	7.5
240.191	-2.4
240.662	0.5
241.132	3.2
241.602	-3.7
242.072	-2.2
242.542	6.2
243.013	-0.1
243.483	2.9
243.953	1.5
244.423	6.1
244.893	-1.6
245.363	7
245.833	2.2
246.303	4.1
246.773	-0.1
247.243	5.2
247.712	4.9
248.182	4.9
248.652	6
249.122	-6.4
249.592	7.6
250.061	13.8
250.531	32
251.001	14.6
251.471	22.6
251.94	18.3
252.41	7.2
252.879	1
253.349	12
253.818	10.9
254.288	7.1
254.757	3.9
255.227	1.6
255.696	3.9
256.166	-1.3
256.635	4.2
257.105	11.7
257.574	9.9
258.043	6.8
258.513	10.8
258.982	15
259.451	9
259.92	14.8
260.389	7.6
260.859	17.8
261.328	14.9
261.797	18.1
262.266	3.9
262.735	11.5
263.204	3.5
263.673	2.6
264.142	6.6
264.611	-2.1
265.08	2.7
265.549	2.1
266.018	5.6
266.487	-9.8
266.955	-6.2
267.424	4.3
267.893	6.4
268.362	4.8
268.83	0.1
269.299	4.2
269.768	3.3
270.236	6.6
270.705	5.3
271.174	6.9
271.642	3.7
272.111	10.5
272.579	19.6
273.048	16.7
273.516	27.9
273.985	30.2
274.453	26.9
274.922	22.7
275.39	11.1
275.858	2.1
276.327	10.7
276.795	18
277.263	4.6
277.731	28.9
278.2	53.9
278.668	54.1
279.136	53.4
279.604	25.6
280.072	18.4
280.54	5.8
281.008	11.3
281.477	14.1
281.945	6.9
282.413	10.6
282.881	10.1
283.348	8.2
283.816	14.3
284.284	17.4
284.752	22.8
285.22	13.1
285.688	18.2
286.156	18.3
286.623	37.5
287.091	51
287.559	27.1
288.026	18.2
288.494	13.7
288.962	6.4
289.429	10.3
289.897	20.7
290.364	16.4
290.832	19.4
291.3	15
291.767	14.1
292.234	13.7
292.702	12
293.169	16.1
293.637	27.8
294.104	13.8
294.571	13.6
295.039	9.6
295.506	12
295.973	17.7
296.44	16.6
296.908	12.9
297.375	20.5
297.842	17.3
298.309	19.3
298.776	13.4
299.243	23.2
299.71	16.5
300.177	18.3
300.644	23.6
301.111	20.4
301.578	25.4
302.045	12.6
302.512	23
302.979	18.8
303.446	17.9
303.913	16.1
304.379	16.2
304.846	25.3
305.313	26.8
305.78	24.7
306.246	22.6
306.713	28.5
307.18	24.6
307.646	27.9
308.113	29.5
308.579	27.2
309.046	30.1
309.512	27.5
309.979	23.3
310.445	28.3
310.912	27.1
311.378	34.3
311.845	31.3
312.311	31.5
312.777	35.9
313.244	30.5
313.71	31.1
314.176	29.7
314.642	30.9
315.109	27.3
315.575	35.4
316.041	36.8
316.507	35.7
316.973	38.5
317.439	32.2
317.905	33.7
318.371	30.7
318.837	35.7
319.303	29.7
319.769	34.9
320.235	31.6
320.701	34.2
321.167	33.1
321.633	31.7
322.099	34.3
322.564	38.9
323.03	34.4
323.496	37.1
323.962	41.6
324.427	31.3
324.893	41.3
325.359	35.2
325.824	37.4
326.29	39.5
326.755	30.1
327.221	42.2
327.686	35.9
328.152	47.1
328.617	35.9
329.083	50.3
329.548	51.4
330.014	48
330.479	43.2
330.944	40.8
331.41	48.9
331.875	44.2
332.34	42.1
332.805	35.4
333.271	40.9
333.736	41.9
334.201	52.9
334.666	51.7
335.131	52.9
335.596	53.9
336.061	48.2
336.526	44.7
336.991	44
337.456	55.1
337.921	45.8
338.386	46
338.851	38.7
339.316	43.4
339.781	47.3
340.246	46.5
340.711	47.3
341.175	47.9
341.64	46.2
342.105	49.9
342.569	55.2
343.034	54.4
343.499	55.9
343.963	50.8
344.428	56
344.893	60.5
345.357	61.4
345.822	63.5
346.286	63.6
346.751	64.2
347.215	63
347.679	70.3
348.144	97.7
348.608	83.5
349.073	64.4
349.537	72.6
350.001	71.3
350.465	88.6
350.93	75.7
351.394	82.7
351.858	69.8
352.322	85.8
352.786	77
353.25	97.3
353.715	106.3
354.179	95.6
354.643	116.6
355.107	124.3
355.571	97.9
356.035	103.4
356.498	111.8
356.962	118.6
357.426	120.7
357.89	110
358.354	90.7
358.818	79.1
359.281	71.9
359.745	74.9
360.209	72.4
360.673	69
361.136	80.6
361.6	81
362.064	78.4
362.527	82.9
362.991	84.3
363.454	77.5
363.918	72
364.381	73.1
364.845	76.6
365.308	81.5
365.772	83.2
366.235	82.9
366.698	84.5
367.162	81.7
367.625	83.7
368.088	79.4
368.552	84.9
369.015	85.3
369.478	95.3
369.941	98.6
370.404	97.6
370.867	100.3
371.331	101.6
371.794	115.3
372.257	105.8
372.72	117.2
373.183	109.1
373.646	104.4
374.109	103.8
374.572	108.9
375.035	103.6
375.497	108.6
375.96	104.6
376.423	97.3
376.886	110.1
377.349	104
377.811	99
378.274	98.3
378.737	111.6
379.199	108.5
379.662	107.8
380.125	118.2
380.587	114.1
381.05	114.8
381.512	127.6
381.975	130.9
382.437	128.2
382.9	123.2
383.362	123.6
383.825	137
384.287	142.1
384.75	141.3
385.212	132.9
385.674	137.3
386.136	134
386.599	125.7
387.061	125.6
387.523	131.4
387.985	138.3
388.447	148
388.91	144.2
389.372	157.5
389.834	148.8
390.296	142.1
390.758	153.5
391.22	177.7
391.682	219.8
392.144	312.6
392.606	243.5
393.068	167
393.529	175.7
393.991	155
394.453	153.8
394.915	162.2
395.377	206.3
395.838	224.5
396.3	163.2
396.762	137
397.224	135.4
397.685	129.1
398.147	126.6
398.608	120.3
399.07	125.6
399.531	137.2
399.993	137.6
400.454	152.3
400.916	138.7
401.377	136.6
401.839	147.1
402.3	154.8
402.762	162.3
403.223	177.2
403.684	167.8
404.145	150.7
404.607	159.3
405.068	159.4
405.529	169.4
405.99	186.7
406.451	176.7
406.913	174.2
407.374	159.6
407.835	160.9
408.296	173.1
408.757	165.7
409.218	182.9
409.679	180.6
410.14	178.4
410.601	174.3
411.062	185.2
411.522	187.2
411.983	195
412.444	173.6
412.905	178.1
413.366	185.3
413.826	193.2
414.287	205.2
414.748	258
415.208	237.6
415.669	206.5
416.13	200.6
416.59	199
417.051	209.3
417.511	209
417.972	233
418.432	242.9
418.893	279.4
419.353	248.2
419.814	199.4
420.274	178.8
420.734	181.9
421.195	189.2
421.655	194
422.115	188.6
422.576	188.9
423.036	195.4
423.496	201.5
423.956	212.3
424.416	232.7
424.876	256.2
425.336	257.8
425.797	259.5
426.257	256.2
426.717	238.9
427.177	226.9
427.637	222.4
428.097	233.9
428.556	245.9
429.016	274.7
429.476	261.8
429.936	274.5
430.396	280.7
430.856	289.9
431.315	313.6
431.775	342.2
432.235	373.2
432.694	348.8
433.154	360.6
433.614	390.6
434.073	340.2
434.533	283.1
434.993	265.8
435.452	276.4
435.912	295.9
436.371	285.9
436.83	292.3
437.29	271.6
437.749	245.1
438.209	245.6
438.668	267.4
439.127	280.8
439.587	263.7
440.046	247
440.505	252.6
440.964	277.6
441.424	326.5
441.883	308
442.342	259.8
442.801	216.3
443.26	213.9
443.719	220
444.178	216
444.637	216
445.096	219
445.555	221.4
446.014	221.7
446.473	227.7
446.932	228
447.391	224.2
447.849	221
448.308	213.8
448.767	213.8
449.226	233.3
449.685	232.8
450.143	246.6
450.602	226.4
451.061	224.2
451.519	231
451.978	223.3
452.436	219.2
452.895	233.1
453.353	244.1
453.812	238.7
454.27	235.6
454.729	236.3
455.187	239.3
455.646	248.4
456.104	244.2
456.562	264.3
457.021	261.8
457.479	262.7
457.937	273.9
458.395	256.8
458.854	237.7
459.312	255.2
459.77	267.5
460.228	253.2
460.686	240.4
461.144	246.4
461.602	237
462.06	235.9
462.518	249.3
462.976	254.9
463.434	253
463.892	261.3
464.35	277.5
464.808	283.3
465.266	258.8
465.724	267.2
466.181	266.5
466.639	262.5
467.097	281.4
467.555	289.3
468.012	303.8
468.47	308.3
468.928	323.4
469.385	334.6
469.843	351
470.3	347.1
470.758	362.9
471.215	374.9
471.673	401.6
472.13	408
472.588	417.6
473.045	364.8
473.503	373.8
473.96	392.7
474.417	396.8
474.875	424.9
475.332	469.4
475.789	455.9
476.246	456.7
476.704	482.9
477.161	491.9
477.618	516.8
478.075	553.4
478.532	604.5
478.989	682.7
479.446	799.6
479.903	762.5
480.36	805
480.817	851.1
481.274	969.3
481.731	1064.2
482.188	1159.6
482.645	1294.4
483.102	1399.3
483.558	1545.2
484.015	1595.7
484.472	1570
484.929	1521.7
485.385	1486.5
485.842	1425.4
486.299	1359.5
486.755	1302.7
487.212	1095
487.668	918.9
488.125	843.6
488.582	765.2
489.038	730.4
489.494	706.6
489.951	676.7
490.407	660
490.864	636.7
491.32	626.9
491.776	624.6
492.233	638.4
492.689	605
493.145	599.3
493.602	583.5
494.058	607
494.514	612
494.97	634.2
495.426	631.4
495.882	604.9
496.338	608.9
496.794	618.6
497.251	607.1
497.707	626.3
498.163	628.4
498.618	636.1
499.074	632
499.53	675.9
499.986	676.4
500.442	642.3
500.898	629.6
501.354	613.6
501.809	630.2
502.265	639.3
502.721	656.6
503.177	662.6
503.632	661.8
504.088	671.2
504.543	705.9
504.999	702.5
505.455	643.4
505.91	625.6
506.366	622.1
506.821	617.5
507.277	611.5
507.732	612.9
508.187	620.1
508.643	625
509.098	630.9
509.553	654.5
510.009	649.1
510.464	659.2
510.919	683.6
511.375	679.5
511.83	697.3
512.285	709.7
512.74	750.9
513.195	766.1
513.65	761.3
514.105	753.4
514.56	759.3
515.015	785.7
515.47	798
515.925	784.6
516.38	776
516.835	782.8
517.29	769
517.745	772.2
518.2	751.9
518.655	735.3
519.109	727.1
519.564	721.5
520.019	715.3
520.474	716.1
520.928	723.4
521.383	709.1
521.838	702.1
522.292	705.2
522.747	694.1
523.201	693.3
523.656	691.1
524.11	695.3
524.565	676.9
525.019	681.2
525.474	700.1
525.928	694.3
526.382	692.2
526.837	696.1
527.291	694.1
527.745	682.6
528.2	685.4
528.654	682.2
529.108	687.2
529.562	681.6
530.016	680.1
530.47	672.5
530.925	682.5
531.379	681.3
531.833	700.8
532.287	696.7
532.741	693.8
533.195	690.8
533.649	709.5
534.103	707.9
534.556	692.1
535.01	707.9
535.464	703.4
535.918	713.9
536.372	708.9
536.826	709.7
537.279	688.4
537.733	699.5
538.187	705.5
538.64	706
539.094	714.9
539.548	722.5
540.001	712.4
540.455	710.5
540.908	723.3
541.362	730.7
541.815	726.6
542.269	751.8
542.722	751.2
543.175	749.2
543.629	752.2
544.082	777.4
544.536	783.5
544.989	766.4
545.442	791.8
545.895	774.6
546.349	786.3
546.802	783
547.255	788.1
547.708	793.3
548.161	800.7
548.614	804.1
549.067	814.6
549.52	806.5
549.973	799.7
550.426	790
550.879	780.2
551.332	786.7
551.785	802.3
552.238	795.5
552.691	800.2
553.144	819.7
553.596	832.2
554.049	846.8
554.502	880.7
554.955	897.2
555.407	903.8
555.86	883.1
556.313	871.6
556.765	872.1
557.218	865.7
557.67	865.8
558.123	867.7
558.576	862.3
559.028	867.6
559.48	868.6
559.933	861.7
560.385	831.6
560.838	799.3
561.29	768.4
561.742	761.8
562.195	754.4
562.647	745.8
563.099	766.7
563.551	765
564.004	768.2
564.456	763.2
564.908	750.9
565.36	741.7
565.812	719.2
566.264	712.8
566.716	718.5
567.168	703.6
567.62	715
568.072	695.9
568.524	690
568.976	672.8
569.428	664.6
569.88	663.5
570.332	671.1
570.784	666.4
571.235	666.7
571.687	684.1
572.139	695.3
572.59	701.6
573.042	696.3
573.494	697.5
573.945	698.1
574.397	673.1
574.849	687.2
575.3	671.7
575.752	678.3
576.203	659.8
576.655	677.8
577.106	648.3
577.557	655.1
578.009	654.6
578.46	663
578.912	642
579.363	648.4
579.814	664.2
580.265	650.3
580.717	661.6
581.168	655.5
581.619	668.1
582.07	670.1
582.521	671.5
582.972	659.3
583.423	665.7
583.875	667.1
584.326	685.3
584.777	738.4
585.227	810.4
585.678	908.7
586.129	995.1
586.58	1076.4
587.031	1155.8
587.482	1310.7
587.933	1504
588.384	1304.1
588.834	970.3
589.285	801.7
589.736	774
590.186	766.9
590.637	756.8
591.088	730.1
591.538	730.9
591.989	723.4
592.439	715.2
592.89	716.4
593.34	699.7
593.791	707.8
594.241	699.1
594.692	696
595.142	695.1
595.593	689.6
596.043	707.4
596.493	701.7
596.943	704.8
597.394	709.9
597.844	704.2
598.294	718
598.744	735.9
599.195	760.9
599.645	802.2
600.095	834.4
600.545	900.4
600.995	970.9
601.445	1014.8
601.895	1080.2
602.345	1119.7
602.795	1102.6
603.245	1050.7
603.695	1004.5
604.145	939.9
604.594	893.4
605.044	846.7
605.494	784
605.944	742.6
606.393	725.9
606.843	720.8
607.293	720.2
607.743	722.7
608.192	739.8
608.642	746.7
609.091	765.9
609.541	769.5
609.99	762.3
610.44	756.8
610.889	715.3
611.339	694.2
611.788	670.2
612.238	690.6
612.687	715
613.136	712.3
613.586	734.5
614.035	729.6
614.484	749.6
614.933	751.5
615.383	743.3
615.832	731.2
616.281	721.7
616.73	683.1
617.179	663
617.628	637
618.077	631.4
618.526	620.1
618.975	616.8
619.424	619
619.873	607.8
620.322	613.5
620.771	599.5
621.22	604
621.669	583.3
622.118	578.7
622.567	575.3
623.015	562
623.464	565.6
623.913	559.4
624.361	544.9
624.81	542.7
625.259	543
625.707	546.8
626.156	548.7
626.604	556.5
627.053	554.7
627.501	559.1
627.95	562.3
628.398	579.2
628.847	556.2
629.295	562.2
629.744	562.6
630.192	562.8
630.64	558.4
631.089	568.4
631.537	576
631.985	584.7
632.433	587
632.881	604.6
633.33	659.3
633.778	627.2
634.226	555.2
634.674	564.1
635.122	567
635.57	598
636.018	620.4
636.466	580
636.914	549.2
637.362	559.6
637.81	568.8
638.258	567.4
638.705	570.9
639.153	597.2
639.601	606.7
640.049	645.1
640.497	667.4
640.944	683.1
641.392	632.8
641.84	599.2
642.287	572
642.735	562.1
643.182	564.7
643.63	566.5
644.078	568.3
644.525	582.3
644.973	584.5
645.42	601.3
645.867	607.8
646.315	635
646.762	658.5
647.21	683.5
647.657	707.3
648.104	741.9
648.551	764.8
648.999	825.9
649.446	901.5
649.893	989.7
650.34	1150.3
650.787	1388
651.234	1716.1
651.682	2235.1
652.129	3085
652.576	4440.4
653.023	6562.8
653.47	8966.4
653.917	11251.7
654.363	12998.3
654.81	14363.9
655.257	13614.3
655.704	8916
656.151	5235.5
656.598	3393
657.044	2404.4
657.491	1839.2
657.938	1472.3
658.385	1216.8
658.831	1069.1
659.278	953.1
659.724	839.9
660.171	779.1
660.618	707.3
661.064	680.2
661.511	656.4
661.957	645.7
662.404	637.5
662.85	647.6
663.296	614.8
663.743	555.3
664.189	528.2
664.635	525.6
665.082	521.4
665.528	511.5
665.974	515
666.42	509.7
666.867	493.9
667.313	480.6
667.759	470.9
668.205	469.7
668.651	475.8
669.097	469.8
669.543	496.3
669.989	465.1
670.435	448.4
670.881	436.8
671.327	433.6
671.773	462.8
672.219	472.7
672.665	531
673.11	564
673.556	615.6
674.002	664.3
674.448	645.7
674.893	542.6
675.339	470.7
675.785	433
676.23	404.9
676.676	394.8
677.122	374.8
677.567	371
678.013	357.5
678.458	362.2
678.904	350.7
679.349	341.3
679.794	347.7
680.24	342.1
680.685	347.7
681.131	341.8
681.576	346.3
682.021	347
682.466	337.1
682.912	340.6
683.357	340
683.802	366.7
684.247	398.2
684.692	446.2
685.137	490.9
685.583	520.7
686.028	549.2
686.473	507.2
686.918	430
687.363	403.8
687.807	388.2
688.252	358
688.697	345.2
689.142	329
689.587	322.3
690.032	322.8
690.477	326.2
690.921	338.5
691.366	376.5
691.811	389.7
692.255	422.5
692.7	447.8
693.145	503
693.589	685.2
694.034	1109.7
694.478	1500.1
694.923	1694.1
695.367	2214.8
695.812	1154.4
696.256	489.3
696.701	366.7
697.145	338.9
697.59	326
698.034	314.6
698.478	321.8
698.922	317.6
699.367	321.8
699.811	330.4
700.255	345.4
700.699	385.7
701.143	420.5
701.588	467.1
702.032	507.1
702.476	496.4
702.92	475.9
703.364	478.9
703.808	620.1
704.252	1011
704.696	1410.3
705.14	1626.5
705.584	2089.1
706.027	1039.8
706.471	510.5
706.915	387.9
707.359	349.2
707.803	309
708.246	302.4
708.69	297.1
709.134	312.4
709.577	310.5
710.021	313.3
710.465	302.3
710.908	297
711.352	289.4
711.795	309.9
712.239	338.9
712.682	378.4
713.126	407.8
713.569	451.3
714.012	364.9
714.456	326.7
714.899	294
715.342	267.7
715.786	263.6
716.229	254.9
716.672	255.4
717.115	242.3
717.558	238.6
718.002	246.4
718.445	252
718.888	283
719.331	297.2
719.774	306.7
720.217	303.9
720.66	283
721.103	264.4
721.546	249.6
721.989	241.4
722.432	225.9
722.874	228.1
723.317	224.6
723.76	234.5
724.203	256.9
724.645	314.3
725.088	435.8
725.531	552.8
725.974	635.9
726.416	537.4
726.859	305.4
727.301	245.6
727.744	242.5
728.187	227.6
728.629	234.7
729.071	243.4
729.514	248.2
729.956	262.8
730.399	281.3
730.841	282
731.283	264.1
731.726	259.3
732.168	260.4
732.61	263
733.053	281.8
733.495	306
733.937	340.3
734.379	387.7
734.821	428
735.263	534.2
735.705	818.9
736.148	1547.6
736.59	2498.1
737.032	2965.5
737.474	2415.8
737.916	791.1
738.357	420.9
738.799	320.6
739.241	291.3
739.683	278.2
740.125	282.7
740.567	288.9
741.008	313.2
741.45	303.7
741.892	303.4
742.334	339.7
742.775	348.5
743.217	332.4
743.658	264.4
744.1	248.8
744.542	255.4
744.983	303.2
745.425	337.2
745.866	331.2
746.307	272.8
746.749	281.1
747.19	316.1
747.632	447.9
748.073	864.9
748.514	1826.8
748.956	2786.4
749.397	3478.9
749.838	2891
750.279	2880.3
750.72	1460
751.162	538.4
751.603	311.3
752.044	247.9
752.485	211.6
752.926	199.7
753.367	201.3
753.808	191
754.249	190.8
754.69	178.5
755.131	180.4
755.572	178.4
756.013	169.6
756.453	177.7
756.894	184
757.335	182.1
757.776	188.1
758.216	192.8
758.657	192.4
759.098	202.8
759.538	218.1
759.979	252.6
760.42	367.6
760.86	695.6
761.301	1777.2
761.741	4307.7
762.182	6270.9
762.622	4372.5
763.063	1257.5
763.503	518
763.943	334.7
764.384	335.3
764.824	401.3
765.264	426.2
765.705	295.2
766.145	204.9
766.585	186.6
767.025	180.6
767.465	184.6
767.906	239.8
768.346	321.6
768.786	341.8
769.226	259.7
769.666	312.2
770.106	604.5
770.546	1509.1
770.986	2572.9
771.426	2301.3
771.866	769.7
772.306	319.2
772.745	211.3
773.185	172.9
773.625	169.8
774.065	158.7
774.505	203.1
774.944	312.2
775.384	695.4
775.824	1265.6
776.263	1225.3
776.703	517.8
777.142	221
777.582	165.6
778.021	137.6
778.461	135.5
778.9	133
779.34	130.2
779.779	111.4
780.219	112.5
780.658	107.9
781.097	112.4
781.537	110.7
781.976	110.5
782.415	103.8
782.855	97.4
783.294	95.7
783.733	104.2
784.172	108.4
784.611	101.7
785.05	106.3
785.489	111
785.928	122
786.367	121.7
786.806	113.2
787.245	130.3
787.684	134.9
788.123	144.4
788.562	133.1
789.001	125.8
789.44	122.4
789.879	117.7
790.317	121.9
790.756	126.7
791.195	130.6
791.634	140.5
792.072	208.1
792.511	355.8
792.95	976.7
793.388	2080.7
793.827	1891.3
794.265	661.7
794.704	279.9
795.142	188.7
795.581	151
796.019	133.9
796.458	121.8
796.896	120.6
797.334	129.7
797.773	149.5
798.211	213.5
798.649	425.5
799.087	991.8
799.526	1549.5
799.964	1958.3
800.402	1948.1
800.84	737.1
801.278	297.6
801.716	185.9
802.154	148.7
802.592	133.7
803.03	142.2
803.468	129
803.906	139.6
804.344	147.6
804.782	137.5
805.22	133.9
805.658	122.8
806.096	140.9
806.533	155
806.971	170
807.409	205.8
807.847	303.1
