Data from 20171114-ORNL-Ar_H_NY_Subt18_08-05-20-679.txt Node
Date: Tue Nov 14 08:05:20 EST 2017
User: Ender
Spectrometer: HR+D1039
Trigger mode: 0
Integration Time (sec): 2.730000E-2
Scans to average: 10
Electric dark correction enabled: true
Nonlinearity correction enabled: false
Boxcar width: 0
XAxis mode: Wavelengths
Number of Pixels in Spectrum: 2048
>>>>>Begin Spectral Data<<<<<
187.836	-5.96
188.309	-5.96
188.782	-5.96
189.255	-3.36
189.728	-3.86
190.201	4.04
190.674	0.34
191.147	4.94
191.619	-7.46
192.092	6.94
192.565	6.24
193.038	4.64
193.511	2.34
193.984	4.04
194.456	-8.96
194.929	2.54
195.402	-5.56
195.874	-0.96
196.347	-2.56
196.82	-8.96
197.292	6.14
197.765	-3.56
198.237	-7.46
198.71	-1.06
199.182	-0.26
199.655	-2.56
200.127	-1.16
200.6	4.34
201.072	-3.76
201.544	-8.46
202.017	-9.66
202.489	0.24
202.961	-4.76
203.433	-0.86
203.906	-3.76
204.378	-8.36
204.85	-4.86
205.322	-10.26
205.794	-3.36
206.266	-6.86
206.739	-8.76
207.211	0.64
207.683	-5.46
208.155	-3.96
208.627	-5.06
209.099	-0.66
209.57	-10.46
210.042	-5.46
210.514	-7.56
210.986	-4.26
211.458	-10.86
211.93	-4.96
212.402	0.04
212.873	-5.96
213.345	-10.76
213.817	-10.76
214.288	-0.76
214.76	-11.86
215.232	1.54
215.703	-4.76
216.175	-0.56
216.646	-8.46
217.118	-4.56
217.589	-5.26
218.061	-1.16
218.532	0.54
219.004	-4.56
219.475	-1.86
219.946	-0.76
220.418	-6.76
220.889	-0.86
221.36	-4.76
221.832	-6.86
222.303	-9.26
222.774	1.24
223.245	-10.86
223.717	-6.06
224.188	-6.86
224.659	-10.36
225.13	-8.06
225.601	-3.96
226.072	1.24
226.543	-7.56
227.014	-5.26
227.485	-0.76
227.956	-3.46
228.427	0.14
228.898	-0.36
229.369	1.04
229.839	-1.66
230.31	-6.56
230.781	-0.16
231.252	-2.96
231.722	-1.66
232.193	-5.76
232.664	0.44
233.135	2.74
233.605	5.14
234.076	-4.76
234.546	-0.16
235.017	4.74
235.487	5.44
235.958	2.14
236.428	0.64
236.899	0.74
237.369	2.84
237.84	-1.06
238.31	3.64
238.78	4.24
239.251	-2.16
239.721	-1.56
240.191	1.74
240.662	-0.36
241.132	-0.96
241.602	5.14
242.072	4.74
242.542	9.04
243.013	1.54
243.483	4.24
243.953	-2.26
244.423	-3.86
244.893	-2.76
245.363	3.04
245.833	4.84
246.303	0.64
246.773	8.44
247.243	2.64
247.712	-3.06
248.182	5.14
248.652	6.44
249.122	0.84
249.592	7.74
250.061	21.04
250.531	35.24
251.001	18.54
251.471	17.84
251.94	23.54
252.41	2.54
252.879	2.54
253.349	10.04
253.818	11.24
254.288	8.14
254.757	1.74
255.227	-0.46
255.696	5.44
256.166	8.34
256.635	6.34
257.105	11.24
257.574	7.44
258.043	10.84
258.513	12.04
258.982	15.64
259.451	7.54
259.92	17.64
260.389	12.14
260.859	22.04
261.328	12.04
261.797	19.04
262.266	11.54
262.735	14.84
263.204	11.24
263.673	3.34
264.142	2.44
264.611	-2.36
265.08	5.14
265.549	2.24
266.018	5.44
266.487	1.44
266.955	4.94
267.424	1.94
267.893	10.04
268.362	9.14
268.83	5.34
269.299	12.64
269.768	8.14
270.236	8.34
270.705	6.74
271.174	5.24
271.642	5.54
272.111	14.64
272.579	13.34
273.048	24.14
273.516	27.64
273.985	29.64
274.453	25.24
274.922	22.64
275.39	10.94
275.858	4.84
276.327	12.84
276.795	19.44
277.263	11.74
277.731	30.94
278.2	61.14
278.668	63.34
279.136	50.74
279.604	24.74
280.072	13.44
280.54	14.54
281.008	9.44
281.477	19.54
281.945	12.44
282.413	12.94
282.881	15.14
283.348	6.04
283.816	18.14
284.284	14.74
284.752	24.24
285.22	14.84
285.688	14.74
286.156	11.04
286.623	45.64
287.091	49.54
287.559	27.24
288.026	24.24
288.494	14.34
288.962	2.44
289.429	9.14
289.897	17.54
290.364	14.74
290.832	16.24
291.3	17.54
291.767	14.94
292.234	24.34
292.702	17.04
293.169	11.84
293.637	22.64
294.104	23.84
294.571	10.94
295.039	9.44
295.506	17.34
295.973	19.84
296.44	15.74
296.908	16.84
297.375	20.44
297.842	22.84
298.309	22.14
298.776	15.24
299.243	24.44
299.71	15.44
300.177	28.14
300.644	21.94
301.111	22.84
301.578	23.64
302.045	11.64
302.512	26.84
302.979	23.54
303.446	21.84
303.913	16.64
304.379	22.14
304.846	24.64
305.313	31.24
305.78	20.34
306.246	24.14
306.713	24.04
307.18	24.24
307.646	29.94
308.113	32.44
308.579	17.94
309.046	24.84
309.512	26.54
309.979	25.24
310.445	27.54
310.912	30.04
311.378	32.94
311.845	30.64
312.311	32.94
312.777	35.84
313.244	32.84
313.71	38.44
314.176	34.24
314.642	31.64
315.109	37.84
315.575	30.74
316.041	37.44
316.507	37.64
316.973	40.24
317.439	40.14
317.905	35.14
318.371	30.64
318.837	35.84
319.303	35.84
319.769	38.44
320.235	35.94
320.701	36.04
321.167	44.54
321.633	40.94
322.099	44.34
322.564	45.84
323.03	41.84
323.496	43.54
323.962	39.34
324.427	37.54
324.893	44.24
325.359	39.04
325.824	38.24
326.29	40.24
326.755	39.14
327.221	44.64
327.686	43.64
328.152	53.04
328.617	45.94
329.083	41.34
329.548	48.94
330.014	51.34
330.479	47.04
330.944	49.04
331.41	45.64
331.875	43.44
332.34	45.34
332.805	41.14
333.271	51.44
333.736	44.94
334.201	60.14
334.666	52.24
335.131	55.44
335.596	60.84
336.061	54.04
336.526	46.34
336.991	50.84
337.456	55.74
337.921	57.04
338.386	50.24
338.851	45.84
339.316	49.14
339.781	39.54
340.246	55.14
340.711	49.14
341.175	53.54
341.64	44.84
342.105	55.64
342.569	56.64
343.034	57.34
343.499	58.64
343.963	52.04
344.428	65.84
344.893	62.64
345.357	56.84
345.822	66.14
346.286	69.24
346.751	69.84
347.215	71.04
347.679	76.64
348.144	93.84
348.608	91.04
349.073	67.64
349.537	78.64
350.001	80.74
350.465	97.24
350.93	83.94
351.394	86.84
351.858	67.44
352.322	89.74
352.786	90.24
353.25	100.54
353.715	112.04
354.179	98.34
354.643	120.94
355.107	131.34
355.571	109.34
356.035	101.14
356.498	125.64
356.962	130.44
357.426	130.24
357.89	121.04
358.354	92.14
358.818	88.64
359.281	76.04
359.745	71.24
360.209	78.64
360.673	75.34
361.136	80.74
361.6	83.24
362.064	80.64
362.527	79.94
362.991	93.34
363.454	89.24
363.918	77.34
364.381	82.94
364.845	90.14
365.308	87.04
365.772	86.14
366.235	84.24
366.698	80.34
367.162	90.44
367.625	86.54
368.088	90.14
368.552	88.74
369.015	90.64
369.478	98.34
369.941	98.64
370.404	100.54
370.867	111.44
371.331	113.44
371.794	110.54
372.257	116.54
372.72	114.54
373.183	113.14
373.646	105.24
374.109	104.14
374.572	106.84
375.035	109.64
375.497	103.74
375.96	105.44
376.423	96.54
376.886	109.94
377.349	111.94
377.811	96.54
378.274	104.54
378.737	109.14
379.199	109.84
379.662	114.94
380.125	117.74
380.587	112.44
381.05	124.54
381.512	123.24
381.975	133.64
382.437	130.74
382.9	128.74
383.362	132.64
383.825	143.34
384.287	147.04
384.75	142.64
385.212	134.94
385.674	143.74
386.136	141.74
386.599	129.14
387.061	124.84
387.523	128.04
387.985	137.14
388.447	146.64
388.91	146.04
389.372	157.64
389.834	147.54
390.296	138.74
390.758	158.04
391.22	168.24
391.682	205.84
392.144	291.24
392.606	222.94
393.068	168.24
393.529	169.94
393.991	154.54
394.453	144.94
394.915	153.74
395.377	185.14
395.838	217.04
396.3	154.54
396.762	141.64
397.224	131.84
397.685	132.94
398.147	130.94
398.608	129.44
399.07	131.94
399.531	135.04
399.993	136.74
400.454	157.34
400.916	147.14
401.377	147.04
401.839	154.94
402.3	154.04
402.762	161.44
403.223	171.44
403.684	170.74
404.145	160.64
404.607	155.64
405.068	153.84
405.529	165.14
405.99	187.04
406.451	181.34
406.913	174.34
407.374	159.54
407.835	159.14
408.296	163.74
408.757	167.04
409.218	184.24
409.679	176.24
410.14	176.84
410.601	176.84
411.062	179.84
411.522	195.44
411.983	185.24
412.444	170.34
412.905	175.54
413.366	179.34
413.826	191.74
414.287	215.84
414.748	260.84
415.208	244.34
415.669	215.64
416.13	204.94
416.59	198.34
417.051	216.34
417.511	219.84
417.972	236.34
418.432	241.64
418.893	283.74
419.353	240.44
419.814	194.44
420.274	179.84
420.734	179.44
421.195	190.24
421.655	196.14
422.115	193.44
422.576	194.94
423.036	198.34
423.496	200.34
423.956	210.74
424.416	225.54
424.876	265.74
425.336	257.34
425.797	258.24
426.257	252.84
426.717	243.24
427.177	231.34
427.637	214.14
428.097	231.74
428.556	238.04
429.016	268.74
429.476	258.64
429.936	270.24
430.396	275.84
430.856	285.24
431.315	321.14
431.775	347.24
432.235	377.24
432.694	345.04
433.154	353.14
433.614	390.74
434.073	329.54
434.533	278.24
434.993	271.74
435.452	285.14
435.912	291.14
436.371	287.14
436.83	280.34
437.29	269.64
437.749	245.74
438.209	243.04
438.668	266.94
439.127	285.64
439.587	263.44
440.046	244.74
440.505	261.64
440.964	273.94
441.424	322.04
441.883	308.04
442.342	256.34
442.801	222.64
443.26	215.94
443.719	218.54
444.178	216.04
444.637	214.34
445.096	221.74
445.555	219.74
446.014	227.24
446.473	225.34
446.932	234.54
447.391	226.14
447.849	227.84
448.308	213.64
448.767	222.34
449.226	236.54
449.685	234.64
450.143	243.74
450.602	228.54
451.061	221.24
451.519	230.54
451.978	229.34
452.436	232.44
452.895	240.04
453.353	251.44
453.812	240.84
454.27	239.94
454.729	231.14
455.187	236.94
455.646	236.44
456.104	242.24
456.562	256.94
457.021	265.94
457.479	256.54
457.937	270.54
458.395	255.94
458.854	253.34
459.312	255.74
459.77	279.14
460.228	252.24
460.686	231.04
461.144	249.24
461.602	242.54
462.06	245.24
462.518	253.94
462.976	248.74
463.434	252.14
463.892	263.44
464.35	282.14
464.808	285.64
465.266	262.24
465.724	265.44
466.181	269.94
466.639	265.54
467.097	283.84
467.555	299.34
468.012	291.94
468.47	313.84
468.928	323.64
469.385	330.14
469.843	338.14
470.3	348.14
470.758	360.44
471.215	386.54
471.673	405.44
472.13	408.64
472.588	411.34
473.045	372.64
473.503	376.24
473.96	396.34
474.417	404.94
474.875	431.84
475.332	483.14
475.789	453.94
476.246	460.74
476.704	489.34
477.161	505.54
477.618	523.24
478.075	560.04
478.532	621.74
478.989	680.84
479.446	801.64
479.903	775.84
480.36	810.34
480.817	873.34
481.274	967.94
481.731	1074.74
482.188	1171.04
482.645	1316.44
483.102	1410.44
483.558	1554.54
484.015	1603.34
484.472	1558.04
484.929	1522.84
485.385	1471.54
485.842	1445.04
486.299	1374.54
486.755	1305.24
487.212	1099.24
487.668	927.34
488.125	851.44
488.582	771.54
489.038	749.04
489.494	710.64
489.951	683.14
490.407	667.34
490.864	647.04
491.32	653.74
491.776	642.04
492.233	645.44
492.689	603.84
493.145	600.04
493.602	600.84
494.058	605.34
494.514	612.04
494.97	644.54
495.426	648.94
495.882	625.84
496.338	610.54
496.794	633.44
497.251	624.84
497.707	650.34
498.163	643.34
498.618	650.04
499.074	661.54
499.53	668.84
499.986	671.84
500.442	651.24
500.898	633.94
501.354	625.74
501.809	638.64
502.265	646.44
502.721	663.04
503.177	669.74
503.632	658.94
504.088	690.94
504.543	711.24
504.999	711.64
505.455	658.54
505.91	631.44
506.366	631.64
506.821	623.04
507.277	624.44
507.732	631.24
508.187	625.44
508.643	636.44
509.098	635.14
509.553	658.34
510.009	662.04
510.464	667.54
510.919	689.44
511.375	703.24
511.83	699.84
512.285	725.24
512.74	756.84
513.195	784.64
513.65	773.24
514.105	777.04
514.56	771.34
515.015	789.34
515.47	813.14
515.925	792.74
516.38	792.74
516.835	799.54
517.29	781.34
517.745	774.64
518.2	766.74
518.655	749.24
519.109	749.64
519.564	738.94
520.019	733.04
520.474	723.24
520.928	735.14
521.383	717.04
521.838	710.04
522.292	710.24
522.747	709.64
523.201	703.04
523.656	697.64
524.11	692.94
524.565	695.64
525.019	689.54
525.474	698.84
525.928	700.84
526.382	698.34
526.837	690.14
527.291	703.24
527.745	705.24
528.2	688.84
528.654	688.14
529.108	684.94
529.562	690.94
530.016	695.64
530.47	697.34
530.925	688.04
531.379	703.84
531.833	702.24
532.287	697.34
532.741	709.44
533.195	711.14
533.649	714.74
534.103	724.54
534.556	716.94
535.01	727.94
535.464	707.64
535.918	716.64
536.372	718.84
536.826	716.64
537.279	704.74
537.733	722.64
538.187	714.34
538.64	714.54
539.094	727.24
539.548	729.04
540.001	714.14
540.455	723.84
540.908	727.94
541.362	733.54
541.815	741.14
542.269	753.44
542.722	754.54
543.175	771.24
543.629	766.44
544.082	792.24
544.536	790.64
544.989	786.64
545.442	793.54
545.895	781.04
546.349	787.34
546.802	787.54
547.255	790.64
547.708	802.04
548.161	816.44
548.614	824.04
549.067	826.84
549.52	814.14
549.973	809.74
550.426	802.04
550.879	788.94
551.332	791.14
551.785	803.04
552.238	805.54
552.691	813.94
553.144	818.04
553.596	853.94
554.049	862.44
554.502	889.94
554.955	913.94
555.407	898.54
555.86	902.14
556.313	883.64
556.765	886.14
557.218	887.14
557.67	866.84
558.123	876.44
558.576	876.64
559.028	877.74
559.48	878.94
559.933	861.04
560.385	828.24
560.838	807.14
561.29	780.64
561.742	778.54
562.195	757.24
562.647	756.64
563.099	768.54
563.551	766.94
564.004	775.54
564.456	762.74
564.908	760.14
565.36	738.24
565.812	729.64
566.264	717.04
566.716	713.94
567.168	714.04
567.62	710.04
568.072	703.54
568.524	690.24
568.976	682.64
569.428	665.14
569.88	670.24
570.332	672.44
570.784	671.04
571.235	681.54
571.687	687.94
572.139	694.94
572.59	704.44
573.042	702.94
573.494	700.64
573.945	695.44
574.397	685.84
574.849	690.64
575.3	690.14
575.752	675.74
576.203	678.54
576.655	681.24
577.106	666.14
577.557	647.74
578.009	671.24
578.46	652.94
578.912	651.74
579.363	665.84
579.814	656.34
580.265	651.04
580.717	649.94
581.168	654.84
581.619	667.14
582.07	669.34
582.521	659.84
582.972	659.84
583.423	667.84
583.875	678.44
584.326	688.84
584.777	738.14
585.227	816.64
585.678	894.14
586.129	976.64
586.58	1047.14
587.031	1126.24
587.482	1286.84
587.933	1476.14
588.384	1281.14
588.834	955.34
589.285	784.24
589.736	766.84
590.186	756.94
590.637	749.84
591.088	732.54
591.538	716.94
591.989	712.64
592.439	711.54
592.89	706.14
593.34	702.24
593.791	701.34
594.241	692.54
594.692	697.54
595.142	682.44
595.593	678.84
596.043	696.34
596.493	699.04
596.943	702.54
597.394	697.24
597.844	697.54
598.294	706.24
598.744	736.64
599.195	757.94
599.645	792.74
600.095	837.44
600.545	882.54
600.995	949.04
601.445	1008.34
601.895	1053.04
602.345	1101.54
602.795	1086.84
603.245	1039.24
603.695	981.54
604.145	925.14
604.594	891.14
605.044	839.14
605.494	783.34
605.944	731.84
606.393	729.24
606.843	708.94
607.293	719.54
607.743	710.94
608.192	722.54
608.642	741.84
609.091	749.94
609.541	747.54
609.99	747.54
610.44	746.94
610.889	700.54
611.339	677.94
611.788	666.24
612.238	688.34
612.687	700.84
613.136	701.44
613.586	720.14
614.035	718.24
614.484	742.94
614.933	737.24
615.383	726.34
615.832	717.44
616.281	701.94
616.73	672.74
617.179	641.34
617.628	627.84
618.077	615.04
618.526	608.44
618.975	603.74
619.424	597.94
619.873	596.74
620.322	597.84
620.771	583.94
621.22	582.94
621.669	570.54
622.118	569.74
622.567	570.24
623.015	547.44
623.464	545.84
623.913	540.24
624.361	535.14
624.81	529.94
625.259	539.34
625.707	546.74
626.156	536.84
626.604	549.04
627.053	539.54
627.501	548.74
627.95	541.84
628.398	555.64
628.847	551.74
629.295	550.64
629.744	549.74
630.192	544.54
630.64	549.74
631.089	542.14
631.537	555.14
631.985	571.04
632.433	579.84
632.881	580.44
633.33	630.44
633.778	611.44
634.226	548.74
634.674	553.64
635.122	556.34
635.57	575.74
636.018	602.34
636.466	554.74
636.914	534.84
637.362	545.34
637.81	562.44
638.258	557.04
638.705	559.94
639.153	588.24
639.601	598.34
640.049	607.54
640.497	649.44
640.944	659.64
641.392	621.34
641.84	587.04
642.287	570.74
642.735	547.34
643.182	546.84
643.63	558.94
644.078	552.64
644.525	561.94
644.973	572.34
645.42	577.34
645.867	600.54
646.315	611.34
646.762	646.24
647.21	663.34
647.657	692.14
648.104	720.64
648.551	741.84
648.999	805.64
649.446	882.34
649.893	964.24
650.34	1113.64
650.787	1322.74
651.234	1647.74
651.682	2133.74
652.129	2943.54
652.576	4213.24
653.023	6217.24
653.47	8554.54
653.917	10771.94
654.363	12520.84
654.81	13927.84
655.257	13227.74
655.704	8646.04
656.151	5111.14
656.598	3302.04
657.044	2338.24
657.491	1801.14
657.938	1434.84
658.385	1195.04
658.831	1040.84
659.278	929.44
659.724	822.94
660.171	746.04
660.618	688.64
661.064	662.34
661.511	640.84
661.957	620.54
662.404	610.64
662.85	641.84
663.296	602.54
663.743	542.44
664.189	520.84
664.635	506.94
665.082	504.84
665.528	507.54
665.974	495.84
666.42	489.04
666.867	478.74
667.313	466.74
667.759	464.04
668.205	454.04
668.651	465.74
669.097	461.54
669.543	480.74
669.989	452.74
670.435	431.04
670.881	422.14
671.327	424.74
671.773	449.24
672.219	461.64
672.665	523.64
673.11	554.54
673.556	594.54
674.002	631.44
674.448	621.94
674.893	517.84
675.339	449.54
675.785	416.74
676.23	397.04
676.676	379.34
677.122	360.74
677.567	353.84
678.013	351.54
678.458	339.84
678.904	352.14
679.349	331.64
679.794	335.14
680.24	330.74
680.685	333.64
681.131	330.94
681.576	333.24
682.021	331.54
682.466	325.24
682.912	333.54
683.357	330.74
683.802	358.54
684.247	390.74
684.692	435.04
685.137	476.04
685.583	508.44
686.028	535.84
686.473	491.64
686.918	418.54
687.363	398.44
687.807	368.54
688.252	343.24
688.697	332.64
689.142	319.44
689.587	310.34
690.032	304.14
690.477	320.34
690.921	327.24
691.366	358.64
691.811	377.14
692.255	401.44
692.7	440.44
693.145	472.64
693.589	642.84
694.034	1033.84
694.478	1438.34
694.923	1653.34
695.367	2170.34
695.812	1143.24
696.256	468.34
696.701	348.34
697.145	321.74
697.59	308.94
698.034	307.84
698.478	310.04
698.922	302.64
699.367	307.34
699.811	318.24
700.255	332.54
700.699	358.74
701.143	405.74
701.588	451.84
702.032	483.44
702.476	478.84
702.92	457.34
703.364	457.54
703.808	593.34
704.252	956.04
704.696	1350.14
705.14	1581.34
705.584	2032.74
706.027	1004.34
706.471	488.24
706.915	376.34
707.359	330.04
707.803	298.34
708.246	292.14
708.69	292.54
709.134	294.64
709.577	300.24
710.021	299.44
710.465	286.94
710.908	293.84
711.352	278.34
711.795	299.94
712.239	326.64
712.682	364.24
713.126	395.94
713.569	441.24
714.012	347.24
714.456	300.14
714.899	285.84
715.342	262.24
715.786	241.34
716.229	251.64
716.672	241.14
717.115	236.74
717.558	234.74
718.002	233.64
718.445	246.24
718.888	266.94
719.331	276.24
719.774	288.04
720.217	287.24
720.66	269.04
721.103	251.14
721.546	236.44
721.989	231.54
722.432	223.94
722.874	224.24
723.317	211.94
723.76	226.44
724.203	245.04
724.645	284.34
725.088	406.34
725.531	537.24
725.974	610.94
726.416	525.84
726.859	291.54
727.301	236.04
727.744	229.94
728.187	218.54
728.629	227.04
729.071	228.04
729.514	249.54
729.956	251.34
730.399	265.34
730.841	271.24
731.283	263.34
731.726	253.34
732.168	237.04
732.61	254.44
733.053	266.24
733.495	296.84
733.937	326.74
734.379	367.44
734.821	403.54
735.263	495.54
735.705	757.94
736.148	1446.44
736.59	2406.44
737.032	2905.74
737.474	2362.34
737.916	761.94
738.357	401.04
738.799	309.14
739.241	286.24
739.683	259.44
740.125	279.74
740.567	283.44
741.008	293.64
741.45	296.14
741.892	299.34
742.334	332.44
742.775	339.34
743.217	321.54
743.658	257.64
744.1	244.74
744.542	240.74
744.983	294.34
745.425	327.84
745.866	324.94
746.307	269.14
746.749	257.14
747.19	305.34
747.632	414.84
748.073	800.44
748.514	1711.14
748.956	2674.44
749.397	3348.54
749.838	2790.24
750.279	2808.14
750.72	1421.74
751.162	512.34
751.603	299.64
752.044	241.94
752.485	206.94
752.926	194.34
753.367	190.74
753.808	184.34
754.249	174.74
754.69	174.34
755.131	166.24
755.572	169.14
756.013	174.04
756.453	170.04
756.894	171.74
757.335	175.14
757.776	176.14
758.216	184.44
758.657	184.64
759.098	187.84
759.538	208.04
759.979	244.84
760.42	341.24
760.86	636.64
761.301	1635.04
761.741	4057.64
762.182	6150.94
