Data from 20171114-ORNL-Ar_H_NY_Subt18_08-08-21-935.txt Node
Date: Tue Nov 14 08:08:21 EST 2017
User: Ender
Spectrometer: HR+D1039
Trigger mode: 0
Integration Time (sec): 2.730000E-2
Scans to average: 10
Electric dark correction enabled: true
Nonlinearity correction enabled: false
Boxcar width: 0
XAxis mode: Wavelengths
Number of Pixels in Spectrum: 2048
>>>>>Begin Spectral Data<<<<<
187.836	-2.66
188.309	-2.66
188.782	-2.66
189.255	-6.06
189.728	-3.36
190.201	5.24
190.674	5.04
191.147	3.74
191.619	-5.36
192.092	-0.16
192.565	2.84
193.038	4.04
193.511	1.14
193.984	0.04
194.456	-0.86
194.929	0.64
195.402	-2.16
195.874	-2.06
196.347	-7.46
196.82	-6.76
197.292	6.34
197.765	-1.56
198.237	-6.16
198.71	-1.06
199.182	-1.56
199.655	-3.46
200.127	1.34
200.6	-0.96
201.072	-2.36
201.544	-2.26
202.017	-4.46
202.489	0.04
202.961	-4.66
203.433	-1.16
203.906	-8.46
204.378	-7.06
204.85	-1.46
205.322	-9.76
205.794	-2.66
206.266	-13.46
206.739	-10.96
207.211	-1.46
207.683	-8.86
208.155	-4.26
208.627	-6.36
209.099	-5.36
209.57	-4.86
210.042	-5.16
210.514	-7.26
210.986	0.04
211.458	-10.26
211.93	-0.16
212.402	2.64
212.873	-3.66
213.345	-7.86
213.817	-11.66
214.288	-3.96
214.76	-5.86
215.232	-4.46
215.703	-10.46
216.175	-2.36
216.646	-6.46
217.118	-8.76
217.589	-0.46
218.061	-5.36
218.532	-4.96
219.004	-5.56
219.475	-5.06
219.946	-3.06
220.418	-5.06
220.889	4.34
221.36	-0.86
221.832	-1.36
222.303	-3.56
222.774	4.54
223.245	-10.36
223.717	-8.96
224.188	-3.56
224.659	-6.36
225.13	-0.66
225.601	1.74
226.072	0.14
226.543	0.64
227.014	-2.26
227.485	-1.36
227.956	-6.86
228.427	-4.06
228.898	1.14
229.369	0.84
229.839	-5.16
230.31	-9.56
230.781	-3.76
231.252	-5.16
231.722	-12.46
232.193	-1.26
232.664	-6.96
233.135	-4.26
233.605	0.64
234.076	-5.16
234.546	0.14
235.017	-1.26
235.487	-6.96
235.958	-0.46
236.428	-5.66
236.899	1.34
237.369	5.74
237.84	-4.76
238.31	3.04
238.78	-0.56
239.251	-1.76
239.721	1.54
240.191	1.04
240.662	-5.06
241.132	-7.56
241.602	-1.16
242.072	-2.86
242.542	9.04
243.013	1.74
243.483	1.64
243.953	-4.46
244.423	2.84
244.893	1.84
245.363	2.54
245.833	-0.26
246.303	-3.16
246.773	3.64
247.243	-1.56
247.712	7.04
248.182	10.34
248.652	7.74
249.122	-3.86
249.592	8.04
250.061	13.74
250.531	27.14
251.001	13.64
251.471	19.14
251.94	18.44
252.41	1.04
252.879	0.84
253.349	13.74
253.818	5.74
254.288	7.94
254.757	4.84
255.227	7.04
255.696	1.34
256.166	3.84
256.635	5.94
257.105	5.44
257.574	-1.06
258.043	7.64
258.513	8.04
258.982	16.44
259.451	4.44
259.92	16.24
260.389	10.84
260.859	10.24
261.328	9.84
261.797	20.44
262.266	3.84
262.735	10.04
263.204	-0.66
263.673	0.04
264.142	6.94
264.611	-6.96
265.08	3.24
265.549	1.44
266.018	10.54
266.487	-1.26
266.955	-1.26
267.424	-2.46
267.893	8.14
268.362	-5.36
268.83	3.24
269.299	7.74
269.768	6.74
270.236	4.44
270.705	-0.16
271.174	9.44
271.642	5.34
272.111	5.84
272.579	10.04
273.048	26.54
273.516	29.24
273.985	28.04
274.453	26.74
274.922	19.04
275.39	8.14
275.858	-0.06
276.327	13.04
276.795	18.54
277.263	6.74
277.731	22.24
278.2	56.34
278.668	54.14
279.136	36.44
279.604	20.34
280.072	10.94
280.54	8.74
281.008	9.64
281.477	19.14
281.945	7.94
282.413	15.24
282.881	16.74
283.348	4.44
283.816	20.24
284.284	17.84
284.752	20.04
285.22	11.54
285.688	14.24
286.156	18.14
286.623	42.64
287.091	48.54
287.559	24.34
288.026	22.04
288.494	13.64
288.962	9.14
289.429	11.14
289.897	20.54
290.364	13.04
290.832	19.64
291.3	14.94
291.767	16.64
292.234	17.54
292.702	17.14
293.169	22.94
293.637	18.64
294.104	15.04
294.571	3.14
295.039	13.94
295.506	15.24
295.973	16.54
296.44	16.04
296.908	21.44
297.375	18.34
297.842	19.54
298.309	14.64
298.776	11.14
299.243	19.44
299.71	11.94
300.177	26.64
300.644	24.54
301.111	23.94
301.578	23.14
302.045	13.64
302.512	24.34
302.979	23.14
303.446	23.14
303.913	16.44
304.379	20.14
304.846	32.54
305.313	28.44
305.78	23.94
306.246	24.34
306.713	27.04
307.18	26.54
307.646	28.64
308.113	24.24
308.579	21.44
309.046	29.64
309.512	23.34
309.979	20.84
310.445	29.34
310.912	28.94
311.378	30.04
311.845	27.94
312.311	29.44
312.777	33.04
313.244	31.04
313.71	38.74
314.176	28.94
314.642	28.64
315.109	32.84
315.575	35.34
316.041	35.84
316.507	37.74
316.973	39.24
317.439	35.44
317.905	33.04
318.371	30.54
318.837	32.54
319.303	31.64
319.769	28.64
320.235	35.14
320.701	35.54
321.167	39.64
321.633	34.04
322.099	35.14
322.564	45.74
323.03	36.94
323.496	35.94
323.962	35.24
324.427	44.84
324.893	43.64
325.359	31.44
325.824	34.54
326.29	33.54
326.755	36.94
327.221	34.34
327.686	38.54
328.152	44.44
328.617	39.64
329.083	49.04
329.548	50.14
330.014	44.54
330.479	39.14
330.944	44.44
331.41	46.24
331.875	48.54
332.34	40.64
332.805	44.64
333.271	43.74
333.736	40.64
334.201	54.04
334.666	47.34
335.131	52.84
335.596	47.34
336.061	48.84
336.526	42.94
336.991	52.64
337.456	53.74
337.921	43.74
338.386	38.14
338.851	44.84
339.316	48.84
339.781	40.14
340.246	52.54
340.711	42.24
341.175	51.44
341.64	38.34
342.105	49.94
342.569	55.24
343.034	56.34
343.499	55.24
343.963	53.44
344.428	64.64
344.893	59.64
345.357	60.34
345.822	60.74
346.286	70.74
346.751	71.24
347.215	65.74
347.679	83.04
348.144	98.64
348.608	86.74
349.073	62.74
349.537	69.64
350.001	74.74
350.465	89.04
350.93	81.14
351.394	80.54
351.858	67.74
352.322	90.54
352.786	84.74
353.25	99.04
353.715	111.14
354.179	96.74
354.643	125.54
355.107	128.14
355.571	106.34
356.035	107.74
356.498	117.84
356.962	127.04
357.426	131.34
357.89	116.04
358.354	86.54
358.818	87.24
359.281	77.44
359.745	76.44
360.209	73.04
360.673	70.14
361.136	81.54
361.6	82.44
362.064	85.84
362.527	79.54
362.991	88.14
363.454	81.34
363.918	79.74
364.381	78.54
364.845	77.04
365.308	87.34
365.772	87.74
366.235	88.74
366.698	87.74
367.162	89.34
367.625	91.74
368.088	93.54
368.552	89.64
369.015	90.84
369.478	96.94
369.941	100.04
370.404	97.44
370.867	117.94
371.331	109.84
371.794	118.54
372.257	116.04
372.72	119.04
373.183	112.34
373.646	108.84
374.109	100.94
374.572	113.84
375.035	114.94
375.497	103.04
375.96	100.24
376.423	102.04
376.886	116.94
377.349	113.64
377.811	106.14
378.274	102.84
378.737	108.34
379.199	110.84
379.662	116.04
380.125	121.54
380.587	116.44
381.05	124.64
381.512	130.74
381.975	131.94
382.437	128.24
382.9	132.34
383.362	139.04
383.825	148.24
384.287	153.14
384.75	148.24
385.212	145.44
385.674	138.74
386.136	144.04
386.599	123.64
387.061	132.84
387.523	133.54
387.985	142.64
388.447	143.74
388.91	149.54
389.372	167.74
389.834	158.64
390.296	148.24
390.758	159.64
391.22	177.24
391.682	214.84
392.144	302.24
392.606	232.74
393.068	174.34
393.529	167.74
393.991	162.44
394.453	152.64
394.915	161.44
395.377	205.84
395.838	226.04
396.3	160.84
396.762	142.74
397.224	142.54
397.685	133.44
398.147	133.04
398.608	130.94
399.07	132.14
399.531	142.74
399.993	143.54
400.454	155.04
400.916	141.94
401.377	150.24
401.839	150.84
402.3	150.74
402.762	171.24
403.223	186.34
403.684	178.14
404.145	162.84
404.607	164.34
405.068	168.74
405.529	175.74
405.99	201.94
406.451	183.54
406.913	178.64
407.374	171.64
407.835	165.64
408.296	173.04
408.757	179.44
409.218	198.84
409.679	187.04
410.14	181.94
410.601	184.44
411.062	190.64
411.522	196.04
411.983	197.54
412.444	186.94
412.905	189.44
413.366	188.54
413.826	192.54
414.287	218.24
414.748	263.54
415.208	253.44
415.669	217.34
416.13	213.64
416.59	211.54
417.051	220.84
417.511	221.74
417.972	244.84
418.432	245.54
418.893	297.44
419.353	255.94
419.814	199.94
420.274	192.94
420.734	183.74
421.195	204.14
421.655	206.84
422.115	199.94
422.576	196.54
423.036	207.84
423.496	216.54
423.956	222.14
424.416	245.14
424.876	278.54
425.336	265.34
425.797	268.74
426.257	267.34
426.717	249.64
427.177	238.04
427.637	235.74
428.097	246.14
428.556	256.14
429.016	277.14
429.476	270.64
429.936	291.34
430.396	289.84
430.856	299.34
431.315	327.04
431.775	357.04
432.235	394.74
432.694	364.44
433.154	380.94
433.614	409.24
434.073	356.54
434.533	292.94
434.993	276.14
435.452	288.14
435.912	302.84
436.371	296.64
436.83	296.84
437.29	272.54
437.749	263.54
438.209	250.14
438.668	280.84
439.127	300.34
439.587	266.04
440.046	251.64
440.505	263.94
440.964	286.04
441.424	332.94
441.883	322.74
442.342	265.94
442.801	231.04
443.26	222.64
443.719	227.34
444.178	226.74
444.637	216.14
445.096	231.74
445.555	227.54
446.014	229.14
446.473	234.04
446.932	237.34
447.391	231.74
447.849	232.64
448.308	219.34
448.767	224.54
449.226	238.34
449.685	244.64
450.143	256.04
450.602	244.84
451.061	230.84
451.519	243.34
451.978	235.74
452.436	240.54
452.895	248.34
453.353	256.64
453.812	244.64
454.27	245.94
454.729	243.64
455.187	246.14
455.646	255.24
456.104	255.74
456.562	261.94
457.021	274.04
457.479	269.74
457.937	277.64
458.395	270.64
458.854	262.64
459.312	264.64
459.77	282.84
460.228	265.84
460.686	247.74
461.144	254.24
461.602	249.04
462.06	247.94
462.518	262.74
462.976	257.74
463.434	264.44
463.892	275.14
464.35	283.74
464.808	294.14
465.266	273.94
465.724	274.54
466.181	276.34
466.639	280.54
467.097	291.34
467.555	302.04
468.012	301.64
468.47	310.94
468.928	329.84
469.385	350.24
469.843	353.14
470.3	353.64
470.758	365.84
471.215	390.74
471.673	421.54
472.13	416.64
472.588	431.34
473.045	379.44
473.503	378.14
473.96	391.04
474.417	402.14
474.875	440.34
475.332	493.44
475.789	474.24
476.246	478.94
476.704	494.24
477.161	515.34
477.618	538.14
478.075	569.44
478.532	629.14
478.989	702.64
479.446	821.04
479.903	782.04
480.36	818.14
480.817	882.24
481.274	975.04
481.731	1082.94
482.188	1179.64
482.645	1316.14
483.102	1416.74
483.558	1563.84
484.015	1616.44
484.472	1588.64
484.929	1541.34
485.385	1496.14
485.842	1447.04
486.299	1380.14
486.755	1319.94
487.212	1107.34
487.668	938.54
488.125	862.64
488.582	788.44
489.038	748.84
489.494	722.74
489.951	689.64
490.407	676.64
490.864	672.84
491.32	652.14
491.776	646.74
492.233	663.24
492.689	620.14
493.145	615.54
493.602	610.04
494.058	628.74
494.514	621.14
494.97	647.64
495.426	662.84
495.882	629.14
496.338	626.14
496.794	637.14
497.251	623.64
497.707	636.14
498.163	646.54
498.618	643.34
499.074	645.84
499.53	687.54
499.986	690.34
500.442	662.84
500.898	638.34
501.354	634.74
501.809	646.34
502.265	658.84
502.721	674.84
503.177	679.64
503.632	676.04
504.088	681.14
504.543	722.54
504.999	726.94
505.455	665.24
505.91	640.14
506.366	633.54
506.821	635.04
507.277	636.04
507.732	629.54
508.187	631.84
508.643	638.14
509.098	634.54
509.553	661.84
510.009	672.84
510.464	677.14
510.919	700.24
511.375	711.14
511.83	720.24
512.285	726.74
512.74	769.24
513.195	791.74
513.65	778.64
514.105	773.64
514.56	781.44
515.015	795.64
515.47	811.24
515.925	792.74
516.38	794.64
516.835	791.24
517.29	788.44
517.745	781.04
518.2	770.44
518.655	751.84
519.109	748.94
519.564	753.34
520.019	732.74
520.474	730.84
520.928	731.64
521.383	721.14
521.838	716.24
522.292	721.84
522.747	710.74
523.201	709.34
523.656	706.64
524.11	704.54
524.565	706.54
525.019	700.44
525.474	707.64
525.928	705.44
526.382	703.04
526.837	703.74
527.291	712.34
527.745	698.04
528.2	703.04
528.654	691.74
529.108	692.64
529.562	695.54
530.016	705.04
530.47	697.84
530.925	696.84
531.379	701.44
531.833	703.94
532.287	704.94
532.741	709.04
533.195	709.94
533.649	718.04
534.103	724.44
534.556	716.24
535.01	719.14
535.464	712.14
535.918	725.44
536.372	720.74
536.826	735.74
537.279	715.74
537.733	709.54
538.187	723.84
538.64	716.74
539.094	728.34
539.548	734.94
540.001	716.84
540.455	735.44
540.908	735.44
541.362	745.84
541.815	753.94
542.269	766.14
542.722	768.24
543.175	780.84
543.629	772.34
544.082	792.94
544.536	800.74
544.989	792.74
545.442	803.44
545.895	801.04
546.349	809.64
546.802	803.94
547.255	802.24
547.708	806.94
548.161	824.14
548.614	838.94
549.067	840.14
549.52	827.74
549.973	821.94
550.426	811.64
550.879	804.24
551.332	812.14
551.785	805.04
552.238	812.44
552.691	821.04
553.144	840.74
553.596	849.44
554.049	880.84
554.502	898.54
554.955	916.74
555.407	922.94
555.86	906.04
556.313	905.14
556.765	882.24
557.218	902.94
557.67	894.94
558.123	879.44
558.576	874.24
559.028	886.14
559.48	897.04
559.933	877.34
560.385	847.94
560.838	811.24
561.29	795.24
561.742	785.04
562.195	780.74
562.647	771.44
563.099	784.84
563.551	789.54
564.004	790.74
564.456	783.24
564.908	776.24
565.36	752.04
565.812	748.24
566.264	740.54
566.716	733.54
567.168	718.14
567.62	730.34
568.072	717.14
568.524	703.94
568.976	706.14
569.428	684.54
569.88	677.64
570.332	683.84
570.784	698.14
571.235	683.84
571.687	701.74
572.139	708.84
572.59	725.74
573.042	711.64
573.494	723.14
573.945	713.54
574.397	686.34
574.849	692.94
575.3	702.64
575.752	688.74
576.203	681.14
576.655	692.44
577.106	682.54
577.557	673.54
578.009	674.54
578.46	680.44
578.912	683.14
579.363	675.04
579.814	678.44
580.265	676.24
580.717	676.24
581.168	679.54
581.619	687.04
582.07	685.54
582.521	690.34
582.972	681.64
583.423	684.24
583.875	699.14
584.326	713.44
584.777	766.94
585.227	850.64
585.678	938.44
586.129	1027.04
586.58	1115.54
587.031	1198.54
587.482	1344.64
587.933	1539.14
588.384	1332.74
588.834	995.14
589.285	824.44
589.736	798.64
590.186	792.54
590.637	779.64
591.088	758.74
591.538	753.94
591.989	752.14
592.439	746.34
592.89	732.94
593.34	716.74
593.791	723.24
594.241	713.44
594.692	731.64
595.142	711.14
595.593	707.24
596.043	720.84
596.493	728.94
596.943	732.24
597.394	743.44
597.844	727.54
598.294	735.74
598.744	764.04
599.195	789.14
599.645	833.84
600.095	882.34
600.545	936.84
600.995	985.14
601.445	1035.84
601.895	1108.14
602.345	1154.94
602.795	1123.14
603.245	1080.64
603.695	1027.84
604.145	965.14
604.594	921.44
605.044	870.24
605.494	825.04
605.944	762.34
606.393	752.94
606.843	746.84
607.293	744.64
607.743	739.94
608.192	764.84
608.642	777.64
609.091	785.34
609.541	783.84
609.99	780.34
610.44	787.74
610.889	732.44
611.339	708.54
611.788	704.14
612.238	722.24
612.687	735.24
613.136	746.84
613.586	759.84
614.035	759.34
614.484	766.14
614.933	780.04
615.383	757.14
615.832	753.34
616.281	733.04
616.73	697.04
617.179	677.74
617.628	675.24
618.077	640.94
618.526	634.74
618.975	628.44
619.424	629.44
619.873	624.84
620.322	622.74
620.771	621.14
621.22	623.54
621.669	603.04
622.118	604.34
622.567	593.34
623.015	589.64
623.464	583.64
623.913	569.14
624.361	556.84
624.81	560.14
625.259	562.64
625.707	566.84
626.156	558.74
626.604	571.14
627.053	579.44
627.501	576.24
627.95	581.44
628.398	592.54
628.847	584.24
629.295	581.14
629.744	588.74
630.192	574.94
630.64	585.84
631.089	577.14
631.537	593.54
631.985	599.24
632.433	609.04
632.881	627.54
633.33	679.14
633.778	658.64
634.226	585.04
634.674	581.64
635.122	598.54
635.57	615.64
636.018	644.54
636.466	601.94
636.914	571.04
637.362	587.94
637.81	586.94
638.258	588.74
638.705	594.34
639.153	614.04
639.601	631.14
640.049	651.84
640.497	679.54
640.944	704.14
641.392	654.74
641.84	621.54
642.287	598.84
642.735	582.94
643.182	596.74
643.63	586.44
644.078	593.84
644.525	602.54
644.973	593.64
645.42	617.14
645.867	643.44
646.315	651.14
646.762	679.24
647.21	710.44
647.657	721.74
648.104	768.04
648.551	790.54
648.999	861.14
649.446	948.74
649.893	1035.74
650.34	1200.44
650.787	1432.64
651.234	1790.94
651.682	2343.24
652.129	3225.54
652.576	4665.64
653.023	6839.04
653.47	9349.74
653.917	11560.54
654.363	13251.84
654.81	14543.94
655.257	13862.74
655.704	9076.54
656.151	5398.54
656.598	3493.04
657.044	2473.54
657.491	1906.04
657.938	1524.54
658.385	1257.14
658.831	1103.94
659.278	971.04
659.724	869.54
660.171	804.54
660.618	738.44
661.064	702.54
661.511	682.64
661.957	674.64
662.404	658.64
662.85	666.94
663.296	637.74
663.743	573.94
664.189	546.14
664.635	543.14
665.082	540.34
665.528	545.34
665.974	526.44
666.42	525.24
666.867	518.24
667.313	500.14
667.759	496.44
668.205	496.84
668.651	492.34
669.097	499.14
669.543	516.24
669.989	482.74
670.435	462.04
670.881	459.04
671.327	458.34
671.773	475.84
672.219	504.94
672.665	559.84
673.11	596.04
673.556	643.54
674.002	686.74
674.448	668.84
674.893	564.84
675.339	489.94
675.785	452.54
676.23	428.64
676.676	399.24
677.122	388.04
677.567	383.84
678.013	377.74
678.458	367.74
678.904	361.84
679.349	360.14
679.794	355.94
680.24	363.94
680.685	353.94
681.131	356.54
681.576	358.64
682.021	359.44
682.466	350.54
682.912	360.24
683.357	362.84
683.802	388.44
684.247	417.14
684.692	467.84
685.137	511.34
685.583	538.64
686.028	561.94
686.473	530.44
686.918	453.24
687.363	416.84
687.807	397.74
688.252	368.54
688.697	353.34
689.142	346.04
689.587	334.64
690.032	333.14
690.477	347.34
690.921	355.64
691.366	392.34
691.811	410.14
692.255	440.24
692.7	469.04
693.145	521.14
693.589	735.94
694.034	1183.54
694.478	1586.24
694.923	1758.94
695.367	2277.74
695.812	1203.84
696.256	510.64
696.701	387.04
697.145	347.34
697.59	336.24
698.034	331.44
698.478	339.74
698.922	335.64
699.367	340.44
699.811	342.84
700.255	366.84
700.699	401.54
701.143	445.34
701.588	479.84
702.032	529.34
702.476	525.34
702.92	496.04
703.364	509.94
703.808	669.94
704.252	1088.64
704.696	1497.04
705.14	1702.64
705.584	2154.74
706.027	1079.84
706.471	540.04
706.915	406.14
707.359	361.54
707.803	331.14
708.246	315.04
708.69	321.84
709.134	317.04
709.577	317.24
710.021	323.94
710.465	311.94
710.908	310.94
711.352	309.24
711.795	319.54
712.239	364.24
712.682	399.74
713.126	430.84
713.569	469.64
714.012	379.34
714.456	324.54
714.899	302.34
715.342	279.04
715.786	268.74
716.229	263.04
716.672	261.24
717.115	263.14
717.558	254.44
718.002	255.64
718.445	271.04
718.888	296.74
719.331	298.44
719.774	325.54
720.217	313.54
720.66	290.34
721.103	269.94
721.546	263.24
721.989	253.54
722.432	235.14
722.874	239.04
723.317	237.24
723.76	241.44
724.203	261.94
724.645	333.54
725.088	455.04
725.531	583.54
725.974	652.34
726.416	557.84
726.859	316.24
727.301	251.54
727.744	244.44
728.187	234.74
728.629	244.14
729.071	253.84
729.514	265.04
729.956	285.34
730.399	291.14
730.841	296.84
731.283	281.44
731.726	268.04
732.168	265.24
732.61	276.44
733.053	296.94
733.495	328.44
733.937	365.34
734.379	416.24
734.821	454.34
735.263	565.44
735.705	884.14
736.148	1657.34
736.59	2652.84
737.032	3056.74
737.474	2474.54
737.916	827.34
738.357	441.14
738.799	338.54
739.241	304.94
739.683	289.74
740.125	296.34
740.567	302.14
741.008	315.04
741.45	326.94
741.892	328.04
742.334	359.74
742.775	361.54
743.217	340.64
743.658	271.74
744.1	257.94
744.542	265.44
744.983	319.54
745.425	346.64
745.866	352.94
746.307	293.64
746.749	285.44
747.19	342.04
747.632	479.74
748.073	939.14
748.514	1956.74
748.956	2912.04
749.397	3669.14
749.838	3014.34
750.279	2973.04
750.72	1515.44
751.162	559.84
751.603	335.94
752.044	259.84
752.485	219.64
752.926	215.04
753.367	204.64
753.808	200.54
754.249	192.24
754.69	190.74
755.131	186.24
755.572	181.74
756.013	186.84
756.453	184.64
756.894	199.24
757.335	200.84
757.776	199.14
758.216	194.64
758.657	202.04
759.098	209.84
759.538	225.34
759.979	271.04
760.42	387.14
760.86	745.54
761.301	1953.54
761.741	4588.64
762.182	6395.64
