Data from 20171114-ORNL-Ar_H_NY_Subt18_08-03-09-924.txt Node
Date: Tue Nov 14 08:03:09 EST 2017
User: Ender
Spectrometer: HR+D1039
Trigger mode: 0
Integration Time (sec): 2.730000E-2
Scans to average: 10
Electric dark correction enabled: true
Nonlinearity correction enabled: false
Boxcar width: 0
XAxis mode: Wavelengths
Number of Pixels in Spectrum: 2048
>>>>>Begin Spectral Data<<<<<
187.836	-8.87
188.309	-8.87
188.782	-8.87
189.255	2.63
189.728	0.03
190.201	9.23
190.674	2.93
191.147	-2.37
191.619	-12.87
192.092	-0.97
192.565	7.63
193.038	-1.77
193.511	0.63
193.984	-2.47
194.456	0.43
194.929	1.83
195.402	0.93
195.874	3.03
196.347	-0.47
196.82	-4.57
197.292	3.13
197.765	-2.47
198.237	-10.27
198.71	0.43
199.182	-4.37
199.655	-2.17
200.127	3.13
200.6	-5.07
201.072	-6.27
201.544	-6.47
202.017	-2.17
202.489	5.93
202.961	-1.57
203.433	-3.57
203.906	-8.07
204.378	-6.67
204.85	-13.17
205.322	-10.27
205.794	-8.47
206.266	-10.67
206.739	-10.47
207.211	-3.37
207.683	-12.57
208.155	-10.97
208.627	-9.07
209.099	-8.77
209.57	-2.67
210.042	-3.67
210.514	-0.87
210.986	-3.47
211.458	-5.97
211.93	-7.97
212.402	-1.97
212.873	-8.97
213.345	-11.67
213.817	-9.57
214.288	-3.87
214.76	-9.87
215.232	-6.37
215.703	0.13
216.175	-4.17
216.646	-7.67
217.118	-10.87
217.589	-4.67
218.061	-1.37
218.532	-5.87
219.004	-10.17
219.475	-5.77
219.946	-3.57
220.418	-11.77
220.889	0.53
221.36	-4.87
221.832	-4.27
222.303	-9.67
222.774	-0.97
223.245	-10.37
223.717	-7.97
224.188	-2.27
224.659	-8.87
225.13	-2.77
225.601	1.33
226.072	0.13
226.543	-2.97
227.014	0.23
227.485	-3.17
227.956	-7.87
228.427	-3.97
228.898	-0.17
229.369	0.33
229.839	-8.37
230.31	-6.07
230.781	-1.37
231.252	-3.17
231.722	-6.37
232.193	-9.97
232.664	-4.37
233.135	-4.77
233.605	0.23
234.076	-12.57
234.546	-5.47
235.017	-0.07
235.487	-0.77
235.958	-4.07
236.428	-12.97
236.899	2.43
237.369	-9.47
237.84	-7.87
238.31	0.13
238.78	-6.07
239.251	-14.37
239.721	-9.57
240.191	-6.87
240.662	-7.27
241.132	-7.77
241.602	-4.47
242.072	-4.17
242.542	0.43
243.013	-7.27
243.483	-6.37
243.953	-5.47
244.423	-8.47
244.893	-13.67
245.363	-3.37
245.833	-5.97
246.303	-9.87
246.773	-3.07
247.243	0.33
247.712	-6.77
248.182	1.13
248.652	-6.37
249.122	-16.47
249.592	-0.37
250.061	-3.97
250.531	3.93
251.001	-7.17
251.471	4.53
251.94	-3.97
252.41	-7.37
252.879	-6.87
253.349	3.13
253.818	1.53
254.288	-2.57
254.757	-2.87
255.227	-9.67
255.696	-3.77
256.166	-3.37
256.635	-3.97
257.105	-1.57
257.574	-7.87
258.043	-2.07
258.513	-12.67
258.982	-3.17
259.451	-10.17
259.92	-5.37
260.389	-2.67
260.859	6.33
261.328	-7.27
261.797	-8.77
262.266	-6.97
262.735	2.93
263.204	-8.67
263.673	-6.27
264.142	-1.87
264.611	-12.97
265.08	-10.87
265.549	-8.37
266.018	-3.57
266.487	-14.67
266.955	-12.57
267.424	-8.67
267.893	-9.77
268.362	0.23
268.83	-6.77
269.299	3.73
269.768	-10.77
270.236	-13.17
270.705	-16.57
271.174	-9.47
271.642	0.23
272.111	-8.07
272.579	-6.67
273.048	-10.97
273.516	-8.67
273.985	-6.47
274.453	-5.47
274.922	0.93
275.39	-1.67
275.858	-8.57
276.327	0.63
276.795	3.53
277.263	-9.07
277.731	2.03
278.2	-6.67
278.668	-2.87
279.136	-7.57
279.604	-15.67
280.072	-5.27
280.54	-1.07
281.008	-3.27
281.477	-1.37
281.945	-4.47
282.413	-3.17
282.881	-0.07
283.348	-11.87
283.816	-2.27
284.284	-1.47
284.752	-4.37
285.22	-0.77
285.688	-4.37
286.156	-1.07
286.623	-2.77
287.091	-2.97
287.559	-4.57
288.026	-2.07
288.494	-5.37
288.962	-16.37
289.429	-9.47
289.897	-4.17
290.364	-6.97
290.832	-3.57
291.3	-5.57
291.767	-9.17
292.234	2.83
292.702	-8.17
293.169	-3.07
293.637	-3.57
294.104	0.63
294.571	-10.77
295.039	-8.17
295.506	-4.27
295.973	-1.67
296.44	-9.77
296.908	-7.17
297.375	-7.87
297.842	-2.97
298.309	-7.27
298.776	-6.57
299.243	-8.77
299.71	-8.77
300.177	-7.77
300.644	-3.87
301.111	-9.67
301.578	-0.57
302.045	-12.47
302.512	-4.27
302.979	1.73
303.446	-4.97
303.913	-12.77
304.379	-13.87
304.846	1.53
305.313	-10.67
305.78	-1.97
306.246	-7.97
306.713	-9.67
307.18	-6.67
307.646	-3.07
308.113	-5.17
308.579	-9.37
309.046	-1.57
309.512	-9.37
309.979	-11.07
310.445	-2.77
310.912	-3.57
311.378	1.73
311.845	-5.17
312.311	-2.17
312.777	-4.37
313.244	-4.97
313.71	-4.57
314.176	-3.87
314.642	-5.77
315.109	-5.97
315.575	-0.07
316.041	-0.77
316.507	-5.67
316.973	-2.37
317.439	-5.37
317.905	-1.87
318.371	-9.27
318.837	-5.47
319.303	-6.07
319.769	-9.67
320.235	-5.07
320.701	-3.67
321.167	-3.07
321.633	-7.67
322.099	-6.17
322.564	-3.17
323.03	-4.97
323.496	-5.97
323.962	-5.47
324.427	-8.97
324.893	-0.37
325.359	-8.77
325.824	-1.17
326.29	-11.57
326.755	-3.27
327.221	-5.57
327.686	-7.87
328.152	-0.07
328.617	-4.87
329.083	-1.17
329.548	-0.57
330.014	-4.27
330.479	-11.67
330.944	-4.57
331.41	-8.17
331.875	-0.77
332.34	-13.97
332.805	-12.37
333.271	-4.27
333.736	-12.87
334.201	0.13
334.666	-2.57
335.131	4.63
335.596	-7.37
336.061	-4.87
336.526	-10.37
336.991	-8.07
337.456	-1.17
337.921	-6.77
338.386	-3.07
338.851	-8.47
339.316	-1.07
339.781	0.53
340.246	0.83
340.711	-5.57
341.175	2.43
341.64	-12.17
342.105	-4.17
342.569	1.23
343.034	-1.27
343.499	-5.17
343.963	-7.47
344.428	-0.17
344.893	-1.57
345.357	0.13
345.822	-1.77
346.286	-2.17
346.751	-4.07
347.215	-8.77
347.679	-5.97
348.144	-2.57
348.608	0.33
349.073	-2.37
349.537	-3.87
350.001	-9.37
350.465	-2.07
350.93	-5.57
351.394	-4.37
351.858	-3.97
352.322	-5.87
352.786	-3.37
353.25	-5.97
353.715	0.13
354.179	-1.17
354.643	-1.37
355.107	0.83
355.571	1.03
356.035	-2.47
356.498	-3.37
356.962	-4.87
357.426	-1.77
357.89	-7.27
358.354	-3.57
358.818	-1.37
359.281	-4.67
359.745	-9.07
360.209	-1.77
360.673	-14.77
361.136	-7.57
361.6	-0.57
362.064	-7.47
362.527	-6.37
362.991	4.73
363.454	-5.37
363.918	-8.27
364.381	-6.07
364.845	-8.57
365.308	-7.37
365.772	-8.47
366.235	-0.47
366.698	-11.97
367.162	-1.27
367.625	-4.67
368.088	-1.37
368.552	-6.37
369.015	-8.67
369.478	-4.07
369.941	-2.17
370.404	-6.27
370.867	-6.17
371.331	-8.97
371.794	-8.07
372.257	-10.77
372.72	0.43
373.183	-1.17
373.646	-5.67
374.109	-8.07
374.572	-1.37
375.035	-11.97
375.497	-7.87
375.96	-6.37
376.423	-3.57
376.886	-10.17
377.349	-8.57
377.811	-5.87
378.274	-1.47
378.737	-1.87
379.199	-12.97
379.662	-0.47
380.125	-8.47
380.587	-4.07
381.05	-11.17
381.512	-2.77
381.975	5.43
382.437	-2.77
382.9	-5.17
383.362	-7.17
383.825	-9.67
384.287	-7.77
384.75	-7.17
385.212	-2.37
385.674	-4.37
386.136	-3.97
386.599	-8.17
387.061	2.63
387.523	-10.27
387.985	-4.97
388.447	-4.27
388.91	-2.07
389.372	0.63
389.834	0.13
390.296	-7.57
390.758	-5.17
391.22	-6.17
391.682	-4.07
392.144	-3.07
392.606	-7.17
393.068	-4.97
393.529	-6.07
393.991	-11.17
394.453	-7.07
394.915	-6.17
395.377	-5.17
395.838	-11.97
396.3	-2.07
396.762	5.73
397.224	1.93
397.685	-5.77
398.147	-10.17
398.608	-13.17
399.07	-12.67
399.531	-1.27
399.993	-7.87
400.454	1.03
400.916	-3.27
401.377	-1.37
401.839	-6.47
402.3	-10.17
402.762	-6.67
403.223	-2.67
403.684	-4.57
404.145	-5.07
404.607	-1.17
405.068	-3.67
405.529	-10.27
405.99	-10.87
406.451	-11.37
406.913	4.23
407.374	-6.27
407.835	-11.37
408.296	-7.67
408.757	-5.47
409.218	-10.87
409.679	-5.17
410.14	-1.27
410.601	0.53
411.062	-0.77
411.522	-0.17
411.983	-9.47
412.444	-16.57
412.905	-2.97
413.366	-11.27
413.826	-7.37
414.287	-6.17
414.748	-3.37
415.208	-4.07
415.669	-3.97
416.13	2.63
416.59	-7.27
417.051	-5.07
417.511	-1.57
417.972	-1.47
418.432	-11.57
418.893	2.43
419.353	-2.37
419.814	-1.67
420.274	-3.47
420.734	-10.67
421.195	-3.37
421.655	-8.07
422.115	0.13
422.576	-10.07
423.036	-3.57
423.496	-3.57
423.956	-0.67
424.416	-4.47
424.876	-3.27
425.336	-9.47
425.797	-4.87
426.257	-4.27
426.717	-8.17
427.177	10.03
427.637	-10.17
428.097	0.23
428.556	-7.77
429.016	-0.97
429.476	-7.37
429.936	-10.07
430.396	-9.47
430.856	-3.67
431.315	5.13
431.775	-4.77
432.235	8.03
432.694	-9.17
433.154	2.03
433.614	-9.47
434.073	-7.37
434.533	2.23
434.993	-8.67
435.452	-4.17
435.912	-7.47
436.371	-2.67
436.83	-5.87
437.29	-3.47
437.749	-6.87
438.209	-5.17
438.668	2.13
439.127	-8.97
439.587	-4.57
440.046	-10.77
440.505	-3.97
440.964	-7.67
441.424	-5.57
441.883	-11.07
442.342	-0.57
442.801	-7.77
443.26	-7.07
443.719	-0.17
444.178	-2.87
444.637	-15.57
445.096	-12.87
445.555	-4.47
446.014	-2.37
446.473	-0.87
446.932	-7.17
447.391	-12.67
447.849	-5.67
448.308	-13.07
448.767	-15.57
449.226	-0.97
449.685	0.53
450.143	-0.97
450.602	-1.97
451.061	-7.47
451.519	-10.67
451.978	-8.77
452.436	-8.67
452.895	-9.17
453.353	-8.07
453.812	1.03
454.27	1.73
454.729	0.33
455.187	-11.07
455.646	-6.27
456.104	-10.17
456.562	-6.27
457.021	-4.77
457.479	-2.47
457.937	-1.47
458.395	-13.57
458.854	-9.07
459.312	-0.47
459.77	-12.47
460.228	-3.97
460.686	-12.57
461.144	-1.67
461.602	-1.97
462.06	-0.27
462.518	-3.37
462.976	-2.97
463.434	-4.97
463.892	-3.27
464.35	-5.57
464.808	-0.27
465.266	-7.87
465.724	-2.67
466.181	1.43
466.639	-4.27
467.097	2.43
467.555	-9.87
468.012	1.53
468.47	-2.97
468.928	-1.17
469.385	-1.27
469.843	-4.37
470.3	0.03
470.758	-4.07
471.215	-4.27
471.673	-6.27
472.13	-6.87
472.588	-3.77
473.045	-12.37
473.503	-0.47
473.96	-10.27
474.417	-10.67
474.875	-5.37
475.332	4.63
475.789	-5.27
476.246	-3.77
476.704	-4.27
477.161	-0.87
477.618	-6.57
478.075	-2.27
478.532	2.73
478.989	-4.67
479.446	0.13
479.903	-0.87
480.36	1.23
480.817	-15.27
481.274	-4.07
481.731	-2.87
482.188	-9.47
482.645	0.63
483.102	-5.37
483.558	-1.37
484.015	-1.87
484.472	4.03
484.929	-3.17
485.385	-2.17
485.842	-2.77
486.299	-12.47
486.755	0.53
487.212	-4.77
487.668	-5.37
488.125	-3.07
488.582	4.83
489.038	0.43
489.494	-5.27
489.951	-6.57
490.407	-2.67
490.864	-0.37
491.32	0.53
491.776	1.93
492.233	-4.07
492.689	-11.97
493.145	-4.97
493.602	-3.97
494.058	-1.07
494.514	-2.77
494.97	-1.67
495.426	-14.97
495.882	-7.17
496.338	-5.17
496.794	3.33
497.251	-8.77
497.707	-4.57
498.163	-0.97
498.618	-6.07
499.074	-4.77
499.53	-5.37
499.986	-9.07
500.442	-6.37
500.898	-5.07
501.354	-13.57
501.809	-3.87
502.265	-4.37
502.721	-1.27
503.177	-2.87
503.632	-2.67
504.088	2.63
504.543	2.93
504.999	-1.17
505.455	-7.47
505.91	-3.07
506.366	-6.07
506.821	-6.57
507.277	-6.67
507.732	-10.77
508.187	-3.77
508.643	-7.37
509.098	-5.77
509.553	4.13
510.009	4.83
510.464	-11.67
510.919	1.63
511.375	-2.47
511.83	-0.97
512.285	0.23
512.74	3.13
513.195	-0.17
513.65	-11.77
514.105	-1.47
514.56	-5.87
515.015	-6.97
515.47	1.63
515.925	-9.17
516.38	-2.17
516.835	4.43
517.29	-0.07
517.745	-6.97
518.2	-5.67
518.655	-4.17
519.109	-2.97
519.564	-7.67
520.019	-10.67
520.474	-7.17
520.928	-5.47
521.383	-5.37
521.838	-5.27
522.292	-1.27
522.747	-2.07
523.201	4.33
523.656	-3.47
524.11	1.33
524.565	-0.97
525.019	-17.87
525.474	-0.27
525.928	-3.47
526.382	-10.67
526.837	-3.27
527.291	-4.77
527.745	-7.27
528.2	-0.07
528.654	1.23
529.108	-9.87
529.562	-2.17
530.016	-6.37
530.47	-6.97
530.925	-10.37
531.379	-7.17
531.833	-6.27
532.287	0.03
532.741	-4.57
533.195	-5.37
533.649	-3.67
534.103	0.63
534.556	-8.57
535.01	-12.37
535.464	-9.47
535.918	-3.37
536.372	0.83
536.826	-3.37
537.279	-7.27
537.733	-1.97
538.187	-2.67
538.64	-5.37
539.094	-3.97
539.548	-2.77
540.001	-13.27
540.455	-11.47
540.908	-0.37
541.362	-4.47
541.815	-5.27
542.269	-3.77
542.722	-6.77
543.175	-13.67
543.629	-11.27
544.082	-1.07
544.536	-10.67
544.989	-9.97
545.442	-1.87
545.895	-4.17
546.349	-1.17
546.802	-6.37
547.255	-9.37
547.708	-2.67
548.161	-4.47
548.614	-10.47
549.067	-5.37
549.52	-6.17
549.973	-5.27
550.426	-2.47
550.879	-11.37
551.332	-8.17
551.785	-3.77
552.238	-9.07
552.691	4.23
553.144	-2.67
553.596	-8.07
554.049	-7.87
554.502	-11.47
554.955	-6.97
555.407	-10.97
555.86	-4.37
556.313	-0.47
556.765	-6.57
557.218	0.13
557.67	-4.97
558.123	-12.47
558.576	-6.97
559.028	0.13
559.48	-10.87
559.933	-5.67
560.385	-6.47
560.838	-2.97
561.29	-7.97
561.742	-6.47
562.195	-6.37
562.647	-6.37
563.099	0.73
563.551	1.33
564.004	2.33
564.456	-5.27
564.908	-0.97
565.36	-9.67
565.812	0.13
566.264	-10.67
566.716	0.63
567.168	-5.97
567.62	-2.07
568.072	-8.37
568.524	-7.27
568.976	0.63
569.428	-2.47
569.88	-3.37
570.332	-8.17
570.784	-1.27
571.235	-8.77
571.687	-9.87
572.139	-5.57
572.59	-2.47
573.042	-4.67
573.494	-6.37
573.945	-1.37
574.397	-12.57
574.849	-0.47
575.3	-7.07
575.752	-2.87
576.203	0.23
576.655	0.33
577.106	-5.57
577.557	-8.47
578.009	4.33
578.46	-7.27
578.912	-3.97
579.363	-9.17
579.814	-5.37
580.265	-10.17
580.717	-12.67
581.168	-12.17
581.619	-8.67
582.07	-7.67
582.521	-5.47
582.972	-9.67
583.423	-7.97
583.875	-10.47
584.326	-7.57
584.777	-5.57
585.227	-2.47
585.678	-9.17
586.129	-12.67
586.58	-6.67
587.031	-3.37
587.482	-1.37
587.933	-0.57
588.384	-8.37
588.834	-3.17
589.285	0.43
589.736	0.13
590.186	-4.77
590.637	-7.47
591.088	2.13
591.538	-5.87
591.989	-0.37
592.439	-0.27
592.89	-5.27
593.34	-4.07
593.791	-6.37
594.241	-4.37
594.692	-3.47
595.142	-1.07
595.593	-11.77
596.043	-4.47
596.493	-4.67
596.943	-7.27
597.394	-7.97
597.844	-13.57
598.294	-7.97
598.744	-1.17
599.195	-4.87
599.645	-5.57
600.095	-8.27
600.545	-7.27
600.995	-6.67
601.445	-3.07
601.895	-11.97
602.345	-4.47
602.795	-5.57
603.245	-7.07
603.695	-10.17
604.145	-14.07
604.594	-3.87
605.044	-6.57
605.494	-8.97
605.944	-14.47
606.393	-2.77
606.843	-8.67
607.293	-2.27
607.743	-9.27
608.192	-6.97
608.642	-1.87
609.091	-5.47
609.541	0.73
609.99	-10.57
610.44	3.83
610.889	-6.57
611.339	-9.37
611.788	-12.87
612.238	-8.97
612.687	7.23
613.136	-4.07
613.586	-3.67
614.035	-5.47
614.484	-12.77
614.933	-9.97
615.383	-0.27
615.832	1.43
616.281	1.63
616.73	-2.97
617.179	-1.07
617.628	-4.97
618.077	-2.77
618.526	-3.47
618.975	-6.27
619.424	-4.37
619.873	-12.57
620.322	-3.07
620.771	-9.27
621.22	-1.57
621.669	1.33
622.118	-4.17
622.567	-4.97
623.015	-7.27
623.464	-2.37
623.913	-8.07
624.361	-7.97
624.81	-10.37
625.259	-5.47
625.707	0.33
626.156	-7.57
626.604	-2.47
627.053	-10.57
627.501	-11.17
627.95	-15.77
628.398	-9.17
628.847	-7.87
629.295	-3.97
629.744	-5.37
630.192	-2.77
630.64	-0.87
631.089	-4.87
631.537	-1.17
631.985	-7.47
632.433	5.03
632.881	-3.57
633.33	1.63
633.778	-8.57
634.226	-12.07
634.674	1.33
635.122	-8.07
635.57	-6.07
636.018	-5.27
636.466	4.83
636.914	-4.37
637.362	-0.57
637.81	3.33
638.258	0.53
638.705	-5.27
639.153	-2.47
639.601	-13.57
640.049	-11.57
640.497	-8.57
640.944	-2.17
641.392	-8.97
641.84	-6.37
642.287	-5.67
642.735	-14.57
643.182	-5.37
643.63	0.73
644.078	-13.37
644.525	-1.77
644.973	-12.67
645.42	-10.67
645.867	-4.27
646.315	-8.57
646.762	-10.87
647.21	-4.77
647.657	-14.67
648.104	2.03
648.551	-4.47
648.999	-2.77
649.446	1.43
649.893	-7.97
650.34	-6.27
650.787	-11.07
651.234	1.53
651.682	-5.27
652.129	-4.07
652.576	-7.57
653.023	-4.17
653.47	6.73
653.917	-6.67
654.363	4.43
654.81	-8.17
655.257	-7.37
655.704	-7.17
656.151	-13.07
656.598	-12.57
657.044	-5.87
657.491	-4.97
657.938	-6.27
658.385	-2.27
658.831	-8.77
659.278	7.43
659.724	-7.57
660.171	0.63
660.618	-8.67
661.064	-0.97
661.511	-6.87
661.957	-4.27
662.404	-1.77
662.85	0.83
663.296	0.53
663.743	-11.77
664.189	-5.97
664.635	-10.77
665.082	-8.47
665.528	-2.27
665.974	-4.37
666.42	-3.37
666.867	0.43
667.313	-10.47
667.759	-0.47
668.205	-4.67
668.651	-3.27
669.097	-3.47
669.543	-13.87
669.989	-6.97
670.435	2.23
670.881	-8.97
671.327	-3.37
671.773	-1.37
672.219	-0.67
672.665	0.33
673.11	-17.27
673.556	-3.77
674.002	-10.67
674.448	-14.37
674.893	-0.27
675.339	-2.57
675.785	-3.77
676.23	3.53
676.676	-9.57
677.122	-6.37
677.567	-9.27
678.013	-5.47
678.458	-8.87
678.904	2.93
679.349	-5.97
679.794	-5.77
680.24	-5.97
680.685	-11.87
681.131	-0.47
681.576	-10.67
682.021	-3.57
682.466	-7.17
682.912	-13.17
683.357	-8.97
683.802	-7.87
684.247	-6.67
684.692	-6.37
685.137	-15.37
685.583	-4.87
686.028	-4.57
686.473	-6.77
686.918	-6.87
687.363	-1.57
687.807	-3.67
688.252	-1.77
688.697	2.93
689.142	-7.27
689.587	-7.87
690.032	-10.67
690.477	-2.87
690.921	-15.97
691.366	-1.37
691.811	-8.77
692.255	-3.37
692.7	-3.97
693.145	-2.27
693.589	-6.57
694.034	-2.67
694.478	-2.07
694.923	1.23
695.367	-5.17
695.812	-1.07
696.256	-3.97
696.701	-6.27
697.145	1.73
697.59	-9.07
698.034	-12.07
698.478	-2.87
698.922	-3.97
699.367	-5.77
699.811	-4.77
700.255	-4.67
700.699	-5.67
701.143	-6.27
701.588	-5.17
702.032	4.93
702.476	-9.07
702.92	-3.97
703.364	-2.27
703.808	-3.57
704.252	-1.77
704.696	-12.67
705.14	-3.87
705.584	-4.67
706.027	-2.47
706.471	-11.97
706.915	-6.57
707.359	-6.07
707.803	-14.67
708.246	-1.87
708.69	-0.57
709.134	2.33
709.577	-2.87
710.021	3.03
710.465	-8.17
710.908	-8.77
711.352	-6.17
711.795	-7.77
712.239	-1.67
712.682	-17.87
713.126	-8.97
713.569	-7.37
714.012	3.13
714.456	-9.37
714.899	-5.77
715.342	-6.67
715.786	-10.97
716.229	-5.57
716.672	0.33
717.115	-6.57
717.558	-4.37
718.002	-2.77
718.445	-7.97
718.888	5.53
719.331	-9.27
719.774	-3.37
720.217	-5.77
720.66	-9.67
721.103	-4.87
721.546	-4.27
721.989	0.53
722.432	-20.27
722.874	-5.27
723.317	-11.87
723.76	-4.47
724.203	-3.57
724.645	-2.57
725.088	-6.37
725.531	-10.67
725.974	-12.77
726.416	-9.17
726.859	3.03
727.301	-12.77
727.744	-1.37
728.187	-15.57
728.629	-1.27
729.071	-4.87
729.514	-3.47
729.956	-7.87
730.399	-7.67
730.841	-4.37
731.283	-7.27
731.726	-1.57
732.168	-9.27
732.61	-7.07
733.053	-2.97
733.495	-10.57
733.937	-11.77
734.379	-7.07
734.821	-4.07
735.263	-10.47
735.705	-6.67
736.148	-8.67
736.59	-4.07
737.032	-11.97
737.474	0.03
737.916	-10.37
738.357	-9.27
738.799	-3.57
739.241	-6.37
739.683	-12.17
740.125	-5.57
740.567	-3.97
741.008	2.43
741.45	-3.97
741.892	-0.97
742.334	-2.67
742.775	-6.27
743.217	-5.07
743.658	-10.47
744.1	-6.27
744.542	-7.67
744.983	-0.67
745.425	-7.27
745.866	-3.97
746.307	-5.87
746.749	-3.07
747.19	-1.57
747.632	-5.37
748.073	-9.57
748.514	-2.87
748.956	-8.27
749.397	-8.07
749.838	-0.27
750.279	-13.77
750.72	-4.77
751.162	-7.87
751.603	2.53
752.044	-2.27
752.485	-9.27
752.926	-7.07
753.367	-3.87
753.808	0.23
754.249	-8.17
754.69	-7.07
755.131	-12.17
755.572	-3.67
756.013	-5.57
756.453	-4.37
756.894	-6.27
757.335	-5.97
757.776	-5.17
758.216	-0.97
758.657	-1.77
759.098	-12.87
759.538	-8.87
759.979	-9.37
760.42	-10.57
760.86	-12.27
761.301	-2.57
761.741	-5.87
762.182	-8.07
762.622	-2.17
763.063	-7.77
763.503	-4.47
763.943	-9.07
764.384	-4.57
764.824	-2.97
765.264	-13.87
765.705	-6.37
766.145	-14.97
766.585	-7.97
767.025	-10.97
767.465	-9.37
767.906	-1.07
768.346	2.03
768.786	-6.47
769.226	-9.37
769.666	-3.97
770.106	-10.07
770.546	-5.37
770.986	-5.57
771.426	-7.37
771.866	-3.27
772.306	-1.07
772.745	-10.07
773.185	-9.57
773.625	-1.87
774.065	-13.17
774.505	-2.77
774.944	-7.07
775.384	-8.87
775.824	-6.37
776.263	-1.07
776.703	-3.47
777.142	-3.27
777.582	-13.17
778.021	-6.37
778.461	-3.57
778.9	1.63
779.34	1.13
779.779	-11.27
780.219	-10.77
780.658	-12.47
781.097	-10.07
781.537	-3.57
781.976	-2.97
782.415	-13.67
782.855	-6.77
783.294	-5.47
783.733	-10.77
784.172	-4.27
784.611	-15.37
785.05	-8.87
785.489	-9.17
785.928	1.13
786.367	0.93
786.806	-4.27
787.245	1.73
787.684	-3.57
