Data from 20171114-ORNL-Ar_H_NY_Subt18_08-06-30-561.txt Node
Date: Tue Nov 14 08:06:30 EST 2017
User: Ender
Spectrometer: HR+D1039
Trigger mode: 0
Integration Time (sec): 2.730000E-2
Scans to average: 10
Electric dark correction enabled: true
Nonlinearity correction enabled: false
Boxcar width: 0
XAxis mode: Wavelengths
Number of Pixels in Spectrum: 2048
>>>>>Begin Spectral Data<<<<<
187.836	-0.26
188.309	-0.26
188.782	-0.26
189.255	0.54
189.728	-3.16
190.201	4.14
190.674	1.14
191.147	8.14
191.619	-9.36
192.092	1.64
192.565	4.14
193.038	-1.76
193.511	-4.66
193.984	0.54
194.456	-2.06
194.929	-0.66
195.402	-1.36
195.874	2.94
196.347	1.14
196.82	-1.06
197.292	1.84
197.765	1.44
198.237	-4.26
198.71	2.64
199.182	-1.16
199.655	2.64
200.127	1.44
200.6	1.74
201.072	-0.66
201.544	-3.66
202.017	-1.96
202.489	0.84
202.961	1.44
203.433	0.64
203.906	-8.96
204.378	-4.46
204.85	2.64
205.322	-9.76
205.794	3.04
206.266	-0.06
206.739	-7.46
207.211	2.84
207.683	-0.96
208.155	1.34
208.627	-9.76
209.099	-7.66
209.57	-10.96
210.042	-6.96
210.514	-9.86
210.986	4.44
211.458	-6.86
211.93	-0.46
212.402	-0.36
212.873	-5.36
213.345	-8.26
213.817	-11.86
214.288	-1.76
214.76	-8.66
215.232	-4.56
215.703	-2.76
216.175	-5.36
216.646	-2.06
217.118	-7.06
217.589	-3.86
218.061	-1.76
218.532	-6.96
219.004	-2.16
219.475	-2.36
219.946	-0.76
220.418	-4.36
220.889	6.34
221.36	2.34
221.832	-2.76
222.303	-3.86
222.774	0.34
223.245	-5.36
223.717	-9.66
224.188	-1.26
224.659	-4.96
225.13	-6.76
225.601	-1.36
226.072	6.14
226.543	-6.16
227.014	-1.46
227.485	-1.66
227.956	-4.46
228.427	-2.56
228.898	-3.66
229.369	4.34
229.839	1.84
230.31	-5.16
230.781	3.14
231.252	-1.36
231.722	-3.66
232.193	-1.96
232.664	4.64
233.135	3.84
233.605	-4.06
234.076	-4.56
234.546	3.44
235.017	4.54
235.487	1.74
235.958	-2.46
236.428	-2.76
236.899	4.34
237.369	8.04
237.84	-0.86
238.31	0.84
238.78	2.54
239.251	0.44
239.721	1.44
240.191	3.94
240.662	-5.36
241.132	4.24
241.602	-1.86
242.072	-5.06
242.542	4.44
243.013	2.74
243.483	3.74
243.953	3.84
244.423	2.44
244.893	-2.06
245.363	6.44
245.833	-2.96
246.303	-0.66
246.773	4.54
247.243	4.44
247.712	0.44
248.182	9.44
248.652	9.44
249.122	3.44
249.592	10.24
250.061	23.04
250.531	30.84
251.001	17.84
251.471	19.34
251.94	22.24
252.41	15.04
252.879	2.84
253.349	17.44
253.818	4.94
254.288	4.04
254.757	4.44
255.227	8.34
255.696	2.44
256.166	7.14
256.635	5.04
257.105	10.94
257.574	4.44
258.043	12.64
258.513	13.24
258.982	19.74
259.451	1.84
259.92	9.24
260.389	6.94
260.859	19.44
261.328	16.54
261.797	12.84
262.266	10.84
262.735	13.24
263.204	-0.86
263.673	1.34
264.142	5.94
264.611	-1.06
265.08	-0.16
265.549	-1.96
266.018	5.84
266.487	2.64
266.955	0.94
267.424	5.64
267.893	5.24
268.362	8.34
268.83	5.54
269.299	8.44
269.768	8.24
270.236	5.74
270.705	3.74
271.174	10.44
271.642	13.24
272.111	15.64
272.579	14.74
273.048	26.84
273.516	26.44
273.985	24.74
274.453	28.24
274.922	25.94
275.39	13.24
275.858	6.54
276.327	13.34
276.795	21.74
277.263	8.24
277.731	31.24
278.2	55.44
278.668	57.14
279.136	51.64
279.604	16.74
280.072	20.14
280.54	14.64
281.008	12.04
281.477	10.84
281.945	14.54
282.413	15.44
282.881	15.74
283.348	9.64
283.816	15.94
284.284	15.54
284.752	17.64
285.22	14.44
285.688	13.84
286.156	22.04
286.623	47.24
287.091	56.14
287.559	26.64
288.026	18.04
288.494	15.94
288.962	8.84
289.429	14.04
289.897	19.44
290.364	17.64
290.832	21.24
291.3	17.34
291.767	22.84
292.234	19.14
292.702	18.54
293.169	17.14
293.637	27.14
294.104	26.84
294.571	6.64
295.039	14.44
295.506	16.14
295.973	19.94
296.44	12.94
296.908	17.14
297.375	21.24
297.842	18.74
298.309	17.04
298.776	16.34
299.243	25.44
299.71	17.84
300.177	25.14
300.644	17.34
301.111	19.64
301.578	28.24
302.045	20.64
302.512	20.64
302.979	26.84
303.446	22.94
303.913	17.54
304.379	21.04
304.846	34.54
305.313	26.94
305.78	18.04
306.246	28.84
306.713	29.74
307.18	27.84
307.646	25.74
308.113	24.74
308.579	18.24
309.046	29.04
309.512	33.64
309.979	17.24
310.445	27.14
310.912	33.64
311.378	27.94
311.845	25.94
312.311	30.14
312.777	32.54
313.244	29.34
313.71	38.84
314.176	32.34
314.642	35.94
315.109	33.24
315.575	31.34
316.041	36.64
316.507	35.34
316.973	42.04
317.439	37.24
317.905	35.84
318.371	41.84
318.837	30.64
319.303	30.64
319.769	36.54
320.235	32.04
320.701	36.04
321.167	37.84
321.633	36.84
322.099	44.24
322.564	47.74
323.03	44.44
323.496	38.44
323.962	46.44
324.427	35.04
324.893	41.44
325.359	37.34
325.824	36.74
326.29	31.74
326.755	38.34
327.221	48.64
327.686	44.94
328.152	52.54
328.617	49.14
329.083	53.14
329.548	52.74
330.014	51.44
330.479	40.64
330.944	43.74
331.41	37.14
331.875	41.34
332.34	41.94
332.805	49.94
333.271	48.94
333.736	49.74
334.201	52.74
334.666	51.24
335.131	58.34
335.596	58.34
336.061	55.34
336.526	48.44
336.991	50.24
337.456	52.74
337.921	51.74
338.386	53.74
338.851	43.94
339.316	48.24
339.781	45.74
340.246	45.34
340.711	54.04
341.175	54.24
341.64	51.24
342.105	50.94
342.569	58.84
343.034	61.04
343.499	57.94
343.963	56.34
344.428	67.14
344.893	62.64
345.357	63.84
345.822	70.94
346.286	69.74
346.751	76.94
347.215	63.74
347.679	76.84
348.144	97.24
348.608	85.34
349.073	69.94
349.537	79.04
350.001	84.44
350.465	95.94
350.93	85.44
351.394	85.44
351.858	74.04
352.322	92.54
352.786	91.74
353.25	108.24
353.715	119.24
354.179	99.84
354.643	125.54
355.107	124.84
355.571	112.24
356.035	108.24
356.498	116.74
356.962	129.94
357.426	139.24
357.89	117.84
358.354	95.74
358.818	92.64
359.281	85.74
359.745	84.74
360.209	78.04
360.673	78.34
361.136	86.24
361.6	89.94
362.064	89.44
362.527	81.84
362.991	88.74
363.454	81.04
363.918	86.54
364.381	80.94
364.845	84.24
365.308	89.74
365.772	89.24
366.235	92.64
366.698	92.64
367.162	88.24
367.625	95.34
368.088	90.34
368.552	91.74
369.015	86.54
369.478	92.44
369.941	101.24
370.404	103.84
370.867	106.44
371.331	115.54
371.794	115.04
372.257	122.34
372.72	118.24
373.183	114.14
373.646	106.94
374.109	107.94
374.572	114.94
375.035	116.44
375.497	114.74
375.96	109.94
376.423	116.54
376.886	114.64
377.349	109.74
377.811	101.04
378.274	107.54
378.737	116.24
379.199	113.84
379.662	111.44
380.125	124.64
380.587	123.24
381.05	126.94
381.512	134.64
381.975	142.24
382.437	135.94
382.9	132.64
383.362	139.04
383.825	145.14
384.287	151.14
384.75	147.54
385.212	148.44
385.674	155.64
386.136	141.74
386.599	130.14
387.061	129.64
387.523	135.84
387.985	144.34
388.447	150.14
388.91	150.04
389.372	162.84
389.834	159.14
390.296	154.14
390.758	159.64
391.22	181.74
391.682	228.14
392.144	313.24
392.606	245.84
393.068	174.04
393.529	179.74
393.991	160.94
394.453	152.54
394.915	162.94
395.377	200.14
395.838	227.84
396.3	169.24
396.762	155.34
397.224	139.24
397.685	135.44
398.147	145.64
398.608	137.34
399.07	139.14
399.531	140.34
399.993	142.44
400.454	165.14
400.916	149.04
401.377	145.44
401.839	158.44
402.3	158.04
402.762	177.54
403.223	192.64
403.684	180.64
404.145	168.74
404.607	166.34
405.068	174.04
405.529	177.54
405.99	197.94
406.451	184.24
406.913	178.04
407.374	175.34
407.835	174.04
408.296	171.74
408.757	187.64
409.218	198.14
409.679	192.84
410.14	185.04
410.601	190.74
411.062	192.94
411.522	199.44
411.983	196.34
412.444	179.04
412.905	189.84
413.366	186.64
413.826	196.14
414.287	229.44
414.748	272.54
415.208	251.74
415.669	217.44
416.13	214.84
416.59	213.04
417.051	219.84
417.511	231.14
417.972	240.64
418.432	256.64
418.893	296.54
419.353	260.94
419.814	212.94
420.274	196.34
420.734	194.64
421.195	213.04
421.655	205.24
422.115	208.74
422.576	200.54
423.036	204.44
423.496	221.14
423.956	221.34
424.416	232.64
424.876	281.44
425.336	275.54
425.797	274.44
426.257	266.64
426.717	252.54
427.177	239.44
427.637	240.94
428.097	241.44
428.556	258.74
429.016	283.74
429.476	277.64
429.936	291.34
430.396	296.74
430.856	306.74
431.315	330.84
431.775	363.14
432.235	403.54
432.694	374.04
433.154	383.54
433.614	413.44
434.073	352.54
434.533	299.24
434.993	281.74
435.452	292.24
435.912	307.84
436.371	299.84
436.83	298.24
437.29	282.54
437.749	255.74
438.209	261.14
438.668	285.54
439.127	296.14
439.587	281.94
440.046	259.54
440.505	274.14
440.964	289.74
441.424	328.74
441.883	325.04
442.342	272.34
442.801	234.24
443.26	230.84
443.719	234.14
444.178	232.84
444.637	223.34
445.096	229.04
445.555	233.64
446.014	228.14
446.473	234.94
446.932	236.54
447.391	238.64
447.849	233.54
448.308	220.84
448.767	227.54
449.226	246.54
449.685	248.04
450.143	258.74
450.602	241.34
451.061	230.44
451.519	243.04
451.978	246.64
452.436	246.84
452.895	250.74
453.353	261.24
453.812	252.64
454.27	244.54
454.729	248.54
455.187	251.44
455.646	255.54
456.104	252.24
456.562	262.14
457.021	277.64
457.479	274.64
457.937	282.04
458.395	282.24
458.854	255.64
459.312	269.24
459.77	287.64
460.228	266.94
460.686	249.74
461.144	254.04
461.602	251.24
462.06	252.94
462.518	263.04
462.976	265.54
463.434	265.44
463.892	272.34
464.35	291.64
464.808	301.64
465.266	275.44
465.724	281.54
466.181	280.44
466.639	285.34
467.097	303.84
467.555	311.14
468.012	315.24
468.47	321.24
468.928	340.74
469.385	359.24
469.843	354.84
470.3	364.54
470.758	376.44
471.215	398.74
471.673	422.94
472.13	417.74
472.588	435.04
473.045	391.64
473.503	398.74
473.96	408.04
474.417	427.94
474.875	456.24
475.332	489.04
475.789	488.14
476.246	483.74
476.704	502.94
477.161	529.34
477.618	535.34
478.075	588.04
478.532	634.94
478.989	715.84
479.446	833.64
479.903	817.04
480.36	836.04
480.817	909.64
481.274	1007.24
481.731	1125.84
482.188	1217.74
482.645	1357.64
483.102	1460.24
483.558	1605.24
484.015	1668.74
484.472	1651.64
484.929	1594.74
485.385	1533.74
485.842	1495.04
486.299	1427.14
486.755	1356.44
487.212	1140.84
487.668	958.64
488.125	883.54
488.582	807.34
489.038	774.14
489.494	741.84
489.951	711.54
490.407	691.24
490.864	665.24
491.32	669.24
491.776	675.04
492.233	666.54
492.689	632.64
493.145	628.54
493.602	630.24
494.058	638.74
494.514	640.44
494.97	660.04
495.426	676.24
495.882	647.94
496.338	636.64
496.794	648.34
497.251	633.74
497.707	653.74
498.163	652.84
498.618	661.74
499.074	664.84
499.53	695.64
499.986	701.94
500.442	673.54
500.898	657.84
501.354	654.04
501.809	652.44
502.265	663.24
502.721	692.24
503.177	699.54
503.632	689.14
504.088	698.34
504.543	723.64
504.999	734.24
505.455	680.34
505.91	652.74
506.366	657.04
506.821	648.64
507.277	647.54
507.732	646.24
508.187	651.04
508.643	655.54
509.098	652.44
509.553	671.74
510.009	679.74
510.464	692.44
510.919	705.94
511.375	721.24
511.83	728.94
512.285	751.04
512.74	789.44
513.195	809.14
513.65	797.04
514.105	796.74
514.56	794.94
515.015	815.54
515.47	837.34
515.925	818.44
516.38	817.14
516.835	815.24
517.29	810.84
517.745	797.74
518.2	795.44
518.655	766.44
519.109	770.94
519.564	767.54
520.019	758.14
520.474	742.44
520.928	755.24
521.383	744.54
521.838	735.04
522.292	734.84
522.747	734.54
523.201	730.84
523.656	717.24
524.11	718.34
524.565	713.74
525.019	718.34
525.474	719.94
525.928	718.54
526.382	713.44
526.837	716.74
527.291	720.14
527.745	724.24
528.2	725.14
528.654	722.34
529.108	710.04
529.562	719.04
530.016	711.04
530.47	718.94
530.925	718.84
531.379	724.84
531.833	733.74
532.287	725.14
532.741	725.74
533.195	728.64
533.649	741.04
534.103	737.14
534.556	727.44
535.01	735.34
535.464	726.04
535.918	739.24
536.372	739.74
536.826	738.74
537.279	735.04
537.733	731.74
538.187	730.84
538.64	734.84
539.094	749.64
539.548	761.14
540.001	747.94
540.455	747.84
540.908	759.34
541.362	764.44
541.815	763.84
542.269	790.24
542.722	785.44
543.175	799.84
543.629	797.74
544.082	812.34
544.536	813.04
544.989	807.44
545.442	809.84
545.895	808.14
546.349	805.34
546.802	814.34
547.255	809.54
547.708	832.54
548.161	847.44
548.614	846.24
549.067	857.84
549.52	842.14
549.973	831.44
550.426	833.04
550.879	836.14
551.332	828.74
551.785	838.24
552.238	826.14
552.691	845.24
553.144	866.14
553.596	867.94
554.049	886.54
554.502	912.24
554.955	943.74
555.407	943.24
555.86	929.44
556.313	920.64
556.765	899.84
557.218	906.14
557.67	910.44
558.123	897.44
558.576	898.64
559.028	902.14
559.48	911.54
559.933	891.54
560.385	858.24
560.838	826.94
561.29	811.44
561.742	807.44
562.195	788.64
562.647	787.44
563.099	790.44
563.551	805.54
564.004	804.94
564.456	799.54
564.908	786.54
565.36	767.74
565.812	750.34
566.264	745.34
566.716	751.54
567.168	737.14
567.62	738.74
568.072	734.44
568.524	722.44
568.976	709.44
569.428	700.54
569.88	689.54
570.332	697.24
570.784	703.04
571.235	700.04
571.687	713.54
572.139	728.34
572.59	726.34
573.042	734.74
573.494	734.24
573.945	722.94
574.397	706.74
574.849	703.14
575.3	714.94
575.752	696.74
576.203	699.44
576.655	712.34
577.106	685.44
577.557	675.64
578.009	686.94
578.46	693.54
578.912	687.04
579.363	681.84
579.814	689.14
580.265	680.34
580.717	690.14
581.168	683.74
581.619	695.24
582.07	708.94
582.521	699.84
582.972	688.34
583.423	693.14
583.875	704.44
584.326	719.04
584.777	766.84
585.227	858.94
585.678	941.94
586.129	1040.04
586.58	1125.74
587.031	1217.54
587.482	1369.14
587.933	1565.74
588.384	1343.94
588.834	1004.74
589.285	831.74
589.736	800.34
590.186	808.34
590.637	787.74
591.088	766.64
591.538	761.54
591.989	749.24
592.439	742.54
592.89	731.94
593.34	736.34
593.791	721.64
594.241	721.54
594.692	735.24
595.142	718.54
595.593	721.74
596.043	719.84
596.493	737.74
596.943	733.94
597.394	741.14
597.844	739.04
598.294	745.34
598.744	773.64
599.195	791.64
599.645	832.44
600.095	882.84
600.545	948.74
600.995	989.64
601.445	1045.94
601.895	1115.64
602.345	1155.84
602.795	1141.64
603.245	1086.94
603.695	1031.54
604.145	987.04
604.594	928.44
605.044	867.04
605.494	820.14
605.944	779.74
606.393	760.14
606.843	741.74
607.293	754.44
607.743	752.44
608.192	772.64
608.642	776.04
609.091	790.14
609.541	796.44
609.99	777.24
610.44	790.64
610.889	734.74
611.339	723.04
611.788	704.94
612.238	716.64
612.687	737.04
613.136	742.54
613.586	762.44
614.035	759.34
614.484	773.64
614.933	786.74
615.383	771.74
615.832	759.14
616.281	745.64
616.73	701.14
617.179	678.24
617.628	671.74
618.077	656.04
618.526	636.54
618.975	631.94
619.424	632.34
619.873	637.94
620.322	626.74
620.771	620.34
621.22	616.04
621.669	614.74
622.118	610.34
622.567	591.24
623.015	583.94
623.464	590.04
623.913	577.24
624.361	572.74
624.81	562.04
625.259	558.94
625.707	571.34
626.156	565.64
626.604	584.34
627.053	572.14
627.501	571.74
627.95	581.74
628.398	595.14
628.847	579.74
629.295	589.34
629.744	593.94
630.192	592.94
630.64	578.64
631.089	574.54
631.537	595.64
631.985	591.54
632.433	616.84
632.881	628.44
633.33	671.94
633.778	658.44
634.226	588.24
634.674	583.54
635.122	597.04
635.57	614.54
636.018	637.94
636.466	605.34
636.914	577.24
637.362	589.64
637.81	585.34
638.258	594.54
638.705	578.54
639.153	623.04
639.601	629.74
640.049	659.14
640.497	684.24
640.944	709.84
641.392	658.64
641.84	625.74
642.287	608.14
642.735	585.84
643.182	579.14
643.63	585.44
644.078	590.94
644.525	609.04
644.973	611.94
645.42	616.24
645.867	632.44
646.315	657.64
646.762	692.04
647.21	705.64
647.657	727.74
648.104	772.34
648.551	785.44
648.999	858.94
649.446	944.54
649.893	1024.94
650.34	1187.04
650.787	1430.04
651.234	1793.34
651.682	2315.34
652.129	3188.24
652.576	4613.64
653.023	6800.14
653.47	9328.64
653.917	11646.84
654.363	13370.74
654.81	14759.84
655.257	14066.84
655.704	9228.54
656.151	5459.54
656.598	3526.74
657.044	2493.94
657.491	1918.14
657.938	1523.44
658.385	1274.84
658.831	1107.84
659.278	987.64
659.724	879.74
660.171	806.34
660.618	734.24
661.064	705.04
661.511	686.34
661.957	676.04
662.404	663.94
662.85	676.54
663.296	637.04
663.743	574.04
664.189	550.24
664.635	548.34
665.082	536.64
665.528	539.64
665.974	528.54
666.42	533.04
666.867	517.54
667.313	504.74
667.759	484.24
668.205	490.84
668.651	496.34
669.097	505.74
669.543	515.64
669.989	489.74
670.435	451.94
670.881	452.84
671.327	464.34
671.773	476.14
672.219	500.74
672.665	556.34
673.11	597.04
673.556	645.94
674.002	680.24
674.448	657.94
674.893	555.24
675.339	481.04
675.785	445.74
676.23	434.04
676.676	390.74
677.122	392.14
677.567	377.24
678.013	385.54
678.458	360.24
678.904	363.64
679.349	357.14
679.794	366.94
680.24	366.94
680.685	365.44
681.131	347.24
681.576	353.64
682.021	366.24
682.466	350.24
682.912	359.74
683.357	360.04
683.802	386.24
684.247	413.34
684.692	466.34
685.137	495.94
685.583	540.84
686.028	570.24
686.473	526.84
686.918	445.74
687.363	426.54
687.807	403.44
688.252	371.04
688.697	365.04
689.142	340.94
689.587	335.14
690.032	332.24
690.477	344.94
690.921	361.44
691.366	384.34
691.811	413.74
692.255	441.54
692.7	469.14
693.145	508.04
693.589	701.04
694.034	1139.94
694.478	1562.34
694.923	1755.84
695.367	2298.24
695.812	1195.24
696.256	497.74
696.701	380.74
697.145	349.24
697.59	337.64
698.034	329.74
698.478	341.04
698.922	337.84
699.367	330.44
699.811	343.94
700.255	361.74
700.699	393.24
701.143	426.44
701.588	481.74
702.032	527.14
702.476	517.24
702.92	490.24
703.364	494.14
703.808	641.84
704.252	1045.14
704.696	1482.74
705.14	1687.34
705.584	2158.24
706.027	1067.04
706.471	529.94
706.915	413.24
707.359	359.54
707.803	323.04
708.246	317.44
708.69	319.74
709.134	314.94
709.577	327.24
710.021	326.84
710.465	314.64
710.908	302.14
711.352	301.84
711.795	314.24
712.239	354.74
712.682	392.34
713.126	425.04
713.569	472.04
714.012	380.74
714.456	327.54
714.899	306.64
715.342	285.44
715.786	268.94
716.229	262.74
716.672	262.64
717.115	254.94
717.558	248.24
718.002	256.74
718.445	264.24
718.888	289.94
719.331	297.74
719.774	315.34
720.217	308.24
720.66	294.54
721.103	282.34
721.546	262.44
721.989	251.84
722.432	242.74
722.874	247.94
723.317	236.74
723.76	237.94
724.203	263.64
724.645	323.44
725.088	452.34
725.531	581.74
725.974	651.54
726.416	556.84
726.859	311.04
727.301	251.94
727.744	245.94
728.187	235.04
728.629	245.34
729.071	245.14
729.514	263.94
729.956	276.04
730.399	287.84
730.841	298.84
731.283	273.94
731.726	280.84
732.168	263.14
732.61	269.74
733.053	298.04
733.495	312.14
733.937	364.44
734.379	408.64
734.821	435.94
735.263	544.64
735.705	844.34
736.148	1589.64
736.59	2598.24
737.032	3074.14
737.474	2511.24
737.916	817.94
738.357	433.94
738.799	328.74
739.241	301.94
739.683	285.54
740.125	298.54
740.567	298.34
741.008	319.84
741.45	312.24
741.892	317.84
742.334	352.94
742.775	366.64
743.217	339.84
743.658	273.74
744.1	257.14
744.542	266.24
744.983	312.44
745.425	341.44
745.866	351.14
746.307	286.44
746.749	287.64
747.19	328.64
747.632	460.14
748.073	891.04
748.514	1882.54
748.956	2874.04
749.397	3597.24
749.838	2984.64
750.279	2982.34
750.72	1499.34
751.162	557.94
751.603	325.44
752.044	250.94
752.485	225.24
752.926	216.54
753.367	203.54
753.808	198.24
754.249	187.44
754.69	194.34
755.131	188.84
755.572	179.34
756.013	181.34
756.453	187.74
756.894	192.24
757.335	196.94
757.776	196.84
758.216	200.34
758.657	205.24
759.098	204.54
759.538	228.64
759.979	260.04
760.42	370.54
760.86	708.84
761.301	1836.04
761.741	4448.24
762.182	6483.04
762.622	4560.54
