Data from 20171114-ORNL-Ar_H_NY_Subt18_08-06-36-294.txt Node
Date: Tue Nov 14 08:06:36 EST 2017
User: Ender
Spectrometer: HR+D1039
Trigger mode: 0
Integration Time (sec): 2.730000E-2
Scans to average: 10
Electric dark correction enabled: true
Nonlinearity correction enabled: false
Boxcar width: 0
XAxis mode: Wavelengths
Number of Pixels in Spectrum: 2048
>>>>>Begin Spectral Data<<<<<
187.836	-4.35
188.309	-4.35
188.782	-4.35
189.255	-0.65
189.728	-4.45
190.201	3.55
190.674	0.95
191.147	1.95
191.619	-5.75
192.092	1.25
192.565	6.15
193.038	1.35
193.511	0.45
193.984	-0.65
194.456	0.45
194.929	1.35
195.402	-1.15
195.874	-0.45
196.347	-3.75
196.82	-8.75
197.292	0.25
197.765	-1.25
198.237	-8.55
198.71	4.15
199.182	-4.15
199.655	6.25
200.127	2.35
200.6	0.55
201.072	-4.25
201.544	1.25
202.017	-2.85
202.489	5.15
202.961	-3.75
203.433	-6.25
203.906	-5.65
204.378	-7.65
204.85	-1.05
205.322	-10.95
205.794	0.75
206.266	-4.75
206.739	-5.35
207.211	0.35
207.683	-6.65
208.155	-7.75
208.627	-12.95
209.099	-2.25
209.57	-5.25
210.042	-3.15
210.514	-7.75
210.986	-3.15
211.458	-8.15
211.93	-6.75
212.402	2.55
212.873	-8.75
213.345	-7.65
213.817	-5.25
214.288	-2.75
214.76	-7.55
215.232	-4.35
215.703	-9.25
216.175	-3.25
216.646	-4.85
217.118	-9.75
217.589	-7.25
218.061	-2.85
218.532	-0.75
219.004	-5.45
219.475	-2.25
219.946	-0.95
220.418	-2.25
220.889	7.15
221.36	-0.45
221.832	-4.55
222.303	-9.85
222.774	1.65
223.245	-11.75
223.717	-15.15
224.188	0.65
224.659	-8.65
225.13	-4.45
225.601	-2.35
226.072	-1.35
226.543	-6.65
227.014	-3.75
227.485	-6.15
227.956	-1.75
228.427	-5.45
228.898	1.85
229.369	3.35
229.839	-3.45
230.31	-11.55
230.781	2.45
231.252	2.55
231.722	-10.75
232.193	-1.65
232.664	-0.25
233.135	-2.75
233.605	0.25
234.076	0.35
234.546	4.15
235.017	2.05
235.487	2.25
235.958	-1.75
236.428	-3.55
236.899	-0.45
237.369	1.55
237.84	-8.25
238.31	6.85
238.78	-6.85
239.251	-3.55
239.721	2.25
240.191	0.25
240.662	4.35
241.132	-1.25
241.602	-2.85
242.072	1.15
242.542	2.95
243.013	-2.65
243.483	4.75
243.953	3.45
244.423	-5.25
244.893	-0.15
245.363	4.15
245.833	-1.65
246.303	-3.55
246.773	6.05
247.243	-1.45
247.712	2.35
248.182	10.55
248.652	-1.55
249.122	-0.35
249.592	-3.75
250.061	7.55
250.531	14.25
251.001	5.55
251.471	5.55
251.94	13.65
252.41	3.35
252.879	-9.45
253.349	9.35
253.818	6.25
254.288	3.45
254.757	-1.65
255.227	0.55
255.696	-1.25
256.166	2.55
256.635	7.85
257.105	2.65
257.574	6.95
258.043	-0.05
258.513	0.65
258.982	9.25
259.451	-1.65
259.92	7.55
260.389	0.35
260.859	14.15
261.328	3.05
261.797	14.15
262.266	5.25
262.735	7.85
263.204	-1.15
263.673	-4.05
264.142	8.05
264.611	-1.25
265.08	-1.65
265.549	3.15
266.018	8.85
266.487	-9.05
266.955	-1.85
267.424	-1.15
267.893	9.55
268.362	-3.95
268.83	0.25
269.299	13.55
269.768	9.65
270.236	11.85
270.705	0.95
271.174	7.45
271.642	2.05
272.111	12.35
272.579	3.05
273.048	7.85
273.516	17.75
273.985	15.45
274.453	15.65
274.922	12.85
275.39	11.25
275.858	0.65
276.327	9.45
276.795	11.85
277.263	10.35
277.731	22.25
278.2	31.35
278.668	30.65
279.136	21.85
279.604	11.65
280.072	11.45
280.54	6.05
281.008	7.45
281.477	18.25
281.945	14.25
282.413	13.35
282.881	11.35
283.348	3.45
283.816	17.35
284.284	15.75
284.752	20.55
285.22	13.15
285.688	14.85
286.156	14.55
286.623	29.65
287.091	21.45
287.559	14.95
288.026	14.65
288.494	7.55
288.962	2.95
289.429	5.05
289.897	24.25
290.364	12.15
290.832	19.55
291.3	12.55
291.767	18.55
292.234	19.95
292.702	17.85
293.169	21.25
293.637	17.55
294.104	19.65
294.571	14.15
295.039	11.15
295.506	20.35
295.973	12.95
296.44	15.35
296.908	19.05
297.375	25.55
297.842	21.65
298.309	16.15
298.776	16.65
299.243	20.35
299.71	17.55
300.177	18.85
300.644	20.95
301.111	19.05
301.578	28.25
302.045	11.95
302.512	24.35
302.979	23.85
303.446	24.65
303.913	19.15
304.379	19.35
304.846	30.65
305.313	24.95
305.78	19.05
306.246	21.55
306.713	27.25
307.18	24.05
307.646	30.35
308.113	29.45
308.579	24.85
309.046	22.95
309.512	27.65
309.979	22.25
310.445	24.75
310.912	31.25
311.378	33.65
311.845	34.35
312.311	27.95
312.777	30.25
313.244	34.35
313.71	35.65
314.176	31.95
314.642	34.25
315.109	31.75
315.575	30.55
316.041	40.75
316.507	33.85
316.973	39.65
317.439	32.65
317.905	36.35
318.371	34.85
318.837	34.75
319.303	31.35
319.769	34.55
320.235	29.35
320.701	39.45
321.167	33.95
321.633	35.65
322.099	35.85
322.564	39.15
323.03	33.85
323.496	40.25
323.962	40.75
324.427	39.15
324.893	39.95
325.359	39.45
325.824	39.85
326.29	32.05
326.755	47.15
327.221	38.35
327.686	45.75
328.152	53.95
328.617	41.15
329.083	50.55
329.548	48.05
330.014	49.05
330.479	48.15
330.944	42.15
331.41	41.65
331.875	48.15
332.34	39.95
332.805	50.55
333.271	48.45
333.736	37.05
334.201	51.55
334.666	49.95
335.131	58.55
335.596	49.75
336.061	53.95
336.526	45.65
336.991	48.85
337.456	56.65
337.921	56.15
338.386	48.55
338.851	48.95
339.316	47.05
339.781	48.15
340.246	49.65
340.711	48.85
341.175	54.65
341.64	48.25
342.105	54.85
342.569	61.65
343.034	66.05
343.499	59.85
343.963	50.95
344.428	72.85
344.893	67.05
345.357	69.15
345.822	63.45
346.286	76.35
346.751	76.75
347.215	70.45
347.679	76.45
348.144	96.85
348.608	84.95
349.073	72.85
349.537	78.85
350.001	87.95
350.465	96.55
350.93	81.35
351.394	82.75
351.858	77.95
352.322	85.45
352.786	93.05
353.25	108.45
353.715	114.75
354.179	99.05
354.643	123.95
355.107	124.45
355.571	107.95
356.035	107.05
356.498	122.05
356.962	116.55
357.426	129.95
357.89	124.95
358.354	102.05
358.818	88.75
359.281	82.45
359.745	83.05
360.209	81.45
360.673	77.25
361.136	87.35
361.6	86.55
362.064	90.25
362.527	91.45
362.991	93.85
363.454	85.05
363.918	78.15
364.381	85.35
364.845	85.95
365.308	87.05
365.772	88.65
366.235	97.15
366.698	90.25
367.162	91.75
367.625	88.35
368.088	93.15
368.552	96.85
369.015	99.85
369.478	100.45
369.941	105.35
370.404	102.25
370.867	104.85
371.331	106.75
371.794	112.35
372.257	109.85
372.72	113.95
373.183	105.85
373.646	104.15
374.109	104.65
374.572	106.35
375.035	113.65
375.497	113.25
375.96	112.05
376.423	108.15
376.886	115.35
377.349	108.05
377.811	108.65
378.274	106.45
378.737	115.65
379.199	120.65
379.662	115.15
380.125	124.65
380.587	117.45
381.05	117.75
381.512	125.25
381.975	134.05
382.437	121.65
382.9	129.15
383.362	128.35
383.825	139.75
384.287	133.85
384.75	128.25
385.212	138.45
385.674	139.45
386.136	137.65
386.599	125.45
387.061	131.25
387.523	126.95
387.985	139.65
388.447	136.55
388.91	138.35
389.372	142.15
389.834	146.85
390.296	142.25
390.758	145.15
391.22	164.05
391.682	178.05
392.144	216.35
392.606	182.75
393.068	155.75
393.529	166.15
393.991	150.25
394.453	139.65
394.915	158.95
395.377	161.35
395.838	171.25
396.3	148.75
396.762	151.15
397.224	146.15
397.685	135.65
398.147	134.35
398.608	138.35
399.07	135.85
399.531	142.85
399.993	155.35
400.454	161.15
400.916	155.65
401.377	157.35
401.839	160.05
402.3	164.15
402.762	171.15
403.223	195.65
403.684	183.25
404.145	168.85
404.607	171.75
405.068	180.45
405.529	184.75
405.99	197.15
406.451	180.65
406.913	190.85
407.374	177.95
407.835	173.85
408.296	168.75
408.757	183.75
409.218	193.65
409.679	191.75
410.14	188.55
410.601	188.45
411.062	189.65
411.522	191.55
411.983	192.75
412.444	183.75
412.905	197.75
413.366	193.05
413.826	216.95
414.287	234.15
414.748	283.35
415.208	264.85
415.669	228.95
416.13	223.55
416.59	220.95
417.051	237.35
417.511	229.85
417.972	255.65
418.432	275.25
418.893	312.95
419.353	273.15
419.814	213.45
420.274	207.75
420.734	195.05
421.195	221.05
421.655	214.45
422.115	209.55
422.576	210.95
423.036	217.75
423.496	220.95
423.956	230.25
424.416	246.65
424.876	283.25
425.336	278.75
425.797	274.35
426.257	274.85
426.717	254.85
427.177	251.35
427.637	238.75
428.097	254.75
428.556	262.85
429.016	284.55
429.476	282.65
429.936	284.95
430.396	296.15
430.856	301.85
431.315	338.75
431.775	365.75
432.235	404.55
432.694	382.45
433.154	384.15
433.614	417.75
434.073	352.15
434.533	302.35
434.993	288.75
435.452	297.35
435.912	307.05
436.371	304.05
436.83	305.45
437.29	284.85
437.749	270.35
438.209	267.75
438.668	293.75
439.127	311.15
439.587	284.15
440.046	262.35
440.505	280.55
440.964	301.75
441.424	347.75
441.883	338.65
442.342	282.25
442.801	246.25
443.26	241.95
443.719	246.45
444.178	239.25
444.637	231.25
445.096	241.75
445.555	245.95
446.014	249.05
446.473	243.25
446.932	249.15
447.391	249.35
447.849	251.25
448.308	240.45
448.767	244.15
449.226	255.15
449.685	258.55
450.143	271.35
450.602	268.75
451.061	251.25
451.519	254.05
451.978	255.05
452.436	259.75
452.895	260.65
453.353	280.65
453.812	260.35
454.27	263.05
454.729	262.55
455.187	262.45
455.646	260.55
456.104	272.25
456.562	286.25
457.021	290.05
457.479	284.05
457.937	299.75
458.395	290.55
458.854	268.75
459.312	274.45
459.77	299.55
460.228	284.05
460.686	267.85
461.144	276.35
461.602	266.25
462.06	262.75
462.518	281.25
462.976	273.25
463.434	283.75
463.892	282.75
464.35	310.15
464.808	320.15
465.266	297.05
465.724	295.25
466.181	293.55
466.639	307.35
467.097	320.45
467.555	333.75
468.012	329.85
468.47	340.95
468.928	353.95
469.385	379.85
469.843	380.85
470.3	386.85
470.758	390.15
471.215	413.15
471.673	447.05
472.13	441.45
472.588	461.25
473.045	397.65
473.503	414.15
473.96	431.55
474.417	454.95
474.875	468.45
475.332	514.15
475.789	499.05
476.246	493.95
476.704	522.75
477.161	544.95
477.618	563.95
478.075	603.45
478.532	653.85
478.989	732.95
479.446	862.85
479.903	816.35
480.36	839.85
480.817	900.25
481.274	997.85
481.731	1097.55
482.188	1179.65
482.645	1297.35
483.102	1405.85
483.558	1539.75
484.015	1577.15
484.472	1549.75
484.929	1509.85
485.385	1455.05
485.842	1436.35
486.299	1381.35
486.755	1331.65
487.212	1143.75
487.668	963.95
488.125	889.85
488.582	814.65
489.038	796.05
489.494	753.55
489.951	737.25
490.407	711.85
490.864	698.25
491.32	690.85
491.776	682.05
492.233	694.85
492.689	666.85
493.145	649.25
493.602	653.95
494.058	659.65
494.514	657.55
494.97	688.25
495.426	696.65
495.882	676.35
496.338	663.45
496.794	666.25
497.251	664.45
497.707	681.85
498.163	683.25
498.618	691.65
499.074	698.95
499.53	731.35
499.986	733.25
500.442	694.85
500.898	678.75
501.354	671.05
501.809	671.75
502.265	683.55
502.721	685.95
503.177	701.45
503.632	703.75
504.088	701.85
504.543	728.95
504.999	751.35
505.455	718.25
505.91	684.15
506.366	686.75
506.821	680.75
507.277	681.35
507.732	672.35
508.187	679.95
508.643	693.45
509.098	688.25
509.553	724.05
510.009	726.25
510.464	730.05
510.919	761.15
511.375	756.45
511.83	760.45
512.285	793.95
512.74	814.75
513.195	848.85
513.65	833.85
514.105	833.85
514.56	838.25
515.015	852.05
515.47	857.05
515.925	848.05
516.38	852.85
516.835	857.75
517.29	847.85
517.745	841.15
518.2	832.45
518.655	814.35
519.109	807.75
519.564	810.05
520.019	797.95
520.474	797.45
520.928	779.05
521.383	771.05
521.838	769.85
522.292	770.45
522.747	771.65
523.201	763.15
523.656	751.25
524.11	740.45
524.565	755.25
525.019	745.85
525.474	756.35
525.928	757.55
526.382	752.35
526.837	761.65
527.291	758.55
527.745	758.75
528.2	754.45
528.654	754.35
529.108	742.55
529.562	745.95
530.016	740.55
530.47	746.85
530.925	739.55
531.379	750.15
531.833	756.35
532.287	763.65
532.741	755.75
533.195	761.25
533.649	768.25
534.103	779.85
534.556	766.75
535.01	764.85
535.464	764.35
535.918	779.25
536.372	792.75
536.826	771.35
537.279	758.75
537.733	767.25
538.187	767.25
538.64	767.95
539.094	786.15
539.548	783.45
540.001	785.55
540.455	786.15
540.908	802.05
541.362	799.85
541.815	811.35
542.269	831.95
542.722	822.25
543.175	837.75
543.629	836.65
544.082	863.05
544.536	849.95
544.989	862.45
545.442	863.95
545.895	858.45
546.349	860.55
546.802	857.85
547.255	866.15
547.708	875.35
548.161	873.65
548.614	892.35
549.067	889.65
549.52	885.75
549.973	882.25
550.426	876.15
550.879	866.25
551.332	861.35
551.785	875.35
552.238	884.45
552.691	893.55
553.144	913.75
553.596	919.75
554.049	945.05
554.502	969.25
554.955	988.85
555.407	988.45
555.86	966.35
556.313	961.25
556.765	955.55
557.218	956.25
557.67	946.85
558.123	938.05
558.576	949.25
559.028	950.15
559.48	962.25
559.933	947.25
560.385	914.05
560.838	885.25
561.29	853.75
561.742	847.75
562.195	833.95
562.647	832.35
563.099	840.45
563.551	832.85
564.004	854.05
564.456	831.25
564.908	814.55
565.36	806.55
565.812	786.05
566.264	772.65
566.716	773.45
567.168	768.55
567.62	766.15
568.072	746.75
568.524	742.35
568.976	746.05
569.428	733.55
569.88	731.85
570.332	751.25
570.784	739.35
571.235	740.85
571.687	761.25
572.139	766.75
572.59	770.65
573.042	775.75
573.494	769.65
573.945	767.05
574.397	740.15
574.849	741.85
575.3	754.05
575.752	735.05
576.203	739.85
576.655	747.35
577.106	726.45
577.557	719.15
578.009	716.65
578.46	724.35
578.912	718.05
579.363	719.75
579.814	718.85
580.265	716.45
580.717	723.55
581.168	725.15
581.619	727.05
582.07	725.15
582.521	724.45
582.972	724.35
583.423	743.55
583.875	728.75
584.326	745.05
584.777	758.85
585.227	792.15
585.678	826.95
586.129	866.45
586.58	905.75
587.031	933.75
587.482	1007.05
587.933	1064.85
588.384	1011.05
588.834	894.25
589.285	843.25
589.736	844.25
590.186	836.05
590.637	816.55
591.088	798.65
591.538	804.35
591.989	782.25
592.439	776.85
592.89	770.05
593.34	772.55
593.791	764.05
594.241	748.65
594.692	754.55
595.142	743.95
595.593	758.35
596.043	758.05
596.493	753.55
596.943	765.15
597.394	780.45
597.844	775.85
598.294	777.55
598.744	818.55
599.195	835.85
599.645	877.95
600.095	925.05
600.545	985.05
600.995	1043.25
601.445	1102.65
601.895	1179.35
602.345	1219.45
602.795	1185.75
603.245	1145.75
603.695	1097.65
604.145	1034.05
604.594	989.45
605.044	929.05
605.494	865.25
605.944	813.35
606.393	806.55
606.843	776.45
607.293	781.45
607.743	780.55
608.192	788.05
608.642	805.75
609.091	812.75
609.541	818.45
609.99	812.45
610.44	810.85
610.889	770.35
611.339	746.45
611.788	728.85
612.238	740.35
612.687	755.05
613.136	752.35
613.586	759.85
614.035	760.65
614.484	761.75
614.933	768.25
615.383	763.55
615.832	760.75
616.281	760.95
616.73	713.15
617.179	698.75
617.628	692.75
618.077	675.85
618.526	661.85
618.975	656.25
619.424	659.15
619.873	649.85
620.322	670.35
620.771	653.55
621.22	650.25
621.669	634.95
622.118	632.05
622.567	623.95
623.015	610.15
623.464	615.05
623.913	599.85
624.361	587.95
624.81	605.75
625.259	600.95
625.707	592.15
626.156	595.65
626.604	605.05
627.053	596.05
627.501	602.95
627.95	611.15
628.398	621.75
628.847	615.15
629.295	609.65
629.744	606.65
630.192	611.55
630.64	597.75
631.089	600.15
631.537	592.85
631.985	582.45
632.433	588.05
632.881	579.25
633.33	595.35
633.778	586.05
634.226	565.55
634.674	586.55
635.122	591.65
635.57	604.45
636.018	610.25
636.466	607.95
636.914	596.85
637.362	606.85
637.81	613.25
638.258	622.45
638.705	621.05
639.153	649.45
639.601	662.85
640.049	675.05
640.497	711.25
640.944	735.65
641.392	685.45
641.84	654.15
642.287	609.55
642.735	602.85
643.182	599.25
643.63	605.45
644.078	602.55
644.525	610.45
644.973	622.55
645.42	630.55
645.867	649.85
646.315	673.15
646.762	701.75
647.21	726.35
647.657	740.45
648.104	780.95
648.551	798.75
648.999	867.65
649.446	941.95
649.893	1025.15
650.34	1173.75
650.787	1407.85
651.234	1713.65
651.682	2230.75
652.129	3004.65
652.576	4251.05
653.023	6261.35
653.47	8520.75
653.917	10565.95
654.363	12183.45
654.81	13466.85
655.257	12805.55
655.704	8430.15
656.151	5082.05
656.598	3327.25
657.044	2406.65
657.491	1849.05
657.938	1505.55
658.385	1256.15
658.831	1093.55
659.278	984.95
659.724	875.45
660.171	819.15
660.618	746.75
661.064	723.25
661.511	691.55
661.957	684.85
662.404	671.75
662.85	687.35
663.296	658.55
663.743	589.95
664.189	563.25
664.635	552.35
665.082	555.65
665.528	555.25
665.974	539.15
666.42	535.25
666.867	542.05
667.313	520.75
667.759	492.65
668.205	473.65
668.651	483.85
669.097	487.45
669.543	482.35
669.989	480.45
670.435	473.35
670.881	475.15
671.327	470.25
671.773	504.95
672.219	524.85
672.665	577.95
673.11	620.45
673.556	669.45
674.002	711.85
674.448	695.65
674.893	591.95
675.339	513.85
675.785	483.15
676.23	451.35
676.676	418.95
677.122	409.55
677.567	398.25
678.013	396.15
678.458	386.15
678.904	391.85
679.349	375.65
679.794	382.15
680.24	378.35
680.685	368.95
681.131	366.25
681.576	376.25
682.021	382.05
682.466	373.45
682.912	375.25
683.357	377.55
683.802	408.85
684.247	433.65
684.692	479.35
685.137	528.25
685.583	568.05
686.028	604.15
686.473	555.35
686.918	478.75
687.363	448.75
687.807	427.75
688.252	395.05
688.697	381.05
689.142	358.55
689.587	360.65
690.032	350.35
690.477	363.45
690.921	369.75
691.366	410.45
691.811	422.55
692.255	455.35
692.7	487.05
693.145	533.85
693.589	744.05
694.034	1208.75
694.478	1657.85
694.923	1863.95
695.367	2422.45
695.812	1275.55
696.256	532.65
696.701	396.75
697.145	370.25
697.59	356.65
698.034	337.25
698.478	341.85
698.922	344.65
699.367	347.25
699.811	348.65
700.255	379.35
700.699	403.95
701.143	449.25
701.588	507.65
702.032	546.65
702.476	551.15
702.92	536.85
703.364	526.95
703.808	684.75
704.252	1110.85
704.696	1548.15
705.14	1789.45
705.584	2263.55
706.027	1144.55
706.471	551.05
706.915	429.05
707.359	372.15
707.803	357.35
708.246	333.35
708.69	336.05
709.134	336.65
709.577	326.85
710.021	337.35
710.465	326.65
710.908	320.25
711.352	321.15
711.795	336.45
712.239	373.15
712.682	411.45
713.126	440.25
713.569	482.75
714.012	383.15
714.456	323.55
714.899	304.25
715.342	292.85
715.786	272.15
716.229	275.15
716.672	280.95
717.115	261.35
717.558	264.85
718.002	275.55
718.445	282.75
718.888	301.25
719.331	314.55
719.774	338.35
720.217	324.05
720.66	304.55
721.103	285.35
721.546	264.65
721.989	267.35
722.432	244.35
722.874	257.65
723.317	250.85
723.76	247.85
724.203	269.35
724.645	331.25
725.088	466.85
725.531	614.65
725.974	687.25
726.416	579.85
726.859	319.45
727.301	265.65
727.744	258.85
728.187	252.25
728.629	253.95
729.071	259.85
729.514	276.65
729.956	292.55
730.399	299.45
730.841	312.25
731.283	303.75
731.726	284.85
732.168	277.65
732.61	288.65
733.053	309.25
733.495	330.35
733.937	379.55
734.379	419.45
734.821	467.15
735.263	573.55
735.705	896.35
736.148	1699.55
736.59	2782.75
737.032	3286.25
737.474	2648.15
737.916	871.05
738.357	465.85
738.799	354.15
739.241	324.85
739.683	306.95
740.125	310.45
740.567	324.15
741.008	334.45
741.45	340.45
741.892	339.85
742.334	368.75
742.775	378.55
743.217	375.65
743.658	290.15
744.1	272.85
744.542	285.35
744.983	334.75
745.425	372.05
745.866	371.25
746.307	300.55
746.749	298.35
747.19	342.45
747.632	483.65
748.073	938.55
748.514	1987.15
748.956	3054.95
749.397	3825.65
749.838	3190.25
750.279	3186.15
750.72	1605.35
751.162	584.95
751.603	347.85
752.044	263.65
752.485	229.65
752.926	225.55
753.367	211.25
753.808	206.45
754.249	199.65
754.69	209.15
755.131	201.65
755.572	194.15
756.013	192.45
756.453	200.75
756.894	198.25
757.335	204.95
757.776	212.55
758.216	205.05
758.657	204.05
759.098	221.35
759.538	241.85
759.979	287.65
760.42	399.75
760.86	752.15
761.301	1938.55
761.741	4746.45
762.182	6863.95
