Data from 20171114-ORNL-Ar_H_NY_Subt18_08-09-14-952.txt Node
Date: Tue Nov 14 08:09:14 EST 2017
User: Ender
Spectrometer: HR+D1039
Trigger mode: 0
Integration Time (sec): 2.730000E-2
Scans to average: 10
Electric dark correction enabled: true
Nonlinearity correction enabled: false
Boxcar width: 0
XAxis mode: Wavelengths
Number of Pixels in Spectrum: 2048
>>>>>Begin Spectral Data<<<<<
187.836	-7.51
188.309	-7.51
188.782	-7.51
189.255	4.19
189.728	1.79
190.201	4.39
190.674	-1.71
191.147	1.59
191.619	-5.21
192.092	6.29
192.565	3.79
193.038	-1.21
193.511	5.49
193.984	-4.21
194.456	-2.01
194.929	-2.61
195.402	-6.01
195.874	2.89
196.347	-6.41
196.82	-5.11
197.292	3.69
197.765	-3.21
198.237	-14.51
198.71	-4.51
199.182	2.79
199.655	0.89
200.127	2.09
200.6	0.79
201.072	-1.01
201.544	-6.51
202.017	-1.71
202.489	1.79
202.961	-4.21
203.433	-10.71
203.906	-8.21
204.378	-6.31
204.85	-7.11
205.322	-7.51
205.794	-2.41
206.266	-7.51
206.739	-11.91
207.211	5.99
207.683	-5.71
208.155	-5.51
208.627	-4.01
209.099	-5.11
209.57	-12.21
210.042	-2.91
210.514	-3.21
210.986	-5.01
211.458	-8.71
211.93	-1.11
212.402	-4.21
212.873	-8.71
213.345	-9.01
213.817	-11.81
214.288	-7.11
214.76	-13.71
215.232	-8.71
215.703	-2.51
216.175	-0.41
216.646	-6.01
217.118	-5.41
217.589	-0.81
218.061	-4.41
218.532	-7.01
219.004	-1.41
219.475	-0.51
219.946	-4.51
220.418	-8.01
220.889	-4.41
221.36	1.09
221.832	-10.21
222.303	-8.11
222.774	-1.41
223.245	-8.41
223.717	-6.91
224.188	-5.21
224.659	-9.11
225.13	-10.11
225.601	-1.71
226.072	-2.01
226.543	-3.41
227.014	-4.21
227.485	-7.81
227.956	-10.01
228.427	-8.01
228.898	1.09
229.369	1.99
229.839	-4.91
230.31	-7.51
230.781	-2.51
231.252	-5.41
231.722	-11.21
232.193	-11.71
232.664	-4.31
233.135	0.89
233.605	-6.21
234.076	-12.11
234.546	-7.51
235.017	-2.41
235.487	-3.71
235.958	-5.01
236.428	-6.21
236.899	-4.31
237.369	-2.51
237.84	-8.01
238.31	-1.21
238.78	-0.01
239.251	-3.71
239.721	-10.31
240.191	-1.41
240.662	-9.11
241.132	-4.51
241.602	-8.81
242.072	0.19
242.542	1.89
243.013	-7.41
243.483	1.89
243.953	-4.71
244.423	1.09
244.893	-16.31
245.363	0.79
245.833	-3.31
246.303	-2.41
246.773	-3.11
247.243	-4.71
247.712	-4.71
248.182	-0.11
248.652	-0.01
249.122	-13.01
249.592	-5.31
250.061	2.69
250.531	5.89
251.001	-6.61
251.471	-4.01
251.94	6.09
252.41	-3.21
252.879	-6.11
253.349	10.79
253.818	0.99
254.288	-2.91
254.757	-2.31
255.227	-12.71
255.696	-0.41
256.166	-1.81
256.635	-0.91
257.105	-1.61
257.574	-2.61
258.043	-2.91
258.513	-3.61
258.982	-0.01
259.451	-8.51
259.92	0.29
260.389	-5.11
260.859	4.39
261.328	0.09
261.797	3.19
262.266	2.99
262.735	7.59
263.204	-0.31
263.673	-7.91
264.142	1.29
264.611	-5.21
265.08	-2.61
265.549	-2.61
266.018	-6.81
266.487	-4.21
266.955	-12.51
267.424	-5.41
267.893	0.69
268.362	-8.41
268.83	-0.61
269.299	6.09
269.768	-2.51
270.236	-1.61
270.705	-6.81
271.174	0.69
271.642	-0.61
272.111	3.19
272.579	-0.31
273.048	-2.81
273.516	-3.61
273.985	2.79
274.453	1.99
274.922	9.39
275.39	4.99
275.858	-0.81
276.327	-2.61
276.795	5.69
277.263	-6.31
277.731	2.59
278.2	4.29
278.668	-3.51
279.136	6.09
279.604	-1.51
280.072	4.59
280.54	0.19
281.008	1.19
281.477	6.49
281.945	4.89
282.413	9.89
282.881	3.39
283.348	3.89
283.816	7.89
284.284	0.79
284.752	12.09
285.22	8.19
285.688	13.39
286.156	8.19
286.623	9.99
287.091	4.59
287.559	10.89
288.026	0.29
288.494	9.29
288.962	-6.01
289.429	1.29
289.897	11.39
290.364	5.19
290.832	3.39
291.3	10.09
291.767	4.89
292.234	6.29
292.702	5.69
293.169	4.89
293.637	3.99
294.104	11.79
294.571	-0.81
295.039	4.39
295.506	5.19
295.973	11.69
296.44	8.49
296.908	1.99
297.375	8.19
297.842	9.69
298.309	6.89
298.776	1.19
299.243	9.29
299.71	5.79
300.177	10.69
300.644	9.09
301.111	12.09
301.578	16.79
302.045	9.99
302.512	14.69
302.979	17.79
303.446	14.09
303.913	10.29
304.379	9.29
304.846	17.69
305.313	16.09
305.78	16.09
306.246	12.79
306.713	12.49
307.18	17.09
307.646	18.59
308.113	19.79
308.579	14.69
309.046	15.79
309.512	18.39
309.979	11.49
310.445	16.29
310.912	19.79
311.378	25.29
311.845	26.29
312.311	16.59
312.777	18.89
313.244	16.89
313.71	25.39
314.176	18.69
314.642	14.79
315.109	15.99
315.575	22.79
316.041	23.09
316.507	15.29
316.973	25.59
317.439	18.39
317.905	21.89
318.371	19.09
318.837	20.49
319.303	17.49
319.769	21.99
320.235	20.49
320.701	22.19
321.167	26.69
321.633	22.69
322.099	25.79
322.564	24.89
323.03	25.19
323.496	20.89
323.962	26.49
324.427	22.09
324.893	30.69
325.359	24.59
325.824	27.09
326.29	23.29
326.755	25.69
327.221	30.29
327.686	27.59
328.152	37.99
328.617	33.29
329.083	30.19
329.548	37.79
330.014	32.29
330.479	34.69
330.944	28.49
331.41	27.99
331.875	31.59
332.34	33.59
332.805	31.89
333.271	29.79
333.736	25.59
334.201	39.59
334.666	35.99
335.131	44.89
335.596	43.89
336.061	42.39
336.526	25.19
336.991	34.69
337.456	42.89
337.921	36.59
338.386	32.79
338.851	32.29
339.316	39.79
339.781	31.89
340.246	40.29
340.711	33.59
341.175	42.09
341.64	34.19
342.105	41.29
342.569	39.09
343.034	49.49
343.499	35.79
343.963	44.59
344.428	49.09
344.893	47.99
345.357	53.59
345.822	48.69
346.286	49.89
346.751	52.19
347.215	54.99
347.679	54.09
348.144	73.49
348.608	65.79
349.073	54.19
349.537	58.79
350.001	56.79
350.465	68.09
350.93	61.39
351.394	68.39
351.858	51.69
352.322	75.99
352.786	68.19
353.25	80.59
353.715	83.99
354.179	77.69
354.643	97.99
355.107	97.39
355.571	80.99
356.035	76.09
356.498	86.69
356.962	86.89
357.426	96.09
357.89	87.59
358.354	74.29
358.818	59.49
359.281	62.79
359.745	66.59
360.209	61.59
360.673	63.29
361.136	67.49
361.6	71.99
362.064	62.09
362.527	70.89
362.991	77.79
363.454	65.59
363.918	54.29
364.381	60.29
364.845	67.39
365.308	75.99
365.772	70.89
366.235	79.09
366.698	66.59
367.162	69.49
367.625	73.59
368.088	70.49
368.552	76.49
369.015	77.49
369.478	79.79
369.941	85.69
370.404	73.89
370.867	87.29
371.331	85.89
371.794	87.49
372.257	81.59
372.72	95.59
373.183	80.59
373.646	86.59
374.109	79.29
374.572	85.69
375.035	85.29
375.497	90.19
375.96	88.59
376.423	88.29
376.886	91.39
377.349	91.09
377.811	88.49
378.274	84.69
378.737	93.19
379.199	98.19
379.662	91.99
380.125	99.69
380.587	95.59
381.05	92.99
381.512	99.89
381.975	107.59
382.437	102.69
382.9	105.29
383.362	109.39
383.825	114.09
384.287	111.69
384.75	106.19
385.212	109.59
385.674	119.89
386.136	115.29
386.599	110.99
387.061	110.59
387.523	109.39
387.985	114.29
388.447	116.29
388.91	113.99
389.372	112.79
389.834	116.89
390.296	119.29
390.758	123.09
391.22	128.39
391.682	137.39
392.144	143.09
392.606	128.49
393.068	128.09
393.529	135.39
393.991	130.19
394.453	125.39
394.915	122.59
395.377	125.79
395.838	128.19
396.3	127.09
396.762	128.79
397.224	130.99
397.685	128.39
398.147	124.89
398.608	124.09
399.07	116.69
399.531	128.49
399.993	140.49
400.454	143.39
400.916	145.29
401.377	135.09
401.839	140.29
402.3	136.59
402.762	158.99
403.223	166.49
403.684	159.29
404.145	156.89
404.607	151.69
405.068	158.29
405.529	164.89
405.99	173.99
406.451	159.39
406.913	171.39
407.374	153.59
407.835	149.09
408.296	166.09
408.757	163.19
409.218	173.79
409.679	166.19
410.14	164.19
410.601	170.19
411.062	167.79
411.522	168.59
411.983	170.49
412.444	172.99
412.905	173.69
413.366	184.49
413.826	191.39
414.287	208.29
414.748	262.89
415.208	241.09
415.669	209.89
416.13	203.69
416.59	199.89
417.051	213.69
417.511	218.89
417.972	235.69
418.432	253.89
418.893	293.19
419.353	252.49
419.814	204.69
420.274	177.09
420.734	174.49
421.195	190.79
421.655	188.79
422.115	184.89
422.576	193.79
423.036	192.89
423.496	211.19
423.956	219.09
424.416	222.39
424.876	263.89
425.336	250.49
425.797	251.49
426.257	252.09
426.717	233.89
427.177	227.29
427.637	216.89
428.097	237.99
428.556	233.89
429.016	265.09
429.476	261.89
429.936	266.29
430.396	262.49
430.856	281.59
431.315	300.09
431.775	324.19
432.235	365.09
432.694	334.09
433.154	342.89
433.614	372.59
434.073	324.59
434.533	279.69
434.993	261.49
435.452	266.99
435.912	279.29
436.371	281.59
436.83	276.29
437.29	258.19
437.749	240.19
438.209	233.09
438.668	262.89
439.127	278.99
439.587	253.19
440.046	240.59
440.505	255.69
440.964	261.39
441.424	317.09
441.883	298.19
442.342	260.59
442.801	223.19
443.26	224.69
443.719	228.89
444.178	226.89
444.637	212.29
445.096	224.59
445.555	229.59
446.014	224.69
446.473	232.39
446.932	238.79
447.391	235.29
447.849	236.49
448.308	223.39
448.767	232.19
449.226	236.99
449.685	239.39
450.143	250.69
450.602	237.19
451.061	228.89
451.519	238.19
451.978	235.09
452.436	239.19
452.895	243.49
453.353	255.89
453.812	237.79
454.27	240.29
454.729	247.39
455.187	246.89
455.646	248.29
456.104	249.49
456.562	270.09
457.021	274.19
457.479	255.59
457.937	279.89
458.395	266.39
458.854	259.19
459.312	264.59
459.77	277.69
460.228	263.29
460.686	253.19
461.144	254.89
461.602	253.09
462.06	252.79
462.518	263.99
462.976	254.89
463.434	262.49
463.892	257.99
464.35	276.99
464.808	293.09
465.266	278.79
465.724	271.49
466.181	284.19
466.639	286.49
467.097	294.99
467.555	307.29
468.012	307.49
468.47	316.89
468.928	333.39
469.385	344.99
469.843	356.79
470.3	363.99
470.758	371.09
471.215	385.19
471.673	416.79
472.13	405.29
472.588	413.39
473.045	376.29
473.503	391.69
473.96	406.29
474.417	416.09
474.875	440.19
475.332	475.19
475.789	468.39
476.246	476.99
476.704	488.09
477.161	517.19
477.618	528.09
478.075	555.79
478.532	606.99
478.989	680.29
479.446	781.39
479.903	764.29
480.36	788.69
480.817	832.99
481.274	918.59
481.731	1004.39
482.188	1082.49
482.645	1209.19
483.102	1299.99
483.558	1411.29
484.015	1452.09
484.472	1437.09
484.929	1387.29
485.385	1344.59
485.842	1311.09
486.299	1264.79
486.755	1219.39
487.212	1048.69
487.668	896.99
488.125	834.69
488.582	761.39
489.038	739.79
489.494	704.19
489.951	682.69
490.407	653.99
490.864	651.39
491.32	649.99
491.776	638.89
492.233	651.79
492.689	619.89
493.145	607.79
493.602	601.29
494.058	619.29
494.514	610.69
494.97	643.29
495.426	656.59
495.882	625.69
496.338	624.59
496.794	627.69
497.251	626.19
497.707	643.19
498.163	633.49
498.618	645.39
499.074	638.69
499.53	669.09
499.986	675.99
500.442	643.69
500.898	629.89
501.354	626.99
501.809	626.49
502.265	641.69
502.721	641.99
503.177	647.69
503.632	652.19
504.088	654.89
504.543	676.79
504.999	703.89
505.455	655.49
505.91	655.29
506.366	656.29
506.821	644.09
507.277	648.99
507.732	636.49
508.187	651.69
508.643	662.39
509.098	658.59
509.553	673.89
510.009	676.69
510.464	688.69
510.919	716.89
511.375	712.79
511.83	716.29
512.285	737.89
512.74	764.59
513.195	792.39
513.65	778.69
514.105	771.39
514.56	788.19
515.015	795.19
515.47	806.59
515.925	794.89
516.38	799.09
516.835	803.79
517.29	785.19
517.745	788.29
518.2	788.09
518.655	767.09
519.109	767.19
519.564	756.29
520.019	750.99
520.474	739.09
520.928	745.59
521.383	738.29
521.838	727.49
522.292	729.49
522.747	724.39
523.201	722.19
523.656	721.39
524.11	718.09
524.565	719.19
525.019	710.39
525.474	719.29
525.928	708.49
526.382	713.49
526.837	712.89
527.291	713.29
527.745	727.59
528.2	707.89
528.654	700.09
529.108	709.69
529.562	710.99
530.016	708.89
530.47	703.99
530.925	711.99
531.379	708.59
531.833	713.69
532.287	718.19
532.741	723.49
533.195	718.09
533.649	730.29
534.103	724.19
534.556	713.79
535.01	718.89
535.464	717.19
535.918	718.49
536.372	730.89
536.826	732.19
537.279	716.29
537.733	727.79
538.187	732.09
538.64	721.39
539.094	736.79
539.548	751.99
540.001	744.29
540.455	740.39
540.908	751.89
541.362	750.19
541.815	758.89
542.269	780.59
542.722	779.39
543.175	784.49
543.629	794.29
544.082	811.39
544.536	813.39
544.989	805.09
545.442	809.89
545.895	805.99
546.349	811.79
546.802	830.89
547.255	833.59
547.708	833.29
548.161	848.09
548.614	855.99
549.067	853.89
549.52	840.69
549.973	839.09
550.426	832.09
550.879	809.69
551.332	819.69
551.785	827.39
552.238	839.69
552.691	839.09
553.144	854.59
553.596	877.69
554.049	892.09
554.502	911.79
554.955	943.29
555.407	934.59
555.86	928.99
556.313	924.79
556.765	910.19
557.218	911.19
557.67	905.39
558.123	898.29
558.576	901.09
559.028	897.39
559.48	912.09
559.933	898.79
560.385	874.19
560.838	833.59
561.29	817.59
561.742	813.79
562.195	790.29
562.647	802.59
563.099	799.89
563.551	793.29
564.004	802.29
564.456	805.39
564.908	783.99
565.36	762.59
565.812	749.59
566.264	753.39
566.716	742.39
567.168	729.19
567.62	728.59
568.072	727.29
568.524	715.59
568.976	711.39
569.428	701.59
569.88	700.59
570.332	704.09
570.784	723.79
571.235	703.49
571.687	720.79
572.139	732.19
572.59	737.29
573.042	728.69
573.494	732.79
573.945	726.49
574.397	704.29
574.849	712.29
575.3	712.19
575.752	704.79
576.203	698.99
576.655	708.39
577.106	691.49
577.557	681.29
578.009	687.19
578.46	689.29
578.912	684.99
579.363	688.19
579.814	683.99
580.265	684.89
580.717	691.49
581.168	694.29
581.619	702.19
582.07	706.89
582.521	697.09
582.972	693.99
583.423	689.89
583.875	697.39
584.326	695.59
584.777	719.09
585.227	734.39
585.678	746.39
586.129	761.99
586.58	791.69
587.031	809.29
587.482	839.69
587.933	859.99
588.384	845.09
588.834	815.99
589.285	799.79
589.736	803.59
590.186	798.19
590.637	789.19
591.088	767.89
591.538	764.79
591.989	756.59
592.439	752.99
592.89	736.99
593.34	732.89
593.791	729.99
594.241	720.49
594.692	726.89
595.142	721.39
595.593	714.79
596.043	729.69
596.493	733.99
596.943	726.59
597.394	747.39
597.844	754.19
598.294	759.39
598.744	789.69
599.195	805.59
599.645	853.89
600.095	903.19
600.545	954.49
600.995	1008.79
601.445	1056.89
601.895	1119.39
602.345	1168.99
602.795	1156.19
603.245	1100.49
603.695	1054.09
604.145	991.39
604.594	944.59
605.044	887.39
605.494	817.79
605.944	791.29
606.393	774.69
606.843	754.09
607.293	754.59
607.743	760.19
608.192	763.19
608.642	773.39
609.091	780.29
609.541	780.49
609.99	776.09
610.44	784.99
610.889	749.79
611.339	727.99
611.788	709.29
612.238	705.69
612.687	718.19
613.136	725.19
613.586	735.39
614.035	718.59
614.484	732.09
614.933	726.39
615.383	727.99
615.832	726.79
616.281	726.59
616.73	699.79
617.179	687.59
617.628	669.69
618.077	652.69
618.526	634.19
618.975	637.39
619.424	634.19
619.873	633.59
620.322	633.59
620.771	623.19
621.22	628.59
621.669	607.89
622.118	608.59
622.567	603.49
623.015	602.99
623.464	593.39
623.913	573.29
624.361	574.19
624.81	570.69
625.259	573.99
625.707	582.79
626.156	582.29
626.604	588.29
627.053	581.99
627.501	577.49
627.95	594.09
628.398	603.79
628.847	593.99
629.295	594.39
629.744	605.39
630.192	582.09
630.64	588.29
631.089	571.09
631.537	556.69
631.985	547.99
632.433	549.49
632.881	539.49
633.33	545.39
633.778	541.09
634.226	545.49
634.674	554.09
635.122	558.79
635.57	575.09
636.018	588.99
636.466	584.59
636.914	575.19
637.362	585.19
637.81	588.99
638.258	610.89
638.705	599.09
639.153	635.99
639.601	654.19
640.049	667.79
640.497	693.19
640.944	723.19
641.392	669.99
641.84	636.49
642.287	604.29
642.735	588.79
643.182	581.79
643.63	581.09
644.078	580.19
644.525	588.79
644.973	609.49
645.42	620.89
645.867	634.59
646.315	650.49
646.762	671.79
647.21	696.59
647.657	724.99
648.104	756.59
648.551	777.59
648.999	834.19
649.446	908.69
649.893	993.59
650.34	1140.99
650.787	1357.19
651.234	1685.89
651.682	2156.89
652.129	2949.39
652.576	4201.19
653.023	6119.99
653.47	8227.39
653.917	10147.39
654.363	11591.59
654.81	12701.19
655.257	12039.49
655.704	8000.59
656.151	4798.49
656.598	3155.09
657.044	2266.09
657.491	1760.39
657.938	1430.39
658.385	1211.59
658.831	1051.19
659.278	950.89
659.724	843.99
660.171	783.49
660.618	722.99
661.064	695.79
661.511	671.99
661.957	656.29
662.404	655.99
662.85	660.49
663.296	635.29
663.743	575.29
664.189	547.89
664.635	545.69
665.082	542.09
665.528	545.49
665.974	532.19
666.42	523.09
666.867	524.89
667.313	497.89
667.759	486.29
668.205	465.09
668.651	468.69
669.097	461.89
669.543	458.99
669.989	470.09
670.435	468.79
670.881	471.09
671.327	464.79
671.773	492.99
672.219	512.89
672.665	584.29
673.11	622.79
673.556	664.89
674.002	696.59
674.448	687.59
674.893	585.39
675.339	505.19
675.785	455.09
676.23	439.89
676.676	412.09
677.122	394.39
677.567	392.29
678.013	389.49
678.458	370.89
678.904	379.09
679.349	369.59
679.794	373.39
680.24	360.09
680.685	366.09
681.131	365.49
681.576	372.69
682.021	368.69
682.466	365.39
682.912	367.99
683.357	365.09
683.802	402.39
684.247	436.39
684.692	479.69
685.137	526.39
685.583	563.79
686.028	595.39
686.473	545.89
686.918	467.69
687.363	437.99
687.807	414.29
688.252	397.69
688.697	372.89
689.142	355.99
689.587	348.99
690.032	343.09
690.477	362.69
690.921	371.79
691.366	407.59
691.811	422.49
692.255	452.49
692.7	481.99
693.145	537.39
693.589	764.49
694.034	1244.79
694.478	1662.89
694.923	1847.99
695.367	2375.29
695.812	1266.49
696.256	532.79
696.701	393.79
697.145	361.79
697.59	343.49
698.034	338.49
698.478	348.99
698.922	341.29
699.367	341.49
699.811	353.39
700.255	389.39
700.699	407.69
701.143	452.79
701.588	498.89
702.032	542.59
702.476	543.59
702.92	517.79
703.364	528.69
703.808	701.89
704.252	1150.99
704.696	1578.39
705.14	1746.39
705.584	2233.49
706.027	1116.19
706.471	565.29
706.915	430.99
707.359	372.79
707.803	345.89
708.246	338.29
708.69	332.59
709.134	324.19
709.577	328.59
710.021	327.99
710.465	322.69
710.908	322.09
711.352	307.79
711.795	331.49
712.239	380.19
712.682	411.79
713.126	431.79
713.569	475.29
714.012	378.39
714.456	321.99
714.899	307.19
715.342	285.99
715.786	279.19
716.229	274.89
716.672	262.99
717.115	262.49
717.558	260.19
718.002	256.99
718.445	280.19
718.888	300.29
719.331	310.09
719.774	319.89
720.217	317.89
720.66	296.29
721.103	279.99
721.546	268.79
721.989	257.19
722.432	250.19
722.874	245.59
723.317	236.99
723.76	241.09
724.203	274.49
724.645	342.09
725.088	478.19
725.531	615.69
725.974	673.89
726.416	573.79
726.859	319.89
727.301	267.29
727.744	251.29
728.187	244.09
728.629	247.39
729.071	263.59
729.514	275.69
729.956	291.59
730.399	300.39
730.841	308.59
731.283	289.69
731.726	281.59
732.168	275.19
732.61	287.29
733.053	310.39
733.495	341.59
733.937	382.49
734.379	428.49
734.821	468.49
735.263	593.69
735.705	939.99
736.148	1762.99
736.59	2809.99
737.032	3216.89
737.474	2641.49
737.916	867.79
738.357	450.59
738.799	348.49
739.241	318.89
739.683	294.89
740.125	312.39
740.567	315.39
741.008	332.39
741.45	337.89
741.892	336.19
742.334	370.79
742.775	382.99
743.217	361.89
743.658	289.29
744.1	275.89
744.542	283.49
744.983	335.89
745.425	374.69
745.866	361.79
746.307	296.69
746.749	302.29
747.19	351.59
747.632	511.99
748.073	999.59
748.514	2075.09
748.956	3056.79
749.397	3878.99
749.838	3218.69
750.279	3102.99
750.72	1597.99
751.162	599.79
751.603	342.99
752.044	264.89
752.485	229.29
752.926	220.19
753.367	207.39
753.808	205.79
754.249	204.49
754.69	196.19
755.131	194.59
755.572	189.69
756.013	191.79
756.453	193.39
756.894	197.79
757.335	206.89
757.776	211.89
758.216	204.79
758.657	207.39
759.098	213.29
759.538	240.69
759.979	291.49
760.42	411.19
760.86	803.29
761.301	2114.09
761.741	4937.89
762.182	6739.29
762.622	4763.99
763.063	1414.59
