Data from 20171114-ORNL-Ar_H_NY_Subt18_08-07-09-051.txt Node
Date: Tue Nov 14 08:07:09 EST 2017
User: Ender
Spectrometer: HR+D1039
Trigger mode: 0
Integration Time (sec): 2.730000E-2
Scans to average: 10
Electric dark correction enabled: true
Nonlinearity correction enabled: false
Boxcar width: 0
XAxis mode: Wavelengths
Number of Pixels in Spectrum: 2048
>>>>>Begin Spectral Data<<<<<
187.836	-3.04
188.309	-3.04
188.782	-3.04
189.255	-3.84
189.728	0.96
190.201	4.76
190.674	-0.34
191.147	2.66
191.619	-5.54
192.092	-0.84
192.565	1.26
193.038	-1.04
193.511	-2.24
193.984	5.06
194.456	0.66
194.929	5.66
195.402	-0.64
195.874	-3.54
196.347	-4.74
196.82	-6.84
197.292	3.46
197.765	-2.94
198.237	-3.64
198.71	2.06
199.182	-0.04
199.655	-0.94
200.127	3.06
200.6	-2.24
201.072	-5.54
201.544	-3.54
202.017	-7.84
202.489	-0.64
202.961	-6.54
203.433	-9.14
203.906	-11.14
204.378	-10.44
204.85	-4.34
205.322	-11.64
205.794	0.16
206.266	-3.04
206.739	-7.84
207.211	-4.64
207.683	-7.84
208.155	-5.04
208.627	-3.04
209.099	-6.74
209.57	-5.54
210.042	-4.14
210.514	-7.84
210.986	-0.04
211.458	-10.24
211.93	-4.24
212.402	4.46
212.873	-9.24
213.345	-12.64
213.817	-10.54
214.288	-4.24
214.76	-17.04
215.232	-5.34
215.703	-3.94
216.175	-6.64
216.646	-12.74
217.118	-5.34
217.589	-2.84
218.061	-5.14
218.532	-9.54
219.004	-0.24
219.475	-2.24
219.946	-4.04
220.418	-8.34
220.889	-1.74
221.36	-6.14
221.832	-5.84
222.303	-12.44
222.774	-3.34
223.245	-5.14
223.717	-7.84
224.188	-4.54
224.659	-5.84
225.13	-10.84
225.601	-4.74
226.072	0.06
226.543	-1.44
227.014	0.16
227.485	-0.34
227.956	-10.44
228.427	-3.74
228.898	-1.34
229.369	2.66
229.839	-4.94
230.31	-7.74
230.781	6.36
231.252	-6.24
231.722	-9.54
232.193	-7.34
232.664	-6.24
233.135	-5.04
233.605	-1.14
234.076	-6.54
234.546	-1.94
235.017	-3.34
235.487	-5.34
235.958	-5.24
236.428	-3.64
236.899	-1.24
237.369	-3.34
237.84	-11.44
238.31	-5.54
238.78	-4.94
239.251	-5.94
239.721	-5.64
240.191	-6.24
240.662	-4.34
241.132	-1.64
241.602	-4.74
242.072	-8.04
242.542	-3.44
243.013	-3.14
243.483	-1.84
243.953	4.16
244.423	-4.14
244.893	-9.74
245.363	0.86
245.833	0.46
246.303	-12.84
246.773	-1.64
247.243	-2.74
247.712	-6.84
248.182	7.26
248.652	-0.24
249.122	-10.04
249.592	-5.14
250.061	2.76
250.531	3.66
251.001	-0.04
251.471	0.86
251.94	3.56
252.41	-3.04
252.879	-11.84
253.349	8.86
253.818	0.86
254.288	1.56
254.757	-2.14
255.227	-6.54
255.696	-1.64
256.166	-6.44
256.635	0.66
257.105	2.66
257.574	-1.74
258.043	0.56
258.513	-0.54
258.982	-1.34
259.451	-13.04
259.92	4.36
260.389	0.56
260.859	6.86
261.328	-5.54
261.797	0.46
262.266	-1.14
262.735	4.16
263.204	-0.94
263.673	-3.34
264.142	5.96
264.611	-3.24
265.08	-3.24
265.549	-5.14
266.018	-3.24
266.487	-5.74
266.955	-3.14
267.424	-4.84
267.893	4.56
268.362	-7.04
268.83	-4.24
269.299	5.06
269.768	3.06
270.236	-1.54
270.705	0.26
271.174	-0.84
271.642	-6.04
272.111	3.26
272.579	0.46
273.048	1.86
273.516	0.56
273.985	5.76
274.453	-0.04
274.922	3.76
275.39	6.46
275.858	-8.04
276.327	6.06
276.795	3.66
277.263	-1.54
277.731	9.66
278.2	4.26
278.668	3.16
279.136	5.96
279.604	-0.14
280.072	1.26
280.54	5.16
281.008	1.76
281.477	13.36
281.945	8.36
282.413	9.56
282.881	11.46
283.348	4.36
283.816	10.46
284.284	9.86
284.752	11.76
285.22	7.96
285.688	11.56
286.156	5.26
286.623	16.06
287.091	3.76
287.559	11.96
288.026	7.16
288.494	10.16
288.962	-1.54
289.429	4.86
289.897	8.16
290.364	9.56
290.832	9.16
291.3	3.96
291.767	7.66
292.234	8.16
292.702	4.56
293.169	11.46
293.637	13.66
294.104	19.66
294.571	3.36
295.039	8.36
295.506	9.16
295.973	12.56
296.44	6.36
296.908	12.76
297.375	7.06
297.842	2.16
298.309	8.86
298.776	2.46
299.243	17.06
299.71	10.16
300.177	17.26
300.644	13.26
301.111	10.56
301.578	15.96
302.045	7.46
302.512	20.96
302.979	18.06
303.446	8.16
303.913	14.56
304.379	12.06
304.846	17.56
305.313	18.06
305.78	14.76
306.246	14.26
306.713	16.46
307.18	17.76
307.646	16.76
308.113	21.86
308.579	17.86
309.046	24.26
309.512	16.36
309.979	12.46
310.445	14.26
310.912	20.26
311.378	27.36
311.845	21.66
312.311	19.86
312.777	27.16
313.244	16.06
313.71	24.36
314.176	23.46
314.642	19.96
315.109	19.16
315.575	22.56
316.041	28.76
316.507	19.26
316.973	27.46
317.439	29.56
317.905	22.96
318.371	24.46
318.837	26.76
319.303	29.56
319.769	26.16
320.235	21.06
320.701	24.66
321.167	26.26
321.633	22.66
322.099	27.36
322.564	30.86
323.03	26.76
323.496	19.36
323.962	30.16
324.427	28.56
324.893	37.66
325.359	26.96
325.824	27.46
326.29	32.26
326.755	29.66
327.221	27.36
327.686	33.06
328.152	41.16
328.617	32.66
329.083	39.66
329.548	45.16
330.014	39.06
330.479	39.26
330.944	32.16
331.41	32.56
331.875	39.06
332.34	32.36
332.805	29.86
333.271	36.26
333.736	30.56
334.201	35.66
334.666	42.46
335.131	42.26
335.596	41.86
336.061	37.46
336.526	31.46
336.991	41.26
337.456	48.46
337.921	36.26
338.386	36.16
338.851	31.96
339.316	43.56
339.781	39.66
340.246	41.86
340.711	32.66
341.175	43.96
341.64	42.66
342.105	40.76
342.569	45.86
343.034	49.36
343.499	43.26
343.963	44.66
344.428	51.86
344.893	54.26
345.357	51.26
345.822	49.46
346.286	60.56
346.751	65.56
347.215	56.86
347.679	59.36
348.144	74.26
348.608	72.16
349.073	58.56
349.537	67.46
350.001	65.56
350.465	67.66
350.93	68.16
351.394	68.56
351.858	62.16
352.322	75.86
352.786	70.96
353.25	82.76
353.715	95.76
354.179	86.16
354.643	97.86
355.107	99.36
355.571	85.66
356.035	85.46
356.498	95.06
356.962	95.36
357.426	102.86
357.89	94.56
358.354	79.06
358.818	73.06
359.281	73.46
359.745	66.16
360.209	70.26
360.673	66.36
361.136	72.86
361.6	78.96
362.064	76.86
362.527	68.16
362.991	77.56
363.454	70.06
363.918	66.86
364.381	73.16
364.845	71.86
365.308	78.86
365.772	82.76
366.235	82.96
366.698	76.86
367.162	75.76
367.625	73.66
368.088	75.36
368.552	75.76
369.015	76.16
369.478	84.66
369.941	88.66
370.404	83.46
370.867	87.66
371.331	92.06
371.794	96.36
372.257	92.96
372.72	96.86
373.183	93.26
373.646	82.66
374.109	83.86
374.572	93.66
375.035	87.86
375.497	92.96
375.96	89.56
376.423	90.46
376.886	106.36
377.349	106.16
377.811	90.56
378.274	92.36
378.737	98.76
379.199	101.16
379.662	97.86
380.125	99.96
380.587	97.46
381.05	101.56
381.512	111.06
381.975	113.36
382.437	111.16
382.9	104.46
383.362	118.36
383.825	121.46
384.287	121.56
384.75	113.56
385.212	117.46
385.674	126.56
386.136	121.66
386.599	114.76
387.061	119.26
387.523	112.26
387.985	121.06
388.447	126.16
388.91	117.26
389.372	122.66
389.834	125.56
390.296	121.66
390.758	127.76
391.22	124.16
391.682	143.96
392.144	145.76
392.606	139.96
393.068	143.66
393.529	150.96
393.991	134.16
394.453	126.66
394.915	127.96
395.377	129.96
395.838	135.46
396.3	137.86
396.762	133.66
397.224	129.56
397.685	130.16
398.147	123.16
398.608	126.16
399.07	126.86
399.531	129.86
399.993	146.16
400.454	156.06
400.916	143.96
401.377	145.56
401.839	146.36
402.3	144.66
402.762	163.56
403.223	176.96
403.684	162.66
404.145	164.46
404.607	155.76
405.068	161.66
405.529	161.66
405.99	175.96
406.451	172.56
406.913	174.16
407.374	163.06
407.835	160.86
408.296	169.16
408.757	166.66
409.218	178.46
409.679	176.26
410.14	175.66
410.601	176.16
411.062	178.56
411.522	172.96
411.983	174.86
412.444	174.56
412.905	180.16
413.366	180.76
413.826	197.96
414.287	217.06
414.748	268.46
415.208	254.06
415.669	214.26
416.13	213.26
416.59	217.06
417.051	220.96
417.511	218.36
417.972	244.96
418.432	253.66
418.893	297.46
419.353	250.36
419.814	201.66
420.274	182.86
420.734	175.26
421.195	196.66
421.655	193.36
422.115	195.86
422.576	199.06
423.036	202.96
423.496	214.76
423.956	225.66
424.416	235.46
424.876	274.16
425.336	266.66
425.797	261.16
426.257	257.06
426.717	242.56
427.177	229.46
427.637	224.76
428.097	241.16
428.556	246.16
429.016	271.66
429.476	262.26
429.936	275.66
430.396	273.26
430.856	290.06
431.315	312.76
431.775	348.06
432.235	377.66
432.694	350.46
433.154	358.56
433.614	379.26
434.073	328.26
434.533	282.96
434.993	264.26
435.452	286.56
435.912	291.46
436.371	283.36
436.83	276.76
437.29	263.36
437.749	238.56
438.209	252.66
438.668	279.46
439.127	294.96
439.587	270.36
440.046	253.26
440.505	265.36
440.964	281.96
441.424	323.56
441.883	308.56
442.342	268.26
442.801	237.66
443.26	229.16
443.719	231.26
444.178	225.56
444.637	219.16
445.096	227.46
445.555	238.66
446.014	233.06
446.473	240.16
446.932	238.96
447.391	240.26
447.849	244.06
448.308	234.26
448.767	236.26
449.226	242.06
449.685	246.06
450.143	259.66
450.602	249.36
451.061	232.96
451.519	244.26
451.978	241.46
452.436	243.16
452.895	250.36
453.353	260.06
453.812	256.06
454.27	250.86
454.729	252.76
455.187	251.56
455.646	249.66
456.104	254.86
456.562	268.36
457.021	274.76
457.479	269.66
457.937	286.46
458.395	276.36
458.854	263.46
459.312	261.36
459.77	288.16
460.228	261.66
460.686	259.26
461.144	264.26
461.602	253.46
462.06	258.36
462.518	269.76
462.976	264.56
463.434	274.26
463.892	274.56
464.35	283.46
464.808	302.36
465.266	274.16
465.724	285.06
466.181	293.66
466.639	285.76
467.097	310.06
467.555	316.06
468.012	323.86
468.47	327.26
468.928	347.86
469.385	365.16
469.843	368.46
470.3	369.16
470.758	373.96
471.215	400.86
471.673	428.36
472.13	427.06
472.588	437.36
473.045	387.06
473.503	406.76
473.96	413.06
474.417	420.76
474.875	455.66
475.332	489.56
475.789	492.26
476.246	492.06
476.704	508.56
477.161	526.46
477.618	547.16
478.075	575.66
478.532	642.36
478.989	706.26
479.446	800.46
479.903	775.56
480.36	820.86
480.817	853.66
481.274	966.96
481.731	1048.36
482.188	1127.66
482.645	1239.36
483.102	1345.66
483.558	1466.46
484.015	1494.46
484.472	1476.86
484.929	1435.66
485.385	1393.76
485.842	1357.36
486.299	1307.76
486.755	1264.26
487.212	1079.96
487.668	935.16
488.125	864.56
488.582	805.86
489.038	761.56
489.494	726.66
489.951	711.06
490.407	689.96
490.864	678.16
491.32	660.86
491.776	668.16
492.233	668.26
492.689	641.86
493.145	638.56
493.602	628.86
494.058	641.56
494.514	640.06
494.97	656.56
495.426	676.66
495.882	664.36
496.338	640.16
496.794	661.16
497.251	656.16
497.707	655.96
498.163	662.06
498.618	668.06
499.074	660.66
499.53	694.36
499.986	695.56
500.442	675.66
500.898	647.76
501.354	646.46
501.809	656.26
502.265	660.26
502.721	660.46
503.177	669.26
503.632	676.06
504.088	670.76
504.543	703.96
504.999	726.96
505.455	693.46
505.91	668.86
506.366	666.96
506.821	663.86
507.277	671.56
507.732	664.16
508.187	671.66
508.643	679.66
509.098	670.86
509.553	690.46
510.009	706.16
510.464	704.96
510.919	723.76
511.375	746.16
511.83	749.96
512.285	756.86
512.74	797.46
513.195	815.66
513.65	801.66
514.105	806.66
514.56	819.16
515.015	834.06
515.47	851.46
515.925	825.56
516.38	823.36
516.835	836.66
517.29	825.26
517.745	828.46
518.2	812.26
518.655	798.86
519.109	784.06
519.564	786.76
520.019	775.96
520.474	776.26
520.928	777.86
521.383	761.56
521.838	742.46
522.292	754.16
522.747	758.56
523.201	755.16
523.656	747.06
524.11	743.26
524.565	743.56
525.019	730.46
525.474	742.46
525.928	730.96
526.382	736.36
526.837	733.16
527.291	742.46
527.745	739.56
528.2	739.16
528.654	740.76
529.108	727.16
529.562	728.26
530.016	720.76
530.47	729.76
530.925	728.76
531.379	729.46
531.833	731.56
532.287	735.86
532.741	742.16
533.195	740.56
533.649	750.26
534.103	752.36
534.556	749.96
535.01	749.96
535.464	738.66
535.918	752.96
536.372	750.56
536.826	748.46
537.279	745.76
537.733	750.16
538.187	748.66
538.64	755.26
539.094	765.06
539.548	766.66
540.001	767.96
540.455	768.26
540.908	781.16
541.362	780.76
541.815	791.16
542.269	807.36
542.722	802.46
543.175	801.06
543.629	818.06
544.082	832.86
544.536	835.26
544.989	832.56
545.442	844.46
545.895	840.16
546.349	846.86
546.802	843.66
547.255	844.16
547.708	858.16
548.161	867.46
548.614	874.96
549.067	884.86
549.52	862.46
549.973	855.06
550.426	856.46
550.879	848.86
551.332	846.76
551.785	860.76
552.238	856.46
552.691	871.36
553.144	884.96
553.596	902.36
554.049	913.06
554.502	941.96
554.955	957.76
555.407	966.96
555.86	959.76
556.313	944.66
556.765	942.96
557.218	937.16
557.67	935.96
558.123	929.76
558.576	918.16
559.028	930.66
559.48	938.56
559.933	923.76
560.385	884.56
560.838	867.06
561.29	831.16
561.742	830.16
562.195	815.06
562.647	817.46
563.099	824.76
563.551	809.66
564.004	825.36
564.456	823.56
564.908	802.46
565.36	783.56
565.812	775.26
566.264	769.16
566.716	763.66
567.168	731.16
567.62	751.76
568.072	738.36
568.524	737.36
568.976	727.96
569.428	714.36
569.88	719.46
570.332	720.26
570.784	734.66
571.235	729.36
571.687	742.46
572.139	747.76
572.59	751.06
573.042	758.16
573.494	750.26
573.945	745.36
574.397	733.36
574.849	724.06
575.3	736.06
575.752	725.46
576.203	720.36
576.655	730.26
577.106	720.86
577.557	701.86
578.009	703.86
578.46	701.36
578.912	700.56
579.363	706.56
579.814	703.86
580.265	700.26
580.717	713.16
581.168	695.26
581.619	717.16
582.07	720.06
582.521	703.86
582.972	706.96
583.423	716.76
583.875	714.96
584.326	715.46
584.777	733.26
585.227	754.76
585.678	774.56
586.129	772.06
586.58	807.76
587.031	826.86
587.482	856.66
587.933	877.56
588.384	857.66
588.834	836.56
589.285	807.66
589.736	815.86
590.186	816.66
590.637	805.86
591.088	784.46
591.538	777.96
591.989	770.86
592.439	768.76
592.89	751.26
593.34	751.36
593.791	750.36
594.241	751.26
594.692	732.26
595.142	724.96
595.593	728.06
596.043	749.36
596.493	751.96
596.943	743.26
597.394	751.86
597.844	755.46
598.294	770.36
598.744	802.76
599.195	826.96
599.645	859.66
600.095	913.16
600.545	961.86
600.995	1020.16
601.445	1076.36
601.895	1151.56
602.345	1194.76
602.795	1181.06
603.245	1128.66
603.695	1073.96
604.145	1011.46
604.594	965.56
605.044	908.46
605.494	848.46
605.944	791.96
606.393	779.96
606.843	766.86
607.293	761.16
607.743	767.16
608.192	776.06
608.642	785.06
609.091	795.06
609.541	792.96
609.99	801.16
610.44	792.96
610.889	755.46
611.339	737.96
611.788	716.16
612.238	722.56
612.687	735.06
613.136	730.56
613.586	736.26
614.035	718.06
614.484	744.76
614.933	729.86
615.383	746.86
615.832	730.46
616.281	727.86
616.73	708.86
617.179	682.96
617.628	670.26
618.077	659.66
618.526	642.76
618.975	647.56
619.424	646.06
619.873	643.36
620.322	647.76
620.771	637.86
621.22	629.16
621.669	616.16
622.118	613.96
622.567	610.06
623.015	591.66
623.464	598.46
623.913	587.46
624.361	573.76
624.81	576.16
625.259	578.16
625.707	579.26
626.156	574.66
626.604	592.76
627.053	585.76
627.501	588.76
627.95	596.16
628.398	603.76
628.847	596.76
629.295	599.46
629.744	599.36
630.192	595.46
630.64	596.86
631.089	569.06
631.537	567.86
631.985	555.86
632.433	558.16
632.881	542.06
633.33	560.86
633.778	539.56
634.226	546.46
634.674	555.86
635.122	563.16
635.57	569.16
636.018	580.46
636.466	587.06
636.914	577.16
637.362	596.26
637.81	603.46
638.258	613.76
638.705	603.96
639.153	637.26
639.601	652.76
640.049	674.46
640.497	699.96
640.944	723.76
641.392	674.96
641.84	632.76
642.287	606.26
642.735	591.06
643.182	589.56
643.63	582.86
644.078	594.76
644.525	596.26
644.973	597.56
645.42	609.96
645.867	631.26
646.315	649.56
646.762	676.06
647.21	702.46
647.657	727.56
648.104	762.96
648.551	791.86
648.999	835.86
649.446	921.66
649.893	1010.76
650.34	1131.36
650.787	1367.06
651.234	1667.86
651.682	2157.46
652.129	2912.46
652.576	4117.16
653.023	6054.26
653.47	8185.86
653.917	10169.46
654.363	11680.06
654.81	12902.36
655.257	12217.86
655.704	8097.46
656.151	4888.76
656.598	3202.96
657.044	2298.96
657.491	1775.76
657.938	1440.86
658.385	1217.56
658.831	1059.26
659.278	954.46
659.724	856.76
660.171	798.76
660.618	730.56
661.064	693.26
661.511	679.76
661.957	655.16
662.404	651.66
662.85	657.06
663.296	631.66
663.743	577.66
664.189	559.66
664.635	546.86
665.082	547.96
665.528	537.76
665.974	526.56
666.42	523.16
666.867	519.06
667.313	505.56
667.759	487.36
668.205	471.86
668.651	477.56
669.097	459.86
669.543	462.56
669.989	453.16
670.435	453.46
670.881	461.86
671.327	471.96
671.773	487.76
672.219	513.16
672.665	568.96
673.11	611.56
673.556	661.76
674.002	703.06
674.448	685.16
674.893	581.16
675.339	501.36
675.785	463.26
676.23	441.96
676.676	412.36
677.122	406.46
677.567	388.66
678.013	384.76
678.458	378.16
678.904	380.66
679.349	372.76
679.794	371.16
680.24	368.86
680.685	365.86
681.131	357.16
681.576	364.66
682.021	374.26
682.466	365.26
682.912	366.26
683.357	364.56
683.802	397.26
684.247	436.06
684.692	480.06
685.137	522.96
685.583	559.06
686.028	588.26
686.473	553.06
686.918	474.76
687.363	440.96
687.807	408.86
688.252	390.16
688.697	370.66
689.142	351.06
689.587	349.96
690.032	341.16
690.477	355.26
690.921	358.46
691.366	405.16
691.811	424.86
692.255	451.56
692.7	476.96
693.145	531.26
693.589	738.16
694.034	1211.96
694.478	1635.96
694.923	1851.06
695.367	2392.96
695.812	1264.36
696.256	520.56
696.701	390.56
697.145	369.36
697.59	339.56
698.034	327.26
698.478	337.16
698.922	335.96
699.367	339.06
699.811	349.16
700.255	367.76
700.699	398.96
701.143	443.36
701.588	497.16
702.032	544.56
702.476	543.06
702.92	523.46
703.364	524.36
703.808	673.26
704.252	1103.76
704.696	1550.46
705.14	1767.56
705.584	2254.26
706.027	1126.66
706.471	541.96
706.915	415.46
707.359	370.36
707.803	337.66
708.246	326.16
708.69	326.96
709.134	330.06
709.577	324.76
710.021	331.46
710.465	318.46
710.908	306.06
711.352	300.26
711.795	326.76
712.239	372.06
712.682	396.26
713.126	434.96
713.569	474.16
714.012	375.96
714.456	315.86
714.899	305.36
715.342	283.26
715.786	276.36
716.229	263.56
716.672	266.96
717.115	261.76
717.558	257.26
718.002	257.36
718.445	275.06
718.888	295.66
719.331	300.66
719.774	328.06
720.217	318.46
720.66	293.96
721.103	285.36
721.546	268.96
721.989	258.16
722.432	246.36
722.874	249.96
723.317	242.06
723.76	246.36
724.203	267.06
724.645	332.06
725.088	471.46
725.531	596.76
725.974	675.16
726.416	577.26
726.859	328.96
727.301	260.26
727.744	244.46
728.187	240.16
728.629	246.06
729.071	255.06
729.514	268.56
729.956	289.66
730.399	294.36
730.841	296.46
731.283	290.76
731.726	279.26
732.168	265.86
732.61	273.86
733.053	298.06
733.495	337.06
733.937	372.66
734.379	421.36
734.821	469.56
735.263	582.66
735.705	890.86
736.148	1696.16
736.59	2753.46
737.032	3265.86
737.474	2653.56
737.916	864.96
738.357	454.66
738.799	338.46
739.241	305.46
739.683	296.66
740.125	302.46
740.567	306.76
741.008	337.66
741.45	337.16
741.892	331.76
742.334	369.86
742.775	382.06
743.217	361.76
743.658	288.86
744.1	269.66
744.542	279.36
744.983	335.86
745.425	366.76
745.866	366.26
746.307	292.86
746.749	282.46
747.19	340.76
747.632	479.76
748.073	944.36
748.514	1999.86
748.956	3044.36
749.397	3810.86
749.838	3157.96
750.279	3152.66
750.72	1590.16
751.162	577.26
751.603	339.46
752.044	261.96
752.485	225.96
752.926	219.16
753.367	212.86
753.808	200.56
754.249	200.46
754.69	192.96
755.131	193.46
755.572	192.26
756.013	191.76
756.453	195.06
756.894	197.86
757.335	198.36
757.776	196.46
758.216	197.36
758.657	205.56
759.098	212.56
759.538	242.96
759.979	277.36
760.42	399.36
760.86	753.96
761.301	1978.16
761.741	4763.46
762.182	6835.76
762.622	4851.46
763.063	1395.56
