Data from 20171114-ORNL-Ar_H_NY_Subt18_08-09-03-760.txt Node
Date: Tue Nov 14 08:09:03 EST 2017
User: Ender
Spectrometer: HR+D1039
Trigger mode: 0
Integration Time (sec): 2.730000E-2
Scans to average: 10
Electric dark correction enabled: true
Nonlinearity correction enabled: false
Boxcar width: 0
XAxis mode: Wavelengths
Number of Pixels in Spectrum: 2048
>>>>>Begin Spectral Data<<<<<
187.836	-0.8
188.309	-0.8
188.782	-0.8
189.255	3.3
189.728	-4.9
190.201	4.9
190.674	-5.1
191.147	3.6
191.619	-8.2
192.092	6
192.565	6.9
193.038	-2.8
193.511	-1.1
193.984	3.8
194.456	1.2
194.929	-0.1
195.402	-5.7
195.874	-1
196.347	-0.8
196.82	-7.5
197.292	9.3
197.765	-2
198.237	-4.8
198.71	-1
199.182	-2.2
199.655	1.4
200.127	6.1
200.6	-2.2
201.072	-3.8
201.544	-4.9
202.017	-1.9
202.489	3.3
202.961	-1.5
203.433	-4.5
203.906	-9.2
204.378	-9.8
204.85	-9.3
205.322	-11
205.794	-6.8
206.266	-3.2
206.739	-6.2
207.211	-0.9
207.683	-7.6
208.155	-7.6
208.627	-9.4
209.099	1
209.57	-5.1
210.042	-10.9
210.514	-4.2
210.986	-7.5
211.458	-10.9
211.93	-8.4
212.402	-2
212.873	-7
213.345	-12.1
213.817	-12.8
214.288	-2
214.76	-6.7
215.232	-2.8
215.703	-5.6
216.175	-4.2
216.646	-1
217.118	-5.6
217.589	-3.8
218.061	-5.6
218.532	-2.4
219.004	-2.5
219.475	-11
219.946	-1.4
220.418	-4.6
220.889	2.7
221.36	0.3
221.832	-4.5
222.303	-9.1
222.774	1.3
223.245	-9.8
223.717	-5.7
224.188	-8.5
224.659	-10.9
225.13	-7.7
225.601	-6.2
226.072	-3.2
226.543	-2.7
227.014	4.1
227.485	-1.8
227.956	-6.2
228.427	-3.9
228.898	1.8
229.369	0.5
229.839	-8.4
230.31	-11.7
230.781	2.5
231.252	-3.2
231.722	-4.9
232.193	-4.7
232.664	-6
233.135	-1.1
233.605	-8.6
234.076	-7.8
234.546	-4.6
235.017	-1.7
235.487	-3.5
235.958	-7.7
236.428	-2.8
236.899	-5.1
237.369	-0.7
237.84	-6.3
238.31	-3.8
238.78	-5.1
239.251	-12
239.721	-3.9
240.191	-8.4
240.662	-8.4
241.132	-7.7
241.602	-2.3
242.072	-1.5
242.542	-3.7
243.013	-1.8
243.483	-3.5
243.953	-3.4
244.423	-8.4
244.893	-12.2
245.363	-0.7
245.833	1.1
246.303	-9.9
246.773	-3.9
247.243	-2.2
247.712	-2.2
248.182	1.1
248.652	-2.3
249.122	-8.3
249.592	-0.2
250.061	-0
250.531	6.9
251.001	1
251.471	3.2
251.94	5.4
252.41	-0.7
252.879	-5.6
253.349	7.9
253.818	1.4
254.288	3.9
254.757	1.2
255.227	-6.8
255.696	-2.6
256.166	-2.5
256.635	0.7
257.105	-1.5
257.574	-2.7
258.043	-2.5
258.513	-6.9
258.982	-1.7
259.451	-11.2
259.92	4
260.389	1.1
260.859	4.7
261.328	1.2
261.797	-1
262.266	-3.2
262.735	5.2
263.204	-2.5
263.673	-2
264.142	9.7
264.611	-8.1
265.08	-5.2
265.549	-9.6
266.018	5.2
266.487	-3.3
266.955	-3.5
267.424	-2.8
267.893	-5.6
268.362	-5.8
268.83	-3.2
269.299	11.6
269.768	-5.7
270.236	-0.3
270.705	-4.5
271.174	-0.1
271.642	0.4
272.111	-0.7
272.579	-1.9
273.048	4.7
273.516	2
273.985	3.4
274.453	10.9
274.922	11.6
275.39	-3.5
275.858	-3.8
276.327	10.8
276.795	7.4
277.263	-4.5
277.731	10
278.2	8
278.668	9
279.136	12.3
279.604	3.1
280.072	7.7
280.54	3.4
281.008	-1.9
281.477	6.6
281.945	8.5
282.413	5.4
282.881	11.9
283.348	-0.6
283.816	6.6
284.284	1.6
284.752	10.4
285.22	7.5
285.688	7.2
286.156	9.8
286.623	12.5
287.091	11.5
287.559	10.3
288.026	8.6
288.494	7.4
288.962	-2.4
289.429	1.3
289.897	12.8
290.364	5.6
290.832	9
291.3	4
291.767	9.9
292.234	15.4
292.702	3.3
293.169	11.4
293.637	10.6
294.104	13.1
294.571	0.3
295.039	1.5
295.506	8.2
295.973	3.8
296.44	7.2
296.908	7.7
297.375	7.4
297.842	11.2
298.309	5.6
298.776	6.2
299.243	14.2
299.71	3.4
300.177	16.3
300.644	14.3
301.111	12.2
301.578	13.9
302.045	10.3
302.512	12.7
302.979	12.4
303.446	11.4
303.913	15.8
304.379	5.5
304.846	16.7
305.313	13.3
305.78	17.9
306.246	17
306.713	21
307.18	14.6
307.646	13.4
308.113	18.2
308.579	13.9
309.046	12.6
309.512	16.6
309.979	12.9
310.445	24
310.912	17.1
311.378	27.9
311.845	21.4
312.311	19.8
312.777	23.3
313.244	21
313.71	28.3
314.176	23.8
314.642	19.8
315.109	18.8
315.575	23
316.041	25.9
316.507	19.8
316.973	27.7
317.439	21
317.905	26.2
318.371	23.3
318.837	23.1
319.303	23.6
319.769	23.9
320.235	20.7
320.701	27.9
321.167	24.2
321.633	22.7
322.099	26.2
322.564	32.9
323.03	25.6
323.496	31
323.962	26.7
324.427	27.9
324.893	33.8
325.359	29.1
325.824	27.3
326.29	27.8
326.755	30.1
327.221	31.1
327.686	32
328.152	36.1
328.617	31.9
329.083	31.6
329.548	37
330.014	37.8
330.479	29.3
330.944	30.2
331.41	30.3
331.875	31.5
332.34	33
332.805	28.5
333.271	35.9
333.736	28.8
334.201	43.4
334.666	36.7
335.131	43.2
335.596	40.6
336.061	38.3
336.526	32.2
336.991	37.3
337.456	44.8
337.921	35
338.386	35.1
338.851	40.4
339.316	34.3
339.781	33.2
340.246	35.5
340.711	40.2
341.175	45.4
341.64	38.9
342.105	33.9
342.569	41.8
343.034	44.5
343.499	50.7
343.963	42.4
344.428	52.6
344.893	54.6
345.357	53.3
345.822	47.8
346.286	54
346.751	61.3
347.215	51.9
347.679	62.5
348.144	72
348.608	65.9
349.073	54
349.537	56.2
350.001	60.4
350.465	73.6
350.93	61.2
351.394	71
351.858	53.1
352.322	74.3
352.786	64.7
353.25	76.9
353.715	85.4
354.179	81.3
354.643	93.9
355.107	98.7
355.571	85.9
356.035	78.8
356.498	94.5
356.962	92.6
357.426	102.3
357.89	86.6
358.354	70.1
358.818	70.5
359.281	67.6
359.745	57.4
360.209	60.6
360.673	54.9
361.136	68.2
361.6	69
362.064	66.6
362.527	68.3
362.991	82.7
363.454	65.7
363.918	60.3
364.381	73.7
364.845	74.3
365.308	75.6
365.772	74.8
366.235	76.3
366.698	71.5
367.162	71.1
367.625	74.3
368.088	71.1
368.552	76.6
369.015	71.9
369.478	77.5
369.941	84.8
370.404	82.8
370.867	90.5
371.331	90.4
371.794	94.7
372.257	84.3
372.72	96.7
373.183	83.5
373.646	88.6
374.109	88.3
374.572	91.4
375.035	94.8
375.497	92.6
375.96	88
376.423	89.9
376.886	98.6
377.349	91.2
377.811	91.8
378.274	95.1
378.737	100.3
379.199	93.8
379.662	91.6
380.125	98.2
380.587	95.1
381.05	103.5
381.512	103.9
381.975	114.4
382.437	105.2
382.9	108.3
383.362	112.8
383.825	118.3
384.287	119.4
384.75	110.1
385.212	114
385.674	124.6
386.136	126.3
386.599	111.7
387.061	107.7
387.523	117
387.985	120.1
388.447	123
388.91	115.2
389.372	122.8
389.834	120.4
390.296	121.9
390.758	125.8
391.22	127.5
391.682	148.5
392.144	151.1
392.606	144.1
393.068	128.9
393.529	139.4
393.991	128.6
394.453	125
394.915	121.1
395.377	128.3
395.838	136.6
396.3	134.4
396.762	135
397.224	125.2
397.685	124.7
398.147	125.5
398.608	125.8
399.07	117.8
399.531	136.3
399.993	138.8
400.454	144.4
400.916	135.6
401.377	133.3
401.839	146.4
402.3	146.1
402.762	156.7
403.223	163.8
403.684	163.4
404.145	162
404.607	151.2
405.068	158.4
405.529	155
405.99	176.3
406.451	164.4
406.913	159.3
407.374	158.2
407.835	149.1
408.296	155.3
408.757	156.9
409.218	170.8
409.679	165.3
410.14	170.4
410.601	167.1
411.062	175.2
411.522	170.7
411.983	166.9
412.444	170.6
412.905	176.3
413.366	178.6
413.826	192.6
414.287	214.1
414.748	254
415.208	238.5
415.669	208.2
416.13	209.8
416.59	208
417.051	217.6
417.511	223.7
417.972	236.2
418.432	251.9
418.893	273
419.353	252.2
419.814	192.5
420.274	179
420.734	176.9
421.195	194.2
421.655	188.7
422.115	190.3
422.576	191.2
423.036	202.7
423.496	204.6
423.956	218.1
424.416	225.3
424.876	265.8
425.336	255.2
425.797	259.9
426.257	248.4
426.717	233.5
427.177	234.4
427.637	226.4
428.097	234.1
428.556	237.2
429.016	270.1
429.476	255.3
429.936	258
430.396	270
430.856	283.7
431.315	304.4
431.775	340.1
432.235	360.3
432.694	325.9
433.154	346.2
433.614	375.2
434.073	324.6
434.533	271.7
434.993	260.6
435.452	270.3
435.912	284.5
436.371	277
436.83	263.4
437.29	258.4
437.749	251.3
438.209	243.4
438.668	269.4
439.127	283.5
439.587	257.1
440.046	243.3
440.505	250.3
440.964	267.4
441.424	310.7
441.883	303.7
442.342	249.1
442.801	228.3
443.26	224.2
443.719	229.9
444.178	220.4
444.637	214.2
445.096	227.1
445.555	228.5
446.014	231.8
446.473	234.9
446.932	232.3
447.391	230.4
447.849	236.9
448.308	221.4
448.767	220.5
449.226	243.3
449.685	243.6
450.143	250.7
450.602	239.2
451.061	232.5
451.519	236.9
451.978	229.1
452.436	239
452.895	247.6
453.353	253.8
453.812	242.5
454.27	245.4
454.729	241.3
455.187	244
455.646	249.7
456.104	254.2
456.562	261.8
457.021	266.6
457.479	265
457.937	271.4
458.395	267.2
458.854	252.4
459.312	252.8
459.77	276.5
460.228	254.4
460.686	247.6
461.144	250.7
461.602	254.4
462.06	244.3
462.518	264.4
462.976	264.5
463.434	260.7
463.892	273.7
464.35	274.2
464.808	294.5
465.266	269.4
465.724	275.6
466.181	282.2
466.639	269.8
467.097	299.6
467.555	307.3
468.012	309.7
468.47	307.7
468.928	334.1
469.385	346
469.843	352.2
470.3	350.2
470.758	369.7
471.215	381.1
471.673	412.7
472.13	404.6
472.588	426.5
473.045	381
473.503	381.4
473.96	399
474.417	405.1
474.875	445.3
475.332	480.7
475.789	463.5
476.246	475.2
476.704	482.1
477.161	505.7
477.618	527.9
478.075	555.9
478.532	615
478.989	682.5
479.446	782.5
479.903	749.5
480.36	791.3
480.817	827.1
481.274	928
481.731	1006.6
482.188	1086.3
482.645	1211.2
483.102	1291
483.558	1414.4
484.015	1455
484.472	1441.5
484.929	1390.6
485.385	1360.7
485.842	1310.1
486.299	1272.3
486.755	1230.3
487.212	1042.4
487.668	897.2
488.125	817.7
488.582	769.3
489.038	746.5
489.494	713.5
489.951	676.9
490.407	665.8
490.864	646.5
491.32	638.5
491.776	641.3
492.233	643.6
492.689	611.9
493.145	611.4
493.602	603
494.058	613.2
494.514	619.5
494.97	644.7
495.426	655
495.882	627.3
496.338	611.3
496.794	623.3
497.251	613.6
497.707	634.2
498.163	641.5
498.618	658.4
499.074	651
499.53	672.8
499.986	675.8
500.442	648
500.898	625.1
501.354	628.6
501.809	625.4
502.265	624.5
502.721	648.2
503.177	651.2
503.632	655.6
504.088	662
504.543	682.7
504.999	697.1
505.455	668.1
505.91	643.7
506.366	645.9
506.821	642
507.277	638.7
507.732	639
508.187	649.2
508.643	650.8
509.098	656.6
509.553	675.7
510.009	681.5
510.464	678.3
510.919	705.4
511.375	717.9
511.83	721.4
512.285	737.3
512.74	766.6
513.195	806.8
513.65	767.5
514.105	776.7
514.56	777.7
515.015	798.5
515.47	818.2
515.925	796.5
516.38	792.8
516.835	813.9
517.29	791.1
517.745	790.4
518.2	773.6
518.655	762.4
519.109	765.5
519.564	755.6
520.019	751.4
520.474	743.7
520.928	741.1
521.383	736.9
521.838	725.1
522.292	729.5
522.747	724.5
523.201	722.8
523.656	709.5
524.11	715.4
524.565	720.7
525.019	708.3
525.474	717.9
525.928	717
526.382	701.8
526.837	720
527.291	727.2
527.745	707.3
528.2	722
528.654	701.6
529.108	703.5
529.562	707.6
530.016	704.4
530.47	708.1
530.925	711.9
531.379	705.6
531.833	715.1
532.287	717.4
532.741	711.3
533.195	718.6
533.649	725.7
534.103	729.8
534.556	721
535.01	720.2
535.464	719.3
535.918	726.3
536.372	738.3
536.826	732.1
537.279	720.4
537.733	728
538.187	733.3
538.64	734.3
539.094	740.1
539.548	742.4
540.001	735.5
540.455	742.4
540.908	750.5
541.362	762.2
541.815	768.7
542.269	775.7
542.722	771.5
543.175	792.9
543.629	789.9
544.082	809.7
544.536	822.2
544.989	808
545.442	801.9
545.895	815.1
546.349	808.2
546.802	821.7
547.255	823.5
547.708	831.2
548.161	844.9
548.614	848.3
549.067	844.4
549.52	845
549.973	831.3
550.426	825.1
550.879	827
551.332	827.5
551.785	834
552.238	838.1
552.691	847.1
553.144	858.1
553.596	870.2
554.049	890.6
554.502	932.7
554.955	939.6
555.407	942
555.86	929.2
556.313	919
556.765	911.8
557.218	915.5
557.67	918.2
558.123	899.1
558.576	892.8
559.028	905.4
559.48	903.2
559.933	904.5
560.385	857.4
560.838	843.9
561.29	819
561.742	814.3
562.195	804.3
562.647	788.9
563.099	799.2
563.551	803.9
564.004	805.4
564.456	792.3
564.908	780.5
565.36	769
565.812	750.5
566.264	750
566.716	744.4
567.168	727.6
567.62	731.6
568.072	725.3
568.524	706.7
568.976	711.1
569.428	706.5
569.88	701.3
570.332	709.2
570.784	707.5
571.235	715.8
571.687	720.2
572.139	733.8
572.59	729.9
573.042	741.4
573.494	736.7
573.945	734.6
574.397	714.7
574.849	723.2
575.3	726.1
575.752	704.6
576.203	703.4
576.655	717.1
577.106	701
577.557	686.7
578.009	695.2
578.46	681
578.912	691.1
579.363	691.9
579.814	700.6
580.265	697.1
580.717	688.5
581.168	689.5
581.619	698.1
582.07	706.1
582.521	696.2
582.972	697.4
583.423	708
583.875	701.5
584.326	716.3
584.777	723.9
585.227	764.5
585.678	783.9
586.129	811.4
586.58	827.6
587.031	863.4
587.482	888.8
587.933	949.3
588.384	906.4
588.834	828.6
589.285	800.9
589.736	801.3
590.186	799.3
590.637	793
591.088	767.1
591.538	770.8
591.989	737.2
592.439	744.9
592.89	743.8
593.34	731.7
593.791	735.3
594.241	719
594.692	728.4
595.142	723.9
595.593	723.8
596.043	726
596.493	735.3
596.943	727.8
597.394	748.5
597.844	746.9
598.294	763
598.744	786.7
599.195	815.9
599.645	862.2
600.095	893.7
600.545	958.7
600.995	1010.5
601.445	1066.6
601.895	1133.2
602.345	1185.8
602.795	1157.8
603.245	1116.6
603.695	1051.8
604.145	987.9
604.594	943.2
605.044	895.4
605.494	828.1
605.944	785.4
606.393	775.2
606.843	749.5
607.293	767.7
607.743	762
608.192	766
608.642	780.7
609.091	788
609.541	796.7
609.99	792.9
610.44	788.3
610.889	745.5
611.339	723.7
611.788	709.3
612.238	712.6
612.687	725.1
613.136	720.9
613.586	728.4
614.035	733
614.484	752.3
614.933	733.5
615.383	735.5
615.832	734.8
616.281	729.8
616.73	701.2
617.179	684.9
617.628	667.7
618.077	645.6
618.526	656.8
618.975	645.4
619.424	640.9
619.873	633.1
620.322	636.7
620.771	637.2
621.22	628.9
621.669	623.4
622.118	605.8
622.567	601.3
623.015	593.7
623.464	600.8
623.913	581.7
624.361	573.3
624.81	562.9
625.259	569.3
625.707	586
626.156	577.5
626.604	599.6
627.053	586
627.501	579.5
627.95	600.3
628.398	610.8
628.847	593
629.295	589.3
629.744	598.5
630.192	596.2
630.64	588.6
631.089	573.1
631.537	567.9
631.985	561.9
632.433	561.9
632.881	553.8
633.33	569.6
633.778	562.1
634.226	550.8
634.674	557.9
635.122	566.9
635.57	583.9
636.018	595.7
636.466	583.2
636.914	576
637.362	593.5
637.81	603.9
638.258	601.1
638.705	606.8
639.153	636.4
639.601	653.2
640.049	667.4
640.497	702.2
640.944	730.4
641.392	671
641.84	641.5
642.287	607.9
642.735	586.4
643.182	591.2
643.63	593.4
644.078	584.8
644.525	604.7
644.973	601.9
645.42	619.6
645.867	637.4
646.315	659
646.762	680.1
647.21	710
647.657	722.2
648.104	750.6
648.551	788.2
648.999	850.1
649.446	921.3
649.893	1007
650.34	1155.4
650.787	1375.4
651.234	1691.9
651.682	2190.4
652.129	2997
652.576	4252.6
653.023	6198.4
653.47	8380.1
653.917	10317.6
654.363	11755.5
654.81	12943.2
655.257	12218.9
655.704	8090.7
656.151	4875.8
656.598	3218.2
657.044	2296.2
657.491	1789.8
657.938	1450.5
658.385	1206.8
658.831	1070.1
659.278	956.9
659.724	862.7
660.171	795.6
660.618	729.3
661.064	700.7
661.511	669.3
661.957	662.8
662.404	648.5
662.85	661.6
663.296	638.3
663.743	586.3
664.189	559.2
664.635	555.4
665.082	545.4
665.528	550.4
665.974	541.9
666.42	517.9
666.867	520.7
667.313	504.9
667.759	487.6
668.205	474.4
668.651	469.9
669.097	465.5
669.543	461.8
669.989	466.4
670.435	464.8
670.881	472.6
671.327	460.1
671.773	488.1
672.219	521.5
672.665	574.1
673.11	621.1
673.556	667
674.002	699.1
674.448	691.6
674.893	577.3
675.339	506
675.785	458.7
676.23	432.9
676.676	409.6
677.122	402.8
677.567	398.1
678.013	385.8
678.458	378.5
678.904	387.7
679.349	366
679.794	368.4
680.24	373.7
680.685	366.3
681.131	360.9
681.576	374.9
682.021	375.6
682.466	366.8
682.912	369.6
683.357	369.9
683.802	401.5
684.247	436.7
684.692	486.2
685.137	525.8
685.583	566.2
686.028	589.4
686.473	546
686.918	466.8
687.363	442.4
687.807	413.1
688.252	386.3
688.697	366.5
689.142	357.5
689.587	350.3
690.032	347.5
690.477	360.8
690.921	368.5
691.366	406.3
691.811	432
692.255	450.8
692.7	495.3
693.145	541.6
693.589	763.4
694.034	1227.6
694.478	1658.7
694.923	1839.6
695.367	2372.8
695.812	1276.7
696.256	527.2
696.701	387.9
697.145	359.9
697.59	354.7
698.034	337.9
698.478	347
698.922	341
699.367	338.9
699.811	354.8
700.255	372.7
700.699	402.8
701.143	446
701.588	503
702.032	541.6
702.476	545.9
702.92	524.3
703.364	530.5
703.808	699
704.252	1154.1
704.696	1585.9
705.14	1764.2
705.584	2238.7
706.027	1131
706.471	555.6
706.915	419.4
707.359	378.7
707.803	334
708.246	319.7
708.69	332.7
709.134	334.2
709.577	331
710.021	332.3
710.465	327.3
710.908	320.2
711.352	314.6
711.795	335.5
712.239	374.3
712.682	413.9
713.126	431.8
713.569	474.1
714.012	381.7
714.456	322.6
714.899	307.9
715.342	289.7
715.786	277.8
716.229	272.4
716.672	267.7
717.115	260.8
717.558	268.5
718.002	268.3
718.445	276.3
718.888	302.8
719.331	316.5
719.774	325.5
720.217	317.2
720.66	304.5
721.103	278.8
721.546	270.7
721.989	271.6
722.432	243
722.874	251.8
723.317	237
723.76	248.7
724.203	270.3
724.645	345.3
725.088	490.1
725.531	603.8
725.974	673.4
726.416	582.9
726.859	325.5
727.301	254.2
727.744	249.8
728.187	245.2
728.629	255.3
729.071	259.1
729.514	271.7
729.956	288.9
730.399	298.5
730.841	301.7
731.283	293.8
731.726	286.8
732.168	277
732.61	292.6
733.053	305.7
733.495	337.2
733.937	381.4
734.379	439.3
734.821	465.1
735.263	595.2
735.705	934.5
736.148	1762.1
736.59	2813
737.032	3217.7
737.474	2640.3
737.916	867.6
738.357	462
738.799	350.9
739.241	319
739.683	300.5
740.125	308.6
740.567	312.5
741.008	331.5
741.45	335.2
741.892	341.4
742.334	370.2
742.775	391.2
743.217	370.7
743.658	292.1
744.1	276.1
744.542	279.4
744.983	340.5
745.425	363
745.866	365
746.307	293.7
746.749	295.9
747.19	347.5
747.632	501.3
748.073	999.3
748.514	2076.7
748.956	3062.3
749.397	3886.9
749.838	3232.9
750.279	3119.7
750.72	1598.1
751.162	595.4
751.603	350.2
752.044	270.3
752.485	222.3
752.926	220.2
753.367	215.5
753.808	208.3
754.249	198.2
754.69	199.8
755.131	193.6
755.572	196.8
756.013	192.5
756.453	200.2
756.894	198.5
757.335	204.8
757.776	199.4
758.216	211.2
758.657	209.1
759.098	214.7
759.538	234.3
759.979	295
760.42	417.2
760.86	810.6
761.301	2096.6
761.741	4908.2
762.182	6777.9
762.622	4800.6
763.063	1413.2
763.503	576
763.943	348.2
764.384	300.7
764.824	286.9
765.264	276.6
765.705	233.8
766.145	199.4
766.585	185.4
767.025	179.8
767.465	181
767.906	199.4
768.346	218.9
768.786	229.8
769.226	243.9
769.666	333.1
770.106	700.6
770.546	1741.6
770.986	2789.8
771.426	2476.4
771.866	849
772.306	349.2
772.745	218
773.185	180.4
773.625	164.8
774.065	158.1
774.505	176.3
774.944	228.4
775.384	412.1
775.824	656.1
776.263	626
776.703	312.1
777.142	172.7
777.582	141
778.021	126.4
778.461	131.2
778.9	134.4
779.34	131.7
779.779	120.9
780.219	120.6
780.658	115
781.097	118.8
781.537	118.5
781.976	113.8
782.415	112.6
782.855	107.9
783.294	106.8
783.733	110.8
784.172	122.4
784.611	108.9
785.05	116.5
785.489	121.6
785.928	125.1
786.367	124.4
786.806	127.8
787.245	134
787.684	146.6
788.123	158.2
788.562	135.9
789.001	133.9
789.44	128.7
789.879	128.7
790.317	125.9
790.756	134.2
791.195	137.9
791.634	156.7
792.072	218.4
792.511	411.2
792.95	1131.6
793.388	2273.3
793.827	1996.8
794.265	719.7
794.704	301.7
795.142	194.6
795.581	161.1
796.019	146.3
796.458	139.5
796.896	133.5
797.334	136.7
797.773	162
798.211	235.4
798.649	499.6
799.087	1123.5
799.526	1729.5
799.964	2182.4
800.402	2111.2
800.84	804.4
801.278	326
801.716	206.2
802.154	165.5
802.592	153.8
803.03	143.8
803.468	149.1
803.906	157
804.344	157.1
804.782	152.1
805.22	150.3
805.658	137.4
806.096	151.8
806.533	171.5
806.971	187.9
807.409	235.3
807.847	349.6
