Data from 20171114-ORNL-Ar_H_NY_Subt18_08-07-50-270.txt Node
Date: Tue Nov 14 08:07:50 EST 2017
User: Ender
Spectrometer: HR+D1039
Trigger mode: 0
Integration Time (sec): 2.730000E-2
Scans to average: 10
Electric dark correction enabled: true
Nonlinearity correction enabled: false
Boxcar width: 0
XAxis mode: Wavelengths
Number of Pixels in Spectrum: 2048
>>>>>Begin Spectral Data<<<<<
187.836	-7.31
188.309	-7.31
188.782	-7.31
189.255	-1.41
189.728	0.69
190.201	4.59
190.674	2.59
191.147	3.69
191.619	-2.21
192.092	0.79
192.565	6.19
193.038	1.89
193.511	-0.81
193.984	2.89
194.456	-4.01
194.929	-0.41
195.402	-4.61
195.874	-2.61
196.347	1.59
196.82	-7.01
197.292	4.99
197.765	-0.11
198.237	-9.91
198.71	2.69
199.182	-2.61
199.655	1.79
200.127	-0.41
200.6	-1.91
201.072	-6.11
201.544	-2.01
202.017	-2.11
202.489	9.59
202.961	-4.41
203.433	-4.11
203.906	-6.71
204.378	-4.41
204.85	-1.81
205.322	-7.01
205.794	3.69
206.266	-1.21
206.739	-14.01
207.211	-6.51
207.683	-10.51
208.155	-12.31
208.627	-4.81
209.099	-5.21
209.57	-14.01
210.042	-10.31
210.514	-6.81
210.986	-4.71
211.458	-15.31
211.93	-3.81
212.402	-0.61
212.873	-3.01
213.345	-9.01
213.817	-12.51
214.288	-4.51
214.76	-7.81
215.232	-4.01
215.703	-9.31
216.175	-8.51
216.646	-10.71
217.118	-6.71
217.589	-2.01
218.061	-2.01
218.532	-3.81
219.004	-2.81
219.475	-7.71
219.946	-2.61
220.418	-1.41
220.889	-0.01
221.36	0.99
221.832	-7.81
222.303	-10.31
222.774	-4.31
223.245	-8.51
223.717	0.59
224.188	-2.61
224.659	-7.61
225.13	-9.91
225.601	-6.11
226.072	-1.61
226.543	-4.61
227.014	-6.11
227.485	-5.01
227.956	-7.71
228.427	-1.41
228.898	0.69
229.369	-0.91
229.839	-5.41
230.31	-5.81
230.781	2.49
231.252	-9.21
231.722	-7.81
232.193	-4.41
232.664	-1.81
233.135	2.49
233.605	-3.51
234.076	-6.61
234.546	0.19
235.017	1.19
235.487	-0.81
235.958	-0.71
236.428	-2.31
236.899	-0.11
237.369	2.79
237.84	0.39
238.31	8.49
238.78	2.29
239.251	-3.61
239.721	-2.31
240.191	-0.91
240.662	-4.51
241.132	-0.11
241.602	-8.31
242.072	2.99
242.542	8.89
243.013	-0.61
243.483	2.89
243.953	0.19
244.423	-0.41
244.893	-4.21
245.363	1.19
245.833	1.19
246.303	-1.71
246.773	6.39
247.243	5.69
247.712	0.79
248.182	5.49
248.652	9.09
249.122	0.79
249.592	5.69
250.061	22.69
250.531	27.99
251.001	11.29
251.471	15.59
251.94	16.89
252.41	5.29
252.879	-5.71
253.349	13.69
253.818	10.89
254.288	-1.11
254.757	4.49
255.227	1.69
255.696	0.49
256.166	5.79
256.635	8.49
257.105	7.19
257.574	7.89
258.043	7.89
258.513	5.69
258.982	9.99
259.451	-1.41
259.92	8.39
260.389	12.19
260.859	19.99
261.328	5.69
261.797	14.49
262.266	2.49
262.735	4.09
263.204	-2.51
263.673	-1.01
264.142	6.09
264.611	-7.71
265.08	-1.31
265.549	0.49
266.018	6.09
266.487	0.09
266.955	-3.21
267.424	0.39
267.893	7.49
268.362	-1.71
268.83	-0.01
269.299	5.69
269.768	3.79
270.236	6.09
270.705	4.69
271.174	2.59
271.642	5.39
272.111	7.19
272.579	11.09
273.048	24.29
273.516	23.39
273.985	29.89
274.453	21.29
274.922	11.69
275.39	9.19
275.858	4.99
276.327	13.19
276.795	15.89
277.263	6.49
277.731	28.29
278.2	53.09
278.668	54.79
279.136	39.99
279.604	15.49
280.072	11.59
280.54	6.79
281.008	9.29
281.477	13.59
281.945	7.09
282.413	14.99
282.881	19.59
283.348	3.39
283.816	15.09
284.284	9.79
284.752	16.19
285.22	5.99
285.688	9.79
286.156	19.29
286.623	47.79
287.091	47.99
287.559	27.59
288.026	17.09
288.494	12.39
288.962	5.39
289.429	9.79
289.897	16.29
290.364	12.39
290.832	17.49
291.3	17.29
291.767	10.09
292.234	12.59
292.702	7.99
293.169	20.19
293.637	22.39
294.104	18.49
294.571	2.89
295.039	12.59
295.506	10.59
295.973	17.39
296.44	15.49
296.908	16.09
297.375	10.89
297.842	22.19
298.309	16.29
298.776	9.29
299.243	24.89
299.71	1.09
300.177	14.69
300.644	19.29
301.111	21.29
301.578	16.09
302.045	13.79
302.512	17.09
302.979	22.49
303.446	22.59
303.913	12.89
304.379	16.49
304.846	23.09
305.313	18.19
305.78	21.19
306.246	22.39
306.713	24.89
307.18	21.89
307.646	23.39
308.113	25.19
308.579	26.99
309.046	26.49
309.512	22.19
309.979	16.99
310.445	24.99
310.912	26.59
311.378	32.79
311.845	26.39
312.311	26.69
312.777	30.89
313.244	25.89
313.71	29.99
314.176	25.29
314.642	23.89
315.109	28.79
315.575	30.19
316.041	31.29
316.507	30.09
316.973	40.99
317.439	29.89
317.905	29.89
318.371	28.09
318.837	32.39
319.303	27.79
319.769	26.29
320.235	30.09
320.701	29.89
321.167	37.09
321.633	31.19
322.099	32.79
322.564	43.99
323.03	34.89
323.496	31.79
323.962	34.59
324.427	34.69
324.893	37.79
325.359	36.29
325.824	39.79
326.29	28.29
326.755	35.09
327.221	35.09
327.686	37.69
328.152	49.29
328.617	38.09
329.083	41.19
329.548	47.79
330.014	40.89
330.479	35.49
330.944	47.49
331.41	37.89
331.875	43.99
332.34	35.39
332.805	44.39
333.271	44.99
333.736	38.99
334.201	45.79
334.666	46.69
335.131	52.29
335.596	50.39
336.061	44.89
336.526	35.99
336.991	38.59
337.456	55.59
337.921	47.09
338.386	40.79
338.851	43.89
339.316	47.09
339.781	41.89
340.246	50.39
340.711	46.39
341.175	45.99
341.64	42.99
342.105	41.09
342.569	48.89
343.034	56.29
343.499	58.29
343.963	47.99
344.428	62.59
344.893	53.09
345.357	55.39
345.822	57.79
346.286	70.69
346.751	73.69
347.215	64.29
347.679	72.79
348.144	96.89
348.608	78.59
349.073	66.69
349.537	66.39
350.001	73.89
350.465	87.39
350.93	69.59
351.394	71.59
351.858	67.59
352.322	78.99
352.786	80.59
353.25	91.19
353.715	106.59
354.179	88.59
354.643	117.69
355.107	117.79
355.571	102.49
356.035	99.79
356.498	115.89
356.962	117.69
357.426	123.09
357.89	108.59
358.354	80.19
358.818	78.09
359.281	75.39
359.745	76.99
360.209	71.39
360.673	74.09
361.136	73.89
361.6	81.19
362.064	78.49
362.527	78.19
362.991	87.89
363.454	70.49
363.918	74.99
364.381	71.79
364.845	72.39
365.308	81.69
365.772	84.69
366.235	82.09
366.698	77.49
367.162	82.89
367.625	85.39
368.088	85.49
368.552	82.89
369.015	84.99
369.478	92.79
369.941	97.79
370.404	93.09
370.867	100.59
371.331	101.79
371.794	106.09
372.257	100.79
372.72	112.39
373.183	106.99
373.646	104.89
374.109	98.19
374.572	103.19
375.035	103.29
375.497	106.29
375.96	98.49
376.423	103.69
376.886	105.79
377.349	103.49
377.811	104.89
378.274	108.89
378.737	104.49
379.199	103.99
379.662	107.29
380.125	115.49
380.587	115.29
381.05	117.99
381.512	129.59
381.975	129.19
382.437	121.09
382.9	126.09
383.362	125.99
383.825	132.69
384.287	144.69
384.75	139.39
385.212	127.99
385.674	131.09
386.136	130.19
386.599	122.89
387.061	124.69
387.523	126.99
387.985	134.29
388.447	145.29
388.91	144.29
389.372	156.39
389.834	149.89
390.296	144.49
390.758	152.89
391.22	164.79
391.682	202.99
392.144	292.69
392.606	220.29
393.068	160.09
393.529	163.79
393.991	159.69
394.453	140.59
394.915	151.09
395.377	185.89
395.838	211.59
396.3	148.79
396.762	136.79
397.224	134.89
397.685	129.79
398.147	127.69
398.608	123.09
399.07	122.89
399.531	134.09
399.993	135.19
400.454	149.79
400.916	143.29
401.377	143.89
401.839	148.09
402.3	149.89
402.762	160.49
403.223	171.59
403.684	167.29
404.145	157.99
404.607	154.99
405.068	163.19
405.529	170.69
405.99	185.59
406.451	174.89
406.913	169.49
407.374	158.09
407.835	154.99
408.296	164.19
408.757	171.69
409.218	185.49
409.679	167.99
410.14	172.89
410.601	183.19
411.062	183.59
411.522	189.79
411.983	186.09
412.444	171.69
412.905	174.49
413.366	182.39
413.826	185.09
414.287	209.09
414.748	252.59
415.208	241.19
415.669	208.79
416.13	197.49
416.59	202.59
417.051	207.29
417.511	214.99
417.972	239.69
418.432	239.49
418.893	283.49
419.353	245.89
419.814	196.39
420.274	185.09
420.734	175.99
421.195	189.69
421.655	191.19
422.115	192.59
422.576	191.99
423.036	192.29
423.496	202.39
423.956	210.19
424.416	220.79
424.876	262.99
425.336	252.39
425.797	251.39
426.257	251.09
426.717	237.59
427.177	227.09
427.637	230.59
428.097	229.29
428.556	243.19
429.016	270.69
429.476	265.99
429.936	274.39
430.396	277.59
430.856	285.39
431.315	310.89
431.775	349.59
432.235	384.59
432.694	353.79
433.154	356.39
433.614	389.09
434.073	337.49
434.533	288.89
434.993	263.29
435.452	279.59
435.912	298.69
436.371	291.59
436.83	281.29
437.29	262.19
437.749	237.39
438.209	247.49
438.668	266.99
439.127	288.59
439.587	264.29
440.046	242.19
440.505	257.39
440.964	272.49
441.424	316.39
441.883	308.19
442.342	258.59
442.801	226.79
443.26	220.69
443.719	218.29
444.178	224.29
444.637	212.09
445.096	220.89
445.555	218.69
446.014	224.79
446.473	222.09
446.932	230.69
447.391	228.39
447.849	230.69
448.308	212.49
448.767	222.79
449.226	235.49
449.685	234.69
450.143	251.99
450.602	236.09
451.061	229.39
451.519	233.29
451.978	226.69
452.436	235.39
452.895	240.99
453.353	246.89
453.812	237.49
454.27	247.29
454.729	232.89
455.187	234.09
455.646	238.39
456.104	244.99
456.562	257.69
457.021	262.19
457.479	255.19
457.937	264.19
458.395	264.99
458.854	244.49
459.312	255.19
459.77	273.29
460.228	255.79
460.686	238.19
461.144	241.39
461.602	245.09
462.06	238.59
462.518	248.39
462.976	247.99
463.434	257.69
463.892	262.49
464.35	269.39
464.808	281.49
465.266	263.29
465.724	262.19
466.181	263.99
466.639	264.39
467.097	286.39
467.555	296.49
468.012	297.79
468.47	308.69
468.928	319.59
469.385	336.19
469.843	340.99
470.3	341.29
470.758	359.79
471.215	379.59
471.673	397.59
472.13	402.99
472.588	414.09
473.045	373.99
473.503	382.59
473.96	387.39
474.417	403.89
474.875	435.49
475.332	473.29
475.789	455.89
476.246	463.09
476.704	474.89
477.161	500.29
477.618	519.29
478.075	560.09
478.532	611.09
478.989	693.79
479.446	805.19
479.903	768.49
480.36	801.69
480.817	863.29
481.274	968.39
481.731	1063.29
482.188	1142.79
482.645	1287.59
483.102	1380.09
483.558	1529.59
484.015	1566.29
484.472	1544.59
484.929	1494.29
485.385	1451.99
485.842	1410.19
486.299	1341.39
486.755	1286.09
487.212	1070.49
487.668	914.69
488.125	839.79
488.582	776.29
489.038	735.99
489.494	701.99
489.951	674.29
490.407	651.19
490.864	636.39
491.32	638.69
491.776	628.89
492.233	634.89
492.689	596.29
493.145	589.49
493.602	580.69
494.058	610.69
494.514	608.79
494.97	629.89
495.426	637.79
495.882	614.99
496.338	600.19
496.794	614.39
497.251	609.19
497.707	619.79
498.163	626.79
498.618	635.99
499.074	639.39
499.53	666.29
499.986	665.79
500.442	651.69
500.898	618.29
501.354	614.79
501.809	625.99
502.265	633.49
502.721	654.39
503.177	673.89
503.632	650.89
504.088	668.99
504.543	704.49
504.999	692.49
505.455	639.59
505.91	617.49
506.366	619.99
506.821	614.99
507.277	617.19
507.732	614.99
508.187	623.69
508.643	624.69
509.098	623.79
509.553	647.79
510.009	652.09
510.464	658.39
510.919	669.29
511.375	686.39
511.83	702.09
512.285	705.59
512.74	743.59
513.195	774.59
513.65	757.59
514.105	750.89
514.56	756.79
515.015	772.19
515.47	789.49
515.925	768.09
516.38	782.89
516.835	786.79
517.29	771.09
517.745	768.79
518.2	744.19
518.655	730.19
519.109	739.69
519.564	727.39
520.019	714.29
520.474	711.89
520.928	716.49
521.383	697.49
521.838	702.89
522.292	701.69
522.747	698.19
523.201	694.69
523.656	689.09
524.11	680.99
524.565	682.99
525.019	680.59
525.474	692.59
525.928	683.79
526.382	687.59
526.837	686.99
527.291	686.99
527.745	678.59
528.2	680.09
528.654	680.49
529.108	679.59
529.562	681.89
530.016	684.29
530.47	683.19
530.925	682.49
531.379	681.79
531.833	702.99
532.287	690.69
532.741	700.19
533.195	695.69
533.649	706.79
534.103	703.79
534.556	695.39
535.01	701.29
535.464	690.49
535.918	710.99
536.372	699.09
536.826	701.29
537.279	689.89
537.733	698.69
538.187	692.09
538.64	703.79
539.094	717.59
539.548	703.69
540.001	707.79
540.455	724.69
540.908	719.69
541.362	726.29
541.815	737.89
542.269	754.89
542.722	746.89
543.175	759.89
543.629	765.79
544.082	776.29
544.536	773.99
544.989	783.69
545.442	786.89
545.895	779.19
546.349	784.49
546.802	782.89
547.255	787.89
547.708	797.09
548.161	806.89
548.614	821.89
549.067	820.69
549.52	811.09
549.973	799.69
550.426	790.59
550.879	776.39
551.332	785.29
551.785	797.39
552.238	804.49
552.691	810.69
553.144	822.09
553.596	842.49
554.049	851.19
554.502	882.99
554.955	890.89
555.407	893.89
555.86	894.29
556.313	882.09
556.765	871.09
557.218	873.59
557.67	868.89
558.123	870.49
558.576	859.19
559.028	857.79
559.48	871.39
559.933	841.79
560.385	823.09
560.838	804.29
561.29	770.09
561.742	767.79
562.195	759.99
562.647	775.39
563.099	777.69
563.551	761.19
564.004	779.49
564.456	766.19
564.908	749.59
565.36	740.19
565.812	725.99
566.264	713.39
566.716	706.89
567.168	713.59
567.62	719.89
568.072	696.99
568.524	693.89
568.976	680.79
569.428	666.49
569.88	664.39
570.332	679.59
570.784	669.19
571.235	671.09
571.687	696.49
572.139	692.69
572.59	699.49
573.042	700.69
573.494	707.69
573.945	688.99
574.397	681.39
574.849	691.39
575.3	678.19
575.752	675.39
576.203	665.89
576.655	675.79
577.106	662.49
577.557	658.39
578.009	662.99
578.46	663.09
578.912	653.19
579.363	660.79
579.814	660.69
580.265	663.39
580.717	657.29
581.168	658.99
581.619	670.99
582.07	670.69
582.521	654.79
582.972	656.89
583.423	667.29
583.875	669.69
584.326	698.59
584.777	736.79
585.227	814.79
585.678	919.49
586.129	999.39
586.58	1065.99
587.031	1148.19
587.482	1298.99
587.933	1486.99
588.384	1290.79
588.834	964.59
589.285	796.99
589.736	774.99
590.186	767.99
590.637	768.39
591.088	744.89
591.538	734.09
591.989	720.89
592.439	723.29
592.89	715.69
593.34	704.99
593.791	707.49
594.241	691.39
594.692	706.59
595.142	703.49
595.593	684.99
596.043	698.89
596.493	707.29
596.943	708.19
597.394	723.09
597.844	713.09
598.294	720.89
598.744	744.89
599.195	766.69
599.645	811.59
600.095	861.09
600.545	911.99
600.995	965.29
601.445	1012.99
601.895	1080.59
602.345	1120.79
602.795	1101.79
603.245	1064.29
603.695	1005.19
604.145	952.69
604.594	900.79
605.044	848.59
605.494	796.69
605.944	742.09
606.393	747.59
606.843	720.49
607.293	729.19
607.743	724.69
608.192	736.49
608.642	759.79
609.091	759.09
609.541	759.29
609.99	771.19
610.44	758.29
610.889	719.99
611.339	692.89
611.788	683.49
612.238	700.09
612.687	716.49
613.136	724.39
613.586	738.69
614.035	732.89
614.484	748.69
614.933	743.39
615.383	734.59
615.832	740.89
616.281	716.49
616.73	677.79
617.179	661.59
617.628	649.29
618.077	625.59
618.526	624.49
618.975	613.39
619.424	610.99
619.873	598.39
620.322	624.89
620.771	603.79
621.22	607.19
621.669	590.09
622.118	587.79
622.567	575.89
623.015	570.19
623.464	563.09
623.913	559.49
624.361	554.19
624.81	551.79
625.259	556.49
625.707	551.89
626.156	558.79
626.604	561.39
627.053	561.29
627.501	558.69
627.95	561.59
628.398	577.59
628.847	558.69
629.295	567.39
629.744	566.59
630.192	566.59
630.64	566.49
631.089	568.09
631.537	579.29
631.985	584.79
632.433	602.19
632.881	612.69
633.33	664.09
633.778	652.49
634.226	572.89
634.674	566.99
635.122	574.89
635.57	597.39
636.018	629.09
636.466	573.29
636.914	561.89
637.362	572.39
637.81	572.59
638.258	588.89
638.705	580.89
639.153	607.69
639.601	613.09
640.049	639.69
640.497	672.39
640.944	689.19
641.392	643.79
641.84	610.39
642.287	581.49
642.735	566.09
643.182	574.39
643.63	566.99
644.078	576.99
644.525	579.79
644.973	601.89
645.42	599.09
645.867	619.09
646.315	648.09
646.762	661.29
647.21	678.49
647.657	711.69
648.104	751.39
648.551	770.99
648.999	829.49
649.446	919.99
649.893	1003.09
650.34	1161.89
650.787	1406.89
651.234	1734.29
651.682	2260.09
652.129	3133.69
652.576	4501.29
653.023	6640.99
653.47	9089.49
653.917	11246.49
654.363	12948.59
654.81	14223.89
655.257	13522.19
655.704	8848.49
656.151	5222.49
656.598	3389.69
657.044	2401.89
657.491	1850.29
657.938	1475.69
658.385	1243.29
658.831	1079.89
659.278	962.69
659.724	849.99
660.171	787.39
660.618	721.39
661.064	687.79
661.511	666.79
661.957	658.99
662.404	638.89
662.85	646.49
663.296	625.79
663.743	557.29
664.189	536.49
664.635	525.69
665.082	516.09
665.528	530.49
665.974	517.69
666.42	513.19
666.867	504.99
667.313	489.59
667.759	482.49
668.205	481.09
668.651	482.39
669.097	483.09
669.543	507.79
669.989	461.59
670.435	439.79
670.881	444.69
671.327	443.19
671.773	465.59
672.219	492.39
672.665	545.99
673.11	585.39
673.556	627.89
674.002	665.89
674.448	651.69
674.893	534.99
675.339	471.09
675.785	432.79
676.23	420.19
676.676	390.99
677.122	387.69
677.567	372.09
678.013	368.79
678.458	351.99
678.904	354.49
679.349	349.69
679.794	350.99
680.24	346.29
680.685	341.59
681.131	346.39
681.576	354.09
682.021	353.09
682.466	336.09
682.912	345.79
683.357	347.99
683.802	375.69
684.247	409.79
684.692	459.29
685.137	493.29
685.583	526.39
686.028	563.59
686.473	515.19
686.918	444.69
687.363	405.79
687.807	384.49
688.252	361.19
688.697	353.99
689.142	335.19
689.587	334.89
690.032	325.29
690.477	341.89
690.921	346.39
691.366	385.99
691.811	408.39
692.255	427.29
692.7	458.59
693.145	504.19
693.589	710.89
694.034	1141.49
694.478	1530.49
694.923	1713.09
695.367	2224.59
695.812	1176.39
696.256	489.09
696.701	368.19
697.145	341.89
697.59	327.49
698.034	319.19
698.478	328.99
698.922	327.29
699.367	329.09
699.811	335.59
700.255	351.29
700.699	382.79
701.143	418.29
701.588	462.59
702.032	504.49
702.476	509.19
702.92	493.69
703.364	490.79
703.808	646.69
704.252	1052.59
704.696	1449.99
705.14	1661.49
705.584	2095.09
706.027	1054.59
706.471	519.29
706.915	392.89
707.359	345.49
707.803	320.89
708.246	314.39
708.69	313.19
709.134	314.09
709.577	309.09
710.021	316.89
710.465	300.89
710.908	298.29
711.352	293.29
711.795	313.09
712.239	351.29
712.682	382.09
713.126	413.39
713.569	459.19
714.012	368.79
714.456	331.39
714.899	301.09
715.342	276.29
715.786	256.39
716.229	256.69
716.672	253.29
717.115	248.59
717.558	242.39
718.002	246.89
718.445	256.49
718.888	285.19
719.331	282.99
719.774	309.99
720.217	303.39
720.66	278.39
721.103	264.09
721.546	256.69
721.989	247.79
722.432	234.49
722.874	240.79
723.317	225.79
723.76	242.39
724.203	251.69
724.645	323.59
725.088	446.39
725.531	565.19
725.974	645.19
726.416	548.59
726.859	311.99
727.301	241.79
727.744	242.79
728.187	237.99
728.629	234.19
729.071	241.39
729.514	254.69
729.956	274.59
730.399	285.89
730.841	279.79
731.283	262.09
731.726	259.49
732.168	259.19
732.61	264.39
733.053	286.49
733.495	317.79
733.937	356.09
734.379	388.09
734.821	438.69
735.263	549.99
735.705	845.39
736.148	1592.09
736.59	2580.89
737.032	3000.79
737.474	2430.09
737.916	805.69
738.357	426.19
738.799	326.19
739.241	296.99
739.683	286.29
740.125	296.79
740.567	297.19
741.008	310.49
741.45	308.29
741.892	317.89
742.334	339.59
742.775	361.39
743.217	332.69
743.658	270.59
744.1	249.19
744.542	258.89
744.983	316.79
745.425	341.99
745.866	343.49
746.307	274.39
746.749	278.99
747.19	330.59
747.632	463.09
748.073	894.59
748.514	1899.39
748.956	2835.69
749.397	3559.49
749.838	2947.49
750.279	2905.69
750.72	1465.39
751.162	538.29
751.603	320.49
752.044	249.29
752.485	211.09
752.926	204.59
753.367	190.09
753.808	194.89
754.249	193.59
754.69	193.09
755.131	182.19
755.572	182.09
756.013	174.29
756.453	185.29
756.894	185.89
757.335	197.39
757.776	195.59
758.216	193.89
758.657	202.09
759.098	204.99
759.538	228.59
759.979	264.59
760.42	377.69
760.86	710.09
761.301	1859.99
761.741	4458.69
762.182	6296.99
