Data from 20171114-ORNL-Ar_H_NY_Subt18_08-09-26-690.txt Node
Date: Tue Nov 14 08:09:26 EST 2017
User: Ender
Spectrometer: HR+D1039
Trigger mode: 0
Integration Time (sec): 2.730000E-2
Scans to average: 10
Electric dark correction enabled: true
Nonlinearity correction enabled: false
Boxcar width: 0
XAxis mode: Wavelengths
Number of Pixels in Spectrum: 2048
>>>>>Begin Spectral Data<<<<<
187.836	-1.96
188.309	-1.96
188.782	-1.96
189.255	-0.06
189.728	-3.76
190.201	6.54
190.674	2.54
191.147	0.24
191.619	-10.16
192.092	5.94
192.565	5.54
193.038	0.44
193.511	-0.96
193.984	3.54
194.456	-2.36
194.929	-3.86
195.402	-0.26
195.874	-1.36
196.347	-6.66
196.82	-9.66
197.292	1.54
197.765	-4.46
198.237	-6.46
198.71	-0.06
199.182	-4.16
199.655	-5.86
200.127	-0.06
200.6	0.44
201.072	-4.56
201.544	-6.36
202.017	-6.86
202.489	1.04
202.961	-3.26
203.433	-11.36
203.906	-5.06
204.378	-4.16
204.85	-1.46
205.322	-14.66
205.794	-0.36
206.266	-1.96
206.739	-9.46
207.211	1.14
207.683	-11.36
208.155	-8.46
208.627	-4.96
209.099	-1.86
209.57	-9.66
210.042	0.94
210.514	-8.26
210.986	-2.26
211.458	-11.26
211.93	-7.16
212.402	-2.36
212.873	-4.36
213.345	-8.46
213.817	-12.16
214.288	-4.56
214.76	-10.96
215.232	-4.76
215.703	-4.26
216.175	-3.46
216.646	-3.46
217.118	-2.46
217.589	-9.06
218.061	-1.36
218.532	-8.56
219.004	-4.16
219.475	-9.96
219.946	0.14
220.418	-7.96
220.889	6.64
221.36	-2.36
221.832	-9.66
222.303	-13.06
222.774	-3.06
223.245	-10.46
223.717	-6.56
224.188	-6.76
224.659	-12.36
225.13	-9.86
225.601	-3.66
226.072	-1.56
226.543	-8.76
227.014	0.04
227.485	-8.76
227.956	-10.36
228.427	-7.46
228.898	-2.86
229.369	-2.36
229.839	-6.16
230.31	-5.46
230.781	-0.06
231.252	-5.26
231.722	-5.76
232.193	-8.66
232.664	-8.06
233.135	-1.96
233.605	-4.86
234.076	-13.26
234.546	-4.26
235.017	0.64
235.487	-4.76
235.958	-5.56
236.428	-8.36
236.899	-8.56
237.369	-4.46
237.84	-4.96
238.31	3.34
238.78	-2.06
239.251	-13.76
239.721	-1.06
240.191	-1.36
240.662	0.94
241.132	-7.06
241.602	-1.86
242.072	2.34
242.542	-0.16
243.013	-4.66
243.483	-0.36
243.953	0.64
244.423	-4.86
244.893	-8.86
245.363	-0.06
245.833	5.14
246.303	-5.26
246.773	1.74
247.243	-4.86
247.712	-5.56
248.182	-0.06
248.652	-2.36
249.122	-10.76
249.592	-6.96
250.061	-0.76
250.531	0.44
251.001	-2.46
251.471	4.64
251.94	3.34
252.41	-4.26
252.879	-8.26
253.349	2.14
253.818	2.14
254.288	-6.96
254.757	-3.56
255.227	-5.06
255.696	-1.56
256.166	2.84
256.635	-0.16
257.105	-1.96
257.574	3.24
258.043	0.44
258.513	-4.16
258.982	-0.56
259.451	-5.06
259.92	1.84
260.389	3.14
260.859	8.74
261.328	-0.86
261.797	-1.96
262.266	-5.26
262.735	4.24
263.204	-2.26
263.673	-2.26
264.142	-0.66
264.611	-9.76
265.08	-5.86
265.549	-7.56
266.018	4.44
266.487	-2.46
266.955	-10.66
267.424	-3.06
267.893	1.64
268.362	-2.26
268.83	2.24
269.299	-1.66
269.768	-6.86
270.236	1.04
270.705	-8.36
271.174	1.34
271.642	-3.26
272.111	3.24
272.579	4.14
273.048	-2.76
273.516	-1.66
273.985	-0.36
274.453	0.14
274.922	5.44
275.39	-0.26
275.858	-2.56
276.327	7.64
276.795	6.84
277.263	-2.86
277.731	0.24
278.2	0.04
278.668	3.24
279.136	2.74
279.604	4.34
280.072	4.44
280.54	6.14
281.008	0.14
281.477	5.44
281.945	0.14
282.413	6.04
282.881	5.54
283.348	-2.16
283.816	6.04
284.284	1.24
284.752	13.04
285.22	3.24
285.688	5.74
286.156	6.44
286.623	10.24
287.091	1.04
287.559	6.94
288.026	10.54
288.494	1.04
288.962	-6.66
289.429	5.14
289.897	9.74
290.364	8.44
290.832	5.64
291.3	7.44
291.767	5.74
292.234	9.54
292.702	2.74
293.169	5.54
293.637	13.24
294.104	7.74
294.571	-1.46
295.039	0.54
295.506	7.84
295.973	9.74
296.44	10.24
296.908	3.14
297.375	4.24
297.842	6.64
298.309	4.34
298.776	3.14
299.243	11.44
299.71	6.54
300.177	7.14
300.644	13.04
301.111	9.14
301.578	13.24
302.045	6.24
302.512	14.94
302.979	10.94
303.446	11.94
303.913	15.04
304.379	4.74
304.846	19.54
305.313	6.84
305.78	13.94
306.246	15.64
306.713	17.64
307.18	15.24
307.646	16.14
308.113	19.14
308.579	14.44
309.046	12.84
309.512	17.64
309.979	3.44
310.445	20.44
310.912	16.44
311.378	24.04
311.845	12.64
312.311	17.64
312.777	17.74
313.244	21.34
313.71	26.64
314.176	15.44
314.642	17.64
315.109	17.14
315.575	23.64
316.041	23.34
316.507	10.74
316.973	24.24
317.439	20.24
317.905	19.94
318.371	29.34
318.837	21.44
319.303	19.24
319.769	16.24
320.235	21.44
320.701	26.14
321.167	25.44
321.633	19.04
322.099	24.14
322.564	27.04
323.03	28.44
323.496	25.64
323.962	23.64
324.427	25.34
324.893	30.94
325.359	29.74
325.824	29.34
326.29	32.74
326.755	28.64
327.221	26.94
327.686	28.14
328.152	36.04
328.617	26.84
329.083	33.04
329.548	33.24
330.014	34.24
330.479	30.44
330.944	29.84
331.41	32.84
331.875	33.04
332.34	30.64
332.805	35.44
333.271	36.04
333.736	27.54
334.201	35.44
334.666	37.24
335.131	35.24
335.596	43.94
336.061	36.34
336.526	27.24
336.991	33.24
337.456	44.74
337.921	37.94
338.386	32.84
338.851	34.34
339.316	39.34
339.781	43.94
340.246	44.84
340.711	37.24
341.175	42.64
341.64	36.04
342.105	43.94
342.569	47.14
343.034	45.94
343.499	40.54
343.963	42.74
344.428	48.44
344.893	46.84
345.357	42.44
345.822	44.54
346.286	55.04
346.751	54.74
347.215	50.94
347.679	50.64
348.144	62.44
348.608	57.04
349.073	51.54
349.537	59.84
350.001	64.34
350.465	65.84
350.93	66.04
351.394	64.54
351.858	51.54
352.322	73.04
352.786	64.24
353.25	80.54
353.715	94.24
354.179	76.94
354.643	89.04
355.107	97.54
355.571	76.44
356.035	74.64
356.498	82.94
356.962	81.84
357.426	90.74
357.89	90.34
358.354	73.24
358.818	67.54
359.281	60.64
359.745	61.94
360.209	63.54
360.673	58.04
361.136	64.74
361.6	68.74
362.064	66.44
362.527	78.24
362.991	79.74
363.454	65.14
363.918	67.84
364.381	81.14
364.845	74.04
365.308	72.54
365.772	77.14
366.235	71.54
366.698	72.24
367.162	67.64
367.625	73.94
368.088	68.44
368.552	82.64
369.015	72.14
369.478	75.14
369.941	83.44
370.404	76.14
370.867	89.04
371.331	91.84
371.794	90.44
372.257	76.94
372.72	88.94
373.183	86.74
373.646	83.74
374.109	86.94
374.572	90.04
375.035	85.24
375.497	91.34
375.96	87.84
376.423	89.54
376.886	105.84
377.349	92.14
377.811	85.64
378.274	96.34
378.737	94.44
379.199	96.44
379.662	100.34
380.125	102.34
380.587	102.64
381.05	100.14
381.512	102.14
381.975	103.04
382.437	105.44
382.9	103.54
383.362	112.14
383.825	119.44
384.287	118.94
384.75	101.64
385.212	117.24
385.674	120.24
386.136	120.54
386.599	108.54
387.061	111.04
387.523	113.34
387.985	112.64
388.447	121.64
388.91	106.84
389.372	117.74
389.834	119.24
390.296	114.24
390.758	123.44
391.22	129.94
391.682	136.94
392.144	138.24
392.606	130.24
393.068	124.54
393.529	143.54
393.991	128.04
394.453	120.94
394.915	120.84
395.377	122.74
395.838	125.04
396.3	123.94
396.762	132.34
397.224	128.74
397.685	124.34
398.147	121.24
398.608	129.34
399.07	120.24
399.531	124.34
399.993	136.24
400.454	141.24
400.916	148.44
401.377	140.24
401.839	143.54
402.3	148.74
402.762	158.84
403.223	168.44
403.684	164.84
404.145	154.74
404.607	149.94
405.068	156.44
405.529	157.04
405.99	174.74
406.451	170.94
406.913	171.54
407.374	155.34
407.835	161.14
408.296	162.24
408.757	166.04
409.218	173.34
409.679	167.74
410.14	167.24
410.601	170.14
411.062	174.24
411.522	178.24
411.983	173.14
412.444	171.44
412.905	183.54
413.366	187.24
413.826	196.54
414.287	209.44
414.748	264.54
415.208	242.94
415.669	210.74
416.13	211.64
416.59	205.14
417.051	214.54
417.511	227.44
417.972	240.34
418.432	253.04
418.893	288.34
419.353	257.34
419.814	204.64
420.274	187.44
420.734	180.04
421.195	201.44
421.655	184.64
422.115	199.74
422.576	201.14
423.036	199.04
423.496	210.24
423.956	210.64
424.416	238.34
424.876	265.04
425.336	258.94
425.797	260.54
426.257	258.54
426.717	245.34
427.177	234.34
427.637	220.94
428.097	236.24
428.556	245.54
429.016	262.14
429.476	263.74
429.936	267.74
430.396	270.54
430.856	284.64
431.315	305.64
431.775	335.84
432.235	367.34
432.694	345.34
433.154	347.84
433.614	380.94
434.073	326.74
434.533	279.04
434.993	261.64
435.452	273.34
435.912	286.34
436.371	281.64
436.83	277.14
437.29	258.94
437.749	246.54
438.209	250.14
438.668	258.94
439.127	277.34
439.587	257.84
440.046	248.84
440.505	256.04
440.964	272.44
441.424	311.64
441.883	304.64
442.342	263.94
442.801	226.94
443.26	231.94
443.719	224.94
444.178	229.54
444.637	213.84
445.096	228.74
445.555	230.14
446.014	236.44
446.473	234.64
446.932	236.84
447.391	236.34
447.849	238.94
448.308	227.84
448.767	230.84
449.226	241.64
449.685	237.04
450.143	257.54
450.602	240.94
451.061	235.34
451.519	247.74
451.978	237.84
452.436	238.14
452.895	245.64
453.353	258.24
453.812	250.54
454.27	247.64
454.729	247.04
455.187	253.04
455.646	258.74
456.104	253.74
456.562	280.24
457.021	270.74
457.479	264.24
457.937	283.24
458.395	278.74
458.854	255.04
459.312	262.34
459.77	280.24
460.228	261.14
460.686	249.34
461.144	258.84
461.602	251.64
462.06	254.74
462.518	265.14
462.976	272.44
463.434	269.74
463.892	273.74
464.35	286.84
464.808	301.14
465.266	279.24
465.724	283.64
466.181	285.04
466.639	287.54
467.097	294.64
467.555	313.44
468.012	316.84
468.47	319.04
468.928	342.44
469.385	352.34
469.843	350.84
470.3	364.24
470.758	374.44
471.215	393.54
471.673	413.54
472.13	417.34
472.588	436.64
473.045	385.44
473.503	396.34
473.96	411.74
474.417	422.74
474.875	447.44
475.332	475.84
475.789	470.84
476.246	481.14
476.704	500.54
477.161	517.94
477.618	536.14
478.075	557.54
478.532	624.24
478.989	691.34
479.446	796.74
479.903	766.84
480.36	795.44
480.817	835.24
481.274	935.94
481.731	1013.54
482.188	1092.84
482.645	1222.24
483.102	1311.64
483.558	1424.24
484.015	1474.84
484.472	1426.54
484.929	1390.64
485.385	1363.34
485.842	1325.04
486.299	1278.94
486.755	1236.04
487.212	1058.84
487.668	904.54
488.125	833.24
488.582	771.24
489.038	750.04
489.494	716.94
489.951	692.34
490.407	680.34
490.864	660.64
491.32	663.44
491.776	659.04
492.233	658.54
492.689	617.64
493.145	625.34
493.602	615.54
494.058	631.54
494.514	635.24
494.97	643.54
495.426	668.64
495.882	630.94
496.338	623.14
496.794	644.24
497.251	630.24
497.707	643.84
498.163	643.74
498.618	655.34
499.074	652.64
499.53	679.04
499.986	681.94
500.442	662.64
500.898	640.84
501.354	636.04
501.809	647.74
502.265	642.14
502.721	647.64
503.177	650.64
503.632	657.14
504.088	669.64
504.543	678.94
504.999	715.04
505.455	677.54
505.91	654.24
506.366	658.14
506.821	657.34
507.277	654.74
507.732	663.04
508.187	646.34
508.643	661.54
509.098	655.44
509.553	683.94
510.009	694.34
510.464	702.24
510.919	715.64
511.375	730.04
511.83	737.64
512.285	749.14
512.74	774.84
513.195	806.64
513.65	789.24
514.105	786.54
514.56	798.94
515.015	817.84
515.47	823.64
515.925	807.54
516.38	804.44
516.835	820.04
517.29	798.34
517.745	797.34
518.2	790.34
518.655	782.34
519.109	756.94
519.564	771.74
520.019	751.54
520.474	745.04
520.928	749.84
521.383	740.34
521.838	740.04
522.292	727.94
522.747	739.44
523.201	736.14
523.656	718.94
524.11	717.24
524.565	719.34
525.019	721.94
525.474	728.74
525.928	723.54
526.382	720.94
526.837	728.04
527.291	729.14
527.745	722.94
528.2	727.14
528.654	715.24
529.108	709.44
529.562	717.14
530.016	710.24
530.47	728.24
530.925	715.74
531.379	730.54
531.833	716.64
532.287	723.14
532.741	714.24
533.195	721.04
533.649	717.64
534.103	740.54
534.556	723.94
535.01	731.64
535.464	737.74
535.918	735.24
536.372	738.04
536.826	743.54
537.279	728.94
537.733	731.94
538.187	739.34
538.64	735.64
539.094	745.94
539.548	756.84
540.001	748.74
540.455	751.54
540.908	760.04
541.362	769.34
541.815	782.94
542.269	780.14
542.722	787.04
543.175	810.04
543.629	806.94
544.082	818.14
544.536	817.54
544.989	819.74
545.442	823.14
545.895	823.84
546.349	825.24
546.802	835.64
547.255	829.84
547.708	844.54
548.161	848.74
548.614	865.64
549.067	862.94
549.52	860.24
549.973	840.94
550.426	839.14
550.879	827.84
551.332	847.74
551.785	845.84
552.238	848.24
552.691	861.84
553.144	873.94
553.596	893.14
554.049	907.04
554.502	924.94
554.955	949.04
555.407	950.14
555.86	942.94
556.313	940.54
556.765	920.14
557.218	919.64
557.67	925.64
558.123	919.24
558.576	909.54
559.028	913.64
559.48	918.84
559.933	916.24
560.385	890.84
560.838	848.34
561.29	830.74
561.742	824.44
562.195	804.14
562.647	805.24
563.099	825.84
563.551	807.64
564.004	823.94
564.456	809.74
564.908	790.94
565.36	772.74
565.812	761.24
566.264	753.14
566.716	748.54
567.168	734.44
567.62	748.64
568.072	728.74
568.524	727.94
568.976	725.34
569.428	712.74
569.88	702.04
570.332	723.84
570.784	723.04
571.235	719.74
571.687	728.94
572.139	737.34
572.59	747.64
573.042	743.84
573.494	740.64
573.945	750.04
574.397	727.54
574.849	721.04
575.3	732.64
575.752	715.54
576.203	718.94
576.655	724.14
577.106	700.94
577.557	701.74
578.009	691.54
578.46	696.74
578.912	699.84
579.363	702.34
579.814	692.24
580.265	695.34
580.717	696.94
581.168	706.64
581.619	712.84
582.07	709.14
582.521	713.04
582.972	692.74
583.423	703.34
583.875	710.94
584.326	709.14
584.777	715.14
585.227	747.54
585.678	759.04
586.129	781.84
586.58	795.74
587.031	819.44
587.482	845.64
587.933	870.54
588.384	860.64
588.834	818.44
589.285	813.94
589.736	808.74
590.186	821.14
590.637	793.54
591.088	778.44
591.538	769.84
591.989	762.24
592.439	756.94
592.89	746.14
593.34	730.74
593.791	732.74
594.241	732.64
594.692	728.14
595.142	722.14
595.593	729.64
596.043	737.04
596.493	744.54
596.943	739.84
597.394	756.54
597.844	743.64
598.294	774.34
598.744	792.84
599.195	822.44
599.645	870.54
600.095	906.74
600.545	974.54
600.995	1022.14
601.445	1066.54
601.895	1136.74
602.345	1183.64
602.795	1168.94
603.245	1123.24
603.695	1055.44
604.145	1000.64
604.594	968.64
605.044	908.54
605.494	855.54
605.944	797.44
606.393	788.34
606.843	763.34
607.293	774.34
607.743	753.84
608.192	772.24
608.642	792.04
609.091	785.14
609.541	800.94
609.99	804.44
610.44	800.14
610.889	752.24
611.339	720.94
611.788	720.14
612.238	723.44
612.687	748.74
613.136	728.94
613.586	741.54
614.035	739.14
614.484	748.84
614.933	743.44
615.383	740.84
615.832	734.34
616.281	726.14
616.73	706.74
617.179	682.34
617.628	679.04
618.077	662.34
618.526	647.44
618.975	642.54
619.424	639.44
619.873	635.64
620.322	646.14
620.771	637.94
621.22	627.44
621.669	617.24
622.118	614.64
622.567	610.24
623.015	597.34
623.464	601.14
623.913	584.94
624.361	577.64
624.81	583.04
625.259	580.24
625.707	585.34
626.156	583.04
626.604	601.24
627.053	593.74
627.501	592.14
627.95	600.14
628.398	610.94
628.847	603.94
629.295	603.84
629.744	609.64
630.192	602.94
630.64	582.14
631.089	579.54
631.537	564.84
631.985	559.44
632.433	551.04
632.881	547.94
633.33	549.54
633.778	558.94
634.226	548.84
634.674	554.54
635.122	561.24
635.57	577.04
636.018	589.44
636.466	593.24
636.914	591.54
637.362	594.84
637.81	610.64
638.258	623.04
638.705	611.54
639.153	644.84
639.601	660.74
640.049	682.04
640.497	700.84
640.944	732.34
641.392	681.04
641.84	641.44
642.287	610.14
642.735	599.34
643.182	587.74
643.63	592.64
644.078	598.34
644.525	600.54
644.973	609.64
645.42	617.84
645.867	645.54
646.315	660.24
646.762	681.24
647.21	710.24
647.657	725.54
648.104	760.74
648.551	786.54
648.999	851.44
649.446	922.14
649.893	1012.54
650.34	1160.34
650.787	1376.54
651.234	1708.84
651.682	2202.04
652.129	2980.24
652.576	4257.94
653.023	6203.54
653.47	8362.54
653.917	10222.64
654.363	11748.94
654.81	12845.44
655.257	12150.24
655.704	8094.94
656.151	4871.94
656.598	3216.24
657.044	2289.64
657.491	1801.84
657.938	1444.44
658.385	1220.04
658.831	1069.74
659.278	960.14
659.724	863.94
660.171	792.24
660.618	738.24
661.064	710.34
661.511	683.24
661.957	665.84
662.404	658.64
662.85	671.84
663.296	644.74
663.743	575.44
664.189	567.04
664.635	554.64
665.082	553.34
665.528	550.44
665.974	538.34
666.42	529.04
666.867	531.54
667.313	512.84
667.759	497.74
668.205	475.34
668.651	472.24
669.097	467.54
669.543	461.14
669.989	467.94
670.435	475.74
670.881	469.34
671.327	474.84
671.773	494.84
672.219	517.84
672.665	580.44
673.11	622.64
673.556	667.74
674.002	714.04
674.448	696.64
674.893	583.04
675.339	515.24
675.785	478.64
676.23	444.34
676.676	419.94
677.122	402.34
677.567	396.14
678.013	391.04
678.458	385.44
678.904	379.34
679.349	372.14
679.794	374.24
680.24	377.74
680.685	374.44
681.131	372.54
681.576	372.74
682.021	373.94
682.466	375.54
682.912	366.74
683.357	376.64
683.802	404.54
684.247	440.54
684.692	484.24
685.137	529.04
685.583	572.34
686.028	593.44
686.473	546.14
686.918	479.94
687.363	447.14
687.807	413.14
688.252	391.34
688.697	385.04
689.142	362.64
689.587	354.84
690.032	349.54
690.477	377.34
690.921	371.74
691.366	405.84
691.811	420.84
692.255	454.04
692.7	495.74
693.145	551.34
693.589	780.94
694.034	1257.74
694.478	1690.94
694.923	1862.04
695.367	2397.14
695.812	1289.54
696.256	541.04
696.701	387.04
697.145	356.74
697.59	353.94
698.034	341.64
698.478	353.04
698.922	339.74
699.367	339.14
699.811	361.44
700.255	374.64
700.699	413.24
701.143	452.94
701.588	514.04
702.032	555.34
702.476	544.64
702.92	529.44
703.364	536.44
703.808	710.14
704.252	1161.44
704.696	1604.14
705.14	1796.24
705.584	2274.24
706.027	1137.34
706.471	568.44
706.915	426.44
707.359	372.34
707.803	342.64
708.246	325.54
708.69	333.64
709.134	331.74
709.577	330.94
710.021	336.64
710.465	325.34
710.908	314.74
711.352	313.64
711.795	328.64
712.239	377.74
712.682	420.74
713.126	432.34
713.569	482.34
714.012	379.84
714.456	326.14
714.899	309.14
715.342	300.14
715.786	280.04
716.229	278.44
716.672	269.04
717.115	268.04
717.558	264.74
718.002	269.44
718.445	278.94
718.888	308.34
719.331	313.14
719.774	330.14
720.217	326.64
720.66	299.04
721.103	278.04
721.546	271.34
721.989	266.64
722.432	250.24
722.874	256.44
723.317	253.74
723.76	253.74
724.203	278.64
724.645	347.64
725.088	488.14
725.531	615.54
725.974	683.94
726.416	581.24
726.859	331.64
727.301	260.04
727.744	252.04
728.187	246.24
728.629	254.24
729.071	258.34
729.514	272.44
729.956	291.24
730.399	305.34
730.841	309.84
731.283	295.44
731.726	292.84
732.168	282.34
732.61	296.24
733.053	308.24
733.495	342.24
733.937	382.14
734.379	427.44
734.821	475.94
735.263	601.14
735.705	943.84
736.148	1789.54
736.59	2839.64
737.032	3237.54
737.474	2648.94
737.916	886.14
738.357	466.04
738.799	353.24
739.241	322.24
739.683	307.74
740.125	312.14
740.567	324.64
741.008	337.74
741.45	334.24
741.892	344.54
742.334	385.84
742.775	385.04
743.217	371.24
743.658	294.94
744.1	279.44
744.542	290.34
744.983	343.84
745.425	371.94
745.866	368.94
746.307	304.74
746.749	299.54
747.19	352.94
747.632	510.14
748.073	1017.84
748.514	2110.14
748.956	3111.24
749.397	3941.74
749.838	3248.74
750.279	3146.34
750.72	1623.24
751.162	611.24
751.603	355.94
752.044	266.94
752.485	230.04
752.926	223.24
753.367	207.54
753.808	207.24
754.249	202.64
754.69	202.04
755.131	197.54
755.572	198.04
756.013	191.64
756.453	195.94
756.894	204.44
757.335	208.44
757.776	208.44
758.216	213.34
758.657	206.54
759.098	215.84
759.538	238.34
759.979	292.74
760.42	420.94
760.86	815.54
761.301	2150.74
761.741	4990.24
762.182	6810.24
762.622	4828.24
763.063	1429.34
