Data from 20171114-ORNL-Ar_H_NY_Subt18_08-04-52-017.txt Node
Date: Tue Nov 14 08:04:52 EST 2017
User: Ender
Spectrometer: HR+D1039
Trigger mode: 0
Integration Time (sec): 2.730000E-2
Scans to average: 10
Electric dark correction enabled: true
Nonlinearity correction enabled: false
Boxcar width: 0
XAxis mode: Wavelengths
Number of Pixels in Spectrum: 2048
>>>>>Begin Spectral Data<<<<<
187.836	1.14
188.309	1.14
188.782	1.14
189.255	4.24
189.728	-0.06
190.201	2.54
190.674	-0.76
191.147	0.74
191.619	-13.96
192.092	2.74
192.565	4.14
193.038	0.84
193.511	3.94
193.984	2.34
194.456	0.24
194.929	0.14
195.402	-1.66
195.874	-6.66
196.347	-5.56
196.82	-9.76
197.292	4.44
197.765	-3.76
198.237	-10.76
198.71	3.04
199.182	-5.76
199.655	5.14
200.127	1.74
200.6	-3.76
201.072	-6.26
201.544	-5.36
202.017	-1.26
202.489	1.44
202.961	-5.36
203.433	-1.46
203.906	-5.26
204.378	-7.36
204.85	-3.16
205.322	-3.46
205.794	-5.26
206.266	-5.16
206.739	-2.86
207.211	1.64
207.683	-3.16
208.155	-5.66
208.627	-9.36
209.099	-8.36
209.57	-8.86
210.042	-7.86
210.514	-4.36
210.986	-5.56
211.458	-3.06
211.93	-5.06
212.402	5.14
212.873	-9.96
213.345	-9.36
213.817	-17.06
214.288	0.64
214.76	-15.86
215.232	-6.66
215.703	-2.86
216.175	-1.86
216.646	-4.86
217.118	-3.76
217.589	0.04
218.061	-5.66
218.532	-2.56
219.004	-2.86
219.475	-6.56
219.946	-0.36
220.418	-7.06
220.889	3.84
221.36	1.34
221.832	-0.56
222.303	-8.56
222.774	-4.56
223.245	-14.76
223.717	-4.76
224.188	-2.16
224.659	-10.66
225.13	-7.96
225.601	-4.26
226.072	1.54
226.543	-1.56
227.014	-1.16
227.485	-5.26
227.956	-11.26
228.427	-2.16
228.898	-2.26
229.369	2.14
229.839	-4.86
230.31	-4.36
230.781	0.84
231.252	-3.06
231.722	-4.66
232.193	-4.56
232.664	1.64
233.135	-0.56
233.605	-2.26
234.076	-8.16
234.546	1.44
235.017	0.94
235.487	6.44
235.958	-0.36
236.428	-5.26
236.899	6.34
237.369	2.74
237.84	0.84
238.31	6.44
238.78	5.94
239.251	-6.46
239.721	6.44
240.191	-0.06
240.662	2.94
241.132	1.74
241.602	-0.66
242.072	2.94
242.542	6.04
243.013	2.64
243.483	2.64
243.953	0.54
244.423	-3.16
244.893	2.14
245.363	3.54
245.833	9.04
246.303	5.64
246.773	12.44
247.243	4.84
247.712	1.14
248.182	10.34
248.652	6.94
249.122	2.14
249.592	10.44
250.061	25.44
250.531	33.04
251.001	18.54
251.471	20.04
251.94	20.34
252.41	10.54
252.879	7.14
253.349	9.14
253.818	12.44
254.288	3.24
254.757	3.34
255.227	5.04
255.696	4.64
256.166	4.94
256.635	9.64
257.105	8.24
257.574	5.44
258.043	7.84
258.513	13.24
258.982	14.54
259.451	12.34
259.92	12.44
260.389	8.24
260.859	18.04
261.328	11.44
261.797	20.54
262.266	13.94
262.735	13.24
263.204	5.04
263.673	0.24
264.142	5.44
264.611	-0.06
265.08	4.24
265.549	2.14
266.018	6.34
266.487	-0.56
266.955	0.34
267.424	-3.76
267.893	4.84
268.362	-2.36
268.83	5.44
269.299	8.44
269.768	5.14
270.236	11.74
270.705	-0.76
271.174	9.44
271.642	6.84
272.111	4.54
272.579	20.14
273.048	26.04
273.516	29.24
273.985	26.54
274.453	28.14
274.922	19.94
275.39	15.94
275.858	3.64
276.327	12.44
276.795	19.94
277.263	11.24
277.731	30.14
278.2	53.94
278.668	64.54
279.136	51.94
279.604	25.44
280.072	15.14
280.54	13.44
281.008	9.04
281.477	20.54
281.945	19.04
282.413	18.84
282.881	20.84
283.348	8.84
283.816	20.54
284.284	12.84
284.752	25.04
285.22	13.14
285.688	18.14
286.156	22.34
286.623	45.94
287.091	53.04
287.559	30.64
288.026	19.84
288.494	19.24
288.962	13.94
289.429	12.64
289.897	17.84
290.364	10.04
290.832	18.54
291.3	13.04
291.767	16.84
292.234	24.54
292.702	15.24
293.169	20.74
293.637	22.94
294.104	25.24
294.571	14.34
295.039	11.04
295.506	11.64
295.973	18.64
296.44	18.74
296.908	15.44
297.375	23.44
297.842	26.14
298.309	19.64
298.776	14.24
299.243	23.24
299.71	12.94
300.177	23.34
300.644	21.64
301.111	19.24
301.578	25.54
302.045	15.54
302.512	26.24
302.979	22.94
303.446	22.24
303.913	16.84
304.379	20.14
304.846	30.44
305.313	26.84
305.78	21.44
306.246	30.44
306.713	28.04
307.18	22.44
307.646	23.74
308.113	33.94
308.579	21.84
309.046	28.04
309.512	26.24
309.979	23.94
310.445	31.34
310.912	30.44
311.378	29.54
311.845	33.14
312.311	35.74
312.777	30.84
313.244	33.64
313.71	34.24
314.176	33.64
314.642	33.34
315.109	34.94
315.575	40.54
316.041	34.94
316.507	33.64
316.973	41.84
317.439	35.94
317.905	40.94
318.371	40.34
318.837	33.44
319.303	39.74
319.769	33.94
320.235	34.24
320.701	37.24
321.167	36.64
321.633	41.14
322.099	41.94
322.564	49.24
323.03	41.84
323.496	41.14
323.962	40.94
324.427	44.84
324.893	47.54
325.359	40.34
325.824	42.24
326.29	38.14
326.755	39.04
327.221	41.34
327.686	41.64
328.152	41.04
328.617	47.94
329.083	48.74
329.548	48.94
330.014	52.04
330.479	39.94
330.944	52.24
331.41	42.64
331.875	44.34
332.34	42.44
332.805	46.24
333.271	47.94
333.736	44.64
334.201	54.44
334.666	52.24
335.131	58.84
335.596	56.44
336.061	48.54
336.526	47.34
336.991	53.74
337.456	59.94
337.921	48.14
338.386	48.24
338.851	42.64
339.316	50.04
339.781	43.64
340.246	59.74
340.711	49.54
341.175	54.44
341.64	50.94
342.105	53.54
342.569	53.24
343.034	60.04
343.499	59.84
343.963	49.14
344.428	65.94
344.893	59.14
345.357	58.04
345.822	64.84
346.286	69.14
346.751	70.74
347.215	71.44
347.679	70.64
348.144	98.24
348.608	82.24
349.073	68.94
349.537	74.54
350.001	80.34
350.465	97.34
350.93	81.14
351.394	83.24
351.858	73.74
352.322	88.04
352.786	81.34
353.25	100.84
353.715	113.24
354.179	98.34
354.643	117.04
355.107	125.74
355.571	103.24
356.035	106.44
356.498	117.54
356.962	127.04
357.426	134.44
357.89	117.34
358.354	87.04
358.818	86.14
359.281	78.34
359.745	78.44
360.209	81.44
360.673	75.04
361.136	85.84
361.6	84.84
362.064	91.64
362.527	86.34
362.991	93.14
363.454	79.14
363.918	78.54
364.381	80.74
364.845	81.54
365.308	84.74
365.772	87.24
366.235	85.64
366.698	84.84
367.162	82.84
367.625	79.04
368.088	83.04
368.552	86.54
369.015	86.04
369.478	94.24
369.941	98.14
370.404	94.04
370.867	94.94
371.331	102.34
371.794	119.14
372.257	111.34
372.72	117.04
373.183	103.94
373.646	102.44
374.109	105.94
374.572	107.94
375.035	106.64
375.497	111.34
375.96	106.64
376.423	98.34
376.886	108.94
377.349	116.64
377.811	101.74
378.274	101.44
378.737	108.24
379.199	103.04
379.662	113.64
380.125	112.74
380.587	109.14
381.05	119.54
381.512	123.14
381.975	130.44
382.437	127.34
382.9	129.64
383.362	131.04
383.825	138.04
384.287	142.94
384.75	135.14
385.212	132.64
385.674	136.64
386.136	134.54
386.599	123.24
387.061	128.14
387.523	122.44
387.985	129.84
388.447	144.24
388.91	144.34
389.372	150.74
389.834	153.24
390.296	140.74
390.758	143.04
391.22	166.14
391.682	198.54
392.144	281.94
392.606	220.94
393.068	157.84
393.529	163.04
393.991	152.64
394.453	140.24
394.915	149.24
395.377	186.74
395.838	205.24
396.3	150.54
396.762	131.44
397.224	126.74
397.685	134.44
398.147	126.44
398.608	121.94
399.07	122.44
399.531	128.14
399.993	141.14
400.454	150.94
400.916	139.54
401.377	140.74
401.839	144.64
402.3	150.44
402.762	159.84
403.223	169.34
403.684	166.14
404.145	147.74
404.607	151.84
405.068	160.84
405.529	166.44
405.99	186.14
406.451	167.84
406.913	161.54
407.374	152.94
407.835	156.24
408.296	156.54
408.757	167.24
409.218	182.14
409.679	173.34
410.14	163.64
410.601	167.34
411.062	174.74
411.522	183.74
411.983	191.94
412.444	169.54
412.905	171.04
413.366	168.34
413.826	191.44
414.287	210.74
414.748	251.14
415.208	239.94
415.669	207.04
416.13	198.84
416.59	191.84
417.051	200.14
417.511	213.44
417.972	230.74
418.432	237.64
418.893	277.14
419.353	242.64
419.814	191.84
420.274	169.24
420.734	173.54
421.195	183.14
421.655	185.94
422.115	181.44
422.576	181.44
423.036	189.54
423.496	200.74
423.956	203.54
424.416	221.94
424.876	247.24
425.336	246.84
425.797	256.84
426.257	246.34
426.717	225.74
427.177	225.44
427.637	217.14
428.097	228.94
428.556	230.94
429.016	261.84
429.476	245.54
429.936	256.54
430.396	266.04
430.856	278.04
431.315	299.44
431.775	338.34
432.235	371.24
432.694	342.34
433.154	347.24
433.614	365.84
434.073	325.74
434.533	270.04
434.993	257.44
435.452	270.14
435.912	278.84
436.371	276.84
436.83	267.14
437.29	255.74
437.749	230.54
438.209	233.04
438.668	262.24
439.127	266.74
439.587	253.74
440.046	235.84
440.505	251.34
440.964	270.54
441.424	306.34
441.883	297.54
442.342	245.14
442.801	212.84
443.26	211.54
443.719	219.64
444.178	208.24
444.637	203.24
445.096	197.54
445.555	214.14
446.014	211.34
446.473	218.44
446.932	223.34
447.391	213.74
447.849	218.44
448.308	205.24
448.767	211.74
449.226	226.14
449.685	225.54
450.143	237.74
450.602	226.34
451.061	221.34
451.519	217.24
451.978	224.64
452.436	223.34
452.895	229.94
453.353	242.54
453.812	228.34
454.27	220.14
454.729	233.44
455.187	230.44
455.646	231.24
456.104	240.74
456.562	243.14
457.021	259.94
457.479	249.64
457.937	261.14
458.395	244.74
458.854	236.74
459.312	241.34
459.77	257.44
460.228	240.34
460.686	231.84
461.144	239.04
461.602	227.24
462.06	235.44
462.518	235.74
462.976	237.44
463.434	244.74
463.892	250.84
464.35	265.34
464.808	275.44
465.266	255.44
465.724	255.24
466.181	264.24
466.639	251.54
467.097	280.44
467.555	282.34
468.012	287.84
468.47	299.74
468.928	316.44
469.385	320.04
469.843	334.04
470.3	332.64
470.758	347.84
471.215	371.34
471.673	388.34
472.13	384.34
472.588	396.24
473.045	358.04
473.503	353.24
473.96	384.14
474.417	389.84
474.875	409.54
475.332	452.94
475.789	441.54
476.246	446.44
476.704	464.44
477.161	488.34
477.618	504.44
478.075	539.84
478.532	590.44
478.989	656.74
479.446	772.84
479.903	737.64
480.36	775.34
480.817	823.64
481.274	933.04
481.731	1025.44
482.188	1113.14
482.645	1248.64
483.102	1359.24
483.558	1495.74
484.015	1552.04
484.472	1516.44
484.929	1465.14
485.385	1423.94
485.842	1385.34
486.299	1323.04
486.755	1235.84
487.212	1045.04
487.668	888.24
488.125	818.94
488.582	753.94
489.038	719.94
489.494	698.34
489.951	662.04
490.407	634.04
490.864	624.34
491.32	616.64
491.776	613.14
492.233	615.74
492.689	583.74
493.145	580.44
493.602	575.84
494.058	584.74
494.514	584.94
494.97	613.04
495.426	619.54
495.882	595.14
496.338	589.04
496.794	605.34
497.251	591.54
497.707	612.44
498.163	614.04
498.618	620.84
499.074	622.24
499.53	659.94
499.986	650.64
500.442	627.34
500.898	606.54
501.354	597.34
501.809	613.94
502.265	623.84
502.721	633.04
503.177	640.04
503.632	629.34
504.088	642.54
504.543	681.14
504.999	687.84
505.455	631.44
505.91	605.74
506.366	596.54
506.821	602.14
507.277	590.74
507.732	591.84
508.187	587.24
508.643	596.14
509.098	602.34
509.553	626.24
510.009	632.14
510.464	642.54
510.919	663.44
511.375	656.34
511.83	682.44
512.285	699.34
512.74	725.84
513.195	755.54
513.65	745.74
514.105	736.14
514.56	742.64
515.015	768.24
515.47	773.54
515.925	749.84
516.38	759.64
516.835	766.94
517.29	752.54
517.745	742.24
518.2	729.94
518.655	716.44
519.109	716.14
519.564	719.34
520.019	691.94
520.474	693.64
520.928	695.04
521.383	699.74
521.838	683.94
522.292	679.14
522.747	679.54
523.201	680.94
523.656	666.14
524.11	662.54
524.565	662.04
525.019	656.44
525.474	675.04
525.928	673.14
526.382	668.04
526.837	667.94
527.291	677.44
527.745	672.94
528.2	665.74
528.654	664.94
529.108	654.94
529.562	662.14
530.016	658.04
530.47	655.74
530.925	665.74
531.379	662.64
531.833	673.54
532.287	669.24
532.741	676.04
533.195	679.04
533.649	681.54
534.103	674.84
534.556	677.94
535.01	676.34
535.464	676.14
535.918	683.44
536.372	681.64
536.826	683.74
537.279	665.94
537.733	678.44
538.187	680.74
538.64	680.84
539.094	698.44
539.548	697.34
540.001	693.84
540.455	683.84
540.908	699.14
541.362	695.24
541.815	717.54
542.269	724.14
542.722	715.54
543.175	738.94
543.629	727.04
544.082	746.84
544.536	743.44
544.989	734.74
545.442	754.14
545.895	750.54
546.349	753.94
546.802	749.14
547.255	754.34
547.708	765.04
548.161	773.14
548.614	783.34
549.067	793.74
549.52	769.54
549.973	769.34
550.426	760.64
550.879	755.74
551.332	755.24
551.785	769.84
552.238	765.24
552.691	771.04
553.144	788.24
553.596	794.34
554.049	815.64
554.502	844.24
554.955	867.74
555.407	860.54
555.86	861.04
556.313	845.84
556.765	840.84
557.218	843.64
557.67	843.04
558.123	824.44
558.576	817.64
559.028	825.24
559.48	836.54
559.933	823.84
560.385	787.84
560.838	763.04
561.29	737.94
561.742	732.74
562.195	718.44
562.647	720.14
563.099	730.54
563.551	723.54
564.004	736.64
564.456	731.24
564.908	725.74
565.36	693.44
565.812	688.34
566.264	679.34
566.716	679.54
567.168	670.44
567.62	688.94
568.072	659.34
568.524	646.54
568.976	641.64
569.428	632.84
569.88	635.14
570.332	637.24
570.784	637.34
571.235	643.24
571.687	649.04
572.139	660.44
572.59	667.74
573.042	661.84
573.494	667.74
573.945	655.34
574.397	637.24
574.849	647.94
575.3	647.54
575.752	638.84
576.203	635.14
576.655	638.44
577.106	629.84
577.557	614.94
578.009	612.04
578.46	619.64
578.912	619.24
579.363	619.94
579.814	617.74
580.265	620.14
580.717	619.34
581.168	631.94
581.619	627.14
582.07	634.44
582.521	634.64
582.972	620.74
583.423	636.14
583.875	637.14
584.326	656.34
584.777	692.84
585.227	765.54
585.678	843.44
586.129	937.64
586.58	992.24
587.031	1082.74
587.482	1239.24
587.933	1419.64
588.384	1219.74
588.834	910.14
589.285	747.54
589.736	726.24
590.186	720.34
590.637	711.24
591.088	692.34
591.538	678.14
591.989	685.34
592.439	676.34
592.89	670.44
593.34	656.44
593.791	662.04
594.241	659.84
594.692	651.34
595.142	644.84
595.593	648.04
596.043	652.04
596.493	663.54
596.943	667.04
597.394	660.24
597.844	655.44
598.294	673.94
598.744	697.34
599.195	708.54
599.645	740.24
600.095	780.14
600.545	841.64
600.995	886.84
601.445	947.34
601.895	1008.04
602.345	1047.84
602.795	1025.64
603.245	982.24
603.695	934.14
604.145	875.44
604.594	841.44
605.044	785.74
605.494	735.94
605.944	688.64
606.393	685.44
606.843	667.44
607.293	670.04
607.743	661.54
608.192	673.54
608.642	696.84
609.091	701.54
609.541	705.24
609.99	706.34
610.44	692.24
610.889	670.64
611.339	633.84
611.788	626.84
612.238	637.04
612.687	659.24
613.136	648.24
613.586	673.84
614.035	676.84
614.484	695.74
614.933	687.94
615.383	682.44
615.832	672.04
616.281	662.84
616.73	627.14
617.179	603.54
617.628	590.34
618.077	579.24
618.526	563.94
618.975	559.54
619.424	559.54
619.873	564.44
620.322	562.14
620.771	549.74
621.22	545.74
621.669	540.24
622.118	535.74
622.567	531.44
623.015	522.14
623.464	525.04
623.913	512.34
624.361	504.14
624.81	496.24
625.259	511.84
625.707	505.94
626.156	509.94
626.604	515.94
627.053	509.44
627.501	506.94
627.95	511.64
628.398	526.04
628.847	519.44
629.295	511.74
629.744	519.94
630.192	509.64
630.64	510.44
631.089	504.64
631.537	521.64
631.985	529.84
632.433	542.84
632.881	553.84
633.33	585.74
633.778	570.24
634.226	515.74
634.674	514.54
635.122	522.64
635.57	533.74
636.018	563.44
636.466	525.04
636.914	499.24
637.362	513.74
637.81	517.44
638.258	513.94
638.705	520.24
639.153	548.34
639.601	543.84
640.049	563.04
640.497	600.94
640.944	613.54
641.392	581.44
641.84	554.04
642.287	527.74
642.735	516.64
643.182	521.44
643.63	507.44
644.078	512.94
644.525	529.84
644.973	536.14
645.42	535.74
645.867	555.74
646.315	571.24
646.762	595.84
647.21	619.74
647.657	635.84
648.104	666.24
648.551	698.74
648.999	748.84
649.446	822.74
649.893	900.34
650.34	1034.54
650.787	1243.44
651.234	1544.94
651.682	2006.54
652.129	2720.84
652.576	3916.64
653.023	5794.24
653.47	7990.04
653.917	10094.14
654.363	11766.14
654.81	13167.64
655.257	12502.64
655.704	8129.84
656.151	4801.14
656.598	3114.64
657.044	2216.04
657.491	1690.24
657.938	1337.44
658.385	1116.34
658.831	963.44
659.278	868.54
659.724	769.24
660.171	706.44
660.618	644.14
661.064	609.84
661.511	599.54
661.957	583.44
662.404	574.14
662.85	588.74
663.296	541.94
663.743	508.84
664.189	481.84
664.635	471.64
665.082	473.24
665.528	475.04
665.974	467.74
666.42	457.74
666.867	444.64
667.313	440.94
667.759	413.64
668.205	416.84
668.651	435.74
669.097	431.74
669.543	442.44
669.989	422.84
670.435	401.24
670.881	397.44
671.327	399.64
671.773	415.44
672.219	435.44
672.665	480.64
673.11	510.64
673.556	556.64
674.002	598.74
674.448	591.84
674.893	489.94
675.339	416.44
675.785	390.84
676.23	367.74
676.676	352.14
677.122	337.34
677.567	337.44
678.013	314.44
678.458	318.14
678.904	313.94
679.349	306.14
679.794	306.14
680.24	306.74
680.685	308.24
681.131	300.14
681.576	304.94
682.021	313.44
682.466	308.84
682.912	310.94
683.357	310.74
683.802	335.34
684.247	356.84
684.692	390.34
685.137	438.74
685.583	474.14
686.028	499.64
686.473	455.14
686.918	392.64
687.363	369.14
687.807	347.64
688.252	315.44
688.697	312.24
689.142	290.54
689.587	293.74
690.032	287.74
690.477	304.04
690.921	301.44
691.366	339.64
691.811	351.24
692.255	376.04
692.7	412.54
693.145	436.24
693.589	600.74
694.034	967.44
694.478	1346.44
694.923	1549.44
695.367	2043.54
695.812	1069.44
696.256	440.84
696.701	321.64
697.145	301.24
697.59	288.04
698.034	283.14
698.478	289.54
698.922	286.44
699.367	282.94
699.811	292.54
700.255	302.04
700.699	332.54
701.143	365.44
701.588	413.04
702.032	460.24
702.476	453.64
702.92	430.94
703.364	438.74
703.808	551.34
704.252	892.34
704.696	1277.04
705.14	1486.44
705.584	1938.84
706.027	938.14
706.471	451.34
706.915	350.74
707.359	309.94
707.803	280.24
708.246	273.34
708.69	268.54
709.134	276.34
709.577	270.24
710.021	282.64
710.465	264.54
710.908	266.94
711.352	258.44
711.795	273.34
712.239	308.04
712.682	333.24
713.126	368.84
713.569	405.84
714.012	323.84
714.456	288.64
714.899	263.24
715.342	236.34
715.786	221.64
716.229	225.44
716.672	229.34
717.115	207.44
717.558	223.14
718.002	225.94
718.445	238.84
718.888	252.14
719.331	253.04
719.774	264.84
720.217	267.04
720.66	242.04
721.103	239.24
721.546	229.24
721.989	221.74
722.432	204.04
722.874	201.94
723.317	198.44
723.76	206.14
724.203	218.84
724.645	261.14
725.088	385.14
725.531	494.74
725.974	576.14
726.416	488.94
726.859	259.84
727.301	213.34
727.744	207.64
728.187	201.54
728.629	213.54
729.071	209.84
729.514	222.24
729.956	226.94
730.399	249.84
730.841	255.94
731.283	244.04
731.726	234.14
732.168	229.14
732.61	231.34
733.053	252.54
733.495	274.84
733.937	305.14
734.379	345.84
734.821	370.54
735.263	465.44
735.705	714.44
736.148	1338.84
736.59	2242.84
737.032	2743.34
737.474	2215.24
737.916	708.54
738.357	378.74
738.799	286.84
739.241	265.54
739.683	248.44
740.125	249.54
740.567	263.34
741.008	277.04
741.45	274.74
741.892	274.84
742.334	298.84
742.775	310.94
743.217	294.54
743.658	233.34
744.1	215.34
744.542	229.74
744.983	264.44
745.425	299.04
745.866	301.34
746.307	250.44
746.749	248.84
747.19	285.64
747.632	385.34
748.073	741.44
748.514	1580.44
748.956	2495.64
749.397	3122.84
749.838	2580.84
750.279	2646.34
750.72	1318.24
751.162	476.64
751.603	273.84
752.044	223.94
752.485	191.64
752.926	185.14
753.367	177.74
753.808	165.64
754.249	160.94
754.69	162.94
755.131	161.64
755.572	159.24
756.013	159.44
756.453	155.14
756.894	160.74
757.335	162.34
757.776	170.54
758.216	171.34
758.657	166.64
759.098	182.74
759.538	199.94
759.979	226.44
760.42	315.34
760.86	588.24
761.301	1531.74
761.741	3772.34
762.182	5790.34
762.622	4075.74
