Data from 20171114-ORNL-Ar_H_NY_Subt18_08-05-34-874.txt Node
Date: Tue Nov 14 08:05:34 EST 2017
User: Ender
Spectrometer: HR+D1039
Trigger mode: 0
Integration Time (sec): 2.730000E-2
Scans to average: 10
Electric dark correction enabled: true
Nonlinearity correction enabled: false
Boxcar width: 0
XAxis mode: Wavelengths
Number of Pixels in Spectrum: 2048
>>>>>Begin Spectral Data<<<<<
187.836	-0.66
188.309	-0.66
188.782	-0.66
189.255	-1.06
189.728	2.34
190.201	3.84
190.674	0.64
191.147	3.24
191.619	-8.16
192.092	1.04
192.565	6.14
193.038	-0.66
193.511	-3.86
193.984	2.64
194.456	-1.56
194.929	-2.66
195.402	1.84
195.874	-3.16
196.347	-0.26
196.82	-5.76
197.292	5.44
197.765	2.64
198.237	-10.66
198.71	-1.16
199.182	-2.56
199.655	1.44
200.127	-3.66
200.6	-4.46
201.072	-0.36
201.544	-4.66
202.017	-0.76
202.489	5.84
202.961	0.74
203.433	-4.96
203.906	-5.86
204.378	-7.16
204.85	-3.26
205.322	-4.46
205.794	-6.66
206.266	-7.16
206.739	-4.96
207.211	2.04
207.683	-7.66
208.155	-6.16
208.627	-8.06
209.099	-2.46
209.57	-10.86
210.042	-3.56
210.514	-5.06
210.986	-6.76
211.458	-11.06
211.93	-1.46
212.402	-1.96
212.873	-10.06
213.345	-6.96
213.817	-10.16
214.288	-3.16
214.76	-9.16
215.232	-4.16
215.703	0.74
216.175	-7.56
216.646	-4.66
217.118	-8.76
217.589	-1.56
218.061	-2.46
218.532	-1.66
219.004	-6.76
219.475	-2.76
219.946	-0.46
220.418	-5.36
220.889	-1.46
221.36	1.34
221.832	-1.36
222.303	-9.46
222.774	-1.06
223.245	-7.86
223.717	-8.56
224.188	-4.46
224.659	-7.26
225.13	-3.36
225.601	-2.96
226.072	1.94
226.543	-2.06
227.014	4.84
227.485	1.04
227.956	-4.56
228.427	4.14
228.898	1.24
229.369	0.74
229.839	-4.56
230.31	-7.06
230.781	-0.66
231.252	-5.16
231.722	-5.16
232.193	-2.76
232.664	-1.06
233.135	-2.56
233.605	-3.26
234.076	-7.96
234.546	6.84
235.017	0.74
235.487	4.14
235.958	5.64
236.428	1.64
236.899	2.74
237.369	1.34
237.84	-2.56
238.31	4.24
238.78	-1.96
239.251	1.44
239.721	3.64
240.191	-0.86
240.662	-5.26
241.132	1.34
241.602	-0.46
242.072	2.54
242.542	3.94
243.013	5.94
243.483	-0.86
243.953	4.84
244.423	3.54
244.893	-1.86
245.363	3.84
245.833	3.84
246.303	2.84
246.773	5.54
247.243	2.94
247.712	7.14
248.182	13.54
248.652	4.24
249.122	2.54
249.592	11.34
250.061	22.44
250.531	40.34
251.001	20.54
251.471	19.44
251.94	17.64
252.41	10.44
252.879	-1.56
253.349	15.54
253.818	4.84
254.288	7.14
254.757	8.84
255.227	1.64
255.696	7.54
256.166	10.24
256.635	17.14
257.105	14.24
257.574	10.14
258.043	10.24
258.513	15.54
258.982	19.94
259.451	8.74
259.92	14.64
260.389	9.54
260.859	23.74
261.328	16.74
261.797	21.74
262.266	13.44
262.735	9.24
263.204	9.34
263.673	-0.16
264.142	4.34
264.611	-5.46
265.08	5.14
265.549	1.74
266.018	15.74
266.487	1.14
266.955	1.04
267.424	0.44
267.893	6.94
268.362	4.44
268.83	2.14
269.299	14.04
269.768	7.74
270.236	7.44
270.705	4.44
271.174	8.44
271.642	9.64
272.111	10.14
272.579	18.34
273.048	23.94
273.516	29.04
273.985	29.24
274.453	26.34
274.922	21.14
275.39	19.24
275.858	5.14
276.327	10.44
276.795	17.94
277.263	11.04
277.731	34.94
278.2	55.14
278.668	67.04
279.136	50.54
279.604	25.24
280.072	20.94
280.54	14.14
281.008	13.14
281.477	17.64
281.945	6.94
282.413	18.34
282.881	18.74
283.348	14.44
283.816	18.94
284.284	14.04
284.752	22.54
285.22	10.44
285.688	17.84
286.156	21.74
286.623	46.34
287.091	52.54
287.559	32.24
288.026	19.04
288.494	21.04
288.962	5.24
289.429	16.04
289.897	20.94
290.364	16.94
290.832	11.54
291.3	19.74
291.767	15.84
292.234	19.74
292.702	13.54
293.169	23.14
293.637	28.54
294.104	24.14
294.571	9.34
295.039	16.14
295.506	15.94
295.973	13.64
296.44	21.94
296.908	21.64
297.375	23.64
297.842	20.44
298.309	20.14
298.776	12.44
299.243	26.34
299.71	12.94
300.177	23.44
300.644	20.54
301.111	16.54
301.578	25.94
302.045	21.54
302.512	27.04
302.979	27.14
303.446	20.64
303.913	16.34
304.379	18.84
304.846	31.44
305.313	22.94
305.78	25.94
306.246	28.84
306.713	30.04
307.18	31.54
307.646	28.34
308.113	33.24
308.579	29.74
309.046	26.74
309.512	30.94
309.979	24.24
310.445	31.24
310.912	27.94
311.378	33.24
311.845	31.04
312.311	31.64
312.777	33.24
313.244	37.44
313.71	38.14
314.176	35.54
314.642	37.84
315.109	37.34
315.575	37.64
316.041	44.04
316.507	33.54
316.973	42.84
317.439	38.84
317.905	35.24
318.371	38.74
318.837	32.04
319.303	34.24
319.769	40.64
320.235	38.24
320.701	36.04
321.167	36.24
321.633	40.84
322.099	34.64
322.564	41.64
323.03	39.24
323.496	39.54
323.962	40.34
324.427	40.44
324.893	47.04
325.359	38.94
325.824	40.24
326.29	34.44
326.755	43.44
327.221	39.24
327.686	40.54
328.152	50.14
328.617	46.94
329.083	54.24
329.548	51.94
330.014	52.04
330.479	42.34
330.944	46.84
331.41	44.74
331.875	50.94
332.34	51.54
332.805	46.94
333.271	50.74
333.736	42.14
334.201	56.94
334.666	56.94
335.131	52.64
335.596	51.44
336.061	62.74
336.526	46.74
336.991	48.74
337.456	55.54
337.921	50.14
338.386	54.04
338.851	49.54
339.316	54.04
339.781	51.44
340.246	49.94
340.711	50.84
341.175	51.44
341.64	45.84
342.105	53.04
342.569	50.74
343.034	59.94
343.499	59.74
343.963	53.94
344.428	64.74
344.893	62.84
345.357	61.84
345.822	66.44
346.286	71.04
346.751	70.34
347.215	75.44
347.679	77.24
348.144	103.34
348.608	89.54
349.073	76.94
349.537	76.94
350.001	83.44
350.465	89.04
350.93	83.14
351.394	86.34
351.858	80.44
352.322	88.74
352.786	91.24
353.25	108.84
353.715	112.04
354.179	104.34
354.643	124.14
355.107	127.34
355.571	115.74
356.035	116.54
356.498	122.84
356.962	132.34
357.426	136.64
357.89	123.24
358.354	95.14
358.818	91.54
359.281	84.34
359.745	85.24
360.209	76.74
360.673	73.54
361.136	85.94
361.6	89.74
362.064	86.54
362.527	91.14
362.991	90.54
363.454	84.74
363.918	81.14
364.381	81.24
364.845	81.44
365.308	94.74
365.772	87.44
366.235	90.94
366.698	89.24
367.162	91.74
367.625	88.14
368.088	88.04
368.552	90.24
369.015	92.84
369.478	98.04
369.941	105.84
370.404	100.34
370.867	107.84
371.331	109.64
371.794	115.34
372.257	112.24
372.72	124.74
373.183	110.14
373.646	109.84
374.109	105.24
374.572	109.04
375.035	109.74
375.497	110.24
375.96	108.64
376.423	102.44
376.886	114.84
377.349	112.74
377.811	107.44
378.274	104.54
378.737	104.04
379.199	113.54
379.662	114.44
380.125	119.44
380.587	117.64
381.05	124.24
381.512	135.24
381.975	137.44
382.437	135.04
382.9	131.14
383.362	137.44
383.825	149.14
384.287	142.54
384.75	148.34
385.212	145.74
385.674	144.54
386.136	139.04
386.599	126.54
387.061	130.04
387.523	125.24
387.985	137.54
388.447	144.24
388.91	144.74
389.372	156.04
389.834	153.24
390.296	148.44
390.758	156.84
391.22	173.94
391.682	207.04
392.144	292.44
392.606	230.54
393.068	179.34
393.529	170.84
393.991	161.24
394.453	147.44
394.915	155.24
395.377	193.04
395.838	213.34
396.3	162.14
396.762	138.04
397.224	135.54
397.685	134.14
398.147	135.34
398.608	137.54
399.07	133.84
399.531	139.24
399.993	144.44
400.454	164.54
400.916	151.04
401.377	142.84
401.839	148.24
402.3	150.94
402.762	171.24
403.223	178.54
403.684	173.54
404.145	157.04
404.607	164.64
405.068	165.44
405.529	168.44
405.99	195.44
406.451	179.44
406.913	178.54
407.374	163.24
407.835	169.14
408.296	166.14
408.757	179.34
409.218	185.14
409.679	187.34
410.14	177.64
410.601	176.84
411.062	191.34
411.522	191.14
411.983	193.44
412.444	180.24
412.905	184.34
413.366	183.54
413.826	200.04
414.287	220.84
414.748	264.44
415.208	254.64
415.669	214.84
416.13	207.94
416.59	195.84
417.051	217.34
417.511	222.24
417.972	236.64
418.432	246.04
418.893	287.54
419.353	258.44
419.814	197.64
420.274	183.94
420.734	179.74
421.195	199.34
421.655	196.14
422.115	196.54
422.576	190.64
423.036	200.84
423.496	207.14
423.956	218.84
424.416	232.04
424.876	267.84
425.336	265.24
425.797	260.44
426.257	250.84
426.717	242.84
427.177	227.14
427.637	229.14
428.097	244.54
428.556	251.24
429.016	273.34
429.476	272.24
429.936	265.14
430.396	279.04
430.856	288.24
431.315	317.84
431.775	355.14
432.235	390.94
432.694	357.94
433.154	366.44
433.614	395.14
434.073	340.34
434.533	291.14
434.993	272.14
435.452	288.24
435.912	300.04
436.371	289.74
436.83	285.94
437.29	281.14
437.749	252.84
438.209	243.44
438.668	276.24
439.127	285.54
439.587	273.64
440.046	250.84
440.505	267.84
440.964	275.54
441.424	332.44
441.883	316.14
442.342	260.94
442.801	226.94
443.26	210.44
443.719	225.24
444.178	222.44
444.637	212.94
445.096	221.74
445.555	225.44
446.014	228.14
446.473	234.44
446.932	239.34
447.391	227.34
447.849	232.64
448.308	219.44
448.767	226.64
449.226	243.64
449.685	242.24
450.143	251.04
450.602	236.14
451.061	230.54
451.519	241.14
451.978	238.34
452.436	233.64
452.895	248.64
453.353	256.74
453.812	240.24
454.27	244.64
454.729	243.54
455.187	244.04
455.646	247.84
456.104	248.64
456.562	266.44
457.021	272.64
457.479	256.24
457.937	275.14
458.395	267.64
458.854	256.64
459.312	260.64
459.77	278.44
460.228	255.94
460.686	243.74
461.144	247.44
461.602	240.44
462.06	236.44
462.518	259.04
462.976	264.84
463.434	265.14
463.892	266.54
464.35	289.14
464.808	294.94
465.266	260.84
465.724	270.74
466.181	277.14
466.639	276.14
467.097	295.64
467.555	306.64
468.012	304.24
468.47	321.54
468.928	332.84
469.385	352.74
469.843	352.24
470.3	356.34
470.758	369.64
471.215	388.54
471.673	415.74
472.13	420.94
472.588	423.94
473.045	371.34
473.503	373.64
473.96	394.74
474.417	408.84
474.875	445.64
475.332	482.14
475.789	466.64
476.246	468.44
476.704	493.64
477.161	506.24
477.618	527.94
478.075	564.74
478.532	625.44
478.989	696.94
479.446	822.14
479.903	783.04
480.36	824.44
480.817	867.14
481.274	984.24
481.731	1092.34
482.188	1187.74
482.645	1320.34
483.102	1434.44
483.558	1558.24
484.015	1628.44
484.472	1592.74
484.929	1537.04
485.385	1502.64
485.842	1465.84
486.299	1382.14
486.755	1326.44
487.212	1105.34
487.668	949.94
488.125	880.84
488.582	787.24
489.038	765.64
489.494	723.94
489.951	694.24
490.407	680.34
490.864	657.24
491.32	653.04
491.776	650.34
492.233	653.44
492.689	618.84
493.145	606.44
493.602	608.14
494.058	609.94
494.514	621.14
494.97	646.54
495.426	660.34
495.882	632.54
496.338	624.84
496.794	636.54
497.251	628.54
497.707	654.64
498.163	647.14
498.618	644.24
499.074	657.54
499.53	680.24
499.986	688.64
500.442	660.44
500.898	643.84
501.354	630.84
501.809	638.14
502.265	644.04
502.721	666.84
503.177	673.54
503.632	668.74
504.088	686.14
504.543	708.94
504.999	724.34
505.455	659.64
505.91	642.94
506.366	639.64
506.821	627.94
507.277	631.64
507.732	627.34
508.187	632.84
508.643	635.14
509.098	638.54
509.553	664.54
510.009	666.34
510.464	672.74
510.919	693.94
511.375	696.94
511.83	714.44
512.285	727.14
512.74	765.14
513.195	794.24
513.65	779.24
514.105	770.24
514.56	778.44
515.015	794.44
515.47	810.24
515.925	804.14
516.38	797.94
516.835	805.74
517.29	787.04
517.745	783.34
518.2	770.64
518.655	746.64
519.109	745.64
519.564	749.34
520.019	736.54
520.474	735.34
520.928	731.44
521.383	728.84
521.838	719.94
522.292	717.44
522.747	715.14
523.201	704.04
523.656	691.44
524.11	702.74
524.565	705.74
525.019	697.84
525.474	702.94
525.928	709.74
526.382	696.44
526.837	705.94
527.291	701.94
527.745	713.24
528.2	703.54
528.654	696.64
529.108	695.84
529.562	700.74
530.016	699.14
530.47	704.64
530.925	701.54
531.379	705.34
531.833	713.94
532.287	703.04
532.741	708.64
533.195	717.44
533.649	729.04
534.103	729.04
534.556	719.84
535.01	726.24
535.464	711.04
535.918	729.94
536.372	736.24
536.826	723.54
537.279	707.84
537.733	722.04
538.187	724.14
538.64	721.64
539.094	724.84
539.548	734.84
540.001	727.14
540.455	735.04
540.908	735.84
541.362	744.84
541.815	747.94
542.269	753.64
542.722	763.54
543.175	770.14
543.629	767.34
544.082	789.04
544.536	784.14
544.989	791.04
545.442	796.14
545.895	807.54
546.349	793.84
546.802	796.54
547.255	805.14
547.708	811.34
548.161	814.44
548.614	826.24
549.067	834.94
549.52	823.94
549.973	816.14
550.426	815.74
550.879	798.84
551.332	795.74
551.785	809.14
552.238	819.94
552.691	821.94
553.144	846.84
553.596	844.64
554.049	860.84
554.502	899.64
554.955	916.34
555.407	904.24
555.86	905.04
556.313	890.64
556.765	893.34
557.218	878.14
557.67	885.94
558.123	881.54
558.576	872.84
559.028	878.04
559.48	879.34
559.933	861.54
560.385	835.74
560.838	813.84
561.29	796.64
561.742	781.64
562.195	766.84
562.647	762.44
563.099	766.34
563.551	772.24
564.004	785.44
564.456	767.44
564.908	756.14
565.36	744.44
565.812	723.04
566.264	719.84
566.716	712.74
567.168	714.44
567.62	716.84
568.072	695.74
568.524	700.64
568.976	686.04
569.428	674.94
569.88	677.94
570.332	685.94
570.784	675.34
571.235	681.64
571.687	688.54
572.139	699.44
572.59	706.44
573.042	712.54
573.494	706.14
573.945	705.14
574.397	686.84
574.849	695.74
575.3	685.04
575.752	683.64
576.203	679.04
576.655	682.44
577.106	676.34
577.557	657.34
578.009	660.64
578.46	662.34
578.912	665.44
579.363	663.34
579.814	661.34
580.265	655.04
580.717	676.14
581.168	669.34
581.619	675.74
582.07	678.64
582.521	667.64
582.972	666.94
583.423	680.64
583.875	673.04
584.326	699.04
584.777	731.14
585.227	812.14
585.678	904.14
586.129	986.94
586.58	1065.64
587.031	1136.94
587.482	1301.24
587.933	1480.04
588.384	1278.04
588.834	966.24
589.285	799.24
589.736	775.14
590.186	775.34
590.637	760.24
591.088	737.04
591.538	729.84
591.989	719.54
592.439	715.04
592.89	705.84
593.34	700.34
593.791	704.74
594.241	694.84
594.692	703.84
595.142	689.04
595.593	691.84
596.043	696.44
596.493	702.94
596.943	708.54
597.394	706.74
597.844	705.44
598.294	720.04
598.744	747.94
599.195	757.64
599.645	811.94
600.095	844.24
600.545	902.64
600.995	941.74
601.445	1004.94
601.895	1083.84
602.345	1134.34
602.795	1093.44
603.245	1045.14
603.695	999.54
604.145	941.74
604.594	895.84
605.044	850.34
605.494	792.64
605.944	748.94
606.393	731.14
606.843	708.24
607.293	727.34
607.743	718.34
608.192	736.94
608.642	755.04
609.091	752.74
609.541	763.84
609.99	760.34
610.44	751.74
610.889	715.54
611.339	690.74
611.788	676.64
612.238	682.64
612.687	702.84
613.136	706.74
613.586	719.44
614.035	726.24
614.484	743.24
614.933	738.54
615.383	741.14
615.832	726.14
616.281	715.44
616.73	686.64
617.179	652.94
617.628	636.14
618.077	617.04
618.526	616.44
618.975	605.24
619.424	601.04
619.873	593.24
620.322	604.14
620.771	593.74
621.22	588.64
621.669	588.64
622.118	577.74
622.567	572.44
623.015	559.74
623.464	553.94
623.913	553.04
624.361	546.14
624.81	534.94
625.259	536.94
625.707	540.04
626.156	548.24
626.604	557.64
627.053	548.94
627.501	554.04
627.95	560.04
628.398	564.94
628.847	555.74
629.295	560.94
629.744	559.34
630.192	561.04
630.64	555.34
631.089	558.54
631.537	563.14
631.985	571.44
632.433	579.54
632.881	582.84
633.33	639.64
633.778	621.24
634.226	544.24
634.674	559.34
635.122	561.74
635.57	583.74
636.018	603.64
636.466	552.24
636.914	535.84
637.362	547.94
637.81	563.54
638.258	563.84
638.705	562.74
639.153	594.24
639.601	604.64
640.049	622.74
640.497	655.04
640.944	685.04
641.392	627.84
641.84	601.04
642.287	572.14
642.735	561.84
643.182	550.14
643.63	556.84
644.078	555.14
644.525	571.54
644.973	589.34
645.42	586.94
645.867	612.64
646.315	618.84
646.762	637.64
647.21	659.64
647.657	696.34
648.104	726.44
648.551	746.34
648.999	813.54
649.446	881.34
649.893	962.94
650.34	1119.24
650.787	1329.44
651.234	1665.84
651.682	2174.54
652.129	2968.14
652.576	4283.64
653.023	6345.34
653.47	8678.34
653.917	10925.44
654.363	12683.54
654.81	14077.84
655.257	13423.84
655.704	8772.14
656.151	5173.44
656.598	3343.14
657.044	2368.94
657.491	1803.54
657.938	1456.34
658.385	1212.94
658.831	1059.84
659.278	933.34
659.724	833.34
660.171	770.54
660.618	699.24
661.064	671.74
661.511	651.74
661.957	639.64
662.404	618.44
662.85	644.24
663.296	610.04
663.743	550.14
664.189	518.44
664.635	519.34
665.082	517.64
665.528	508.84
665.974	502.14
666.42	497.54
666.867	490.94
667.313	475.24
667.759	466.74
668.205	456.44
668.651	473.44
669.097	475.24
669.543	482.74
669.989	454.94
670.435	426.54
670.881	430.64
671.327	436.54
671.773	452.94
672.219	463.24
672.665	523.24
673.11	565.84
673.556	598.74
674.002	647.34
674.448	625.64
674.893	534.54
675.339	458.94
675.785	425.24
676.23	401.64
676.676	382.04
677.122	366.24
677.567	352.84
678.013	355.44
678.458	341.04
678.904	349.04
679.349	335.24
679.794	342.74
680.24	337.54
680.685	332.74
681.131	334.64
681.576	348.04
682.021	346.64
682.466	336.24
682.912	334.74
683.357	326.04
683.802	365.34
684.247	396.04
684.692	436.54
685.137	477.14
685.583	507.14
686.028	540.74
686.473	497.14
686.918	425.14
687.363	391.14
687.807	373.94
688.252	344.94
688.697	341.94
689.142	327.14
689.587	322.64
690.032	309.94
690.477	331.64
690.921	338.34
691.366	373.84
691.811	391.54
692.255	410.14
692.7	441.34
693.145	475.74
693.589	653.34
694.034	1064.04
694.478	1479.04
694.923	1665.14
695.367	2197.34
695.812	1150.84
696.256	473.24
696.701	359.24
697.145	332.44
697.59	317.84
698.034	309.04
698.478	312.24
698.922	307.34
699.367	309.04
699.811	324.84
700.255	337.84
700.699	365.44
701.143	409.54
701.588	451.84
702.032	487.44
702.476	487.74
702.92	466.44
703.364	466.44
703.808	591.44
704.252	971.64
704.696	1377.24
705.14	1608.94
705.584	2050.34
706.027	1025.24
706.471	497.34
706.915	383.94
707.359	334.74
707.803	309.74
708.246	297.04
708.69	306.44
709.134	300.74
709.577	294.94
710.021	302.94
710.465	287.64
710.908	287.04
711.352	288.54
711.795	299.24
712.239	332.34
712.682	365.14
713.126	399.74
713.569	442.94
714.012	355.44
714.456	307.04
714.899	288.24
715.342	253.34
715.786	256.54
716.229	247.24
716.672	241.34
717.115	232.34
717.558	232.64
718.002	238.84
718.445	256.94
718.888	275.14
719.331	275.54
719.774	286.64
720.217	288.74
720.66	277.64
721.103	251.14
721.546	238.64
721.989	234.14
722.432	222.04
722.874	231.84
723.317	221.74
723.76	232.34
724.203	237.74
724.645	295.24
725.088	425.34
725.531	546.24
725.974	610.14
726.416	524.34
726.859	297.14
727.301	236.04
727.744	228.54
728.187	224.74
728.629	236.64
729.071	234.44
729.514	256.84
729.956	261.84
730.399	273.84
730.841	280.94
731.283	263.04
731.726	253.94
732.168	243.64
732.61	249.44
733.053	270.04
733.495	298.14
733.937	333.64
734.379	372.94
734.821	416.84
735.263	514.74
735.705	784.84
736.148	1464.74
736.59	2439.54
737.032	2941.84
737.474	2382.54
737.916	766.84
738.357	401.44
738.799	312.14
739.241	283.34
739.683	260.24
740.125	280.24
740.567	282.04
741.008	297.34
741.45	302.94
741.892	298.24
742.334	331.54
742.775	340.84
743.217	329.14
743.658	254.04
744.1	240.14
744.542	246.04
744.983	295.84
745.425	324.24
745.866	329.04
746.307	271.74
746.749	267.84
747.19	303.44
747.632	426.04
748.073	812.54
748.514	1753.24
748.956	2709.74
749.397	3400.44
749.838	2810.44
750.279	2854.34
750.72	1434.44
751.162	532.44
751.603	304.74
752.044	233.04
752.485	208.74
752.926	195.04
753.367	192.84
753.808	185.04
754.249	181.04
754.69	177.04
755.131	168.54
755.572	172.04
756.013	168.24
756.453	170.64
756.894	176.44
757.335	187.74
757.776	180.84
758.216	191.84
758.657	186.64
759.098	186.74
759.538	215.54
759.979	247.74
760.42	348.94
760.86	656.64
761.301	1675.24
761.741	4141.14
762.182	6168.14
