Data from 20171114-ORNL-Ar_H_NY_Subt18_08-04-31-544.txt Node
Date: Tue Nov 14 08:04:31 EST 2017
User: Ender
Spectrometer: HR+D1039
Trigger mode: 0
Integration Time (sec): 2.730000E-2
Scans to average: 10
Electric dark correction enabled: true
Nonlinearity correction enabled: false
Boxcar width: 0
XAxis mode: Wavelengths
Number of Pixels in Spectrum: 2048
>>>>>Begin Spectral Data<<<<<
187.836	-7.24
188.309	-7.24
188.782	-7.24
189.255	0.86
189.728	0.46
190.201	0.86
190.674	2.46
191.147	-3.74
191.619	-6.04
192.092	2.16
192.565	7.26
193.038	1.26
193.511	-0.14
193.984	3.96
194.456	-3.84
194.929	3.66
195.402	-2.94
195.874	0.96
196.347	0.46
196.82	-8.84
197.292	6.26
197.765	-0.54
198.237	-3.34
198.71	3.66
199.182	-4.54
199.655	2.46
200.127	6.36
200.6	-1.64
201.072	5.56
201.544	-5.54
202.017	-6.54
202.489	4.56
202.961	-3.24
203.433	-3.94
203.906	-2.74
204.378	-1.54
204.85	-6.94
205.322	-6.44
205.794	1.36
206.266	-4.64
206.739	-6.94
207.211	-1.14
207.683	-6.14
208.155	-2.24
208.627	-0.24
209.099	0.16
209.57	-11.54
210.042	-5.34
210.514	0.16
210.986	-5.14
211.458	-12.54
211.93	-3.84
212.402	2.36
212.873	-7.44
213.345	-8.94
213.817	-10.34
214.288	-7.24
214.76	-12.94
215.232	-1.74
215.703	-8.34
216.175	-5.94
216.646	-1.34
217.118	-3.44
217.589	-5.94
218.061	-4.94
218.532	-1.84
219.004	3.76
219.475	1.06
219.946	0.96
220.418	-1.74
220.889	2.96
221.36	3.66
221.832	-4.04
222.303	-5.54
222.774	1.56
223.245	-5.74
223.717	-0.34
224.188	-8.84
224.659	-4.64
225.13	-2.94
225.601	-1.94
226.072	1.36
226.543	-2.74
227.014	3.26
227.485	0.56
227.956	-3.14
228.427	-6.54
228.898	-1.74
229.369	4.16
229.839	-2.04
230.31	-2.54
230.781	4.56
231.252	0.66
231.722	1.56
232.193	-3.24
232.664	0.86
233.135	3.76
233.605	0.46
234.076	-8.54
234.546	1.66
235.017	4.56
235.487	-1.34
235.958	-4.24
236.428	-1.84
236.899	1.86
237.369	6.36
237.84	-0.94
238.31	8.36
238.78	2.26
239.251	2.26
239.721	4.16
240.191	4.76
240.662	3.56
241.132	3.26
241.602	0.86
242.072	1.46
242.542	10.76
243.013	1.16
243.483	4.56
243.953	7.56
244.423	3.96
244.893	1.16
245.363	6.96
245.833	5.66
246.303	-1.44
246.773	6.76
247.243	1.86
247.712	6.36
248.182	5.26
248.652	10.36
249.122	3.46
249.592	12.26
250.061	23.86
250.531	40.96
251.001	19.86
251.471	25.86
251.94	24.96
252.41	7.46
252.879	3.56
253.349	19.66
253.818	12.46
254.288	5.06
254.757	5.86
255.227	3.46
255.696	8.06
256.166	8.06
256.635	6.86
257.105	10.06
257.574	5.06
258.043	8.96
258.513	9.46
258.982	19.36
259.451	10.16
259.92	13.96
260.389	11.06
260.859	18.36
261.328	18.06
261.797	16.26
262.266	9.66
262.735	11.36
263.204	6.96
263.673	-1.64
264.142	7.36
264.611	3.16
265.08	5.16
265.549	-0.24
266.018	4.06
266.487	1.46
266.955	-0.44
267.424	4.56
267.893	8.56
268.362	5.46
268.83	6.56
269.299	15.16
269.768	6.86
270.236	9.06
270.705	6.46
271.174	6.36
271.642	12.46
272.111	11.46
272.579	14.96
273.048	23.36
273.516	32.06
273.985	36.06
274.453	24.36
274.922	19.26
275.39	19.36
275.858	9.66
276.327	15.56
276.795	17.96
277.263	13.26
277.731	36.86
278.2	54.36
278.668	58.96
279.136	47.86
279.604	21.26
280.072	18.36
280.54	14.66
281.008	13.26
281.477	18.96
281.945	19.66
282.413	16.36
282.881	18.06
283.348	13.66
283.816	21.06
284.284	15.96
284.752	16.56
285.22	14.86
285.688	17.06
286.156	17.46
286.623	46.46
287.091	51.86
287.559	23.76
288.026	18.96
288.494	14.96
288.962	-0.44
289.429	9.46
289.897	22.46
290.364	13.96
290.832	19.16
291.3	15.06
291.767	19.56
292.234	23.96
292.702	14.16
293.169	22.66
293.637	29.26
294.104	18.16
294.571	6.96
295.039	12.46
295.506	15.96
295.973	20.26
296.44	16.36
296.908	22.66
297.375	22.56
297.842	23.16
298.309	17.36
298.776	14.36
299.243	19.36
299.71	9.56
300.177	19.46
300.644	20.66
301.111	25.46
301.578	28.36
302.045	12.66
302.512	24.86
302.979	26.26
303.446	18.26
303.913	16.96
304.379	20.66
304.846	24.46
305.313	30.96
305.78	23.76
306.246	30.46
306.713	24.86
307.18	32.66
307.646	28.26
308.113	31.96
308.579	28.16
309.046	26.76
309.512	29.06
309.979	19.26
310.445	25.96
310.912	24.96
311.378	33.96
311.845	34.46
312.311	33.66
312.777	29.86
313.244	27.36
313.71	39.36
314.176	30.56
314.642	32.06
315.109	33.16
315.575	38.56
316.041	37.86
316.507	33.36
316.973	40.46
317.439	34.06
317.905	38.86
318.371	41.46
318.837	36.36
319.303	27.36
319.769	31.86
320.235	33.76
320.701	38.96
321.167	34.56
321.633	27.36
322.099	40.66
322.564	42.36
323.03	42.26
323.496	39.26
323.962	44.26
324.427	38.96
324.893	38.06
325.359	43.06
325.824	33.96
326.29	37.96
326.755	39.56
327.221	40.16
327.686	40.26
328.152	45.66
328.617	40.76
329.083	48.26
329.548	50.66
330.014	43.56
330.479	47.16
330.944	47.66
331.41	44.66
331.875	45.46
332.34	45.26
332.805	45.36
333.271	47.76
333.736	45.86
334.201	58.36
334.666	57.46
335.131	58.86
335.596	52.76
336.061	50.06
336.526	46.96
336.991	48.26
337.456	60.26
337.921	53.16
338.386	42.96
338.851	47.66
339.316	46.16
339.781	46.66
340.246	53.86
340.711	47.16
341.175	55.46
341.64	48.76
342.105	46.06
342.569	51.06
343.034	55.16
343.499	56.06
343.963	51.96
344.428	59.26
344.893	61.76
345.357	56.76
345.822	56.36
346.286	67.56
346.751	71.66
347.215	71.96
347.679	69.46
348.144	95.26
348.608	75.66
349.073	71.76
349.537	69.76
350.001	74.96
350.465	86.46
350.93	80.56
351.394	82.56
351.858	67.26
352.322	87.36
352.786	78.96
353.25	89.46
353.715	101.86
354.179	92.56
354.643	118.56
355.107	122.36
355.571	102.46
356.035	92.86
356.498	110.96
356.962	116.86
357.426	129.76
357.89	110.16
358.354	83.96
358.818	73.76
359.281	76.06
359.745	75.86
360.209	82.36
360.673	77.06
361.136	76.86
361.6	81.06
362.064	73.36
362.527	84.36
362.991	83.86
363.454	78.16
363.918	72.26
364.381	74.96
364.845	78.06
365.308	81.96
365.772	87.26
366.235	79.56
366.698	86.56
367.162	82.66
367.625	85.66
368.088	78.16
368.552	86.26
369.015	83.76
369.478	90.86
369.941	92.26
370.404	86.36
370.867	98.36
371.331	105.86
371.794	108.96
372.257	105.06
372.72	111.56
373.183	100.96
373.646	98.66
374.109	97.56
374.572	103.36
375.035	99.66
375.497	103.76
375.96	95.26
376.423	94.96
376.886	105.26
377.349	99.86
377.811	95.96
378.274	95.46
378.737	91.76
379.199	110.06
379.662	99.36
380.125	109.86
380.587	106.06
381.05	116.06
381.512	117.06
381.975	131.86
382.437	117.66
382.9	109.46
383.362	121.66
383.825	137.96
384.287	138.66
384.75	129.26
385.212	130.66
385.674	132.66
386.136	124.06
386.599	119.76
387.061	120.46
387.523	118.16
387.985	122.76
388.447	131.46
388.91	130.36
389.372	145.56
389.834	139.36
390.296	136.56
390.758	144.46
391.22	157.56
391.682	191.46
392.144	267.46
392.606	217.46
393.068	159.56
393.529	152.26
393.991	138.36
394.453	132.16
394.915	149.26
395.377	176.86
395.838	204.76
396.3	147.56
396.762	131.86
397.224	120.26
397.685	120.36
398.147	116.86
398.608	119.36
399.07	116.96
399.531	125.16
399.993	132.56
400.454	138.66
400.916	131.16
401.377	127.26
401.839	139.56
402.3	143.26
402.762	151.26
403.223	161.26
403.684	164.46
404.145	152.06
404.607	148.96
405.068	152.76
405.529	152.26
405.99	174.06
406.451	160.66
406.913	159.96
407.374	155.16
407.835	149.56
408.296	154.46
408.757	158.86
409.218	166.56
409.679	160.06
410.14	167.36
410.601	165.56
411.062	163.46
411.522	173.66
411.983	172.86
412.444	163.16
412.905	164.96
413.366	176.46
413.826	180.86
414.287	208.56
414.748	238.36
415.208	227.06
415.669	198.76
416.13	184.26
416.59	185.16
417.051	189.56
417.511	196.26
417.972	218.66
418.432	224.76
418.893	260.06
419.353	234.76
419.814	182.56
420.274	167.06
420.734	159.86
421.195	178.56
421.655	179.16
422.115	175.86
422.576	178.06
423.036	182.86
423.496	193.56
423.956	197.46
424.416	209.26
424.876	238.26
425.336	237.96
425.797	240.46
426.257	233.96
426.717	221.76
427.177	208.66
427.637	202.16
428.097	215.36
428.556	226.46
429.016	250.06
429.476	242.16
429.936	251.26
430.396	255.46
430.856	265.06
431.315	288.56
431.775	316.16
432.235	345.06
432.694	320.46
433.154	330.16
433.614	348.96
434.073	308.96
434.533	260.16
434.993	247.56
435.452	266.06
435.912	271.46
436.371	262.26
436.83	251.06
437.29	244.16
437.749	227.86
438.209	218.86
438.668	246.26
439.127	267.26
439.587	240.16
440.046	227.96
440.505	235.06
440.964	250.76
441.424	294.46
441.883	279.16
442.342	233.96
442.801	209.76
443.26	203.26
443.719	201.96
444.178	191.26
444.637	193.46
445.096	202.26
445.555	204.46
446.014	211.16
446.473	205.96
446.932	211.06
447.391	203.86
447.849	209.06
448.308	198.26
448.767	201.16
449.226	220.76
449.685	217.36
450.143	234.26
450.602	218.06
451.061	209.06
451.519	217.56
451.978	218.96
452.436	215.26
452.895	218.66
453.353	223.46
453.812	215.36
454.27	220.16
454.729	218.76
455.187	218.06
455.646	229.56
456.104	219.46
456.562	244.16
457.021	240.86
457.479	242.06
457.937	249.06
458.395	233.76
458.854	226.96
459.312	231.06
459.77	247.96
460.228	234.36
460.686	226.56
461.144	223.26
461.602	223.26
462.06	216.86
462.518	231.56
462.976	233.36
463.434	241.36
463.892	238.26
464.35	252.56
464.808	266.76
465.266	247.56
465.724	258.16
466.181	254.06
466.639	245.16
467.097	263.86
467.555	280.66
468.012	280.16
468.47	286.46
468.928	305.26
469.385	314.16
469.843	327.46
470.3	312.76
470.758	330.06
471.215	350.56
471.673	366.66
472.13	363.86
472.588	380.16
473.045	339.26
473.503	342.56
473.96	354.96
474.417	365.36
474.875	401.66
475.332	426.26
475.789	421.56
476.246	431.66
476.704	449.26
477.161	464.96
477.618	479.46
478.075	509.46
478.532	559.36
478.989	634.76
479.446	731.76
479.903	710.36
480.36	748.96
480.817	800.96
481.274	900.66
481.731	999.26
482.188	1077.16
482.645	1214.46
483.102	1311.66
483.558	1431.46
484.015	1487.46
484.472	1456.96
484.929	1433.96
485.385	1387.16
485.842	1335.56
486.299	1288.76
486.755	1210.36
487.212	1018.96
487.668	857.96
488.125	782.56
488.582	720.36
489.038	700.26
489.494	658.06
489.951	637.06
490.407	624.36
490.864	600.76
491.32	592.46
491.776	586.36
492.233	588.56
492.689	565.26
493.145	547.16
493.602	555.56
494.058	565.36
494.514	573.36
494.97	587.56
495.426	597.06
495.882	562.36
496.338	564.36
496.794	586.06
497.251	574.06
497.707	588.36
498.163	590.56
498.618	600.16
499.074	597.36
499.53	618.56
499.986	616.86
500.442	604.46
500.898	577.66
501.354	579.26
501.809	592.96
502.265	593.66
502.721	611.16
503.177	614.36
503.632	617.06
504.088	612.46
504.543	654.96
504.999	654.06
505.455	611.96
505.91	588.86
506.366	580.16
506.821	579.16
507.277	583.56
507.732	572.66
508.187	567.06
508.643	589.26
509.098	581.66
509.553	604.66
510.009	612.96
510.464	625.36
510.919	629.56
511.375	633.36
511.83	646.26
512.285	660.56
512.74	704.66
513.195	719.16
513.65	706.26
514.105	705.96
514.56	708.56
515.015	735.66
515.47	747.56
515.925	733.56
516.38	721.06
516.835	736.66
517.29	726.46
517.745	717.06
518.2	687.36
518.655	687.56
519.109	680.06
519.564	687.86
520.019	675.06
520.474	663.96
520.928	666.76
521.383	661.06
521.838	658.96
522.292	646.46
522.747	650.86
523.201	654.66
523.656	630.66
524.11	631.96
524.565	633.46
525.019	631.26
525.474	639.66
525.928	637.96
526.382	641.56
526.837	636.56
527.291	649.56
527.745	641.66
528.2	636.06
528.654	632.96
529.108	627.16
529.562	624.66
530.016	629.16
530.47	623.86
530.925	634.86
531.379	626.76
531.833	650.16
532.287	641.46
532.741	640.46
533.195	645.76
533.649	652.86
534.103	669.26
534.556	652.86
535.01	650.26
535.464	646.66
535.918	660.46
536.372	659.96
536.826	660.76
537.279	639.86
537.733	650.36
538.187	654.36
538.64	650.26
539.094	651.86
539.548	662.06
540.001	661.46
540.455	651.56
540.908	662.06
541.362	660.46
541.815	678.66
542.269	693.16
542.722	689.86
543.175	684.66
543.629	701.26
544.082	712.76
544.536	724.16
544.989	712.46
545.442	718.36
545.895	719.26
546.349	714.76
546.802	711.16
547.255	719.56
547.708	728.46
548.161	737.36
548.614	736.16
549.067	750.56
549.52	740.96
549.973	737.76
550.426	746.46
550.879	715.96
551.332	719.86
551.785	731.86
552.238	739.46
552.691	741.86
553.144	750.66
553.596	757.26
554.049	778.66
554.502	815.36
554.955	819.46
555.407	824.56
555.86	814.26
556.313	805.46
556.765	796.66
557.218	799.86
557.67	798.06
558.123	788.16
558.576	786.26
559.028	791.86
559.48	804.16
559.933	790.76
560.385	753.16
560.838	726.36
561.29	704.76
561.742	700.06
562.195	683.86
562.647	686.46
563.099	694.66
563.551	702.66
564.004	701.56
564.456	700.26
564.908	691.46
565.36	681.96
565.812	663.36
566.264	656.46
566.716	645.86
567.168	637.46
567.62	656.56
568.072	630.36
568.524	630.86
568.976	609.66
569.428	607.96
569.88	591.56
570.332	611.16
570.784	612.66
571.235	610.26
571.687	616.76
572.139	630.86
572.59	629.36
573.042	640.46
573.494	637.26
573.945	635.36
574.397	610.46
574.849	604.96
575.3	620.16
575.752	607.36
576.203	602.06
576.655	616.96
577.106	600.86
577.557	598.56
578.009	597.06
578.46	590.16
578.912	595.06
579.363	586.06
579.814	592.56
580.265	592.76
580.717	594.36
581.168	605.66
581.619	603.56
582.07	610.56
582.521	599.56
582.972	592.76
583.423	603.36
583.875	602.06
584.326	619.26
584.777	667.66
585.227	732.76
585.678	817.26
586.129	896.96
586.58	976.76
587.031	1040.66
587.482	1200.46
587.933	1372.16
588.384	1180.96
588.834	867.66
589.285	704.96
589.736	690.66
590.186	689.66
590.637	676.26
591.088	663.76
591.538	650.46
591.989	646.06
592.439	651.86
592.89	630.76
593.34	626.06
593.791	632.36
594.241	628.16
594.692	632.16
595.142	617.26
595.593	605.76
596.043	617.16
596.493	623.96
596.943	631.16
597.394	636.36
597.844	634.56
598.294	635.96
598.744	661.46
599.195	680.96
599.645	720.26
600.095	756.36
600.545	801.76
600.995	850.76
601.445	893.56
601.895	956.46
602.345	999.06
602.795	975.96
603.245	931.36
603.695	883.06
604.145	839.76
604.594	802.76
605.044	747.46
605.494	708.16
605.944	663.86
606.393	656.26
606.843	641.16
607.293	636.56
607.743	632.76
608.192	656.86
608.642	658.76
609.091	660.76
609.541	662.46
609.99	663.06
610.44	667.26
610.889	630.46
611.339	612.46
611.788	596.06
612.238	607.56
612.687	616.26
613.136	628.96
613.586	649.36
614.035	638.16
614.484	656.16
614.933	658.86
615.383	653.86
615.832	650.86
616.281	617.36
616.73	595.16
617.179	579.86
617.628	561.46
618.077	547.76
618.526	535.96
618.975	536.76
619.424	520.26
619.873	532.86
620.322	534.16
620.771	529.16
621.22	521.86
621.669	509.16
622.118	504.86
622.567	508.06
623.015	495.46
623.464	491.16
623.913	488.66
624.361	478.06
624.81	477.66
625.259	473.26
625.707	479.26
626.156	483.56
626.604	491.26
627.053	484.36
627.501	486.06
627.95	497.96
628.398	495.16
628.847	491.96
629.295	499.26
629.744	492.46
630.192	488.56
630.64	486.86
631.089	487.86
631.537	495.96
631.985	504.06
632.433	509.76
632.881	523.96
633.33	562.16
633.778	539.26
634.226	481.26
634.674	488.46
635.122	484.66
635.57	508.56
636.018	537.16
636.466	498.16
636.914	480.86
637.362	486.06
637.81	490.16
638.258	502.26
638.705	495.96
639.153	524.46
639.601	525.66
640.049	545.56
640.497	568.26
640.944	597.76
641.392	548.76
641.84	522.76
642.287	498.06
642.735	485.06
643.182	494.16
643.63	488.86
644.078	492.06
644.525	501.96
644.973	502.66
645.42	509.66
645.867	530.66
646.315	538.86
646.762	563.36
647.21	589.66
647.657	619.76
648.104	649.46
648.551	661.16
648.999	716.56
649.446	780.46
649.893	852.86
650.34	982.96
650.787	1171.46
651.234	1463.26
651.682	1890.26
652.129	2598.26
652.576	3733.76
653.023	5544.16
653.47	7642.76
653.917	9691.76
654.363	11352.16
654.81	12725.56
655.257	12119.56
655.704	7833.66
656.151	4593.56
656.598	2958.06
657.044	2120.86
657.491	1612.46
657.938	1279.16
658.385	1071.46
658.831	933.46
659.278	820.36
659.724	731.06
660.171	676.66
660.618	615.86
661.064	590.96
661.511	562.46
661.957	551.56
662.404	546.16
662.85	539.56
663.296	531.46
663.743	474.56
664.189	458.56
664.635	451.96
665.082	452.96
665.528	444.96
665.974	435.86
666.42	429.76
666.867	424.56
667.313	410.56
667.759	406.26
668.205	402.06
668.651	409.06
669.097	416.36
669.543	430.96
669.989	400.96
670.435	373.06
670.881	374.96
671.327	376.66
671.773	391.86
672.219	414.86
672.665	456.46
673.11	485.86
673.556	537.36
674.002	569.56
674.448	555.36
674.893	462.36
675.339	400.66
675.785	368.66
676.23	344.56
676.676	327.76
677.122	323.66
677.567	309.46
678.013	307.86
678.458	298.46
678.904	301.36
679.349	288.36
679.794	299.56
680.24	295.46
680.685	286.86
681.131	289.86
681.576	290.76
682.021	297.66
682.466	293.56
682.912	286.06
683.357	299.46
683.802	323.26
684.247	345.86
684.692	381.76
685.137	412.76
685.583	445.96
686.028	471.16
686.473	435.86
686.918	375.06
687.363	345.66
687.807	325.36
688.252	294.16
688.697	290.96
689.142	275.86
689.587	273.26
690.032	279.26
690.477	291.36
690.921	291.56
691.366	313.46
691.811	337.46
692.255	358.26
692.7	379.86
693.145	410.86
693.589	553.56
694.034	925.96
694.478	1269.96
694.923	1476.36
695.367	1948.76
695.812	1010.06
696.256	419.66
696.701	310.76
697.145	287.26
697.59	272.96
698.034	274.76
698.478	282.66
698.922	275.46
699.367	272.56
699.811	287.96
700.255	293.36
700.699	322.46
701.143	355.96
701.588	395.76
702.032	436.56
702.476	430.16
702.92	405.56
703.364	405.16
703.808	509.66
704.252	826.96
704.696	1195.26
705.14	1413.86
705.584	1811.86
706.027	894.46
706.471	440.36
706.915	336.46
707.359	286.86
707.803	265.06
708.246	266.16
708.69	256.56
709.134	257.86
709.577	256.86
710.021	263.36
710.465	254.66
710.908	245.46
711.352	247.46
711.795	250.76
712.239	283.86
712.682	314.36
713.126	348.46
713.569	386.46
714.012	304.26
714.456	272.26
714.899	248.26
715.342	227.36
715.786	214.56
716.229	208.66
716.672	216.66
717.115	208.76
717.558	202.16
718.002	210.86
718.445	217.96
718.888	233.76
719.331	242.36
719.774	257.46
720.217	255.46
720.66	234.16
721.103	215.46
721.546	209.26
721.989	206.96
722.432	190.46
722.874	195.16
723.317	194.16
723.76	195.56
724.203	208.66
724.645	258.66
725.088	362.76
725.531	467.56
725.974	540.26
726.416	458.76
726.859	256.46
727.301	203.86
727.744	199.96
728.187	190.16
728.629	198.66
729.071	205.86
729.514	216.56
729.956	225.36
730.399	225.96
730.841	233.46
731.283	222.76
731.726	214.56
732.168	215.06
732.61	219.36
733.053	233.06
733.495	257.06
733.937	281.26
734.379	331.36
734.821	358.96
735.263	439.96
735.705	676.46
736.148	1266.36
736.59	2111.66
737.032	2619.46
737.474	2122.46
737.916	679.76
738.357	355.56
738.799	274.56
739.241	249.46
739.683	237.26
740.125	243.26
740.567	249.26
741.008	267.86
741.45	262.56
741.892	260.16
742.334	286.26
742.775	297.86
743.217	286.96
743.658	226.66
744.1	210.96
744.542	211.16
744.983	253.36
745.425	290.36
745.866	289.96
746.307	226.76
746.749	235.36
747.19	263.56
747.632	368.76
748.073	693.86
748.514	1491.96
748.956	2360.76
749.397	2946.06
749.838	2463.16
750.279	2506.36
750.72	1275.06
751.162	460.16
751.603	267.76
752.044	208.36
752.485	181.96
752.926	170.66
753.367	167.16
753.808	167.86
754.249	159.86
754.69	148.06
755.131	150.46
755.572	149.96
756.013	146.76
756.453	154.96
756.894	151.26
757.335	164.76
757.776	163.26
758.216	162.46
758.657	165.46
759.098	169.16
759.538	182.96
759.979	216.66
760.42	294.86
760.86	555.86
761.301	1439.96
761.741	3603.46
762.182	5568.96
762.622	3921.96
763.063	1111.86
763.503	446.86
