Data from 20171114-ORNL-Ar_H_NY_Subt18_08-08-06-922.txt Node
Date: Tue Nov 14 08:08:06 EST 2017
User: Ender
Spectrometer: HR+D1039
Trigger mode: 0
Integration Time (sec): 2.730000E-2
Scans to average: 10
Electric dark correction enabled: true
Nonlinearity correction enabled: false
Boxcar width: 0
XAxis mode: Wavelengths
Number of Pixels in Spectrum: 2048
>>>>>Begin Spectral Data<<<<<
187.836	-1.46
188.309	-1.46
188.782	-1.46
189.255	1.34
189.728	1.94
190.201	2.44
190.674	0.44
191.147	3.14
191.619	-11.56
192.092	2.74
192.565	6.04
193.038	0.44
193.511	2.64
193.984	5.84
194.456	-3.36
194.929	-4.66
195.402	-5.06
195.874	-0.96
196.347	1.64
196.82	-8.56
197.292	4.54
197.765	-5.96
198.237	-5.66
198.71	7.34
199.182	-6.76
199.655	2.04
200.127	8.24
200.6	2.54
201.072	-4.26
201.544	-7.06
202.017	4.54
202.489	9.94
202.961	-0.06
203.433	-1.66
203.906	-5.36
204.378	-6.76
204.85	-3.16
205.322	-0.96
205.794	1.54
206.266	-2.66
206.739	-6.66
207.211	1.44
207.683	-9.56
208.155	2.14
208.627	-8.86
209.099	-6.96
209.57	-4.06
210.042	-4.26
210.514	-4.96
210.986	-0.56
211.458	-6.96
211.93	0.14
212.402	3.04
212.873	-9.06
213.345	-3.26
213.817	-9.16
214.288	-3.96
214.76	-9.46
215.232	4.04
215.703	-4.56
216.175	-4.36
216.646	-6.56
217.118	-9.46
217.589	-2.86
218.061	-0.46
218.532	-5.36
219.004	2.14
219.475	-3.66
219.946	-3.86
220.418	0.44
220.889	2.34
221.36	-1.86
221.832	-0.56
222.303	-3.16
222.774	6.64
223.245	-5.76
223.717	-6.56
224.188	-3.26
224.659	-6.26
225.13	-1.76
225.601	-2.06
226.072	-0.46
226.543	-4.26
227.014	-2.06
227.485	-2.76
227.956	-6.96
228.427	-0.46
228.898	-1.36
229.369	6.14
229.839	-3.66
230.31	-4.26
230.781	0.84
231.252	-0.26
231.722	-3.06
232.193	-3.56
232.664	0.54
233.135	1.14
233.605	2.44
234.076	-5.46
234.546	0.94
235.017	4.54
235.487	4.64
235.958	0.24
236.428	-0.06
236.899	5.14
237.369	3.54
237.84	-3.76
238.31	0.74
238.78	2.74
239.251	6.64
239.721	2.64
240.191	-0.46
240.662	-2.56
241.132	2.14
241.602	-2.16
242.072	1.04
242.542	9.74
243.013	-2.06
243.483	2.04
243.953	2.14
244.423	-3.26
244.893	-1.76
245.363	-0.36
245.833	2.84
246.303	2.74
246.773	5.74
247.243	4.54
247.712	6.54
248.182	9.64
248.652	4.54
249.122	-0.06
249.592	3.24
250.061	17.84
250.531	31.64
251.001	19.64
251.471	18.84
251.94	22.04
252.41	9.04
252.879	-4.86
253.349	8.74
253.818	7.24
254.288	-1.76
254.757	-1.96
255.227	0.84
255.696	4.74
256.166	5.54
256.635	9.24
257.105	12.54
257.574	7.24
258.043	13.64
258.513	7.94
258.982	16.84
259.451	3.64
259.92	15.64
260.389	10.04
260.859	19.94
261.328	13.04
261.797	16.24
262.266	15.54
262.735	14.74
263.204	4.64
263.673	4.14
264.142	8.14
264.611	-3.06
265.08	1.24
265.549	0.24
266.018	7.54
266.487	1.14
266.955	3.04
267.424	4.14
267.893	7.74
268.362	7.04
268.83	6.04
269.299	17.04
269.768	8.24
270.236	6.54
270.705	0.34
271.174	7.94
271.642	13.34
272.111	12.24
272.579	12.84
273.048	25.24
273.516	26.14
273.985	29.14
274.453	23.74
274.922	22.14
275.39	11.44
275.858	2.14
276.327	7.74
276.795	18.04
277.263	9.64
277.731	31.64
278.2	49.14
278.668	56.14
279.136	45.14
279.604	12.64
280.072	13.34
280.54	6.94
281.008	12.14
281.477	11.34
281.945	13.34
282.413	18.34
282.881	14.24
283.348	5.44
283.816	15.44
284.284	12.34
284.752	20.34
285.22	11.84
285.688	17.64
286.156	22.44
286.623	46.34
287.091	51.84
287.559	25.04
288.026	20.54
288.494	13.64
288.962	5.24
289.429	6.64
289.897	18.04
290.364	14.04
290.832	17.64
291.3	13.24
291.767	14.44
292.234	15.64
292.702	14.44
293.169	14.34
293.637	19.04
294.104	16.94
294.571	7.24
295.039	18.54
295.506	17.94
295.973	21.94
296.44	17.04
296.908	19.14
297.375	20.34
297.842	20.04
298.309	14.94
298.776	13.54
299.243	20.24
299.71	12.64
300.177	23.64
300.644	19.64
301.111	23.74
301.578	21.74
302.045	18.04
302.512	22.14
302.979	25.94
303.446	23.24
303.913	19.84
304.379	13.84
304.846	29.84
305.313	25.04
305.78	22.04
306.246	27.74
306.713	27.04
307.18	24.54
307.646	24.24
308.113	32.94
308.579	24.14
309.046	27.34
309.512	22.94
309.979	22.54
310.445	27.04
310.912	29.04
311.378	34.04
311.845	28.64
312.311	33.64
312.777	30.54
313.244	33.74
313.71	40.94
314.176	30.14
314.642	28.24
315.109	32.24
315.575	34.54
316.041	35.64
316.507	35.64
316.973	40.04
317.439	28.24
317.905	38.74
318.371	29.64
318.837	34.54
319.303	33.54
319.769	35.84
320.235	34.14
320.701	39.14
321.167	34.54
321.633	36.64
322.099	36.24
322.564	38.94
323.03	38.84
323.496	37.74
323.962	38.54
324.427	40.94
324.893	42.04
325.359	30.64
325.824	33.34
326.29	31.04
326.755	40.74
327.221	37.64
327.686	43.54
328.152	43.14
328.617	43.64
329.083	48.84
329.548	47.54
330.014	47.14
330.479	36.94
330.944	44.24
331.41	37.24
331.875	45.14
332.34	48.64
332.805	36.74
333.271	43.64
333.736	45.34
334.201	46.74
334.666	54.74
335.131	57.74
335.596	52.74
336.061	48.74
336.526	42.74
336.991	46.94
337.456	55.04
337.921	52.54
338.386	45.64
338.851	48.74
339.316	44.44
339.781	54.04
340.246	47.04
340.711	44.24
341.175	47.54
341.64	47.14
342.105	54.54
342.569	54.54
343.034	51.84
343.499	57.34
343.963	48.74
344.428	65.94
344.893	63.34
345.357	60.64
345.822	63.44
346.286	68.34
346.751	68.54
347.215	65.34
347.679	73.04
348.144	98.14
348.608	78.34
349.073	68.84
349.537	75.14
350.001	79.24
350.465	93.34
350.93	79.64
351.394	80.64
351.858	72.14
352.322	85.34
352.786	86.34
353.25	97.94
353.715	103.24
354.179	100.24
354.643	123.14
355.107	124.44
355.571	109.44
356.035	104.54
356.498	121.34
356.962	125.34
357.426	125.74
357.89	112.14
358.354	85.34
358.818	82.84
359.281	82.04
359.745	75.84
360.209	80.04
360.673	79.44
361.136	84.24
361.6	82.14
362.064	88.14
362.527	84.64
362.991	87.64
363.454	83.34
363.918	81.44
364.381	72.84
364.845	83.54
365.308	91.54
365.772	86.14
366.235	90.54
366.698	81.54
367.162	89.84
367.625	84.94
368.088	85.24
368.552	89.84
369.015	87.94
369.478	94.34
369.941	99.34
370.404	93.04
370.867	103.34
371.331	109.04
371.794	112.94
372.257	110.04
372.72	119.04
373.183	113.04
373.646	99.74
374.109	108.94
374.572	106.34
375.035	108.64
375.497	108.04
375.96	106.94
376.423	104.94
376.886	119.64
377.349	110.74
377.811	102.64
378.274	106.14
378.737	103.94
379.199	112.84
379.662	109.34
380.125	124.34
380.587	118.74
381.05	123.74
381.512	130.94
381.975	137.44
382.437	134.84
382.9	125.24
383.362	126.54
383.825	147.24
384.287	142.24
384.75	142.44
385.212	142.24
385.674	137.94
386.136	142.74
386.599	122.54
387.061	127.74
387.523	129.84
387.985	134.64
388.447	144.84
388.91	145.94
389.372	157.84
389.834	157.04
390.296	147.04
390.758	155.54
391.22	167.44
391.682	214.34
392.144	304.64
392.606	231.84
393.068	167.54
393.529	171.94
393.991	156.04
394.453	151.94
394.915	163.74
395.377	189.24
395.838	216.34
396.3	160.84
396.762	147.04
397.224	135.04
397.685	131.04
398.147	131.14
398.608	137.84
399.07	136.84
399.531	135.54
399.993	141.54
400.454	154.84
400.916	147.74
401.377	149.04
401.839	152.14
402.3	150.34
402.762	163.74
403.223	180.34
403.684	180.24
404.145	168.84
404.607	161.34
405.068	171.34
405.529	173.04
405.99	192.84
406.451	176.84
406.913	178.34
407.374	167.04
407.835	162.74
408.296	166.24
408.757	170.54
409.218	189.24
409.679	183.94
410.14	174.94
410.601	178.84
411.062	188.64
411.522	188.74
411.983	193.64
412.444	178.04
412.905	189.04
413.366	185.74
413.826	198.04
414.287	216.64
414.748	271.44
415.208	245.84
415.669	207.74
416.13	207.34
416.59	196.74
417.051	214.64
417.511	221.14
417.972	236.34
418.432	250.24
418.893	296.24
419.353	254.64
419.814	194.74
420.274	184.24
420.734	190.74
421.195	203.64
421.655	198.64
422.115	197.84
422.576	187.24
423.036	201.14
423.496	208.94
423.956	217.34
424.416	234.04
424.876	268.84
425.336	257.94
425.797	258.24
426.257	260.64
426.717	243.14
427.177	233.24
427.637	225.44
428.097	236.94
428.556	243.34
429.016	270.44
429.476	262.84
429.936	275.34
430.396	278.94
430.856	295.14
431.315	317.54
431.775	353.54
432.235	384.44
432.694	353.24
433.154	361.04
433.614	403.84
434.073	352.14
434.533	287.64
434.993	271.94
435.452	278.24
435.912	302.24
436.371	290.34
436.83	288.74
437.29	271.14
437.749	259.14
438.209	257.84
438.668	277.74
439.127	287.24
439.587	265.04
440.046	251.14
440.505	267.24
440.964	279.54
441.424	326.04
441.883	315.34
442.342	259.64
442.801	231.94
443.26	223.44
443.719	221.84
444.178	221.94
444.637	213.84
445.096	222.44
445.555	227.14
446.014	226.34
446.473	227.44
446.932	247.04
447.391	228.54
447.849	221.94
448.308	226.74
448.767	226.74
449.226	239.44
449.685	239.74
450.143	247.04
450.602	237.24
451.061	226.74
451.519	239.24
451.978	235.34
452.436	240.64
452.895	240.64
453.353	258.84
453.812	244.54
454.27	246.94
454.729	237.54
455.187	245.14
455.646	240.44
456.104	241.64
456.562	266.34
457.021	268.74
457.479	261.04
457.937	274.64
458.395	259.64
458.854	246.74
459.312	254.74
459.77	281.04
460.228	263.34
460.686	250.84
461.144	255.94
461.602	252.34
462.06	255.04
462.518	256.34
462.976	246.34
463.434	262.54
463.892	260.04
464.35	276.74
464.808	290.34
465.266	270.24
465.724	269.24
466.181	268.34
466.639	266.74
467.097	289.84
467.555	297.04
468.012	306.44
468.47	307.84
468.928	323.14
469.385	343.44
469.843	351.54
470.3	350.34
470.758	360.24
471.215	395.54
471.673	412.84
472.13	400.64
472.588	430.64
473.045	380.24
473.503	381.04
473.96	398.24
474.417	413.94
474.875	424.64
475.332	474.74
475.789	462.44
476.246	476.04
476.704	486.74
477.161	512.24
477.618	528.34
478.075	563.04
478.532	616.34
478.989	683.84
479.446	801.34
479.903	773.24
480.36	803.24
480.817	852.54
481.274	956.64
481.731	1074.24
482.188	1152.84
482.645	1295.54
483.102	1393.44
483.558	1529.94
484.015	1585.74
484.472	1551.44
484.929	1503.44
485.385	1456.54
485.842	1422.04
486.299	1344.74
486.755	1300.24
487.212	1088.94
487.668	923.84
488.125	845.64
488.582	766.94
489.038	742.44
489.494	706.44
489.951	687.34
490.407	662.44
490.864	646.24
491.32	633.94
491.776	634.54
492.233	651.34
492.689	614.64
493.145	596.34
493.602	599.34
494.058	608.34
494.514	617.64
494.97	635.74
495.426	642.64
495.882	605.84
496.338	611.74
496.794	611.64
497.251	611.54
497.707	633.44
498.163	637.44
498.618	640.94
499.074	645.84
499.53	676.04
499.986	678.44
500.442	654.74
500.898	631.14
501.354	623.84
501.809	632.44
502.265	641.14
502.721	663.74
503.177	674.64
503.632	667.94
504.088	671.94
504.543	707.44
504.999	693.44
505.455	651.64
505.91	617.24
506.366	624.04
506.821	622.34
507.277	623.14
507.732	620.94
508.187	626.64
508.643	630.94
509.098	634.94
509.553	646.44
510.009	659.64
510.464	662.84
510.919	677.14
511.375	679.34
511.83	708.14
512.285	722.84
512.74	753.74
513.195	776.44
513.65	763.44
514.105	753.54
514.56	751.54
515.015	788.84
515.47	804.54
515.925	784.34
516.38	785.14
516.835	785.54
517.29	773.64
517.745	768.04
518.2	759.44
518.655	738.84
519.109	740.84
519.564	730.44
520.019	719.14
520.474	715.44
520.928	720.64
521.383	724.84
521.838	715.14
522.292	709.54
522.747	711.14
523.201	703.14
523.656	703.84
524.11	676.94
524.565	685.84
525.019	684.54
525.474	690.94
525.928	696.94
526.382	686.04
526.837	696.04
527.291	699.84
527.745	689.74
528.2	688.04
528.654	677.14
529.108	678.74
529.562	685.84
530.016	686.64
530.47	683.34
530.925	685.44
531.379	684.84
531.833	694.54
532.287	694.54
532.741	696.84
533.195	699.34
533.649	710.04
534.103	709.94
534.556	702.04
535.01	699.14
535.464	700.64
535.918	715.54
536.372	715.64
536.826	719.24
537.279	698.24
537.733	701.54
538.187	706.84
538.64	698.34
539.094	715.44
539.548	725.14
540.001	720.64
540.455	718.94
540.908	720.44
541.362	729.64
541.815	734.34
542.269	751.04
542.722	750.84
543.175	755.14
543.629	773.44
544.082	779.94
544.536	782.84
544.989	774.04
545.442	794.04
545.895	795.94
546.349	783.74
546.802	787.54
547.255	784.54
547.708	798.44
548.161	801.64
548.614	812.74
549.067	828.54
549.52	817.24
549.973	811.24
550.426	799.44
550.879	782.64
551.332	789.94
551.785	799.74
552.238	790.14
552.691	810.94
553.144	834.04
553.596	835.14
554.049	858.64
554.502	878.44
554.955	905.14
555.407	895.54
555.86	887.54
556.313	885.34
556.765	875.34
557.218	875.34
557.67	881.04
558.123	868.94
558.576	866.84
559.028	865.04
559.48	874.64
559.933	866.94
560.385	831.74
560.838	795.24
561.29	774.04
561.742	779.44
562.195	757.54
562.647	757.84
563.099	765.54
563.551	772.84
564.004	783.94
564.456	775.84
564.908	754.44
565.36	744.44
565.812	732.44
566.264	716.84
566.716	720.14
567.168	709.24
567.62	732.34
568.072	696.44
568.524	690.04
568.976	687.34
569.428	674.14
569.88	676.94
570.332	677.84
570.784	677.84
571.235	676.14
571.687	694.64
572.139	701.14
572.59	712.54
573.042	694.94
573.494	710.84
573.945	703.04
574.397	681.34
574.849	677.54
575.3	676.24
575.752	670.14
576.203	675.54
576.655	682.04
577.106	663.34
577.557	668.14
578.009	667.54
578.46	672.54
578.912	653.44
579.363	659.84
579.814	666.14
580.265	666.54
580.717	662.04
581.168	662.34
581.619	673.74
582.07	680.44
582.521	671.44
582.972	669.84
583.423	682.54
583.875	682.84
584.326	703.24
584.777	735.84
585.227	820.34
585.678	904.84
586.129	1001.24
586.58	1078.54
587.031	1160.84
587.482	1309.04
587.933	1496.34
588.384	1294.04
588.834	981.04
589.285	803.24
589.736	789.04
590.186	774.44
590.637	762.94
591.088	748.54
591.538	735.94
591.989	733.64
592.439	730.64
592.89	720.54
593.34	703.44
593.791	707.74
594.241	715.04
594.692	712.64
595.142	704.84
595.593	690.94
596.043	699.44
596.493	710.24
596.943	717.54
597.394	723.04
597.844	715.14
598.294	735.34
598.744	750.24
599.195	782.14
599.645	818.14
600.095	854.64
600.545	909.94
600.995	966.54
601.445	1011.04
601.895	1086.74
602.345	1127.94
602.795	1103.14
603.245	1076.94
603.695	1017.04
604.145	954.94
604.594	906.44
605.044	838.44
605.494	787.04
605.944	750.14
606.393	744.14
606.843	733.04
607.293	732.64
607.743	734.94
608.192	736.54
608.642	757.04
609.091	763.14
609.541	766.94
609.99	775.54
610.44	770.54
610.889	725.04
611.339	696.24
611.788	684.04
612.238	705.54
612.687	722.54
613.136	725.74
613.586	736.24
614.035	737.24
614.484	764.14
614.933	754.64
615.383	741.74
615.832	738.54
616.281	720.54
616.73	688.14
617.179	665.44
617.628	643.14
618.077	627.84
618.526	623.04
618.975	624.74
619.424	620.54
619.873	606.64
620.322	619.44
620.771	607.34
621.22	598.24
621.669	598.14
622.118	591.44
622.567	575.84
623.015	572.04
623.464	578.84
623.913	560.24
624.361	552.04
624.81	551.74
625.259	545.64
625.707	558.64
626.156	558.44
626.604	569.14
627.053	564.94
627.501	562.84
627.95	567.84
628.398	585.74
628.847	566.34
629.295	567.54
629.744	569.24
630.192	566.14
630.64	567.34
631.089	569.84
631.537	587.14
631.985	604.64
632.433	610.64
632.881	615.54
633.33	666.84
633.778	655.24
634.226	579.04
634.674	577.44
635.122	582.74
635.57	600.54
636.018	624.74
636.466	585.24
636.914	560.34
637.362	569.34
637.81	567.14
638.258	575.04
638.705	571.04
639.153	607.44
639.601	620.44
640.049	646.44
640.497	670.04
640.944	693.64
641.392	641.54
641.84	613.24
642.287	584.64
642.735	571.04
643.182	572.94
643.63	569.14
644.078	575.44
644.525	584.74
644.973	593.84
645.42	600.14
645.867	621.94
646.315	645.44
646.762	664.54
647.21	692.84
647.657	713.74
648.104	750.14
648.551	771.84
648.999	843.14
649.446	917.54
649.893	1018.44
650.34	1167.74
650.787	1400.64
651.234	1755.54
651.682	2286.74
652.129	3131.54
652.576	4515.14
653.023	6652.14
653.47	9075.74
653.917	11264.74
654.363	12897.64
654.81	14226.04
655.257	13526.44
655.704	8843.44
656.151	5226.14
656.598	3401.64
657.044	2416.74
657.491	1858.44
657.938	1490.54
658.385	1243.14
658.831	1083.64
659.278	953.34
659.724	846.04
660.171	791.54
660.618	724.24
661.064	699.64
661.511	669.14
661.957	661.94
662.404	651.44
662.85	655.24
663.296	626.74
663.743	565.04
664.189	539.94
664.635	537.24
665.082	532.04
665.528	524.34
665.974	521.84
666.42	519.24
666.867	504.84
667.313	491.64
667.759	484.84
668.205	480.74
668.651	487.04
669.097	487.04
669.543	505.54
669.989	478.94
670.435	458.04
670.881	453.34
671.327	450.04
671.773	468.24
672.219	495.24
672.665	547.54
673.11	585.14
673.556	632.54
674.002	665.54
674.448	645.54
674.893	549.24
675.339	466.44
675.785	438.94
676.23	413.04
676.676	384.84
677.122	380.14
677.567	372.84
678.013	375.14
678.458	369.64
678.904	369.44
679.349	344.74
679.794	351.34
680.24	346.64
680.685	356.04
681.131	343.04
681.576	351.74
682.021	363.14
682.466	350.94
682.912	346.44
683.357	351.84
683.802	389.84
684.247	420.14
684.692	460.84
685.137	500.54
685.583	533.24
686.028	565.54
686.473	521.54
686.918	443.74
687.363	417.94
687.807	388.54
688.252	368.64
688.697	355.04
689.142	341.24
689.587	335.84
690.032	333.44
690.477	346.34
690.921	349.14
691.366	383.34
691.811	407.94
692.255	434.14
692.7	463.34
693.145	523.64
693.589	719.34
694.034	1150.44
694.478	1545.74
694.923	1705.14
695.367	2235.84
695.812	1183.54
696.256	491.84
696.701	367.34
697.145	350.34
697.59	337.64
698.034	316.24
698.478	332.24
698.922	326.94
699.367	331.14
699.811	333.94
700.255	358.44
700.699	387.94
701.143	421.14
701.588	476.74
702.032	517.14
702.476	512.44
702.92	498.44
703.364	500.64
703.808	652.34
704.252	1060.04
704.696	1462.74
705.14	1650.04
705.584	2098.64
706.027	1057.44
706.471	528.44
706.915	393.94
707.359	350.84
707.803	321.04
708.246	310.74
708.69	312.04
709.134	311.34
709.577	310.14
710.021	312.54
710.465	311.74
710.908	300.14
711.352	295.54
711.795	317.54
712.239	349.14
712.682	387.34
713.126	420.24
713.569	455.74
714.012	374.44
714.456	327.84
714.899	298.84
715.342	276.14
715.786	264.84
716.229	254.84
716.672	255.04
717.115	247.24
717.558	257.34
718.002	250.14
718.445	264.94
718.888	288.64
719.331	295.74
719.774	308.74
720.217	301.64
720.66	292.24
721.103	271.24
721.546	265.24
721.989	257.94
722.432	234.84
722.874	240.24
723.317	234.94
723.76	233.04
724.203	260.54
724.645	320.74
725.088	449.54
725.531	573.34
725.974	640.14
726.416	540.54
726.859	305.14
727.301	239.34
727.744	242.34
728.187	235.44
728.629	242.74
729.071	245.54
729.514	262.04
729.956	274.54
730.399	281.74
730.841	288.64
731.283	275.14
731.726	264.94
732.168	269.34
732.61	263.64
733.053	280.54
733.495	318.94
733.937	357.04
734.379	398.74
734.821	437.84
735.263	548.34
735.705	857.14
736.148	1615.24
736.59	2585.24
737.032	3017.44
737.474	2439.14
737.916	804.74
738.357	424.54
738.799	330.34
739.241	306.74
739.683	283.64
740.125	289.34
740.567	289.04
741.008	314.34
741.45	313.94
741.892	314.04
742.334	342.24
742.775	347.54
743.217	337.84
743.658	270.74
744.1	249.94
744.542	260.54
744.983	307.64
745.425	335.34
745.866	332.84
746.307	293.54
746.749	283.34
747.19	326.24
747.632	464.44
748.073	907.34
748.514	1907.14
748.956	2861.04
749.397	3558.34
749.838	2947.64
750.279	2904.74
750.72	1482.94
751.162	544.64
751.603	330.14
752.044	254.84
752.485	220.94
752.926	207.74
753.367	199.54
753.808	202.14
754.249	188.54
754.69	191.34
755.131	188.14
755.572	179.44
756.013	179.34
756.453	181.84
756.894	192.34
757.335	195.34
757.776	194.64
758.216	197.04
758.657	202.54
759.098	206.64
759.538	229.84
759.979	273.24
760.42	380.54
760.86	729.14
761.301	1875.04
761.741	4462.34
762.182	6300.34
762.622	4414.74
