Data from 20171114-ORNL-Ar_H_NY_Subt18_08-08-29-852.txt Node
Date: Tue Nov 14 08:08:29 EST 2017
User: Ender
Spectrometer: HR+D1039
Trigger mode: 0
Integration Time (sec): 2.730000E-2
Scans to average: 10
Electric dark correction enabled: true
Nonlinearity correction enabled: false
Boxcar width: 0
XAxis mode: Wavelengths
Number of Pixels in Spectrum: 2048
>>>>>Begin Spectral Data<<<<<
187.836	-5.91
188.309	-5.91
188.782	-5.91
189.255	0.39
189.728	-0.81
190.201	4.59
190.674	4.89
191.147	3.59
191.619	-7.11
192.092	2.49
192.565	9.69
193.038	-0.51
193.511	-3.31
193.984	0.99
194.456	-2.01
194.929	-0.61
195.402	-5.51
195.874	-0.81
196.347	-2.91
196.82	-6.91
197.292	3.19
197.765	-4.21
198.237	-6.11
198.71	6.59
199.182	-4.01
199.655	-1.01
200.127	2.99
200.6	-2.51
201.072	-3.61
201.544	-5.51
202.017	-4.81
202.489	2.19
202.961	-2.41
203.433	-9.11
203.906	-6.21
204.378	-8.11
204.85	-8.71
205.322	-4.41
205.794	1.79
206.266	-5.01
206.739	-7.71
207.211	3.99
207.683	-12.71
208.155	-6.91
208.627	-7.01
209.099	0.99
209.57	-9.21
210.042	-7.91
210.514	-7.71
210.986	-2.31
211.458	-8.11
211.93	0.59
212.402	0.59
212.873	-2.51
213.345	-5.41
213.817	-8.31
214.288	-3.41
214.76	-12.51
215.232	-3.71
215.703	-4.91
216.175	-4.11
216.646	-3.81
217.118	-5.51
217.589	-5.31
218.061	-0.41
218.532	-5.01
219.004	-1.71
219.475	-9.51
219.946	-2.81
220.418	-3.91
220.889	0.19
221.36	5.89
221.832	-10.31
222.303	-5.91
222.774	-0.91
223.245	-14.21
223.717	-3.31
224.188	-7.51
224.659	-7.91
225.13	-6.11
225.601	0.99
226.072	-3.61
226.543	-9.61
227.014	-2.61
227.485	-1.21
227.956	-5.11
228.427	-7.61
228.898	-3.51
229.369	-0.81
229.839	-4.01
230.31	-7.21
230.781	0.39
231.252	-2.71
231.722	-8.61
232.193	-9.51
232.664	-6.31
233.135	3.19
233.605	2.99
234.076	-8.61
234.546	0.09
235.017	4.69
235.487	7.39
235.958	-5.01
236.428	-8.11
236.899	-3.11
237.369	1.69
237.84	-7.11
238.31	2.09
238.78	-1.31
239.251	-6.21
239.721	-4.71
240.191	-7.41
240.662	-8.31
241.132	-4.01
241.602	-7.01
242.072	1.89
242.542	5.59
243.013	-2.71
243.483	1.29
243.953	2.89
244.423	-3.01
244.893	-5.41
245.363	3.89
245.833	1.19
246.303	-2.71
246.773	2.19
247.243	6.39
247.712	-1.51
248.182	2.79
248.652	1.99
249.122	-6.91
249.592	-4.01
250.061	3.49
250.531	12.09
251.001	-4.21
251.471	3.29
251.94	7.79
252.41	-1.41
252.879	-5.81
253.349	8.99
253.818	7.39
254.288	1.39
254.757	-0.91
255.227	-2.61
255.696	-0.31
256.166	2.69
256.635	3.89
257.105	3.89
257.574	7.39
258.043	3.49
258.513	-5.31
258.982	4.69
259.451	-1.81
259.92	-0.11
260.389	4.69
260.859	8.59
261.328	5.29
261.797	0.79
262.266	-1.31
262.735	10.79
263.204	4.79
263.673	1.79
264.142	8.89
264.611	-0.31
265.08	-1.51
265.549	1.39
266.018	4.09
266.487	-3.81
266.955	-3.81
267.424	-1.61
267.893	7.89
268.362	0.79
268.83	3.09
269.299	9.69
269.768	5.99
270.236	5.49
270.705	-2.01
271.174	2.49
271.642	2.99
272.111	-4.81
272.579	-1.01
273.048	8.49
273.516	9.99
273.985	9.69
274.453	6.89
274.922	12.09
275.39	6.29
275.858	5.29
276.327	7.99
276.795	12.99
277.263	3.29
277.731	14.99
278.2	14.69
278.668	11.69
279.136	8.29
279.604	4.29
280.072	11.79
280.54	9.39
281.008	11.29
281.477	19.19
281.945	10.39
282.413	10.59
282.881	16.29
283.348	10.69
283.816	13.69
284.284	16.39
284.752	10.29
285.22	14.39
285.688	8.69
286.156	13.89
286.623	18.99
287.091	15.89
287.559	6.19
288.026	6.59
288.494	15.99
288.962	4.89
289.429	4.09
289.897	14.39
290.364	10.49
290.832	15.39
291.3	21.89
291.767	12.09
292.234	19.39
292.702	14.19
293.169	14.09
293.637	15.59
294.104	17.49
294.571	13.59
295.039	10.59
295.506	10.19
295.973	15.69
296.44	13.09
296.908	12.49
297.375	10.09
297.842	16.69
298.309	13.29
298.776	12.39
299.243	18.69
299.71	12.79
300.177	19.89
300.644	23.39
301.111	16.39
301.578	22.49
302.045	15.39
302.512	19.49
302.979	25.09
303.446	18.39
303.913	22.29
304.379	20.19
304.846	24.39
305.313	20.39
305.78	21.39
306.246	18.89
306.713	27.29
307.18	32.39
307.646	27.69
308.113	31.39
308.579	20.09
309.046	22.79
309.512	22.39
309.979	17.29
310.445	27.79
310.912	30.89
311.378	27.79
311.845	26.89
312.311	32.29
312.777	34.69
313.244	30.69
313.71	35.09
314.176	31.69
314.642	32.09
315.109	30.19
315.575	37.89
316.041	35.29
316.507	27.99
316.973	35.89
317.439	32.59
317.905	27.69
318.371	32.99
318.837	31.19
319.303	30.59
319.769	28.49
320.235	33.69
320.701	38.89
321.167	30.89
321.633	32.89
322.099	36.49
322.564	38.59
323.03	36.99
323.496	32.19
323.962	41.69
324.427	30.89
324.893	43.79
325.359	36.79
325.824	30.69
326.29	32.69
326.755	37.09
327.221	41.09
327.686	40.99
328.152	50.39
328.617	40.19
329.083	44.19
329.548	54.29
330.014	48.99
330.479	36.29
330.944	43.09
331.41	43.09
331.875	47.29
332.34	45.49
332.805	41.89
333.271	45.79
333.736	41.39
334.201	55.49
334.666	49.19
335.131	52.49
335.596	47.29
336.061	41.29
336.526	36.39
336.991	46.39
337.456	51.69
337.921	49.09
338.386	37.19
338.851	46.59
339.316	51.19
339.781	47.79
340.246	51.79
340.711	54.09
341.175	56.29
341.64	49.99
342.105	55.49
342.569	54.39
343.034	55.49
343.499	56.79
343.963	56.29
344.428	63.79
344.893	60.19
345.357	61.49
345.822	58.29
346.286	65.99
346.751	75.29
347.215	66.99
347.679	79.39
348.144	93.59
348.608	81.39
349.073	70.59
349.537	71.79
350.001	84.19
350.465	90.19
350.93	78.59
351.394	82.89
351.858	74.29
352.322	89.99
352.786	81.89
353.25	101.69
353.715	108.19
354.179	102.99
354.643	120.49
355.107	126.09
355.571	104.29
356.035	93.59
356.498	110.49
356.962	120.69
357.426	123.79
357.89	116.29
358.354	92.59
358.818	80.69
359.281	81.59
359.745	78.09
360.209	80.19
360.673	76.19
361.136	76.79
361.6	85.09
362.064	82.09
362.527	87.79
362.991	93.99
363.454	83.79
363.918	81.59
364.381	80.29
364.845	86.29
365.308	86.19
365.772	89.79
366.235	85.39
366.698	88.59
367.162	84.99
367.625	87.09
368.088	91.09
368.552	92.59
369.015	92.59
369.478	97.19
369.941	95.79
370.404	91.69
370.867	96.69
371.331	103.99
371.794	115.99
372.257	91.69
372.72	115.39
373.183	103.49
373.646	97.59
374.109	101.69
374.572	109.69
375.035	113.89
375.497	115.09
375.96	109.79
376.423	100.79
376.886	118.09
377.349	109.99
377.811	106.49
378.274	108.09
378.737	105.39
379.199	109.79
379.662	112.39
380.125	111.89
380.587	105.09
381.05	113.29
381.512	115.39
381.975	128.49
382.437	121.79
382.9	125.89
383.362	126.19
383.825	135.29
384.287	127.89
384.75	122.89
385.212	126.79
385.674	143.39
386.136	135.59
386.599	124.39
387.061	134.89
387.523	129.79
387.985	130.09
388.447	139.09
388.91	138.19
389.372	140.19
389.834	137.79
390.296	136.09
390.758	141.59
391.22	144.89
391.682	159.69
392.144	165.89
392.606	160.09
393.068	141.49
393.529	157.99
393.991	143.19
394.453	138.59
394.915	138.49
395.377	138.79
395.838	147.49
396.3	143.19
396.762	151.99
397.224	143.99
397.685	136.79
398.147	143.09
398.608	134.99
399.07	142.29
399.531	140.79
399.993	158.49
400.454	165.49
400.916	158.59
401.377	154.09
401.839	161.29
402.3	158.39
402.762	177.19
403.223	186.39
403.684	180.59
404.145	167.59
404.607	174.39
405.068	175.19
405.529	181.09
405.99	201.59
406.451	182.69
406.913	187.69
407.374	183.09
407.835	170.49
408.296	183.49
408.757	190.19
409.218	200.59
409.679	194.09
410.14	181.79
410.601	190.09
411.062	191.19
411.522	187.49
411.983	184.19
412.444	180.89
412.905	187.29
413.366	198.79
413.826	215.29
414.287	239.29
414.748	282.09
415.208	264.29
415.669	226.89
416.13	218.19
416.59	215.79
417.051	231.69
417.511	242.59
417.972	264.59
418.432	273.69
418.893	319.09
419.353	278.99
419.814	224.39
420.274	191.19
420.734	196.29
421.195	215.19
421.655	213.49
422.115	219.89
422.576	203.49
423.036	215.99
423.496	222.99
423.956	231.29
424.416	249.29
424.876	286.59
425.336	280.59
425.797	273.39
426.257	269.39
426.717	260.79
427.177	250.99
427.637	234.39
428.097	253.19
428.556	266.09
429.016	284.99
429.476	277.99
429.936	301.79
430.396	300.09
430.856	303.79
431.315	330.09
431.775	367.79
432.235	411.09
432.694	376.59
433.154	383.49
433.614	417.49
434.073	361.89
434.533	297.99
434.993	283.59
435.452	300.89
435.912	306.89
436.371	301.29
436.83	290.69
437.29	284.59
437.749	267.29
438.209	263.09
438.668	298.79
439.127	315.39
439.587	288.29
440.046	268.49
440.505	282.19
440.964	294.59
441.424	348.29
441.883	333.19
442.342	276.79
442.801	243.29
443.26	246.29
443.719	248.39
444.178	241.29
444.637	238.09
445.096	238.99
445.555	244.09
446.014	244.19
446.473	252.49
446.932	253.59
447.391	249.49
447.849	252.19
448.308	246.79
448.767	251.69
449.226	260.79
449.685	262.09
450.143	265.59
450.602	261.69
451.061	249.99
451.519	252.59
451.978	255.29
452.436	261.29
452.895	257.09
453.353	287.29
453.812	266.19
454.27	262.39
454.729	257.19
455.187	266.49
455.646	269.69
456.104	270.69
456.562	285.89
457.021	290.99
457.479	283.99
457.937	298.59
458.395	284.39
458.854	275.99
459.312	275.99
459.77	295.69
460.228	276.99
460.686	262.89
461.144	273.79
461.602	272.89
462.06	274.49
462.518	282.79
462.976	283.29
463.434	278.49
463.892	291.99
464.35	293.09
464.808	308.59
465.266	287.29
465.724	294.29
466.181	298.19
466.639	296.19
467.097	312.79
467.555	322.39
468.012	333.79
468.47	334.59
468.928	359.19
469.385	371.79
469.843	374.59
470.3	380.89
470.758	397.89
471.215	409.59
471.673	438.59
472.13	440.39
472.588	451.99
473.045	407.19
473.503	414.19
473.96	432.69
474.417	432.39
474.875	467.89
475.332	506.69
475.789	495.29
476.246	502.69
476.704	521.79
477.161	545.69
477.618	557.59
478.075	601.19
478.532	653.59
478.989	731.89
479.446	857.59
479.903	813.89
480.36	827.59
480.817	890.59
481.274	985.39
481.731	1080.19
482.188	1153.89
482.645	1268.79
483.102	1366.99
483.558	1482.79
484.015	1543.79
484.472	1515.99
484.929	1466.29
485.385	1428.39
485.842	1402.59
486.299	1341.49
486.755	1315.79
487.212	1119.19
487.668	947.99
488.125	877.19
488.582	815.89
489.038	781.39
489.494	752.79
489.951	724.29
490.407	707.69
490.864	697.39
491.32	686.09
491.776	685.29
492.233	688.99
492.689	655.09
493.145	649.09
493.602	640.49
494.058	654.69
494.514	659.19
494.97	672.49
495.426	702.09
495.882	662.19
496.338	650.39
496.794	661.89
497.251	645.89
497.707	670.69
498.163	673.99
498.618	674.39
499.074	683.79
499.53	716.89
499.986	709.99
500.442	688.89
500.898	659.49
501.354	659.59
501.809	669.19
502.265	652.39
502.721	676.59
503.177	689.29
503.632	680.39
504.088	689.39
504.543	711.49
504.999	743.69
505.455	699.39
505.91	670.19
506.366	682.29
506.821	672.99
507.277	679.79
507.732	675.89
508.187	672.59
508.643	682.79
509.098	684.29
509.553	711.59
510.009	716.29
510.464	723.19
510.919	743.59
511.375	739.09
511.83	757.49
512.285	775.89
512.74	809.39
513.195	832.89
513.65	820.79
514.105	810.49
514.56	830.79
515.015	830.49
515.47	853.39
515.925	838.59
516.38	834.09
516.835	833.79
517.29	832.09
517.745	828.79
518.2	811.79
518.655	791.49
519.109	793.99
519.564	788.09
520.019	772.59
520.474	766.79
520.928	761.39
521.383	769.39
521.838	756.79
522.292	760.39
522.747	753.29
523.201	754.29
523.656	747.29
524.11	742.79
524.565	739.59
525.019	730.99
525.474	748.29
525.928	750.59
526.382	737.99
526.837	744.79
527.291	760.09
527.745	748.99
528.2	747.39
528.654	734.79
529.108	721.59
529.562	734.99
530.016	734.49
530.47	738.99
530.925	734.09
531.379	743.29
531.833	758.29
532.287	743.69
532.741	745.99
533.195	737.09
533.649	748.49
534.103	765.29
534.556	744.49
535.01	753.89
535.464	751.39
535.918	753.89
536.372	758.59
536.826	758.99
537.279	758.99
537.733	758.09
538.187	755.49
538.64	757.69
539.094	765.09
539.548	773.89
540.001	773.59
540.455	773.29
540.908	781.49
541.362	780.09
541.815	790.89
542.269	801.99
542.722	802.29
543.175	818.89
543.629	820.29
544.082	848.19
544.536	850.59
544.989	843.39
545.442	848.59
545.895	851.89
546.349	842.59
546.802	853.89
547.255	858.09
547.708	866.39
548.161	873.59
548.614	879.49
549.067	888.59
549.52	875.79
549.973	866.49
550.426	863.29
550.879	852.39
551.332	858.39
551.785	868.69
552.238	863.59
552.691	878.69
553.144	887.99
553.596	901.29
554.049	927.09
554.502	948.09
554.955	965.29
555.407	966.69
555.86	958.59
556.313	946.09
556.765	933.79
557.218	938.49
557.67	939.29
558.123	936.29
558.576	927.09
559.028	933.49
559.48	946.59
559.933	929.19
560.385	897.69
560.838	866.79
561.29	842.39
561.742	846.79
562.195	821.89
562.647	824.39
563.099	830.59
563.551	825.39
564.004	842.49
564.456	823.89
564.908	804.69
565.36	791.19
565.812	775.39
566.264	765.19
566.716	770.69
567.168	753.79
567.62	762.49
568.072	748.89
568.524	744.69
568.976	738.69
569.428	726.49
569.88	725.99
570.332	735.69
570.784	730.79
571.235	737.79
571.687	750.89
572.139	752.89
572.59	764.69
573.042	754.39
573.494	759.29
573.945	759.59
574.397	731.09
574.849	736.19
575.3	738.69
575.752	726.69
576.203	727.39
576.655	729.69
577.106	725.29
577.557	712.09
578.009	712.69
578.46	705.29
578.912	703.59
579.363	718.49
579.814	709.59
580.265	714.49
580.717	716.09
581.168	717.69
581.619	718.39
582.07	726.19
582.521	716.19
582.972	720.39
583.423	719.59
583.875	716.69
584.326	730.99
584.777	750.49
585.227	759.59
585.678	779.09
586.129	814.59
586.58	836.89
587.031	848.99
587.482	894.19
587.933	943.89
588.384	901.19
588.834	849.29
589.285	827.99
589.736	827.59
590.186	823.39
590.637	814.89
591.088	796.19
591.538	789.29
591.989	777.19
592.439	762.29
592.89	760.19
593.34	742.49
593.791	756.09
594.241	745.19
594.692	743.69
595.142	733.49
595.593	740.99
596.043	750.59
596.493	749.69
596.943	752.79
597.394	755.89
597.844	767.19
598.294	780.79
598.744	809.49
599.195	837.19
599.645	876.59
600.095	907.99
600.545	982.99
600.995	1025.49
601.445	1092.59
601.895	1151.09
602.345	1195.89
602.795	1180.19
603.245	1141.89
603.695	1085.19
604.145	1020.39
604.594	975.79
605.044	920.79
605.494	859.99
605.944	807.59
606.393	793.69
606.843	777.39
607.293	779.99
607.743	770.99
608.192	789.19
608.642	803.79
609.091	810.59
609.541	813.89
609.99	809.99
610.44	803.59
610.889	763.79
611.339	737.39
611.788	724.49
612.238	731.49
612.687	748.19
613.136	734.69
613.586	755.69
614.035	750.79
614.484	750.79
614.933	746.39
615.383	746.09
615.832	752.19
616.281	743.19
616.73	720.99
617.179	701.49
617.628	682.09
618.077	662.59
618.526	653.59
618.975	641.99
619.424	653.59
619.873	657.09
620.322	649.49
620.771	642.99
621.22	641.59
621.669	630.69
622.118	622.19
622.567	616.99
623.015	602.19
623.464	610.59
623.913	595.19
624.361	589.49
624.81	584.59
625.259	586.29
625.707	587.99
626.156	587.69
626.604	603.99
627.053	599.59
627.501	602.09
627.95	607.99
628.398	614.69
628.847	616.79
629.295	607.89
629.744	613.29
630.192	600.09
630.64	598.59
631.089	584.49
631.537	575.19
631.985	562.09
632.433	569.29
632.881	559.89
633.33	570.49
633.778	564.19
634.226	549.29
634.674	582.89
635.122	569.49
635.57	593.99
636.018	598.29
636.466	598.09
636.914	586.29
637.362	605.79
637.81	617.09
638.258	617.19
638.705	610.59
639.153	653.09
639.601	662.39
640.049	678.79
640.497	719.19
640.944	742.79
641.392	689.19
641.84	659.29
642.287	614.29
642.735	599.29
643.182	595.59
643.63	589.69
644.078	595.79
644.525	609.39
644.973	617.19
645.42	632.69
645.867	649.59
646.315	665.59
646.762	697.49
647.21	720.39
647.657	744.39
648.104	775.09
648.551	804.19
648.999	866.59
649.446	937.79
649.893	1030.19
650.34	1169.89
650.787	1406.49
651.234	1722.09
651.682	2225.79
652.129	3002.49
652.576	4268.49
653.023	6215.39
653.47	8362.59
653.917	10321.79
654.363	11853.39
654.81	13003.09
655.257	12329.89
655.704	8210.69
656.151	4962.59
656.598	3267.09
657.044	2343.99
657.491	1832.39
657.938	1468.49
658.385	1237.79
658.831	1098.39
659.278	978.49
659.724	878.19
660.171	810.59
660.618	747.69
661.064	704.89
661.511	697.79
661.957	682.79
662.404	675.19
662.85	688.19
663.296	648.49
663.743	589.19
664.189	568.79
664.635	563.19
665.082	558.59
665.528	559.19
665.974	547.49
666.42	540.09
666.867	537.39
667.313	509.69
667.759	493.69
668.205	486.89
668.651	486.69
669.097	476.19
669.543	472.89
669.989	468.69
670.435	478.49
670.881	469.49
671.327	480.69
671.773	497.59
672.219	526.89
672.665	583.19
673.11	623.09
673.556	664.09
674.002	707.39
674.448	696.69
674.893	581.39
675.339	504.09
675.785	476.49
676.23	447.29
676.676	426.29
677.122	414.49
677.567	409.09
678.013	397.19
678.458	382.39
678.904	384.69
679.349	374.59
679.794	381.59
680.24	374.69
680.685	374.29
681.131	367.99
681.576	376.69
682.021	377.09
682.466	370.09
682.912	366.89
683.357	369.09
683.802	408.29
684.247	447.39
684.692	490.19
685.137	526.39
685.583	574.29
686.028	601.59
686.473	555.69
686.918	481.39
687.363	443.79
687.807	427.09
688.252	388.49
688.697	379.89
689.142	365.69
689.587	357.79
690.032	351.19
690.477	364.09
690.921	375.69
691.366	400.59
691.811	423.19
692.255	457.69
692.7	500.29
693.145	543.99
693.589	767.19
694.034	1248.49
694.478	1660.19
694.923	1844.89
695.367	2409.79
695.812	1280.99
696.256	538.99
696.701	396.89
697.145	373.69
697.59	359.49
698.034	351.39
698.478	349.99
698.922	337.99
699.367	351.09
699.811	359.99
700.255	373.99
700.699	417.89
701.143	454.79
701.588	509.29
702.032	544.39
702.476	543.69
702.92	524.79
703.364	534.59
703.808	708.49
704.252	1153.79
704.696	1575.99
705.14	1793.49
705.584	2272.99
706.027	1142.39
706.471	560.49
706.915	425.79
707.359	372.59
707.803	349.59
708.246	336.29
708.69	342.89
709.134	336.09
709.577	339.39
710.021	333.19
710.465	328.09
710.908	323.99
711.352	320.09
711.795	342.89
712.239	386.99
712.682	412.79
713.126	442.09
713.569	477.29
714.012	380.89
714.456	328.19
714.899	311.29
715.342	292.49
715.786	283.39
716.229	270.99
716.672	275.29
717.115	270.09
717.558	269.89
718.002	273.49
718.445	283.69
718.888	303.29
719.331	307.09
719.774	330.49
720.217	324.29
720.66	312.49
721.103	286.99
721.546	273.09
721.989	270.89
722.432	250.49
722.874	254.59
723.317	244.59
723.76	250.79
724.203	282.09
724.645	342.99
725.088	479.09
725.531	609.19
725.974	672.79
726.416	586.89
726.859	329.29
727.301	264.59
727.744	252.09
728.187	249.19
728.629	251.79
729.071	254.89
729.514	279.89
729.956	290.49
730.399	304.69
730.841	312.59
731.283	296.69
731.726	284.19
732.168	279.39
732.61	295.79
733.053	307.39
733.495	338.29
733.937	385.79
734.379	433.09
734.821	477.19
735.263	584.29
735.705	924.89
736.148	1755.69
736.59	2816.29
737.032	3246.59
737.474	2639.99
737.916	885.69
738.357	461.49
738.799	360.29
739.241	322.99
739.683	304.59
740.125	312.19
740.567	318.59
741.008	344.39
741.45	341.69
741.892	347.39
742.334	380.89
742.775	389.89
743.217	370.69
743.658	294.99
744.1	270.49
744.542	286.29
744.983	342.69
745.425	377.49
745.866	368.09
746.307	300.99
746.749	298.89
747.19	344.19
747.632	519.09
748.073	998.89
748.514	2060.29
748.956	3089.59
749.397	3879.29
749.838	3219.39
750.279	3144.79
750.72	1619.49
751.162	595.69
751.603	355.69
752.044	269.69
752.485	231.69
752.926	221.09
753.367	218.19
753.808	214.89
754.249	198.29
754.69	205.69
755.131	194.59
755.572	194.89
756.013	189.29
756.453	201.29
756.894	203.59
757.335	209.29
757.776	205.19
758.216	212.89
758.657	209.49
759.098	222.69
759.538	243.59
759.979	303.49
760.42	413.09
760.86	804.99
761.301	2061.99
761.741	4886.99
762.182	6776.99
762.622	4819.19
