Data from 20171114-ORNL-Ar_H_NY_Subt18_08-08-58-573.txt Node
Date: Tue Nov 14 08:08:58 EST 2017
User: Ender
Spectrometer: HR+D1039
Trigger mode: 0
Integration Time (sec): 2.730000E-2
Scans to average: 10
Electric dark correction enabled: true
Nonlinearity correction enabled: false
Boxcar width: 0
XAxis mode: Wavelengths
Number of Pixels in Spectrum: 2048
>>>>>Begin Spectral Data<<<<<
187.836	-2.6
188.309	-2.6
188.782	-2.6
189.255	0.1
189.728	-2.9
190.201	7.2
190.674	-1
191.147	4.3
191.619	-10.1
192.092	-1.1
192.565	3.9
193.038	0.9
193.511	1.3
193.984	1.5
194.456	-2.7
194.929	1.5
195.402	-2.3
195.874	2
196.347	-1.9
196.82	-5.8
197.292	6.4
197.765	1.8
198.237	-2.8
198.71	-3.3
199.182	1.5
199.655	6.8
200.127	5.3
200.6	-2.6
201.072	-6.5
201.544	-8.5
202.017	-9.2
202.489	3.6
202.961	0.7
203.433	-2.2
203.906	-0.9
204.378	-3.1
204.85	-0.7
205.322	-6.6
205.794	-1.3
206.266	-2.6
206.739	-11.1
207.211	2.7
207.683	-8.1
208.155	-2.1
208.627	-8.9
209.099	1.2
209.57	-10
210.042	-5.9
210.514	-2.8
210.986	-3
211.458	-6
211.93	-4.6
212.402	2.5
212.873	-6.5
213.345	-6.7
213.817	-5.5
214.288	-1.5
214.76	-8.7
215.232	1.5
215.703	-5.8
216.175	-6.6
216.646	-7.6
217.118	-6.5
217.589	-5.1
218.061	-6.2
218.532	-5.3
219.004	-1.7
219.475	0.7
219.946	-4.3
220.418	-8.2
220.889	4.1
221.36	-3
221.832	-9.3
222.303	-6.9
222.774	1.7
223.245	-8.9
223.717	-6.6
224.188	-4.3
224.659	-4
225.13	0
225.601	-0.5
226.072	5.2
226.543	2.5
227.014	-0.8
227.485	-2.1
227.956	-6.9
228.427	-6.2
228.898	-2
229.369	1.5
229.839	-3.9
230.31	-8.8
230.781	-0.8
231.252	-0.1
231.722	1.3
232.193	2.1
232.664	-2.6
233.135	0.7
233.605	-8.6
234.076	-6.3
234.546	-0.8
235.017	1.1
235.487	0.3
235.958	-3.5
236.428	-2.9
236.899	2.4
237.369	-4.9
237.84	-8.2
238.31	1.7
238.78	0
239.251	-1
239.721	0.9
240.191	1.5
240.662	-0.8
241.132	0.5
241.602	-6.2
242.072	-1.7
242.542	2.4
243.013	0.1
243.483	2.6
243.953	-3.4
244.423	-4.5
244.893	-7.1
245.363	1.4
245.833	3.9
246.303	-1.8
246.773	1.8
247.243	-1.4
247.712	4.7
248.182	7.2
248.652	0.5
249.122	-6.3
249.592	2.3
250.061	10.6
250.531	17.1
251.001	0.5
251.471	8.2
251.94	13.3
252.41	3.1
252.879	-8.1
253.349	9.5
253.818	6.7
254.288	2.6
254.757	-3.2
255.227	-6.1
255.696	4.4
256.166	0.5
256.635	0.6
257.105	6.8
257.574	2.5
258.043	1.8
258.513	6.1
258.982	13.1
259.451	4.9
259.92	7.6
260.389	5
260.859	13.3
261.328	3
261.797	5.2
262.266	2
262.735	10.3
263.204	3.3
263.673	1.6
264.142	5.7
264.611	-4.9
265.08	-0.8
265.549	-2.3
266.018	5
266.487	-0.2
266.955	-6.5
267.424	-3.6
267.893	5.7
268.362	-3.7
268.83	2.6
269.299	9.8
269.768	-1.1
270.236	5
270.705	2.9
271.174	7.2
271.642	2.5
272.111	5.1
272.579	3.5
273.048	12.1
273.516	11.9
273.985	13
274.453	16
274.922	15.3
275.39	4.5
275.858	1.5
276.327	5.9
276.795	15.6
277.263	0.9
277.731	23.6
278.2	32.1
278.668	32.1
279.136	29
279.604	10.6
280.072	13.1
280.54	10
281.008	4.3
281.477	8.7
281.945	7.8
282.413	7.2
282.881	14.6
283.348	4.5
283.816	12.2
284.284	11.9
284.752	16.6
285.22	9.2
285.688	10.8
286.156	14.3
286.623	26.3
287.091	32.9
287.559	13.3
288.026	7.9
288.494	16.4
288.962	4.4
289.429	4.4
289.897	10.9
290.364	12.1
290.832	3.1
291.3	10.5
291.767	8.7
292.234	12.8
292.702	12.7
293.169	12.8
293.637	21
294.104	11.7
294.571	5.6
295.039	5.3
295.506	8
295.973	12.3
296.44	16.1
296.908	12.1
297.375	13.6
297.842	15.9
298.309	15.7
298.776	10.7
299.243	11.2
299.71	10.2
300.177	13.6
300.644	13
301.111	13.1
301.578	18.1
302.045	9.6
302.512	14.9
302.979	20.2
303.446	12.3
303.913	12.7
304.379	14.3
304.846	26.1
305.313	18
305.78	12.1
306.246	21.7
306.713	21.7
307.18	24.5
307.646	21.3
308.113	20.9
308.579	13.5
309.046	18.6
309.512	16.6
309.979	14.4
310.445	20.5
310.912	26.5
311.378	20.5
311.845	22.4
312.311	18.8
312.777	21.9
313.244	22.6
313.71	25.5
314.176	20.8
314.642	25.7
315.109	22.1
315.575	29.6
316.041	31.4
316.507	22
316.973	21.1
317.439	27.4
317.905	27.3
318.371	28.4
318.837	30.5
319.303	31.7
319.769	24.2
320.235	22.4
320.701	26
321.167	27
321.633	23.2
322.099	33.1
322.564	32.7
323.03	31.1
323.496	34.8
323.962	38.2
324.427	25.4
324.893	31.1
325.359	27.4
325.824	28.1
326.29	29
326.755	26.4
327.221	32.4
327.686	28.9
328.152	35.5
328.617	32.5
329.083	37.7
329.548	48.3
330.014	38
330.479	34.9
330.944	36
331.41	35.2
331.875	38.2
332.34	32.8
332.805	35.7
333.271	35.5
333.736	33.2
334.201	42.8
334.666	39.7
335.131	47.8
335.596	40.2
336.061	42.6
336.526	33.2
336.991	39.2
337.456	46.3
337.921	42.3
338.386	33.2
338.851	35.1
339.316	40.3
339.781	41.5
340.246	46.4
340.711	39.9
341.175	38.5
341.64	43.5
342.105	43.8
342.569	47.9
343.034	50.3
343.499	47
343.963	41
344.428	53.3
344.893	52.6
345.357	53.6
345.822	50.9
346.286	60.5
346.751	53.3
347.215	51.3
347.679	59.2
348.144	75.1
348.608	64.6
349.073	55.2
349.537	59.9
350.001	62.8
350.465	73.5
350.93	71.7
351.394	68.6
351.858	62.1
352.322	74
352.786	65.5
353.25	85.9
353.715	93.5
354.179	86.9
354.643	95.1
355.107	103.4
355.571	84.2
356.035	85.9
356.498	92.3
356.962	96.7
357.426	108.8
357.89	95.4
358.354	78.3
358.818	75.5
359.281	70.3
359.745	60.4
360.209	65
360.673	58.9
361.136	67.1
361.6	72.7
362.064	67.6
362.527	72.3
362.991	82.6
363.454	71.4
363.918	64.2
364.381	71.7
364.845	73
365.308	82
365.772	73.8
366.235	78.9
366.698	68.6
367.162	75.1
367.625	80.3
368.088	79
368.552	87.4
369.015	77.5
369.478	90.8
369.941	86.3
370.404	86.2
370.867	90.1
371.331	95
371.794	93.5
372.257	90.9
372.72	99
373.183	99.9
373.646	84.6
374.109	82
374.572	98.2
375.035	94
375.497	101.2
375.96	93.1
376.423	91.6
376.886	100.8
377.349	97.6
377.811	97.2
378.274	98.3
378.737	98
379.199	103.3
379.662	96.5
380.125	102.2
380.587	99.8
381.05	110.4
381.512	110.9
381.975	122.7
382.437	116.5
382.9	105.6
383.362	113.6
383.825	127.8
384.287	128.6
384.75	123.5
385.212	118.8
385.674	121.9
386.136	126.4
386.599	114.6
387.061	114.4
387.523	121.7
387.985	118.4
388.447	130.4
388.91	121
389.372	130.3
389.834	135.2
390.296	134.4
390.758	134.1
391.22	141.6
391.682	169.1
392.144	226.4
392.606	185.9
393.068	144.6
393.529	147.8
393.991	144.6
394.453	126
394.915	142.2
395.377	157.9
395.838	175.7
396.3	142.9
396.762	129.8
397.224	127.2
397.685	121.3
398.147	125.6
398.608	124.9
399.07	117.3
399.531	127.5
399.993	139.1
400.454	139.1
400.916	143.3
401.377	139.5
401.839	148.4
402.3	141.7
402.762	158.4
403.223	165.6
403.684	160.9
404.145	158.9
404.607	154.1
405.068	153.8
405.529	161.8
405.99	173.7
406.451	163.5
406.913	165.1
407.374	156.5
407.835	153.3
408.296	160.4
408.757	164.4
409.218	183.3
409.679	174
410.14	166.5
410.601	162.8
411.062	173.5
411.522	177.2
411.983	174.9
412.444	164
412.905	170.8
413.366	176.8
413.826	191.8
414.287	217.7
414.748	259.2
415.208	237.9
415.669	210.3
416.13	203.8
416.59	200.5
417.051	207.6
417.511	215.1
417.972	227.8
418.432	240.7
418.893	280
419.353	246.2
419.814	196.9
420.274	184
420.734	179.2
421.195	188.3
421.655	191.3
422.115	184.2
422.576	189.8
423.036	196.8
423.496	206.2
423.956	208.2
424.416	227.8
424.876	252.1
425.336	249.9
425.797	250.9
426.257	249.2
426.717	230.2
427.177	219.8
427.637	215.8
428.097	227.2
428.556	240.7
429.016	261.2
429.476	254
429.936	260.9
430.396	268.2
430.856	281.2
431.315	305.4
431.775	327.3
432.235	359.4
432.694	334.5
433.154	353.7
433.614	381.4
434.073	320.2
434.533	283.2
434.993	258.9
435.452	270.7
435.912	285.5
436.371	272
436.83	267.5
437.29	254.1
437.749	241.2
438.209	238.6
438.668	267
439.127	275.6
439.587	248.7
440.046	233.9
440.505	249.6
440.964	266.5
441.424	304.6
441.883	301.9
442.342	252.5
442.801	221.3
443.26	216.3
443.719	221
444.178	222.4
444.637	210.2
445.096	222.9
445.555	222.1
446.014	220.4
446.473	220.7
446.932	226
447.391	230
447.849	223.6
448.308	216.9
448.767	217.4
449.226	231.3
449.685	228.9
450.143	242.9
450.602	234.1
451.061	225
451.519	233.7
451.978	227
452.436	232.8
452.895	237.1
453.353	253.7
453.812	243.2
454.27	241.2
454.729	241.2
455.187	242.1
455.646	246.3
456.104	253.2
456.562	261.2
457.021	263.6
457.479	248.9
457.937	266.4
458.395	263.1
458.854	251.3
459.312	256.1
459.77	262.8
460.228	254.2
460.686	244.1
461.144	254.7
461.602	246.3
462.06	252.3
462.518	259.2
462.976	254.1
463.434	257.9
463.892	269.8
464.35	271.3
464.808	291.4
465.266	269.5
465.724	268.5
466.181	268.6
466.639	268.4
467.097	289.8
467.555	300.3
468.012	297.4
468.47	307.7
468.928	328.3
469.385	341.6
469.843	347
470.3	336.7
470.758	357.6
471.215	377.1
471.673	412.8
472.13	396.4
472.588	415.9
473.045	372.7
473.503	380.3
473.96	395.6
474.417	397.5
474.875	430.3
475.332	476
475.789	458.2
476.246	463.7
476.704	483.2
477.161	511
477.618	519.4
478.075	558.1
478.532	609.6
478.989	669.4
479.446	779.8
479.903	749.4
480.36	796.4
480.817	829.1
481.274	933.9
481.731	1021.2
482.188	1100.2
482.645	1233
483.102	1322
483.558	1445
484.015	1491.6
484.472	1476.8
484.929	1419.2
485.385	1368.5
485.842	1362.5
486.299	1280.5
486.755	1233.1
487.212	1061.6
487.668	901.2
488.125	831.7
488.582	770.6
489.038	732.8
489.494	704
489.951	671.8
490.407	657.2
490.864	635.1
491.32	643.5
491.776	633.9
492.233	643.6
492.689	613.4
493.145	604.5
493.602	604.9
494.058	613.8
494.514	618.7
494.97	630.3
495.426	635.5
495.882	614.8
496.338	608.8
496.794	612.3
497.251	601.8
497.707	630.4
498.163	630
498.618	635.2
499.074	640.1
499.53	679
499.986	657.8
500.442	644.5
500.898	631.2
501.354	617.8
501.809	630.5
502.265	628.9
502.721	648
503.177	659.9
503.632	662.9
504.088	665.8
504.543	698.7
504.999	701.9
505.455	647.7
505.91	627.8
506.366	638.8
506.821	630.8
507.277	630
507.732	630.5
508.187	637.7
508.643	643.3
509.098	630.1
509.553	667.7
510.009	668.2
510.464	682.4
510.919	684.9
511.375	696.4
511.83	703.5
512.285	716.9
512.74	754.6
513.195	775.6
513.65	767.6
514.105	763.2
514.56	767.8
515.015	791.9
515.47	796.5
515.925	781.1
516.38	781.9
516.835	795.7
517.29	787.1
517.745	774.3
518.2	759.7
518.655	744.4
519.109	740.3
519.564	728.6
520.019	725.3
520.474	725
520.928	736.8
521.383	720
521.838	705.5
522.292	711.8
522.747	704.5
523.201	708.2
523.656	698.9
524.11	694.7
524.565	687.5
525.019	691.4
525.474	700.1
525.928	706.3
526.382	700.5
526.837	700.4
527.291	706.7
527.745	700.2
528.2	691.8
528.654	702.4
529.108	692.1
529.562	692.6
530.016	691
530.47	689.7
530.925	698.7
531.379	699.3
531.833	705.8
532.287	694.4
532.741	697.3
533.195	713.2
533.649	722.8
534.103	722.7
534.556	697.6
535.01	714.8
535.464	711.3
535.918	715.5
536.372	718
536.826	719
537.279	705.7
537.733	709.4
538.187	715.8
538.64	719.7
539.094	730.8
539.548	738.3
540.001	723.9
540.455	739.8
540.908	748.4
541.362	744.3
541.815	751.8
542.269	764.6
542.722	769.9
543.175	769.1
543.629	777.8
544.082	792.5
544.536	787.8
544.989	792.5
545.442	805.1
545.895	798.3
546.349	802.1
546.802	803.9
547.255	804.7
547.708	818.3
548.161	824.9
548.614	831.3
549.067	844.3
549.52	831.1
549.973	828.2
550.426	814.1
550.879	804.5
551.332	804.4
551.785	820.6
552.238	821.1
552.691	820.7
553.144	840.1
553.596	863.8
554.049	869.8
554.502	901.5
554.955	920.5
555.407	913.8
555.86	911.9
556.313	901.3
556.765	885.4
557.218	898.6
557.67	893.6
558.123	883.8
558.576	879.3
559.028	897.1
559.48	901.1
559.933	882.8
560.385	843.9
560.838	829.5
561.29	798.4
561.742	797.2
562.195	780.5
562.647	777.3
563.099	786.8
563.551	779.5
564.004	791.3
564.456	770.6
564.908	772.1
565.36	761.5
565.812	742.4
566.264	734.4
566.716	724
567.168	723.5
567.62	735
568.072	712.6
568.524	711.3
568.976	703
569.428	686.6
569.88	695.1
570.332	693.9
570.784	691.9
571.235	689.6
571.687	702.8
572.139	716.2
572.59	723.6
573.042	728.4
573.494	728.8
573.945	722.1
574.397	702.1
574.849	694.3
575.3	701.5
575.752	699.9
576.203	694.8
576.655	705.1
577.106	685.3
577.557	674.7
578.009	682.7
578.46	681.1
578.912	682.2
579.363	681.3
579.814	686.9
580.265	673
580.717	675
581.168	687
581.619	681
582.07	694.2
582.521	691.9
582.972	681.4
583.423	691.1
583.875	692.8
584.326	704.5
584.777	739.5
585.227	793.4
585.678	844.9
586.129	911.8
586.58	962.1
587.031	1022.1
587.482	1110.4
587.933	1232.9
588.384	1102.7
588.834	915.3
589.285	807.5
589.736	806.3
590.186	802.6
590.637	784.5
591.088	755.2
591.538	748.8
591.989	742
592.439	748.4
592.89	739.1
593.34	725.3
593.791	722.3
594.241	720.5
594.692	716.2
595.142	722.6
595.593	715.2
596.043	722.1
596.493	728.4
596.943	723.8
597.394	734.8
597.844	732.3
598.294	749.6
598.744	776.4
599.195	795.9
599.645	841
600.095	884.1
600.545	947.4
600.995	992
601.445	1050.2
601.895	1106.6
602.345	1166.9
602.795	1139
603.245	1089.2
603.695	1029.1
604.145	976.5
604.594	938
605.044	876.9
605.494	816.3
605.944	769.4
606.393	761.5
606.843	745.6
607.293	754.5
607.743	742.4
608.192	756.6
608.642	774.3
609.091	784.4
609.541	776.6
609.99	782.9
610.44	778.1
610.889	734.7
611.339	712.8
611.788	704.3
612.238	719.9
612.687	739.4
613.136	724.2
613.586	737.5
614.035	738.2
614.484	759.3
614.933	749.9
615.383	751.9
615.832	739.9
616.281	726.9
616.73	694.2
617.179	683.8
617.628	672.8
618.077	651.4
618.526	639.4
618.975	631.4
619.424	627.9
619.873	621.7
620.322	636.7
620.771	618.8
621.22	619.8
621.669	610.3
622.118	604.1
622.567	597.5
623.015	576.4
623.464	588.7
623.913	574.3
624.361	562.3
624.81	558.7
625.259	560.2
625.707	570.8
626.156	570.5
626.604	587.9
627.053	577.9
627.501	581.2
627.95	585.7
628.398	597.6
628.847	578.7
629.295	576.7
629.744	582.2
630.192	585.2
630.64	583
631.089	580.2
631.537	576.9
631.985	580.6
632.433	591.6
632.881	589.8
633.33	622.8
633.778	610.2
634.226	570.2
634.674	577.9
635.122	579.6
635.57	592.3
636.018	619.1
636.466	591.3
636.914	566.6
637.362	583.7
637.81	588.1
638.258	604.3
638.705	593.5
639.153	635.8
639.601	641.3
640.049	667.3
640.497	690.8
640.944	720.8
641.392	659.9
641.84	631.6
642.287	598.9
642.735	585.9
643.182	586.1
643.63	577
644.078	584.2
644.525	599.9
644.973	604.7
645.42	616
645.867	637.2
646.315	648.9
646.762	677.4
647.21	708.3
647.657	729.5
648.104	763.8
648.551	784.3
648.999	844.9
649.446	932.8
649.893	1020.5
650.34	1158.5
650.787	1403.3
651.234	1724.3
651.682	2239
652.129	3067.5
652.576	4389.1
653.023	6465.2
653.47	8739.2
653.917	10823.3
654.363	12369.3
654.81	13582
655.257	12855.2
655.704	8495.3
656.151	5053.6
656.598	3304.3
657.044	2363
657.491	1825.6
657.938	1474
658.385	1247.7
658.831	1075.9
659.278	958.1
659.724	857.7
660.171	793.7
660.618	732.8
661.064	694.4
661.511	666.4
661.957	661.1
662.404	647.4
662.85	661.1
663.296	640.2
663.743	577
664.189	549.9
664.635	553.6
665.082	544.3
665.528	546.6
665.974	531.4
666.42	526.6
666.867	515.7
667.313	503.3
667.759	494.2
668.205	477.9
668.651	485.8
669.097	474.9
669.543	480.1
669.989	464.3
670.435	457.8
670.881	454.1
671.327	465.6
671.773	493.8
672.219	507.4
672.665	570.4
673.11	606
673.556	639.8
674.002	685.7
674.448	677
674.893	560.5
675.339	493.9
675.785	456.2
676.23	432
676.676	401.3
677.122	391.2
677.567	383.8
678.013	383.1
678.458	369.3
678.904	373
679.349	357
679.794	372.4
680.24	360.8
680.685	359.1
681.131	361.3
681.576	362.6
682.021	366.8
682.466	356.3
682.912	365.9
683.357	365.6
683.802	401.2
684.247	435.1
684.692	469.6
685.137	518
685.583	559.1
686.028	574.9
686.473	540.1
686.918	463
687.363	435.6
687.807	406.4
688.252	373.1
688.697	370.3
689.142	354.7
689.587	348.7
690.032	334.7
690.477	356.4
690.921	374.3
691.366	398.2
691.811	416.9
692.255	456.1
692.7	483.2
693.145	531.8
693.589	757
694.034	1218.1
694.478	1638.5
694.923	1793.6
695.367	2332.3
695.812	1254.3
696.256	520.7
696.701	388.3
697.145	353.8
697.59	337.9
698.034	328.5
698.478	343.1
698.922	340.1
699.367	335.9
699.811	351.2
700.255	371.8
700.699	400.1
701.143	446.5
701.588	502.3
702.032	532.9
702.476	529.3
702.92	519
703.364	519.4
703.808	693.4
704.252	1124.1
704.696	1547.6
705.14	1731.3
705.584	2189.5
706.027	1109.9
706.471	543.9
706.915	408.7
707.359	365.5
707.803	330.8
708.246	319.5
708.69	320.5
709.134	331.3
709.577	320.1
710.021	334.2
710.465	315.3
710.908	314.8
711.352	313.8
711.795	322.2
712.239	370
712.682	410.8
713.126	431.7
713.569	475
714.012	378.4
714.456	330.2
714.899	304.4
715.342	278.1
715.786	276.2
716.229	264.7
716.672	265.3
717.115	255
717.558	260.4
718.002	259.3
718.445	281.2
718.888	298.4
719.331	303.1
719.774	318.6
720.217	314.5
720.66	298.4
721.103	276
721.546	262.9
721.989	256
722.432	240.9
722.874	248.6
723.317	240.6
723.76	245.3
724.203	273.3
724.645	335.9
725.088	473
725.531	604.6
725.974	662.1
726.416	562.1
726.859	326.6
727.301	256.3
727.744	245.5
728.187	246.8
728.629	248
729.071	258.4
729.514	275.9
729.956	286.6
730.399	290.4
730.841	295.5
731.283	283.8
731.726	279.8
732.168	273.7
732.61	288
733.053	301.5
733.495	335.4
733.937	373
734.379	423.1
734.821	465.9
735.263	595.2
735.705	911.9
736.148	1733.6
736.59	2756.9
737.032	3122.3
737.474	2562.8
737.916	849.3
738.357	445.9
738.799	343.7
739.241	314.9
739.683	294.7
740.125	312.5
740.567	312.7
741.008	319.6
741.45	325.4
741.892	331.1
742.334	367.2
742.775	379.6
743.217	360.8
743.658	282.4
744.1	261.3
744.542	274.8
744.983	323.3
745.425	360.3
745.866	349.8
746.307	298
746.749	296.1
747.19	340.6
747.632	490.3
748.073	990.1
748.514	2035.4
748.956	2995.9
749.397	3782.7
749.838	3118.1
750.279	3060.3
750.72	1570.2
751.162	579.1
751.603	334.5
752.044	263.2
752.485	229.7
752.926	215.9
753.367	213.4
753.808	207.4
754.249	202
754.69	192.4
755.131	195.3
755.572	188.5
756.013	184.6
756.453	192.4
756.894	185.4
757.335	202.5
757.776	203.3
758.216	210.9
758.657	205.7
759.098	214.5
759.538	236.7
759.979	283.7
760.42	408.3
760.86	787.6
761.301	2036.1
761.741	4801
762.182	6615.4
762.622	4657.8
763.063	1372.3
763.503	570
763.943	356.4
764.384	326.6
764.824	345.6
765.264	357.7
765.705	275.2
766.145	210.7
766.585	194
767.025	187.1
767.465	189.3
767.906	220.8
768.346	273.6
768.786	287.7
769.226	256.6
769.666	340
770.106	690.1
770.546	1708.9
770.986	2735.4
771.426	2438.6
771.866	837.7
772.306	351.7
772.745	219.3
773.185	181.2
773.625	176.7
774.065	165.8
774.505	185.8
774.944	272.8
775.384	549.3
775.824	920.5
776.263	881.4
776.703	406.3
777.142	200.8
777.582	147.7
778.021	136.3
778.461	134.8
778.9	139.5
779.34	130.2
779.779	119.6
780.219	115.8
780.658	109.9
781.097	114.5
781.537	115.5
781.976	116.3
782.415	113.7
782.855	110.3
783.294	103.2
783.733	113.7
784.172	115.4
784.611	104.8
785.05	121
785.489	111.7
785.928	123.8
786.367	126
786.806	126.8
787.245	139
787.684	142.2
788.123	157.4
788.562	137.4
789.001	135.9
789.44	127.4
789.879	125.8
790.317	128.5
790.756	134.8
791.195	130.8
791.634	159.5
792.072	220.7
792.511	397.7
792.95	1109.5
793.388	2248.9
793.827	1959
794.265	697
794.704	293.3
795.142	191
795.581	156.2
796.019	141.3
796.458	135.9
796.896	133.1
797.334	137.8
797.773	171.1
798.211	238.7
798.649	489.8
799.087	1103.7
799.526	1680.4
799.964	2133
800.402	2059.4
800.84	785.8
801.278	315.6
801.716	200.8
802.154	158.6
802.592	145.9
803.03	152.7
803.468	138.9
803.906	154.9
804.344	161.1
804.782	151.7
805.22	141.2
805.658	135.7
806.096	152.2
806.533	165.8
806.971	186.2
807.409	237.1
807.847	346.2
