Data from 20171114-ORNL-Ar_H_NY_Subt18_08-05-41-152.txt Node
Date: Tue Nov 14 08:05:41 EST 2017
User: Ender
Spectrometer: HR+D1039
Trigger mode: 0
Integration Time (sec): 2.730000E-2
Scans to average: 10
Electric dark correction enabled: true
Nonlinearity correction enabled: false
Boxcar width: 0
XAxis mode: Wavelengths
Number of Pixels in Spectrum: 2048
>>>>>Begin Spectral Data<<<<<
187.836	-3.43
188.309	-3.43
188.782	-3.43
189.255	3.77
189.728	-3.73
190.201	-0.23
190.674	-0.33
191.147	-0.93
191.619	-6.43
192.092	-0.73
192.565	3.87
193.038	3.57
193.511	-5.13
193.984	7.07
194.456	-0.03
194.929	4.77
195.402	-1.43
195.874	-0.63
196.347	0.07
196.82	-9.13
197.292	7.87
197.765	-2.03
198.237	-4.03
198.71	1.47
199.182	-1.93
199.655	2.47
200.127	3.97
200.6	-1.23
201.072	-1.83
201.544	-0.53
202.017	-0.83
202.489	1.67
202.961	-7.73
203.433	-0.83
203.906	-1.43
204.378	-0.33
204.85	-5.33
205.322	-7.13
205.794	-0.63
206.266	1.97
206.739	-3.03
207.211	6.07
207.683	-3.63
208.155	-9.83
208.627	-10.03
209.099	-6.03
209.57	-9.43
210.042	-5.73
210.514	-5.93
210.986	0.07
211.458	-7.63
211.93	-1.43
212.402	1.17
212.873	-6.53
213.345	-5.53
213.817	-10.63
214.288	-2.83
214.76	-12.83
215.232	-0.03
215.703	-7.03
216.175	-1.63
216.646	-8.13
217.118	-6.43
217.589	-5.23
218.061	-2.73
218.532	-4.83
219.004	-2.43
219.475	-2.43
219.946	-3.63
220.418	-4.33
220.889	-1.83
221.36	-1.93
221.832	-6.13
222.303	-7.43
222.774	2.67
223.245	-11.53
223.717	-3.03
224.188	-1.83
224.659	0.27
225.13	-5.53
225.601	-1.83
226.072	-2.43
226.543	1.17
227.014	-0.13
227.485	-1.13
227.956	-4.63
228.427	-9.43
228.898	0.57
229.369	2.47
229.839	-5.03
230.31	-1.93
230.781	3.47
231.252	-6.13
231.722	-5.13
232.193	-0.43
232.664	2.47
233.135	1.77
233.605	-1.73
234.076	-3.83
234.546	5.27
235.017	6.27
235.487	4.47
235.958	1.77
236.428	0.87
236.899	4.17
237.369	2.67
237.84	1.37
238.31	10.77
238.78	2.67
239.251	2.67
239.721	4.27
240.191	1.37
240.662	1.67
241.132	1.27
241.602	-2.33
242.072	4.07
242.542	2.57
243.013	-3.33
243.483	8.17
243.953	1.97
244.423	4.07
244.893	-5.23
245.363	6.87
245.833	6.07
246.303	0.57
246.773	4.67
247.243	0.17
247.712	11.77
248.182	11.77
248.652	11.37
249.122	1.97
249.592	9.07
250.061	21.97
250.531	38.07
251.001	16.67
251.471	24.27
251.94	23.97
252.41	6.57
252.879	-0.73
253.349	9.47
253.818	15.67
254.288	2.17
254.757	2.67
255.227	3.17
255.696	6.67
256.166	8.47
256.635	8.57
257.105	8.57
257.574	9.17
258.043	11.07
258.513	20.27
258.982	15.87
259.451	15.57
259.92	10.77
260.389	10.77
260.859	20.57
261.328	12.57
261.797	18.97
262.266	6.47
262.735	13.17
263.204	6.17
263.673	2.27
264.142	4.37
264.611	4.27
265.08	-6.03
265.549	0.67
266.018	6.87
266.487	-1.63
266.955	3.87
267.424	0.77
267.893	12.47
268.362	6.37
268.83	7.47
269.299	8.47
269.768	14.97
270.236	5.87
270.705	0.17
271.174	5.67
271.642	7.07
272.111	9.27
272.579	20.97
273.048	32.67
273.516	33.47
273.985	31.57
274.453	22.07
274.922	19.97
275.39	11.87
275.858	5.17
276.327	11.47
276.795	17.17
277.263	16.87
277.731	29.27
278.2	56.67
278.668	63.07
279.136	50.57
279.604	24.07
280.072	17.27
280.54	16.77
281.008	12.27
281.477	19.87
281.945	13.67
282.413	18.57
282.881	18.67
283.348	14.97
283.816	22.47
284.284	17.87
284.752	23.77
285.22	17.57
285.688	19.07
286.156	20.97
286.623	49.17
287.091	61.07
287.559	33.47
288.026	23.47
288.494	17.07
288.962	7.77
289.429	11.87
289.897	22.27
290.364	17.57
290.832	19.17
291.3	15.07
291.767	24.57
292.234	17.37
292.702	17.87
293.169	23.37
293.637	23.37
294.104	23.97
294.571	18.87
295.039	9.97
295.506	16.27
295.973	19.97
296.44	18.17
296.908	23.17
297.375	20.57
297.842	24.77
298.309	17.97
298.776	13.97
299.243	23.07
299.71	16.97
300.177	24.17
300.644	23.17
301.111	24.07
301.578	21.47
302.045	17.77
302.512	23.37
302.979	27.17
303.446	26.97
303.913	18.77
304.379	17.77
304.846	25.87
305.313	32.57
305.78	24.67
306.246	28.47
306.713	29.57
307.18	27.47
307.646	28.97
308.113	24.17
308.579	22.57
309.046	25.17
309.512	36.17
309.979	19.17
310.445	32.67
310.912	28.87
311.378	35.17
311.845	30.67
312.311	32.77
312.777	39.57
313.244	36.17
313.71	39.07
314.176	28.47
314.642	35.37
315.109	36.97
315.575	39.87
316.041	40.57
316.507	40.27
316.973	46.07
317.439	42.57
317.905	43.77
318.371	42.37
318.837	42.37
319.303	35.17
319.769	30.37
320.235	34.67
320.701	39.47
321.167	40.87
321.633	38.17
322.099	45.07
322.564	49.07
323.03	42.17
323.496	42.27
323.962	40.97
324.427	38.87
324.893	47.87
325.359	42.77
325.824	38.17
326.29	42.77
326.755	41.97
327.221	43.87
327.686	41.27
328.152	50.97
328.617	47.27
329.083	50.77
329.548	62.67
330.014	52.67
330.479	41.67
330.944	41.67
331.41	39.37
331.875	45.47
332.34	42.17
332.805	47.97
333.271	40.37
333.736	45.27
334.201	55.37
334.666	58.37
335.131	57.87
335.596	57.87
336.061	55.37
336.526	43.27
336.991	54.17
337.456	61.67
337.921	57.27
338.386	44.37
338.851	49.87
339.316	47.07
339.781	52.47
340.246	58.37
340.711	49.07
341.175	57.87
341.64	49.57
342.105	56.17
342.569	57.07
343.034	65.77
343.499	53.87
343.963	55.57
344.428	61.57
344.893	65.07
345.357	58.07
345.822	68.77
346.286	71.07
346.751	75.47
347.215	73.87
347.679	73.67
348.144	100.17
348.608	84.97
349.073	68.47
349.537	80.57
350.001	84.97
350.465	97.47
350.93	84.77
351.394	76.47
351.858	73.47
352.322	90.87
352.786	81.47
353.25	97.67
353.715	116.97
354.179	103.37
354.643	129.97
355.107	124.97
355.571	113.07
356.035	112.57
356.498	120.47
356.962	122.27
357.426	132.97
357.89	119.87
358.354	89.67
358.818	90.67
359.281	82.57
359.745	85.37
360.209	83.67
360.673	77.47
361.136	81.57
361.6	85.47
362.064	89.47
362.527	92.17
362.991	89.07
363.454	83.57
363.918	82.27
364.381	83.77
364.845	86.37
365.308	86.57
365.772	89.77
366.235	93.17
366.698	83.47
367.162	83.27
367.625	94.57
368.088	85.47
368.552	84.57
369.015	93.27
369.478	102.87
369.941	97.37
370.404	93.17
370.867	104.27
371.331	110.87
371.794	123.77
372.257	116.87
372.72	114.67
373.183	112.87
373.646	106.77
374.109	113.07
374.572	105.37
375.035	110.17
375.497	112.77
375.96	108.57
376.423	109.57
376.886	110.97
377.349	109.67
377.811	102.27
378.274	109.07
378.737	105.67
379.199	122.67
379.662	111.17
380.125	122.07
380.587	127.47
381.05	122.17
381.512	136.87
381.975	130.57
382.437	124.87
382.9	124.07
383.362	138.57
383.825	149.87
384.287	151.27
384.75	143.57
385.212	140.57
385.674	139.17
386.136	135.57
386.599	129.47
387.061	127.67
387.523	134.67
387.985	136.57
388.447	144.67
388.91	140.77
389.372	160.67
389.834	155.57
390.296	148.47
390.758	163.07
391.22	173.97
391.682	216.17
392.144	294.67
392.606	234.17
393.068	169.87
393.529	168.97
393.991	157.17
394.453	151.47
394.915	161.37
395.377	196.77
395.838	215.07
396.3	159.77
396.762	148.27
397.224	140.27
397.685	136.27
398.147	138.27
398.608	134.07
399.07	135.97
399.531	134.47
399.993	145.37
400.454	154.87
400.916	152.97
401.377	153.27
401.839	156.57
402.3	153.17
402.762	166.57
403.223	190.57
403.684	178.17
404.145	170.87
404.607	165.67
405.068	167.37
405.529	170.37
405.99	192.07
406.451	175.57
406.913	179.77
407.374	169.17
407.835	170.07
408.296	174.87
408.757	174.97
409.218	184.97
409.679	181.97
410.14	181.07
410.601	178.77
411.062	195.07
411.522	187.97
411.983	190.67
412.444	177.57
412.905	173.67
413.366	187.17
413.826	192.87
414.287	219.87
414.748	267.07
415.208	249.87
415.669	214.47
416.13	211.37
416.59	201.77
417.051	217.97
417.511	224.87
417.972	243.87
418.432	249.47
418.893	296.07
419.353	251.27
419.814	204.07
420.274	182.17
420.734	187.57
421.195	201.77
421.655	194.57
422.115	197.17
422.576	197.17
423.036	194.57
423.496	207.67
423.956	214.17
424.416	235.87
424.876	261.27
425.336	262.07
425.797	271.87
426.257	261.07
426.717	244.97
427.177	243.27
427.637	226.77
428.097	237.67
428.556	257.17
429.016	273.67
429.476	265.97
429.936	278.37
430.396	279.57
430.856	299.77
431.315	319.37
431.775	355.97
432.235	387.37
432.694	353.57
433.154	371.77
433.614	394.67
434.073	344.97
434.533	290.37
434.993	278.57
435.452	288.37
435.912	295.47
436.371	296.37
436.83	288.07
437.29	278.77
437.749	256.17
438.209	258.97
438.668	282.07
439.127	291.27
439.587	266.97
440.046	254.97
440.505	264.37
440.964	285.37
441.424	328.97
441.883	325.67
442.342	263.07
442.801	230.87
443.26	225.47
443.719	219.77
444.178	224.57
444.637	215.07
445.096	220.27
445.555	228.37
446.014	221.77
446.473	227.07
446.932	237.07
447.391	230.07
447.849	235.37
448.308	230.77
448.767	225.67
449.226	240.77
449.685	238.07
450.143	255.97
450.602	247.07
451.061	230.57
451.519	232.17
451.978	238.27
452.436	239.47
452.895	242.87
453.353	259.07
453.812	245.47
454.27	251.37
454.729	240.77
455.187	243.97
455.646	254.67
456.104	249.77
456.562	262.17
457.021	274.07
457.479	262.77
457.937	276.07
458.395	270.07
458.854	258.27
459.312	261.47
459.77	282.97
460.228	259.27
460.686	245.77
461.144	245.57
461.602	235.37
462.06	252.67
462.518	256.07
462.976	260.97
463.434	266.87
463.892	264.97
464.35	284.97
464.808	291.57
465.266	275.67
465.724	275.77
466.181	284.07
466.639	275.17
467.097	287.27
467.555	298.57
468.012	312.77
468.47	320.67
468.928	332.57
469.385	349.27
469.843	350.07
470.3	351.67
470.758	374.07
471.215	383.47
471.673	417.77
472.13	422.87
472.588	424.57
473.045	381.47
473.503	378.87
473.96	403.87
474.417	411.27
474.875	442.07
475.332	480.87
475.789	472.77
476.246	477.07
476.704	499.07
477.161	519.27
477.618	531.57
478.075	569.27
478.532	635.07
478.989	701.77
479.446	820.67
479.903	782.67
480.36	819.07
480.817	887.17
481.274	990.67
481.731	1097.07
482.188	1194.77
482.645	1328.57
483.102	1437.77
483.558	1566.67
484.015	1623.67
484.472	1612.67
484.929	1544.17
485.385	1502.57
485.842	1462.17
486.299	1387.17
486.755	1328.07
487.212	1121.67
487.668	941.47
488.125	874.77
488.582	791.67
489.038	759.67
489.494	719.97
489.951	700.97
490.407	676.67
490.864	666.57
491.32	661.17
491.776	646.17
492.233	649.27
492.689	616.07
493.145	622.17
493.602	613.17
494.058	626.77
494.514	620.17
494.97	647.37
495.426	660.47
495.882	635.67
496.338	627.77
496.794	640.27
497.251	639.67
497.707	649.07
498.163	651.47
498.618	652.17
499.074	656.07
499.53	687.17
499.986	686.97
500.442	653.37
500.898	641.37
501.354	632.47
501.809	649.27
502.265	654.57
502.721	674.67
503.177	682.97
503.632	669.97
504.088	684.07
504.543	712.17
504.999	721.97
505.455	670.57
505.91	644.57
506.366	648.77
506.821	651.17
507.277	632.97
507.732	635.07
508.187	632.57
508.643	654.27
509.098	637.47
509.553	663.17
510.009	677.97
510.464	683.97
510.919	704.67
511.375	705.17
511.83	722.97
512.285	739.87
512.74	769.67
513.195	805.37
513.65	788.27
514.105	773.57
514.56	786.07
515.015	804.87
515.47	823.87
515.925	793.57
516.38	802.57
516.835	810.77
517.29	801.27
517.745	788.57
518.2	774.37
518.655	764.57
519.109	760.77
519.564	747.37
520.019	733.57
520.474	725.87
520.928	733.67
521.383	729.07
521.838	719.27
522.292	720.97
522.747	716.97
523.201	720.17
523.656	702.27
524.11	701.17
524.565	703.67
525.019	694.17
525.474	703.57
525.928	711.17
526.382	708.37
526.837	701.37
527.291	712.17
527.745	714.17
528.2	709.87
528.654	705.37
529.108	700.27
529.562	702.77
530.016	703.17
530.47	704.77
530.925	703.47
531.379	713.57
531.833	718.17
532.287	710.27
532.741	721.37
533.195	724.87
533.649	727.07
534.103	724.27
534.556	729.77
535.01	718.37
535.464	721.17
535.918	735.07
536.372	726.37
536.826	721.97
537.279	713.27
537.733	715.57
538.187	714.07
538.64	731.87
539.094	726.47
539.548	742.77
540.001	732.97
540.455	738.97
540.908	742.37
541.362	746.57
541.815	753.67
542.269	769.07
542.722	766.57
543.175	781.07
543.629	780.87
544.082	788.87
544.536	795.97
544.989	791.77
545.442	807.07
545.895	798.87
546.349	791.37
546.802	801.97
547.255	799.97
547.708	805.67
548.161	826.67
548.614	827.77
549.067	831.97
549.52	836.17
549.973	817.47
550.426	818.27
550.879	808.17
551.332	805.47
551.785	816.67
552.238	821.17
552.691	821.87
553.144	841.47
553.596	859.27
554.049	856.37
554.502	902.57
554.955	924.87
555.407	911.37
555.86	912.87
556.313	890.67
556.765	885.47
557.218	886.17
557.67	901.27
558.123	885.07
558.576	883.37
559.028	890.17
559.48	883.07
559.933	883.37
560.385	843.57
560.838	818.17
561.29	787.97
561.742	793.07
562.195	779.37
562.647	766.97
563.099	783.97
563.551	781.47
564.004	796.57
564.456	776.87
564.908	765.37
565.36	748.57
565.812	744.67
566.264	732.77
566.716	729.57
567.168	713.67
567.62	735.17
568.072	720.87
568.524	704.47
568.976	698.67
569.428	678.07
569.88	682.57
570.332	687.37
570.784	687.37
571.235	690.47
571.687	696.07
572.139	704.17
572.59	718.07
573.042	714.87
573.494	708.77
573.945	703.37
574.397	687.97
574.849	702.57
575.3	697.37
575.752	692.77
576.203	685.77
576.655	689.97
577.106	679.17
577.557	673.17
578.009	681.77
578.46	673.57
578.912	664.37
579.363	669.57
579.814	664.17
580.265	664.27
580.717	667.67
581.168	666.97
581.619	684.67
582.07	681.67
582.521	673.17
582.972	668.57
583.423	679.97
583.875	672.07
584.326	702.57
584.777	752.27
585.227	827.17
585.678	918.57
586.129	1000.17
586.58	1067.27
587.031	1155.67
587.482	1299.87
587.933	1487.67
588.384	1303.97
588.834	974.77
589.285	796.57
589.736	774.47
590.186	777.47
590.637	768.07
591.088	746.47
591.538	734.27
591.989	732.47
592.439	730.87
592.89	719.27
593.34	709.17
593.791	710.07
594.241	703.27
594.692	703.27
595.142	699.27
595.593	692.07
596.043	701.77
596.493	714.07
596.943	713.57
597.394	720.47
597.844	708.47
598.294	726.57
598.744	750.57
599.195	772.47
599.645	806.57
600.095	853.67
600.545	895.97
600.995	961.37
601.445	1017.77
601.895	1074.27
602.345	1131.17
602.795	1099.27
603.245	1066.97
603.695	1016.07
604.145	953.87
604.594	909.57
605.044	834.67
605.494	787.77
605.944	744.97
606.393	732.47
606.843	718.87
607.293	736.37
607.743	728.17
608.192	739.17
608.642	742.97
609.091	770.97
609.541	776.87
609.99	757.77
610.44	763.07
610.889	713.07
611.339	699.57
611.788	673.77
612.238	701.67
612.687	717.77
613.136	712.17
613.586	730.87
614.035	728.67
614.484	744.17
614.933	747.97
615.383	743.77
615.832	738.77
616.281	729.77
616.73	685.27
617.179	672.87
617.628	660.27
618.077	635.87
618.526	623.37
618.975	611.37
619.424	609.97
619.873	610.17
620.322	616.07
620.771	600.97
621.22	600.57
621.669	592.27
622.118	582.67
622.567	568.97
623.015	562.97
623.464	565.97
623.913	550.57
624.361	545.67
624.81	546.17
625.259	547.47
625.707	543.27
626.156	551.87
626.604	563.17
627.053	548.07
627.501	558.17
627.95	556.87
628.398	570.47
628.847	568.07
629.295	562.87
629.744	564.57
630.192	555.17
630.64	558.07
631.089	549.27
631.537	565.37
631.985	574.97
632.433	587.97
632.881	584.07
633.33	644.37
633.778	615.87
634.226	550.47
634.674	556.47
635.122	564.97
635.57	588.47
636.018	608.67
636.466	569.07
636.914	552.77
637.362	562.17
637.81	563.77
638.258	563.67
638.705	572.87
639.153	599.77
639.601	600.47
640.049	630.27
640.497	661.27
640.944	683.57
641.392	636.47
641.84	597.47
642.287	570.27
642.735	556.97
643.182	556.37
643.63	565.07
644.078	569.17
644.525	588.07
644.973	589.17
645.42	601.37
645.867	606.97
646.315	626.57
646.762	655.17
647.21	678.07
647.657	707.37
648.104	737.97
648.551	769.17
648.999	828.77
649.446	908.07
649.893	987.47
650.34	1153.67
650.787	1372.37
651.234	1697.67
651.682	2212.67
652.129	3030.47
652.576	4368.17
653.023	6465.27
653.47	8856.77
653.917	11131.87
654.363	12915.87
654.81	14298.47
655.257	13633.67
655.704	8902.47
656.151	5272.07
656.598	3406.27
657.044	2415.57
657.491	1857.17
657.938	1480.67
658.385	1230.97
658.831	1074.27
659.278	948.07
659.724	846.47
660.171	776.87
660.618	711.77
661.064	681.67
661.511	649.47
661.957	646.87
662.404	626.07
662.85	638.67
663.296	610.97
663.743	549.87
664.189	522.47
664.635	523.37
665.082	516.87
665.528	523.87
665.974	519.27
666.42	501.57
666.867	495.77
667.313	482.87
667.759	475.77
668.205	468.07
668.651	469.17
669.097	470.87
669.543	493.77
669.989	463.87
670.435	448.97
670.881	436.07
671.327	440.27
671.773	456.87
672.219	483.87
672.665	529.67
673.11	574.27
673.556	605.47
674.002	645.17
674.448	636.47
674.893	529.27
675.339	464.77
675.785	424.27
676.23	404.97
676.676	386.37
677.122	374.97
677.567	370.47
678.013	355.87
678.458	348.57
678.904	352.37
679.349	338.67
679.794	338.37
680.24	350.97
680.685	340.07
681.131	341.87
681.576	343.97
682.021	340.37
682.466	337.97
682.912	340.77
683.357	347.57
683.802	378.17
684.247	405.37
684.692	445.57
685.137	482.87
685.583	524.27
686.028	552.07
686.473	502.47
686.918	426.27
687.363	400.37
687.807	379.17
688.252	362.27
688.697	352.37
689.142	329.77
689.587	318.27
690.032	320.27
690.477	329.87
690.921	343.47
691.366	375.97
691.811	389.27
692.255	417.07
692.7	441.37
693.145	478.67
693.589	669.77
694.034	1069.47
694.478	1493.17
694.923	1678.07
695.367	2213.37
695.812	1165.97
696.256	486.17
696.701	352.77
697.145	335.37
697.59	324.57
698.034	313.87
698.478	314.77
698.922	310.77
699.367	319.87
699.811	323.07
700.255	348.17
700.699	370.97
701.143	408.67
701.588	469.47
702.032	498.47
702.476	494.97
702.92	462.07
703.364	471.57
703.808	601.97
704.252	984.07
704.696	1386.27
705.14	1614.17
705.584	2081.57
706.027	1020.97
706.471	505.87
706.915	387.97
707.359	341.77
707.803	306.17
708.246	298.97
708.69	309.47
709.134	309.07
709.577	305.37
710.021	308.47
710.465	297.97
710.908	293.87
711.352	286.27
711.795	304.77
712.239	335.87
712.682	367.47
713.126	399.97
713.569	445.57
714.012	359.37
714.456	312.27
714.899	293.47
715.342	267.37
715.786	251.07
716.229	247.27
716.672	245.27
717.115	241.77
717.558	243.37
718.002	238.57
718.445	252.87
718.888	270.27
719.331	280.77
719.774	301.37
720.217	298.27
720.66	274.57
721.103	255.87
721.546	239.67
721.989	243.37
722.432	224.27
722.874	222.47
723.317	217.87
723.76	230.67
724.203	246.67
724.645	301.37
725.088	423.17
725.531	552.47
725.974	629.57
726.416	536.27
726.859	294.07
727.301	245.17
727.744	229.07
728.187	227.27
728.629	234.17
729.071	235.37
729.514	252.57
729.956	261.47
730.399	271.47
730.841	284.37
731.283	268.57
731.726	260.47
732.168	246.17
732.61	255.57
733.053	276.67
733.495	297.27
733.937	335.67
734.379	383.67
734.821	415.07
735.263	522.17
735.705	789.17
736.148	1493.87
736.59	2472.67
737.032	2978.17
737.474	2412.77
737.916	782.57
738.357	410.67
738.799	309.97
739.241	286.37
739.683	275.27
740.125	284.07
740.567	286.17
741.008	299.17
741.45	305.07
741.892	297.07
742.334	331.07
742.775	343.77
743.217	324.17
743.658	253.47
744.1	247.57
744.542	247.47
744.983	302.07
745.425	326.77
745.866	331.07
746.307	272.77
746.749	276.57
747.19	313.37
747.632	423.37
748.073	825.57
748.514	1766.27
748.956	2732.17
749.397	3413.37
749.838	2855.67
750.279	2895.87
750.72	1443.67
751.162	530.47
751.603	309.97
752.044	251.37
752.485	207.17
752.926	199.07
753.367	193.57
753.808	181.57
754.249	187.27
754.69	179.97
755.131	176.77
755.572	181.67
756.013	175.47
756.453	173.97
756.894	178.37
757.335	182.47
757.776	189.57
758.216	197.67
758.657	195.57
759.098	196.67
759.538	215.07
759.979	262.67
760.42	356.47
760.86	665.97
761.301	1706.67
761.741	4176.37
762.182	6211.07
