Data from 20171114-ORNL-Ar_H_NY_Subt18_08-05-14-401.txt Node
Date: Tue Nov 14 08:05:14 EST 2017
User: Ender
Spectrometer: HR+D1039
Trigger mode: 0
Integration Time (sec): 2.730000E-2
Scans to average: 10
Electric dark correction enabled: true
Nonlinearity correction enabled: false
Boxcar width: 0
XAxis mode: Wavelengths
Number of Pixels in Spectrum: 2048
>>>>>Begin Spectral Data<<<<<
187.836	-8.66
188.309	-8.66
188.782	-8.66
189.255	4.14
189.728	2.64
190.201	7.04
190.674	-0.76
191.147	3.94
191.619	-10.86
192.092	1.44
192.565	3.24
193.038	3.14
193.511	-0.66
193.984	-0.76
194.456	1.24
194.929	0.04
195.402	-4.96
195.874	-0.26
196.347	-3.26
196.82	-12.26
197.292	3.84
197.765	-4.56
198.237	-4.46
198.71	4.64
199.182	-4.66
199.655	3.14
200.127	3.84
200.6	-0.46
201.072	-0.46
201.544	-5.06
202.017	1.34
202.489	2.14
202.961	-2.26
203.433	-5.96
203.906	-10.46
204.378	-7.26
204.85	-7.56
205.322	-10.06
205.794	-2.26
206.266	-4.76
206.739	-8.56
207.211	2.84
207.683	-6.06
208.155	-0.66
208.627	-11.36
209.099	0.44
209.57	-7.76
210.042	-7.16
210.514	-1.76
210.986	-4.16
211.458	-6.26
211.93	-9.66
212.402	1.44
212.873	-4.76
213.345	-10.16
213.817	-5.76
214.288	-1.76
214.76	-6.86
215.232	-4.06
215.703	-1.66
216.175	-2.36
216.646	-3.86
217.118	-5.56
217.589	-4.16
218.061	4.14
218.532	-1.66
219.004	-4.66
219.475	-0.46
219.946	-2.96
220.418	-4.06
220.889	3.44
221.36	5.14
221.832	-2.76
222.303	-6.76
222.774	-3.16
223.245	-13.76
223.717	-5.26
224.188	-0.56
224.659	-6.56
225.13	-4.86
225.601	-5.76
226.072	4.14
226.543	-6.56
227.014	-4.06
227.485	4.14
227.956	-3.76
228.427	-1.86
228.898	2.14
229.369	-0.96
229.839	-3.36
230.31	-4.46
230.781	-3.26
231.252	-1.56
231.722	-0.66
232.193	-3.86
232.664	-1.16
233.135	1.54
233.605	-0.76
234.076	-5.66
234.546	-0.16
235.017	1.54
235.487	0.84
235.958	-1.46
236.428	-8.46
236.899	0.94
237.369	4.94
237.84	-0.96
238.31	6.34
238.78	2.64
239.251	0.34
239.721	7.54
240.191	0.54
240.662	0.84
241.132	8.54
241.602	-1.66
242.072	1.54
242.542	10.74
243.013	2.94
243.483	6.74
243.953	4.34
244.423	-0.16
244.893	-1.36
245.363	4.34
245.833	4.84
246.303	-0.96
246.773	6.24
247.243	2.14
247.712	1.04
248.182	12.04
248.652	8.94
249.122	-0.06
249.592	12.44
250.061	26.04
250.531	33.04
251.001	13.34
251.471	20.14
251.94	19.74
252.41	6.14
252.879	0.04
253.349	16.74
253.818	10.64
254.288	5.44
254.757	8.54
255.227	4.54
255.696	5.84
256.166	5.24
256.635	12.04
257.105	8.14
257.574	5.54
258.043	9.64
258.513	15.14
258.982	13.64
259.451	5.24
259.92	14.34
260.389	11.24
260.859	19.34
261.328	11.64
261.797	15.24
262.266	9.34
262.735	10.94
263.204	5.64
263.673	3.24
264.142	13.94
264.611	-3.46
265.08	0.74
265.549	1.94
266.018	6.94
266.487	1.04
266.955	0.54
267.424	1.64
267.893	10.54
268.362	3.54
268.83	9.44
269.299	14.94
269.768	8.94
270.236	8.84
270.705	6.84
271.174	4.04
271.642	14.24
272.111	12.84
272.579	20.64
273.048	25.64
273.516	25.34
273.985	29.44
274.453	28.34
274.922	21.34
275.39	14.34
275.858	-0.36
276.327	11.94
276.795	19.94
277.263	12.14
277.731	30.24
278.2	60.74
278.668	58.44
279.136	50.44
279.604	27.64
280.072	15.54
280.54	16.74
281.008	9.84
281.477	16.84
281.945	14.74
282.413	12.44
282.881	22.04
283.348	11.34
283.816	17.14
284.284	21.44
284.752	24.44
285.22	18.44
285.688	20.44
286.156	22.54
286.623	52.64
287.091	57.34
287.559	27.64
288.026	19.14
288.494	20.84
288.962	9.34
289.429	11.94
289.897	18.74
290.364	14.24
290.832	13.04
291.3	16.54
291.767	18.74
292.234	19.84
292.702	18.34
293.169	25.64
293.637	25.54
294.104	22.94
294.571	14.94
295.039	14.44
295.506	19.04
295.973	23.04
296.44	13.24
296.908	21.44
297.375	22.34
297.842	19.34
298.309	18.94
298.776	22.44
299.243	22.54
299.71	18.74
300.177	18.94
300.644	20.74
301.111	25.54
301.578	26.24
302.045	15.54
302.512	25.14
302.979	29.84
303.446	23.34
303.913	18.94
304.379	16.74
304.846	30.04
305.313	24.24
305.78	20.64
306.246	30.94
306.713	27.04
307.18	27.24
307.646	26.64
308.113	36.04
308.579	28.24
309.046	26.14
309.512	25.14
309.979	20.74
310.445	32.34
310.912	34.94
311.378	33.94
311.845	31.14
312.311	32.14
312.777	34.44
313.244	31.94
313.71	40.34
314.176	41.64
314.642	35.84
315.109	32.44
315.575	34.54
316.041	40.64
316.507	37.24
316.973	41.04
317.439	32.34
317.905	35.64
318.371	34.74
318.837	38.34
319.303	37.24
319.769	36.14
320.235	35.94
320.701	37.64
321.167	41.44
321.633	38.74
322.099	46.04
322.564	53.14
323.03	44.94
323.496	44.14
323.962	41.24
324.427	40.44
324.893	43.14
325.359	36.54
325.824	45.84
326.29	37.74
326.755	39.64
327.221	37.24
327.686	41.94
328.152	45.04
328.617	42.24
329.083	52.04
329.548	52.64
330.014	50.14
330.479	42.34
330.944	43.44
331.41	45.74
331.875	51.04
332.34	48.54
332.805	45.04
333.271	47.54
333.736	44.64
334.201	55.04
334.666	47.84
335.131	57.54
335.596	52.14
336.061	50.44
336.526	44.94
336.991	50.44
337.456	64.74
337.921	51.94
338.386	40.44
338.851	49.14
339.316	47.44
339.781	42.44
340.246	52.74
340.711	49.84
341.175	60.24
341.64	49.14
342.105	51.94
342.569	61.14
343.034	61.24
343.499	58.74
343.963	52.84
344.428	68.04
344.893	66.04
345.357	66.14
345.822	67.64
346.286	73.64
346.751	76.74
347.215	67.34
347.679	78.94
348.144	103.54
348.608	84.44
349.073	73.04
349.537	77.24
350.001	81.44
350.465	91.04
350.93	87.54
351.394	88.34
351.858	79.34
352.322	85.64
352.786	88.34
353.25	101.14
353.715	118.14
354.179	103.94
354.643	127.24
355.107	130.14
355.571	109.34
356.035	105.94
356.498	121.54
356.962	137.14
357.426	140.14
357.89	120.24
358.354	92.44
358.818	86.04
359.281	83.64
359.745	79.64
360.209	77.74
360.673	74.34
361.136	82.14
361.6	87.74
362.064	85.44
362.527	87.64
362.991	93.74
363.454	85.24
363.918	76.14
364.381	75.24
364.845	79.54
365.308	87.74
365.772	81.94
366.235	90.34
366.698	83.54
367.162	89.14
367.625	83.14
368.088	90.34
368.552	88.84
369.015	86.94
369.478	95.34
369.941	100.14
370.404	99.94
370.867	106.54
371.331	110.74
371.794	116.64
372.257	111.94
372.72	122.54
373.183	111.84
373.646	107.64
374.109	101.64
374.572	109.34
375.035	110.14
375.497	113.74
375.96	113.44
376.423	106.94
376.886	118.04
377.349	112.24
377.811	109.34
378.274	105.44
378.737	104.04
379.199	114.14
379.662	109.84
380.125	119.34
380.587	117.94
381.05	125.14
381.512	121.54
381.975	139.64
382.437	129.84
382.9	133.64
383.362	136.44
383.825	143.34
384.287	144.04
384.75	139.74
385.212	142.54
385.674	140.44
386.136	140.44
386.599	119.84
387.061	124.64
387.523	128.94
387.985	138.34
388.447	148.54
388.91	146.74
389.372	161.24
389.834	152.24
390.296	146.34
390.758	166.14
391.22	164.94
391.682	206.34
392.144	291.14
392.606	226.24
393.068	167.44
393.529	169.64
393.991	157.04
394.453	153.94
394.915	154.94
395.377	193.04
395.838	214.34
396.3	156.04
396.762	143.64
397.224	137.44
397.685	131.34
398.147	129.64
398.608	128.84
399.07	127.84
399.531	139.74
399.993	142.44
400.454	153.74
400.916	144.44
401.377	148.94
401.839	146.24
402.3	152.84
402.762	165.04
403.223	184.04
403.684	172.74
404.145	161.54
404.607	161.74
405.068	164.14
405.529	169.44
405.99	190.04
406.451	177.24
406.913	171.24
407.374	164.44
407.835	165.04
408.296	160.74
408.757	174.14
409.218	184.24
409.679	178.24
410.14	173.34
410.601	178.34
411.062	179.74
411.522	196.14
411.983	191.14
412.444	172.34
412.905	179.54
413.366	181.24
413.826	191.34
414.287	218.74
414.748	261.44
415.208	245.74
415.669	213.54
416.13	208.04
416.59	199.94
417.051	212.14
417.511	221.34
417.972	235.84
418.432	248.44
418.893	292.14
419.353	255.94
419.814	199.94
420.274	184.44
420.734	180.74
421.195	197.54
421.655	194.14
422.115	197.64
422.576	188.74
423.036	199.94
423.496	211.74
423.956	211.04
424.416	226.94
424.876	265.94
425.336	267.74
425.797	258.54
426.257	260.84
426.717	239.04
427.177	225.44
427.637	213.94
428.097	234.14
428.556	240.04
429.016	266.84
429.476	266.34
429.936	272.34
430.396	272.24
430.856	295.54
431.315	312.04
431.775	347.94
432.235	378.84
432.694	350.74
433.154	361.34
433.614	389.14
434.073	334.94
434.533	282.44
434.993	270.14
435.452	282.74
435.912	291.14
436.371	286.94
436.83	284.74
437.29	263.64
437.749	242.54
438.209	241.94
438.668	273.34
439.127	288.34
439.587	263.24
440.046	245.94
440.505	259.14
440.964	281.24
441.424	326.04
441.883	313.24
442.342	261.24
442.801	223.34
443.26	223.04
443.719	216.94
444.178	211.44
444.637	207.04
445.096	214.74
445.555	214.54
446.014	222.94
446.473	221.24
446.932	231.54
447.391	223.14
447.849	227.54
448.308	219.94
448.767	223.04
449.226	230.74
449.685	228.94
450.143	249.14
450.602	231.24
451.061	216.14
451.519	222.04
451.978	225.74
452.436	224.34
452.895	239.84
453.353	248.14
453.812	237.14
454.27	236.74
454.729	231.14
455.187	236.94
455.646	236.44
456.104	248.94
456.562	254.44
457.021	264.94
457.479	262.74
457.937	266.54
458.395	260.54
458.854	248.94
459.312	255.74
459.77	273.64
460.228	254.14
460.686	234.74
461.144	240.64
461.602	238.74
462.06	237.34
462.518	245.24
462.976	251.64
463.434	261.44
463.892	258.84
464.35	279.24
464.808	285.14
465.266	258.64
465.724	262.74
466.181	260.24
466.639	269.64
467.097	291.84
467.555	294.74
468.012	298.24
468.47	309.74
468.928	321.34
469.385	335.94
469.843	351.04
470.3	343.24
470.758	359.54
471.215	385.64
471.673	409.54
472.13	399.64
472.588	413.94
473.045	368.44
473.503	375.74
473.96	383.94
474.417	405.64
474.875	434.74
475.332	467.14
475.789	451.64
476.246	458.54
476.704	479.34
477.161	495.94
477.618	519.04
478.075	548.54
478.532	609.14
478.989	690.24
479.446	799.44
479.903	760.24
480.36	797.04
480.817	858.14
481.274	973.84
481.731	1069.24
482.188	1165.64
482.645	1295.64
483.102	1408.34
483.558	1547.84
484.015	1614.74
484.472	1572.24
484.929	1526.44
485.385	1476.54
485.842	1432.64
486.299	1366.04
486.755	1296.44
487.212	1094.84
487.668	929.74
488.125	843.94
488.582	771.64
489.038	738.74
489.494	714.54
489.951	678.04
490.407	666.74
490.864	645.54
491.32	633.54
491.776	640.24
492.233	640.54
492.689	599.44
493.145	599.44
493.602	595.44
494.058	596.74
494.514	618.34
494.97	633.44
495.426	649.44
495.882	625.14
496.338	609.74
496.794	621.84
497.251	614.54
497.707	620.54
498.163	630.64
498.618	635.84
499.074	645.64
499.53	677.34
499.986	672.54
500.442	657.54
500.898	635.44
501.354	615.14
501.809	629.84
502.265	634.54
502.721	651.84
503.177	665.64
503.632	658.04
504.088	668.64
504.543	709.74
504.999	701.24
505.455	649.64
505.91	630.34
506.366	615.04
506.821	618.74
507.277	619.54
507.732	612.44
508.187	613.24
508.643	623.54
509.098	622.44
509.553	646.74
510.009	653.24
510.464	658.24
510.919	681.14
511.375	680.54
511.83	692.74
512.285	700.24
512.74	746.04
513.195	772.24
513.65	764.54
514.105	759.54
514.56	759.84
515.015	778.14
515.47	794.24
515.925	781.14
516.38	783.04
516.835	781.54
517.29	784.44
517.745	763.44
518.2	749.54
518.655	737.54
519.109	735.34
519.564	730.74
520.019	730.04
520.474	713.24
520.928	720.84
521.383	713.14
521.838	701.84
522.292	704.84
522.747	698.14
523.201	689.94
523.656	685.54
524.11	685.74
524.565	678.34
525.019	685.84
525.474	688.54
525.928	695.24
526.382	682.94
526.837	687.14
527.291	681.94
527.745	694.14
528.2	685.74
528.654	672.64
529.108	666.24
529.562	673.74
530.016	675.64
530.47	680.74
530.925	679.34
531.379	681.64
531.833	697.84
532.287	693.94
532.741	688.04
533.195	682.54
533.649	702.84
534.103	715.24
534.556	698.44
535.01	699.14
535.464	704.14
535.918	710.44
536.372	710.54
536.826	709.94
537.279	694.14
537.733	701.84
538.187	710.44
538.64	712.14
539.094	711.44
539.548	716.94
540.001	711.74
540.455	710.14
540.908	714.84
541.362	717.94
541.815	723.64
542.269	743.04
542.722	743.74
543.175	755.64
543.629	756.04
544.082	764.04
544.536	766.14
544.989	760.94
545.442	779.14
545.895	773.64
546.349	757.84
546.802	767.44
547.255	772.64
547.708	783.24
548.161	798.64
548.614	796.54
549.067	802.74
549.52	799.74
549.973	789.24
550.426	789.04
550.879	769.84
551.332	777.14
551.785	782.94
552.238	781.84
552.691	802.54
553.144	806.24
553.596	821.64
554.049	835.34
554.502	858.54
554.955	890.14
555.407	895.64
555.86	874.84
556.313	863.04
556.765	852.34
557.218	865.74
557.67	864.44
558.123	845.94
558.576	845.44
559.028	852.44
559.48	848.14
559.933	847.54
560.385	814.24
560.838	784.64
561.29	770.54
561.742	753.84
562.195	742.04
562.647	742.14
563.099	751.74
563.551	743.54
564.004	757.04
564.456	745.24
564.908	742.04
565.36	729.44
565.812	715.84
566.264	712.14
566.716	700.94
567.168	692.94
567.62	692.14
568.072	671.94
568.524	673.04
568.976	668.74
569.428	658.84
569.88	655.34
570.332	657.64
570.784	658.14
571.235	660.34
571.687	673.34
572.139	683.04
572.59	695.24
573.042	683.34
573.494	696.84
573.945	687.84
574.397	670.14
574.849	666.04
575.3	662.74
575.752	659.24
576.203	651.44
576.655	663.64
577.106	653.34
577.557	643.64
578.009	656.54
578.46	643.84
578.912	638.94
579.363	645.04
579.814	651.24
580.265	641.24
580.717	653.74
581.168	660.54
581.619	655.74
582.07	660.24
582.521	658.64
582.972	649.34
583.423	652.04
583.875	650.64
584.326	682.74
584.777	721.64
585.227	796.34
585.678	883.44
586.129	967.34
586.58	1045.94
587.031	1124.04
587.482	1285.34
587.933	1466.44
588.384	1275.04
588.834	950.04
589.285	765.04
589.736	758.84
590.186	739.24
590.637	733.54
591.088	705.14
591.538	709.24
591.989	701.04
592.439	702.64
592.89	694.94
593.34	682.94
593.791	679.64
594.241	675.24
594.692	671.44
595.142	673.04
595.593	680.64
596.043	668.34
596.493	677.74
596.943	686.94
597.394	691.84
597.844	687.34
598.294	704.44
598.744	716.94
599.195	737.34
599.645	776.74
600.095	821.74
600.545	878.24
600.995	911.84
601.445	980.14
601.895	1030.54
602.345	1071.44
602.795	1058.84
603.245	1016.84
603.695	966.34
604.145	908.84
604.594	872.84
605.044	818.54
605.494	767.04
605.944	718.94
606.393	699.44
606.843	693.24
607.293	703.14
607.743	695.14
608.192	710.14
608.642	719.44
609.091	729.94
609.541	740.84
609.99	726.44
610.44	726.84
610.889	686.34
611.339	655.74
611.788	649.74
612.238	669.54
612.687	679.24
613.136	684.64
613.586	705.64
614.035	699.24
614.484	720.34
614.933	722.74
615.383	712.34
615.832	706.24
616.281	680.54
616.73	647.24
617.179	630.14
617.628	613.34
618.077	600.54
618.526	585.34
618.975	582.34
619.424	579.94
619.873	578.24
620.322	585.34
620.771	576.54
621.22	569.44
621.669	562.84
622.118	553.14
622.567	550.64
623.015	539.84
623.464	537.34
623.913	528.04
624.361	516.84
624.81	518.44
625.259	527.24
625.707	523.24
626.156	518.54
626.604	542.44
627.053	530.74
627.501	533.34
627.95	525.24
628.398	550.74
628.847	535.64
629.295	543.04
629.744	538.54
630.192	534.24
630.64	532.84
631.089	532.24
631.537	544.14
631.985	552.54
632.433	560.24
632.881	565.04
633.33	613.94
633.778	596.34
634.226	535.44
634.674	529.94
635.122	543.34
635.57	560.24
636.018	600.34
636.466	548.74
636.914	529.94
637.362	539.04
637.81	539.44
638.258	540.94
638.705	550.24
639.153	567.84
639.601	578.34
640.049	597.54
640.497	625.84
640.944	644.04
641.392	596.24
641.84	568.34
642.287	549.04
642.735	534.64
643.182	533.24
643.63	531.74
644.078	542.64
644.525	556.84
644.973	568.84
645.42	560.44
645.867	578.44
646.315	596.24
646.762	612.54
647.21	647.54
647.657	660.34
648.104	706.34
648.551	718.54
648.999	783.14
649.446	866.34
649.893	939.84
650.34	1096.44
650.787	1311.34
651.234	1611.44
651.682	2084.94
652.129	2876.44
652.576	4148.24
653.023	6131.94
653.47	8449.14
653.917	10615.84
654.363	12354.54
654.81	13815.94
655.257	13134.14
655.704	8561.54
656.151	5028.14
656.598	3254.74
657.044	2288.24
657.491	1755.34
657.938	1410.04
658.385	1171.14
658.831	1019.64
659.278	899.24
659.724	800.34
660.171	745.74
660.618	687.44
661.064	651.54
661.511	627.14
661.957	604.74
662.404	598.44
662.85	599.54
663.296	577.64
663.743	527.54
664.189	501.44
664.635	494.74
665.082	489.44
665.528	488.84
665.974	491.84
666.42	484.24
666.867	471.94
667.313	455.84
667.759	448.84
668.205	452.14
668.651	452.74
669.097	456.64
669.543	470.24
669.989	447.84
670.435	418.74
670.881	413.44
671.327	413.54
671.773	433.74
672.219	453.54
672.665	499.54
673.11	543.24
673.556	574.14
674.002	619.04
674.448	610.34
674.893	497.74
675.339	435.14
675.785	403.34
676.23	390.54
676.676	369.64
677.122	352.14
677.567	344.04
678.013	342.64
678.458	324.44
678.904	328.94
679.349	313.54
679.794	328.14
680.24	324.94
680.685	330.24
681.131	318.44
681.576	318.14
682.021	320.84
682.466	318.24
682.912	318.24
683.357	323.74
683.802	352.34
684.247	372.74
684.692	423.94
685.137	452.64
685.583	490.04
686.028	521.74
686.473	472.04
686.918	410.04
687.363	383.24
687.807	367.54
688.252	331.14
688.697	322.84
689.142	311.14
689.587	307.94
690.032	302.64
690.477	315.54
690.921	325.84
691.366	349.64
691.811	373.04
692.255	399.74
692.7	422.24
693.145	448.04
693.589	619.84
694.034	1015.84
694.478	1389.64
694.923	1595.84
695.367	2112.14
695.812	1109.74
696.256	462.34
696.701	346.34
697.145	308.64
697.59	305.74
698.034	292.14
698.478	304.74
698.922	298.94
699.367	308.84
699.811	313.64
700.255	324.04
700.699	353.34
701.143	393.04
701.588	444.04
702.032	470.04
702.476	472.54
702.92	457.04
703.364	453.64
703.808	576.14
704.252	927.94
704.696	1321.54
705.14	1539.64
705.584	1980.84
706.027	981.44
706.471	475.94
706.915	361.64
707.359	323.24
707.803	294.34
708.246	287.14
708.69	286.84
709.134	287.74
709.577	284.44
710.021	297.04
710.465	282.24
710.908	279.14
711.352	269.34
711.795	290.44
712.239	319.64
712.682	353.04
713.126	381.64
713.569	434.04
714.012	340.84
714.456	296.74
714.899	274.94
715.342	256.54
715.786	233.04
716.229	231.34
716.672	240.14
717.115	229.44
717.558	223.44
718.002	225.84
718.445	239.64
718.888	261.74
719.331	263.74
719.774	282.54
720.217	275.34
720.66	257.64
721.103	245.24
721.546	228.74
721.989	230.14
722.432	207.94
722.874	220.04
723.317	207.54
723.76	216.14
724.203	233.74
724.645	289.64
725.088	407.04
725.531	519.94
725.974	589.54
726.416	506.54
726.859	277.44
727.301	225.84
727.744	219.34
728.187	211.34
728.629	215.74
729.071	223.94
729.514	236.84
729.956	247.44
730.399	254.74
730.841	262.54
731.283	249.24
731.726	240.44
732.168	239.74
732.61	250.74
733.053	267.84
733.495	288.34
733.937	321.34
734.379	357.94
734.821	389.54
735.263	487.14
735.705	743.24
736.148	1412.14
736.59	2331.94
737.032	2820.44
737.474	2294.84
737.916	741.94
738.357	394.24
738.799	303.54
739.241	266.54
739.683	253.94
740.125	264.74
740.567	277.44
741.008	281.94
741.45	290.24
741.892	294.44
742.334	315.54
742.775	336.74
743.217	321.94
743.658	249.64
744.1	231.54
744.542	236.14
744.983	291.74
745.425	313.14
745.866	313.44
746.307	262.04
746.749	263.24
747.19	301.14
747.632	404.84
748.073	778.24
748.514	1658.34
748.956	2598.04
749.397	3239.34
749.838	2685.74
750.279	2734.64
750.72	1387.14
751.162	497.34
751.603	290.94
752.044	227.74
752.485	192.14
752.926	193.64
753.367	185.04
753.808	174.44
754.249	172.74
754.69	170.44
755.131	174.34
755.572	165.74
756.013	158.24
756.453	169.64
756.894	165.84
757.335	173.34
757.776	173.04
758.216	173.44
758.657	179.64
759.098	181.34
759.538	207.84
759.979	241.74
760.42	332.44
760.86	615.84
761.301	1593.54
761.741	3959.34
762.182	5958.74
