Data from 20171114-ORNL-Ar_H_NY_Subt18_08-09-10-311.txt Node
Date: Tue Nov 14 08:09:10 EST 2017
User: Ender
Spectrometer: HR+D1039
Trigger mode: 0
Integration Time (sec): 2.730000E-2
Scans to average: 10
Electric dark correction enabled: true
Nonlinearity correction enabled: false
Boxcar width: 0
XAxis mode: Wavelengths
Number of Pixels in Spectrum: 2048
>>>>>Begin Spectral Data<<<<<
187.836	-4.96
188.309	-4.96
188.782	-4.96
189.255	-1.26
189.728	0.44
190.201	5.54
190.674	0.04
191.147	-0.66
191.619	-12.86
192.092	-0.36
192.565	4.54
193.038	0.84
193.511	0.64
193.984	2.94
194.456	-2.76
194.929	4.54
195.402	2.94
195.874	0.44
196.347	0.64
196.82	-8.26
197.292	8.14
197.765	0.04
198.237	-7.86
198.71	2.54
199.182	-7.96
199.655	2.24
200.127	-2.16
200.6	-2.86
201.072	-3.96
201.544	-5.96
202.017	1.14
202.489	2.44
202.961	-5.66
203.433	-4.36
203.906	-7.96
204.378	-9.66
204.85	-4.06
205.322	-10.46
205.794	1.24
206.266	-2.66
206.739	-13.66
207.211	-5.56
207.683	-9.76
208.155	-6.26
208.627	-9.66
209.099	-5.76
209.57	-7.36
210.042	-7.16
210.514	-8.66
210.986	-0.56
211.458	-5.96
211.93	-5.66
212.402	-2.46
212.873	-1.36
213.345	-6.76
213.817	-15.96
214.288	-10.76
214.76	-12.76
215.232	-0.96
215.703	-4.66
216.175	-9.76
216.646	-1.76
217.118	-6.26
217.589	-7.56
218.061	-7.26
218.532	-0.96
219.004	-5.86
219.475	0.04
219.946	-6.36
220.418	-7.16
220.889	3.34
221.36	0.94
221.832	0.14
222.303	-7.66
222.774	-1.36
223.245	-10.56
223.717	-3.66
224.188	-0.06
224.659	-8.56
225.13	-2.06
225.601	-4.96
226.072	-0.06
226.543	-0.56
227.014	-3.96
227.485	-0.86
227.956	-4.56
228.427	-2.76
228.898	-6.26
229.369	-3.96
229.839	-7.86
230.31	-8.06
230.781	-0.26
231.252	-9.56
231.722	-4.46
232.193	-9.46
232.664	-5.16
233.135	-3.46
233.605	-7.66
234.076	-8.16
234.546	0.84
235.017	-1.56
235.487	-3.66
235.958	-1.76
236.428	-7.66
236.899	-7.16
237.369	0.14
237.84	-5.96
238.31	-1.36
238.78	-3.36
239.251	-4.66
239.721	-8.26
240.191	-7.46
240.662	-5.96
241.132	-5.66
241.602	-6.16
242.072	-6.36
242.542	-2.96
243.013	-10.46
243.483	2.54
243.953	6.54
244.423	-2.56
244.893	-5.56
245.363	1.24
245.833	-3.96
246.303	-8.06
246.773	2.44
247.243	-4.26
247.712	-3.76
248.182	-2.86
248.652	-2.96
249.122	-9.76
249.592	-4.06
250.061	5.44
250.531	6.84
251.001	-6.86
251.471	2.14
251.94	6.14
252.41	0.44
252.879	-8.66
253.349	0.24
253.818	0.34
254.288	1.14
254.757	-4.96
255.227	-3.86
255.696	3.04
256.166	-3.16
256.635	-2.46
257.105	1.54
257.574	-5.96
258.043	-7.56
258.513	-5.26
258.982	0.74
259.451	-5.46
259.92	-7.76
260.389	-3.36
260.859	7.24
261.328	6.14
261.797	-4.66
262.266	-5.46
262.735	4.94
263.204	0.24
263.673	-2.36
264.142	-1.66
264.611	-7.36
265.08	-1.76
265.549	-1.06
266.018	-0.66
266.487	-10.56
266.955	-7.06
267.424	-4.76
267.893	2.64
268.362	-8.66
268.83	-3.86
269.299	10.14
269.768	1.74
270.236	-3.66
270.705	-2.26
271.174	0.54
271.642	-7.16
272.111	-0.96
272.579	-0.56
273.048	3.24
273.516	0.24
273.985	1.14
274.453	0.44
274.922	9.64
275.39	3.74
275.858	-8.66
276.327	2.84
276.795	7.94
277.263	1.54
277.731	7.94
278.2	3.24
278.668	-1.96
279.136	-1.36
279.604	5.04
280.072	2.34
280.54	2.94
281.008	0.34
281.477	4.34
281.945	7.54
282.413	7.64
282.881	9.04
283.348	1.84
283.816	6.64
284.284	-0.16
284.752	11.84
285.22	3.84
285.688	5.34
286.156	2.24
286.623	18.74
287.091	3.54
287.559	7.44
288.026	9.74
288.494	6.44
288.962	1.64
289.429	5.34
289.897	13.54
290.364	4.24
290.832	7.34
291.3	1.74
291.767	11.64
292.234	12.64
292.702	-0.16
293.169	3.84
293.637	12.24
294.104	14.84
294.571	1.44
295.039	5.44
295.506	7.84
295.973	9.64
296.44	6.24
296.908	10.84
297.375	13.44
297.842	11.74
298.309	8.34
298.776	-2.46
299.243	13.24
299.71	3.44
300.177	7.64
300.644	9.54
301.111	5.44
301.578	18.54
302.045	4.64
302.512	16.64
302.979	15.64
303.446	10.04
303.913	9.54
304.379	8.44
304.846	16.44
305.313	15.34
305.78	18.44
306.246	22.24
306.713	17.44
307.18	11.04
307.646	23.14
308.113	15.74
308.579	10.94
309.046	15.34
309.512	18.04
309.979	8.14
310.445	18.04
310.912	20.44
311.378	23.44
311.845	23.04
312.311	21.54
312.777	17.84
313.244	17.74
313.71	25.54
314.176	18.94
314.642	16.24
315.109	21.24
315.575	20.74
316.041	25.24
316.507	15.14
316.973	17.74
317.439	22.84
317.905	26.44
318.371	19.64
318.837	21.94
319.303	27.84
319.769	23.74
320.235	23.54
320.701	24.54
321.167	23.24
321.633	20.34
322.099	22.04
322.564	31.04
323.03	26.64
323.496	28.94
323.962	28.74
324.427	25.44
324.893	32.24
325.359	24.84
325.824	29.44
326.29	30.34
326.755	30.24
327.221	30.54
327.686	31.84
328.152	37.74
328.617	34.44
329.083	34.24
329.548	39.74
330.014	36.74
330.479	30.14
330.944	24.94
331.41	32.84
331.875	38.84
332.34	26.14
332.805	32.24
333.271	33.74
333.736	26.74
334.201	41.84
334.666	34.74
335.131	37.34
335.596	37.04
336.061	38.84
336.526	32.14
336.991	33.74
337.456	40.94
337.921	41.34
338.386	35.84
338.851	36.84
339.316	35.54
339.781	39.34
340.246	42.14
340.711	40.54
341.175	40.74
341.64	34.64
342.105	38.54
342.569	42.14
343.034	46.54
343.499	45.44
343.963	38.94
344.428	52.84
344.893	51.84
345.357	49.34
345.822	52.54
346.286	49.04
346.751	52.94
347.215	52.04
347.679	60.44
348.144	69.24
348.608	67.04
349.073	57.74
349.537	62.54
350.001	56.14
350.465	72.44
350.93	63.64
351.394	60.34
351.858	57.24
352.322	70.74
352.786	63.64
353.25	74.34
353.715	85.64
354.179	73.34
354.643	94.34
355.107	93.34
355.571	79.64
356.035	80.94
356.498	91.54
356.962	89.34
357.426	99.64
357.89	86.54
358.354	73.04
358.818	64.74
359.281	63.24
359.745	63.54
360.209	65.44
360.673	56.24
361.136	66.64
361.6	70.44
362.064	66.04
362.527	67.74
362.991	78.04
363.454	67.54
363.918	63.94
364.381	66.54
364.845	69.54
365.308	75.14
365.772	74.04
366.235	76.64
366.698	68.54
367.162	73.44
367.625	74.24
368.088	73.54
368.552	78.44
369.015	81.34
369.478	80.94
369.941	84.14
370.404	77.14
370.867	82.14
371.331	85.24
371.794	88.74
372.257	85.24
372.72	89.34
373.183	88.14
373.646	79.94
374.109	74.24
374.572	85.74
375.035	91.84
375.497	85.54
375.96	83.04
376.423	94.64
376.886	98.14
377.349	92.84
377.811	88.14
378.274	90.14
378.737	95.24
379.199	90.54
379.662	96.54
380.125	92.44
380.587	96.14
381.05	100.54
381.512	103.74
381.975	107.14
382.437	103.54
382.9	108.44
383.362	113.04
383.825	114.54
384.287	110.24
384.75	106.04
385.212	107.94
385.674	116.84
386.136	120.44
386.599	108.74
387.061	109.14
387.523	109.44
387.985	117.74
388.447	118.04
388.91	114.94
389.372	115.24
389.834	121.84
390.296	110.04
390.758	118.44
391.22	129.24
391.682	144.14
392.144	141.34
392.606	133.94
393.068	131.84
393.529	140.24
393.991	125.94
394.453	123.34
394.915	122.84
395.377	121.74
395.838	125.24
396.3	126.94
396.762	136.34
397.224	130.54
397.685	120.64
398.147	126.24
398.608	127.14
399.07	119.94
399.531	127.34
399.993	135.44
400.454	141.94
400.916	139.14
401.377	134.34
401.839	146.14
402.3	138.84
402.762	148.94
403.223	164.64
403.684	160.84
404.145	146.34
404.607	148.04
405.068	152.74
405.529	160.84
405.99	170.54
406.451	160.94
406.913	162.84
407.374	156.04
407.835	150.14
408.296	156.94
408.757	162.24
409.218	168.94
409.679	175.34
410.14	170.74
410.601	169.34
411.062	172.94
411.522	165.54
411.983	166.74
412.444	167.14
412.905	174.74
413.366	183.54
413.826	195.94
414.287	220.34
414.748	262.84
415.208	242.84
415.669	205.04
416.13	209.24
416.59	198.34
417.051	215.94
417.511	213.54
417.972	236.54
418.432	253.34
418.893	286.84
419.353	250.24
419.814	204.54
420.274	182.14
420.734	180.24
421.195	194.84
421.655	192.34
422.115	195.94
422.576	189.64
423.036	194.44
423.496	203.24
423.956	216.04
424.416	222.64
424.876	259.74
425.336	254.14
425.797	262.74
426.257	247.24
426.717	232.04
427.177	225.84
427.637	216.54
428.097	231.84
428.556	235.54
429.016	263.34
429.476	255.24
429.936	260.24
430.396	263.44
430.856	274.34
431.315	301.04
431.775	331.94
432.235	355.24
432.694	341.94
433.154	352.94
433.614	369.04
434.073	325.04
434.533	277.64
434.993	264.64
435.452	267.14
435.912	277.74
436.371	270.94
436.83	275.64
437.29	258.64
437.749	248.24
438.209	236.84
438.668	270.04
439.127	281.14
439.587	256.84
440.046	240.34
440.505	246.54
440.964	273.64
441.424	311.24
441.883	304.64
442.342	258.64
442.801	229.64
443.26	225.74
443.719	215.44
444.178	221.94
444.637	213.74
445.096	224.84
445.555	222.34
446.014	229.24
446.473	227.54
446.932	234.14
447.391	227.54
447.849	226.64
448.308	217.14
448.767	223.84
449.226	241.54
449.685	235.84
450.143	250.94
450.602	233.74
451.061	232.24
451.519	240.94
451.978	236.74
452.436	237.24
452.895	241.24
453.353	259.44
453.812	236.24
454.27	238.94
454.729	237.04
455.187	235.34
455.646	247.44
456.104	244.34
456.562	261.64
457.021	272.64
457.479	261.74
457.937	270.64
458.395	267.54
458.854	250.34
459.312	263.04
459.77	280.24
460.228	263.14
460.686	247.34
461.144	260.24
461.602	250.54
462.06	241.84
462.518	263.64
462.976	254.34
463.434	263.84
463.892	268.44
464.35	285.34
464.808	292.54
465.266	273.24
465.724	284.34
466.181	280.44
466.639	280.14
467.097	290.44
467.555	310.44
468.012	312.44
468.47	315.74
468.928	327.94
469.385	350.44
469.843	354.94
470.3	349.84
470.758	363.34
471.215	386.04
471.673	409.14
472.13	410.94
472.588	430.84
473.045	378.94
473.503	391.14
473.96	403.44
474.417	412.44
474.875	435.24
475.332	481.24
475.789	462.04
476.246	471.24
476.704	485.84
477.161	509.74
477.618	525.14
478.075	562.54
478.532	611.74
478.989	684.64
479.446	787.24
479.903	753.74
480.36	775.44
480.817	829.54
481.274	917.74
481.731	1002.64
482.188	1081.54
482.645	1189.74
483.102	1289.04
483.558	1411.84
484.015	1454.44
484.472	1421.64
484.929	1381.24
485.385	1340.24
485.842	1306.84
486.299	1265.64
486.755	1226.54
487.212	1041.84
487.668	906.54
488.125	833.74
488.582	766.44
489.038	738.14
489.494	700.04
489.951	674.64
490.407	659.74
490.864	638.24
491.32	640.64
491.776	652.74
492.233	652.44
492.689	613.74
493.145	612.34
493.602	609.94
494.058	610.84
494.514	623.44
494.97	640.94
495.426	653.44
495.882	632.54
496.338	619.54
496.794	618.14
497.251	620.44
497.707	627.34
498.163	634.14
498.618	641.74
499.074	646.64
499.53	664.44
499.986	668.64
500.442	649.84
500.898	619.64
501.354	626.64
501.809	631.64
502.265	628.04
502.721	638.24
503.177	652.74
503.632	651.44
504.088	656.24
504.543	673.94
504.999	691.94
505.455	665.24
505.91	651.04
506.366	656.34
506.821	638.54
507.277	642.14
507.732	646.54
508.187	647.24
508.643	658.74
509.098	654.94
509.553	670.54
510.009	679.44
510.464	688.34
510.919	720.04
511.375	718.24
511.83	723.44
512.285	735.24
512.74	773.64
513.195	795.94
513.65	783.54
514.105	776.74
514.56	775.04
515.015	798.04
515.47	805.74
515.925	788.94
516.38	803.44
516.835	806.24
517.29	789.54
517.745	791.84
518.2	777.94
518.655	756.24
519.109	766.14
519.564	753.34
520.019	745.64
520.474	743.74
520.928	741.14
521.383	725.74
521.838	724.64
522.292	729.74
522.747	733.94
523.201	726.14
523.656	716.84
524.11	726.24
524.565	707.04
525.019	704.24
525.474	716.94
525.928	714.04
526.382	719.24
526.837	718.54
527.291	716.44
527.745	715.64
528.2	714.84
528.654	713.24
529.108	708.14
529.562	702.64
530.016	713.74
530.47	701.14
530.925	707.54
531.379	710.04
531.833	711.84
532.287	712.04
532.741	706.84
533.195	717.94
533.649	722.14
534.103	733.64
534.556	713.34
535.01	722.04
535.464	710.74
535.918	734.54
536.372	726.34
536.826	731.94
537.279	721.64
537.733	722.84
538.187	732.24
538.64	731.54
539.094	734.14
539.548	740.94
540.001	741.64
540.455	742.94
540.908	749.54
541.362	758.54
541.815	771.34
542.269	777.94
542.722	780.24
543.175	788.94
543.629	794.44
544.082	810.14
544.536	808.24
544.989	807.84
545.442	812.24
545.895	811.34
546.349	818.14
546.802	818.34
547.255	827.04
547.708	831.94
548.161	836.74
548.614	847.84
549.067	857.94
549.52	848.24
549.973	835.24
550.426	829.84
550.879	812.24
551.332	831.64
551.785	834.04
552.238	831.94
552.691	840.94
553.144	848.14
553.596	874.34
554.049	894.44
554.502	914.44
554.955	939.84
555.407	938.74
555.86	936.84
556.313	910.54
556.765	902.94
557.218	912.24
557.67	911.74
558.123	915.24
558.576	912.84
559.028	905.14
559.48	902.54
559.933	903.64
560.385	872.14
560.838	838.34
561.29	819.64
561.742	825.64
562.195	803.24
562.647	804.14
563.099	809.64
563.551	801.94
564.004	810.44
564.456	800.84
564.908	782.34
565.36	769.54
565.812	744.64
566.264	746.04
566.716	734.74
567.168	722.44
567.62	735.44
568.072	726.84
568.524	724.84
568.976	712.44
569.428	705.54
569.88	703.84
570.332	705.54
570.784	715.04
571.235	707.04
571.687	720.04
572.139	727.44
572.59	742.04
573.042	746.84
573.494	736.84
573.945	733.54
574.397	709.54
574.849	711.24
575.3	716.84
575.752	705.94
576.203	703.64
576.655	706.54
577.106	690.94
577.557	687.04
578.009	689.34
578.46	690.14
578.912	690.44
579.363	692.34
579.814	682.54
580.265	677.74
580.717	682.04
581.168	696.04
581.619	703.64
582.07	707.94
582.521	699.24
582.972	684.84
583.423	695.04
583.875	697.44
584.326	712.24
584.777	721.44
585.227	742.54
585.678	756.54
586.129	774.34
586.58	790.04
587.031	820.64
587.482	844.74
587.933	871.84
588.384	859.24
588.834	826.34
589.285	804.54
589.736	803.04
590.186	795.24
590.637	796.74
591.088	773.04
591.538	765.54
591.989	753.54
592.439	755.44
592.89	738.94
593.34	736.74
593.791	734.14
594.241	725.44
594.692	716.74
595.142	714.44
595.593	720.34
596.043	720.94
596.493	724.74
596.943	730.24
597.394	747.44
597.844	743.24
598.294	765.34
598.744	785.74
599.195	809.84
599.645	864.44
600.095	901.64
600.545	953.84
600.995	1005.54
601.445	1079.34
601.895	1124.04
602.345	1169.74
602.795	1152.74
603.245	1111.74
603.695	1040.54
604.145	995.84
604.594	953.94
605.044	898.84
605.494	827.84
605.944	784.04
606.393	772.74
606.843	749.14
607.293	761.74
607.743	761.34
608.192	775.74
608.642	779.54
609.091	776.84
609.541	782.14
609.99	783.84
610.44	795.04
610.889	751.34
611.339	723.94
611.788	714.64
612.238	722.24
612.687	723.04
613.136	722.74
613.586	739.94
614.035	729.84
614.484	732.14
614.933	729.74
615.383	725.24
615.832	733.84
616.281	727.04
616.73	699.64
617.179	682.24
617.628	668.64
618.077	652.64
618.526	641.64
618.975	638.34
619.424	642.24
619.873	634.44
620.322	635.64
620.771	614.04
621.22	632.44
621.669	616.14
622.118	604.04
622.567	596.34
623.015	588.74
623.464	603.04
623.913	574.04
624.361	583.04
624.81	566.84
625.259	574.14
625.707	572.54
626.156	581.74
626.604	594.94
627.053	583.94
627.501	597.54
627.95	584.74
628.398	608.24
628.847	595.84
629.295	602.84
629.744	601.54
630.192	594.64
630.64	579.74
631.089	573.14
631.537	569.34
631.985	540.14
632.433	551.24
632.881	543.84
633.33	557.54
633.778	541.24
634.226	540.34
634.674	555.24
635.122	567.94
635.57	571.34
636.018	584.34
636.466	582.44
636.914	571.34
637.362	592.94
637.81	599.04
638.258	609.94
638.705	604.04
639.153	637.94
639.601	643.14
640.049	673.04
640.497	685.04
640.944	714.94
641.392	671.74
641.84	637.94
642.287	607.54
642.735	583.04
643.182	588.44
643.63	580.84
644.078	579.74
644.525	596.64
644.973	598.84
645.42	615.54
645.867	634.54
646.315	661.44
646.762	678.64
647.21	703.24
647.657	724.24
648.104	753.84
648.551	789.24
648.999	849.14
649.446	906.54
649.893	1000.84
650.34	1160.54
650.787	1368.54
651.234	1692.04
651.682	2174.64
652.129	2976.14
652.576	4215.94
653.023	6153.24
653.47	8277.54
653.917	10175.14
654.363	11633.94
654.81	12767.14
655.257	12085.44
655.704	8012.24
656.151	4831.24
656.598	3165.44
657.044	2288.14
657.491	1775.24
657.938	1430.64
658.385	1206.44
658.831	1050.54
659.278	946.74
659.724	856.24
660.171	787.44
660.618	734.34
661.064	690.54
661.511	682.04
661.957	661.44
662.404	657.34
662.85	649.94
663.296	638.44
663.743	576.14
664.189	557.04
664.635	551.44
665.082	542.24
665.528	546.24
665.974	531.14
666.42	531.24
666.867	522.44
667.313	496.54
667.759	484.74
668.205	468.04
668.651	475.54
669.097	468.04
669.543	466.04
669.989	462.04
670.435	464.14
670.881	475.14
671.327	471.64
671.773	498.84
672.219	514.24
672.665	577.54
673.11	616.04
673.556	667.44
674.002	699.54
674.448	690.64
674.893	571.84
675.339	507.84
675.785	463.84
676.23	439.04
676.676	414.94
677.122	408.54
677.567	391.24
678.013	388.44
678.458	372.94
678.904	380.24
679.349	360.44
679.794	373.74
680.24	373.34
680.685	374.54
681.131	364.14
681.576	358.54
682.021	376.14
682.466	368.44
682.912	371.24
683.357	373.64
683.802	406.34
684.247	437.14
684.692	488.04
685.137	519.24
685.583	567.04
686.028	598.04
686.473	558.94
686.918	476.24
687.363	442.64
687.807	405.44
688.252	387.24
688.697	377.34
689.142	359.04
689.587	347.34
690.032	339.24
690.477	364.44
690.921	372.74
691.366	404.64
691.811	427.64
692.255	455.84
692.7	484.84
693.145	545.64
693.589	766.54
694.034	1242.84
694.478	1661.44
694.923	1835.14
695.367	2390.84
695.812	1273.64
696.256	535.04
696.701	388.84
697.145	356.54
697.59	350.04
698.034	333.44
698.478	342.54
698.922	339.74
699.367	334.44
699.811	355.84
700.255	378.84
700.699	411.74
701.143	449.94
701.588	509.44
702.032	539.74
702.476	540.24
702.92	524.04
703.364	538.04
703.808	707.54
704.252	1156.44
704.696	1585.94
705.14	1762.24
705.584	2243.04
706.027	1138.14
706.471	559.34
706.915	429.74
707.359	375.04
707.803	341.34
708.246	329.94
708.69	342.34
709.134	333.14
709.577	330.64
710.021	335.04
710.465	321.94
710.908	320.84
711.352	321.74
711.795	335.94
712.239	369.44
712.682	395.04
713.126	439.34
713.569	476.44
714.012	369.64
714.456	320.94
714.899	305.34
715.342	286.84
715.786	276.24
716.229	275.54
716.672	268.24
717.115	259.24
717.558	265.64
718.002	263.54
718.445	281.34
718.888	307.84
719.331	314.34
719.774	327.44
720.217	319.14
720.66	302.04
721.103	284.24
721.546	278.44
721.989	256.84
722.432	249.74
722.874	243.34
723.317	245.44
723.76	254.84
724.203	271.14
724.645	349.64
725.088	483.34
725.531	612.84
725.974	678.14
726.416	561.54
726.859	323.34
727.301	257.04
727.744	244.44
728.187	247.54
728.629	257.54
729.071	263.54
729.514	278.44
729.956	288.64
730.399	306.04
730.841	303.04
731.283	296.14
731.726	283.24
732.168	282.24
732.61	280.04
733.053	302.74
733.495	341.04
733.937	374.34
734.379	425.84
734.821	468.64
735.263	597.04
735.705	934.54
736.148	1774.84
736.59	2816.74
737.032	3235.24
737.474	2629.94
737.916	865.74
738.357	459.44
738.799	346.34
739.241	321.64
739.683	305.64
740.125	307.04
740.567	321.94
741.008	333.24
741.45	336.24
741.892	338.44
742.334	368.84
742.775	388.24
743.217	367.34
743.658	286.64
744.1	270.24
744.542	287.94
744.983	342.14
745.425	368.64
745.866	368.84
746.307	305.64
746.749	300.94
747.19	351.14
747.632	514.84
748.073	1010.84
748.514	2079.24
748.956	3061.94
749.397	3899.34
749.838	3219.14
750.279	3122.64
750.72	1594.34
751.162	606.04
751.603	347.04
752.044	267.74
752.485	233.24
752.926	222.84
753.367	218.64
753.808	205.84
754.249	198.74
754.69	190.14
755.131	191.64
755.572	195.44
756.013	187.94
756.453	198.94
756.894	200.94
757.335	201.54
757.776	207.24
758.216	208.14
758.657	208.54
759.098	219.04
759.538	239.44
759.979	297.64
760.42	423.94
760.86	809.04
761.301	2128.84
761.741	4919.64
762.182	6780.34
762.622	4813.94
763.063	1417.54
763.503	579.64
