Data from 20171114-ORNL-Ar_H_NY_Subt18_08-07-18-605.txt Node
Date: Tue Nov 14 08:07:18 EST 2017
User: Ender
Spectrometer: HR+D1039
Trigger mode: 0
Integration Time (sec): 2.730000E-2
Scans to average: 10
Electric dark correction enabled: true
Nonlinearity correction enabled: false
Boxcar width: 0
XAxis mode: Wavelengths
Number of Pixels in Spectrum: 2048
>>>>>Begin Spectral Data<<<<<
187.836	-1.64
188.309	-1.64
188.782	-1.64
189.255	-1.54
189.728	6.06
190.201	1.06
190.674	2.16
191.147	5.56
191.619	-6.54
192.092	3.86
192.565	0.96
193.038	4.36
193.511	-3.44
193.984	-1.84
194.456	0.56
194.929	-5.94
195.402	-1.64
195.874	-2.04
196.347	-2.64
196.82	-4.64
197.292	13.96
197.765	0.66
198.237	-1.74
198.71	1.86
199.182	0.36
199.655	4.46
200.127	6.26
200.6	-0.54
201.072	-3.14
201.544	-1.24
202.017	-0.34
202.489	1.86
202.961	-2.04
203.433	-1.84
203.906	-6.94
204.378	-3.24
204.85	1.06
205.322	-7.54
205.794	1.26
206.266	-2.54
206.739	-8.24
207.211	3.86
207.683	-11.84
208.155	-2.64
208.627	-13.04
209.099	3.16
209.57	-9.64
210.042	-1.74
210.514	-6.84
210.986	-0.24
211.458	-9.14
211.93	-7.24
212.402	-0.94
212.873	-6.54
213.345	-9.84
213.817	-15.54
214.288	3.16
214.76	-12.44
215.232	-2.44
215.703	-2.94
216.175	-4.54
216.646	-7.54
217.118	-6.54
217.589	0.86
218.061	0.46
218.532	-6.14
219.004	-0.44
219.475	0.36
219.946	-3.34
220.418	-0.54
220.889	-2.24
221.36	-3.54
221.832	0.46
222.303	-10.44
222.774	-1.64
223.245	-9.64
223.717	-6.74
224.188	-1.64
224.659	-13.14
225.13	-4.54
225.601	-2.24
226.072	4.56
226.543	5.06
227.014	-5.94
227.485	-2.04
227.956	-5.04
228.427	-4.34
228.898	-1.34
229.369	3.16
229.839	-2.54
230.31	-8.24
230.781	3.26
231.252	1.36
231.722	-6.94
232.193	-3.44
232.664	-3.74
233.135	-2.94
233.605	2.26
234.076	-9.64
234.546	-1.14
235.017	1.16
235.487	5.36
235.958	1.36
236.428	-2.14
236.899	-0.64
237.369	2.56
237.84	-10.04
238.31	-3.74
238.78	-4.84
239.251	-5.94
239.721	-4.54
240.191	-4.14
240.662	-2.44
241.132	-3.44
241.602	-0.94
242.072	-4.94
242.542	4.76
243.013	-4.34
243.483	-1.74
243.953	-4.74
244.423	0.16
244.893	-1.74
245.363	-2.04
245.833	5.06
246.303	-11.44
246.773	-2.44
247.243	1.46
247.712	-1.04
248.182	4.76
248.652	-0.24
249.122	-7.04
249.592	-2.24
250.061	1.06
250.531	9.56
251.001	1.56
251.471	0.56
251.94	6.76
252.41	3.16
252.879	-11.04
253.349	4.16
253.818	3.26
254.288	4.46
254.757	-4.14
255.227	1.26
255.696	-3.44
256.166	0.16
256.635	3.16
257.105	2.86
257.574	3.26
258.043	-2.84
258.513	0.56
258.982	-0.94
259.451	1.46
259.92	-0.44
260.389	-5.64
260.859	12.46
261.328	-4.24
261.797	-0.34
262.266	2.86
262.735	10.36
263.204	1.36
263.673	-1.14
264.142	-0.24
264.611	-6.74
265.08	-2.64
265.549	-0.94
266.018	4.26
266.487	-7.64
266.955	-7.64
267.424	0.46
267.893	-4.44
268.362	-6.44
268.83	0.56
269.299	1.96
269.768	-2.54
270.236	0.06
270.705	-2.04
271.174	6.76
271.642	2.36
272.111	0.66
272.579	2.66
273.048	1.56
273.516	0.76
273.985	0.36
274.453	7.66
274.922	15.26
275.39	2.96
275.858	-1.64
276.327	12.96
276.795	7.86
277.263	-0.44
277.731	10.66
278.2	0.96
278.668	5.16
279.136	4.86
279.604	-4.24
280.072	1.76
280.54	7.36
281.008	2.66
281.477	7.26
281.945	7.36
282.413	9.76
282.881	5.76
283.348	-1.74
283.816	4.56
284.284	8.06
284.752	14.76
285.22	7.26
285.688	8.26
286.156	6.36
286.623	19.06
287.091	11.66
287.559	5.16
288.026	8.46
288.494	12.96
288.962	3.06
289.429	6.26
289.897	11.06
290.364	12.56
290.832	10.26
291.3	9.86
291.767	10.96
292.234	8.66
292.702	4.96
293.169	10.86
293.637	15.36
294.104	14.86
294.571	0.96
295.039	10.86
295.506	10.76
295.973	5.06
296.44	5.96
296.908	6.66
297.375	10.96
297.842	13.16
298.309	11.36
298.776	8.66
299.243	13.46
299.71	7.76
300.177	18.76
300.644	15.66
301.111	14.26
301.578	19.46
302.045	6.36
302.512	22.66
302.979	20.66
303.446	14.76
303.913	15.06
304.379	13.66
304.846	18.66
305.313	16.76
305.78	22.46
306.246	14.76
306.713	16.86
307.18	21.46
307.646	17.76
308.113	18.36
308.579	14.56
309.046	17.16
309.512	18.86
309.979	12.66
310.445	19.16
310.912	18.26
311.378	21.56
311.845	28.16
312.311	24.76
312.777	25.26
313.244	25.46
313.71	24.96
314.176	28.86
314.642	18.56
315.109	19.76
315.575	23.26
316.041	28.76
316.507	23.56
316.973	25.86
317.439	23.46
317.905	29.26
318.371	31.06
318.837	25.06
319.303	26.26
319.769	25.66
320.235	26.46
320.701	24.06
321.167	30.16
321.633	19.26
322.099	26.06
322.564	33.76
323.03	30.96
323.496	25.56
323.962	26.16
324.427	31.66
324.893	34.16
325.359	36.26
325.824	28.16
326.29	30.46
326.755	30.76
327.221	27.16
327.686	31.76
328.152	33.26
328.617	36.36
329.083	39.96
329.548	41.16
330.014	40.46
330.479	29.46
330.944	36.86
331.41	35.26
331.875	29.26
332.34	30.76
332.805	31.26
333.271	33.06
333.736	27.86
334.201	44.16
334.666	42.26
335.131	35.16
335.596	39.96
336.061	44.96
336.526	30.66
336.991	43.86
337.456	43.16
337.921	41.06
338.386	39.76
338.851	35.06
339.316	36.06
339.781	32.86
340.246	39.46
340.711	36.86
341.175	45.56
341.64	33.96
342.105	46.16
342.569	45.66
343.034	43.76
343.499	46.16
343.963	38.66
344.428	52.96
344.893	49.36
345.357	51.56
345.822	46.36
346.286	55.86
346.751	65.66
347.215	56.56
347.679	56.06
348.144	71.66
348.608	61.56
349.073	57.36
349.537	63.26
350.001	60.66
350.465	73.96
350.93	65.56
351.394	69.06
351.858	63.46
352.322	69.36
352.786	69.76
353.25	76.76
353.715	87.26
354.179	82.26
354.643	98.96
355.107	97.46
355.571	83.56
356.035	77.76
356.498	86.36
356.962	94.26
357.426	100.96
357.89	93.36
358.354	77.16
358.818	73.46
359.281	71.06
359.745	64.76
360.209	65.66
360.673	63.86
361.136	70.56
361.6	75.96
362.064	68.06
362.527	71.86
362.991	76.96
363.454	69.96
363.918	61.06
364.381	60.96
364.845	72.56
365.308	75.96
365.772	81.66
366.235	78.16
366.698	68.36
367.162	76.86
367.625	73.46
368.088	77.96
368.552	73.46
369.015	78.56
369.478	86.36
369.941	83.16
370.404	79.26
370.867	80.96
371.331	94.76
371.794	98.06
372.257	86.26
372.72	96.56
373.183	86.56
373.646	81.06
374.109	86.46
374.572	91.76
375.035	87.46
375.497	92.36
375.96	96.96
376.423	88.56
376.886	105.36
377.349	95.56
377.811	90.06
378.274	93.86
378.737	86.76
379.199	99.46
379.662	104.76
380.125	104.86
380.587	96.16
381.05	96.16
381.512	105.66
381.975	109.06
382.437	107.96
382.9	105.76
383.362	113.46
383.825	122.26
384.287	110.96
384.75	111.26
385.212	115.06
385.674	121.16
386.136	120.46
386.599	107.86
387.061	111.96
387.523	115.06
387.985	115.86
388.447	123.66
388.91	112.16
389.372	123.96
389.834	122.86
390.296	117.16
390.758	123.86
391.22	132.96
391.682	128.86
392.144	135.06
392.606	129.46
393.068	129.46
393.529	145.36
393.991	132.26
394.453	124.06
394.915	124.26
395.377	129.66
395.838	126.56
396.3	130.66
396.762	136.76
397.224	133.16
397.685	119.76
398.147	128.86
398.608	129.06
399.07	130.86
399.531	126.66
399.993	134.66
400.454	146.36
400.916	140.66
401.377	140.26
401.839	141.96
402.3	142.36
402.762	154.36
403.223	166.86
403.684	164.36
404.145	154.46
404.607	147.26
405.068	155.16
405.529	159.46
405.99	172.76
406.451	163.76
406.913	170.66
407.374	163.76
407.835	154.06
408.296	158.26
408.757	161.06
409.218	172.96
409.679	169.66
410.14	163.36
410.601	170.96
411.062	173.46
411.522	171.66
411.983	169.96
412.444	166.56
412.905	176.16
413.366	181.06
413.826	195.56
414.287	213.06
414.748	265.36
415.208	246.36
415.669	214.66
416.13	204.36
416.59	202.96
417.051	216.36
417.511	217.86
417.972	233.16
418.432	241.96
418.893	285.96
419.353	243.66
419.814	198.96
420.274	180.66
420.734	183.86
421.195	194.16
421.655	190.76
422.115	193.26
422.576	194.16
423.036	203.76
423.496	212.46
423.956	218.46
424.416	223.36
424.876	261.46
425.336	261.06
425.797	256.06
426.257	251.16
426.717	231.76
427.177	227.26
427.637	222.86
428.097	227.96
428.556	243.06
429.016	265.96
429.476	254.06
429.936	262.66
430.396	260.16
430.856	280.96
431.315	300.26
431.775	339.66
432.235	363.86
432.694	339.06
433.154	351.16
433.614	365.56
434.073	326.76
434.533	277.46
434.993	265.76
435.452	279.86
435.912	282.66
436.371	277.46
436.83	277.36
437.29	260.46
437.749	246.16
438.209	242.16
438.668	273.36
439.127	274.96
439.587	262.16
440.046	251.96
440.505	255.26
440.964	272.86
441.424	311.96
441.883	306.56
442.342	254.76
442.801	227.06
443.26	217.06
443.719	227.86
444.178	227.06
444.637	220.46
445.096	226.16
445.555	233.96
446.014	231.26
446.473	225.66
446.932	239.66
447.391	232.06
447.849	235.56
448.308	222.76
448.767	227.66
449.226	236.96
449.685	243.96
450.143	257.76
450.602	241.96
451.061	231.76
451.519	246.46
451.978	244.86
452.436	242.76
452.895	249.86
453.353	259.46
453.812	240.76
454.27	244.56
454.729	251.56
455.187	249.16
455.646	250.46
456.104	248.46
456.562	266.46
457.021	271.46
457.479	268.66
457.937	276.56
458.395	266.76
458.854	253.76
459.312	261.16
459.77	270.86
460.228	263.06
460.686	248.66
461.144	253.26
461.602	252.86
462.06	253.46
462.518	266.96
462.976	267.76
463.434	270.96
463.892	269.36
464.35	285.66
464.808	299.76
465.266	273.96
465.724	279.76
466.181	285.56
466.639	285.36
467.097	300.46
467.555	309.86
468.012	310.66
468.47	319.26
468.928	339.16
469.385	350.66
469.843	367.56
470.3	361.76
470.758	372.76
471.215	383.36
471.673	421.36
472.13	406.26
472.588	426.46
473.045	380.96
473.503	385.96
473.96	403.56
474.417	418.56
474.875	440.56
475.332	481.06
475.789	470.46
476.246	469.96
476.704	499.16
477.161	511.86
477.618	528.06
478.075	559.26
478.532	626.96
478.989	686.26
479.446	780.86
479.903	759.06
480.36	790.76
480.817	832.56
481.274	938.46
481.731	1014.56
482.188	1091.06
482.645	1218.26
483.102	1300.26
483.558	1418.06
484.015	1461.06
484.472	1435.86
484.929	1394.16
485.385	1351.46
485.842	1310.36
486.299	1281.16
486.755	1250.06
487.212	1056.96
487.668	901.56
488.125	840.36
488.582	767.06
489.038	742.16
489.494	711.86
489.951	691.66
490.407	671.56
490.864	650.76
491.32	654.26
491.776	653.76
492.233	659.66
492.689	626.36
493.145	614.56
493.602	612.66
494.058	621.36
494.514	625.26
494.97	639.46
495.426	657.26
495.882	639.56
496.338	620.56
496.794	630.36
497.251	626.16
497.707	634.86
498.163	651.36
498.618	655.16
499.074	654.06
499.53	690.06
499.986	672.76
500.442	654.66
500.898	632.46
501.354	632.96
501.809	631.96
502.265	639.56
502.721	648.36
503.177	654.36
503.632	658.36
504.088	658.56
504.543	681.96
504.999	703.76
505.455	674.76
505.91	647.46
506.366	661.76
506.821	643.76
507.277	656.16
507.732	651.86
508.187	645.86
508.643	657.96
509.098	666.96
509.553	677.96
510.009	685.96
510.464	695.46
510.919	707.06
511.375	704.56
511.83	733.26
512.285	748.66
512.74	775.36
513.195	801.26
513.65	794.46
514.105	799.56
514.56	793.26
515.015	812.96
515.47	813.96
515.925	807.96
516.38	810.96
516.835	811.26
517.29	791.36
517.745	794.86
518.2	795.96
518.655	773.36
519.109	772.26
519.564	764.26
520.019	756.66
520.474	745.46
520.928	749.36
521.383	747.06
521.838	732.96
522.292	742.76
522.747	729.96
523.201	723.06
523.656	718.36
524.11	717.16
524.565	717.26
525.019	712.36
525.474	712.46
525.928	723.66
526.382	715.36
526.837	718.46
527.291	730.06
527.745	729.16
528.2	723.06
528.654	716.16
529.108	717.96
529.562	719.96
530.016	713.66
530.47	715.96
530.925	716.96
531.379	711.96
531.833	725.86
532.287	722.26
532.741	726.36
533.195	717.96
533.649	737.46
534.103	739.66
534.556	728.76
535.01	736.66
535.464	726.56
535.918	733.96
536.372	737.26
536.826	748.46
537.279	724.26
537.733	743.16
538.187	733.56
538.64	736.16
539.094	744.06
539.548	744.66
540.001	749.36
540.455	744.96
540.908	753.76
541.362	763.76
541.815	776.86
542.269	786.16
542.722	782.06
543.175	792.66
543.629	804.16
544.082	815.56
544.536	807.26
544.989	814.46
545.442	822.26
545.895	823.66
546.349	809.06
546.802	816.66
547.255	837.36
547.708	832.76
548.161	843.46
548.614	850.36
549.067	861.16
549.52	855.06
549.973	844.76
550.426	843.06
550.879	822.56
551.332	831.26
551.785	830.36
552.238	838.86
552.691	847.86
553.144	863.26
553.596	879.06
554.049	897.36
554.502	925.76
554.955	940.96
555.407	941.76
555.86	924.96
556.313	921.56
556.765	922.26
557.218	913.56
557.67	909.46
558.123	910.56
558.576	906.86
559.028	912.76
559.48	912.06
559.933	902.76
560.385	877.36
560.838	840.86
561.29	817.96
561.742	816.06
562.195	788.26
562.647	789.76
563.099	800.66
563.551	798.46
564.004	811.56
564.456	796.96
564.908	785.36
565.36	768.86
565.812	758.56
566.264	740.26
566.716	738.46
567.168	726.76
567.62	735.56
568.072	722.36
568.524	723.16
568.976	711.46
569.428	698.26
569.88	698.26
570.332	697.26
570.784	709.16
571.235	716.86
571.687	715.86
572.139	724.86
572.59	737.26
573.042	739.46
573.494	743.96
573.945	733.66
574.397	712.76
574.849	701.96
575.3	720.26
575.752	702.36
576.203	706.26
576.655	708.46
577.106	695.06
577.557	681.56
578.009	696.76
578.46	690.06
578.912	680.16
579.363	689.36
579.814	692.16
580.265	690.16
580.717	698.56
581.168	685.36
581.619	693.16
582.07	705.76
582.521	692.36
582.972	696.36
583.423	693.96
583.875	695.16
584.326	694.76
584.777	718.66
585.227	736.66
585.678	745.86
586.129	748.66
586.58	777.96
587.031	794.66
587.482	813.16
587.933	836.36
588.384	822.46
588.834	804.06
589.285	796.06
589.736	794.16
590.186	792.86
590.637	795.36
591.088	765.36
591.538	756.86
591.989	749.26
592.439	747.46
592.89	730.86
593.34	731.66
593.791	726.86
594.241	716.26
594.692	715.56
595.142	715.36
595.593	711.76
596.043	722.86
596.493	729.06
596.943	724.86
597.394	740.86
597.844	741.16
598.294	756.26
598.744	772.96
599.195	798.66
599.645	843.76
600.095	885.66
600.545	942.06
600.995	998.96
601.445	1059.76
601.895	1120.86
602.345	1156.16
602.795	1145.66
603.245	1102.16
603.695	1045.56
604.145	985.36
604.594	945.66
605.044	885.66
605.494	823.96
605.944	776.86
606.393	763.36
606.843	742.16
607.293	747.46
607.743	748.66
608.192	766.36
608.642	774.56
609.091	777.16
609.541	777.06
609.99	788.66
610.44	772.26
610.889	736.76
611.339	705.76
611.788	702.66
612.238	711.66
612.687	729.76
613.136	709.46
613.586	720.66
614.035	715.96
614.484	734.06
614.933	724.36
615.383	727.96
615.832	715.26
616.281	712.06
616.73	686.06
617.179	672.36
617.628	655.46
618.077	643.76
618.526	639.36
618.975	623.56
619.424	621.16
619.873	618.76
620.322	632.16
620.771	628.46
621.22	612.46
621.669	605.96
622.118	598.76
622.567	591.96
623.015	592.46
623.464	574.36
623.913	573.56
624.361	565.26
624.81	572.96
625.259	572.86
625.707	565.06
626.156	574.76
626.604	577.06
627.053	573.56
627.501	567.26
627.95	591.56
628.398	594.06
628.847	587.46
629.295	583.66
629.744	583.66
630.192	590.66
630.64	574.96
631.089	558.26
631.537	548.56
631.985	541.86
632.433	546.86
632.881	529.56
633.33	545.26
633.778	533.36
634.226	538.46
634.674	544.56
635.122	553.76
635.57	562.26
636.018	571.56
636.466	576.36
636.914	570.16
637.362	579.76
637.81	583.96
638.258	587.26
638.705	594.46
639.153	620.86
639.601	629.46
640.049	657.46
640.497	688.86
640.944	700.36
641.392	660.96
641.84	631.66
642.287	595.86
642.735	574.96
643.182	578.66
643.63	576.26
644.078	576.56
644.525	583.96
644.973	591.56
645.42	600.66
645.867	617.76
646.315	638.66
646.762	660.56
647.21	695.16
647.657	710.26
648.104	737.96
648.551	764.66
648.999	809.36
649.446	886.26
649.893	965.76
650.34	1118.66
650.787	1324.26
651.234	1616.36
651.682	2083.36
652.129	2816.96
652.576	4031.66
653.023	5844.06
653.47	7969.86
653.917	9869.76
654.363	11364.06
654.81	12565.46
655.257	11867.96
655.704	7851.26
656.151	4744.26
656.598	3108.16
657.044	2234.06
657.491	1728.76
657.938	1410.46
658.385	1185.56
658.831	1033.76
659.278	941.86
659.724	831.06
660.171	775.36
660.618	708.26
661.064	681.16
661.511	658.06
661.957	648.56
662.404	643.96
662.85	650.06
663.296	635.46
663.743	564.36
664.189	542.26
664.635	542.86
665.082	532.86
665.528	532.46
665.974	523.66
666.42	513.96
666.867	511.86
667.313	491.56
667.759	473.36
668.205	460.06
668.651	458.06
669.097	449.56
669.543	438.86
669.989	448.36
670.435	453.26
670.881	452.96
671.327	470.26
671.773	484.36
672.219	513.96
672.665	557.26
673.11	600.26
673.556	646.96
674.002	676.56
674.448	662.66
674.893	565.36
675.339	491.76
675.785	456.06
676.23	429.86
676.676	405.76
677.122	391.26
677.567	386.96
678.013	380.06
678.458	370.86
678.904	362.66
679.349	357.56
679.794	368.76
680.24	351.76
680.685	350.96
681.131	350.46
681.576	365.16
682.021	364.86
682.466	359.96
682.912	363.76
683.357	365.56
683.802	391.76
684.247	423.26
684.692	465.76
685.137	513.26
685.583	560.76
686.028	569.26
686.473	528.16
686.918	460.46
687.363	432.86
687.807	409.76
688.252	381.56
688.697	362.06
689.142	353.96
689.587	341.66
690.032	340.46
690.477	354.86
690.921	359.86
691.366	386.36
691.811	410.06
692.255	437.96
692.7	471.06
693.145	520.96
693.589	720.66
694.034	1177.46
694.478	1595.06
694.923	1795.76
695.367	2346.26
695.812	1235.06
696.256	514.06
696.701	389.56
697.145	350.96
697.59	341.46
698.034	324.36
698.478	336.06
698.922	320.26
699.367	331.66
699.811	340.56
700.255	358.66
700.699	399.26
701.143	431.66
701.588	484.36
702.032	528.46
702.476	527.36
702.92	507.76
703.364	517.26
703.808	668.66
704.252	1080.76
704.696	1508.86
705.14	1726.66
705.584	2204.96
706.027	1104.06
706.471	536.16
706.915	406.46
707.359	362.96
707.803	332.56
708.246	314.76
708.69	318.26
709.134	324.06
709.577	316.56
710.021	325.46
710.465	311.56
710.908	304.16
711.352	305.06
711.795	318.16
712.239	371.46
712.682	397.16
713.126	429.46
713.569	469.86
714.012	374.16
714.456	305.16
714.899	290.26
715.342	284.96
715.786	272.16
716.229	264.06
716.672	264.66
717.115	255.56
717.558	258.76
718.002	251.36
718.445	267.16
718.888	294.56
719.331	306.66
719.774	320.16
720.217	318.26
720.66	291.66
721.103	277.56
721.546	267.76
721.989	261.66
722.432	240.66
722.874	248.76
723.317	237.16
723.76	243.16
724.203	259.56
724.645	328.26
725.088	460.16
725.531	585.06
725.974	657.86
726.416	565.56
726.859	320.16
727.301	256.16
727.744	245.66
728.187	237.96
728.629	245.06
729.071	248.26
729.514	263.26
729.956	286.66
730.399	293.06
730.841	299.76
731.283	284.26
731.726	275.86
732.168	265.26
732.61	271.86
733.053	301.76
733.495	317.66
733.937	368.56
734.379	416.36
734.821	448.16
735.263	558.06
735.705	863.16
736.148	1657.46
736.59	2697.76
737.032	3164.66
737.474	2581.56
737.916	846.26
738.357	446.66
738.799	334.96
739.241	311.26
739.683	297.36
740.125	301.26
740.567	300.16
741.008	322.46
741.45	324.96
741.892	334.66
742.334	360.86
742.775	372.96
743.217	347.66
743.658	281.36
744.1	270.86
744.542	269.36
744.983	330.96
745.425	355.06
745.866	352.56
746.307	276.56
746.749	291.06
747.19	333.36
747.632	465.26
748.073	931.96
748.514	1948.66
748.956	2978.66
749.397	3737.16
749.838	3089.56
750.279	3085.76
750.72	1550.26
751.162	574.16
751.603	335.16
752.044	263.56
752.485	221.06
752.926	214.66
753.367	206.96
753.808	203.96
754.249	204.36
754.69	192.26
755.131	187.46
755.572	184.26
756.013	179.96
756.453	187.66
756.894	198.56
757.335	199.36
757.776	199.46
758.216	201.56
758.657	203.06
759.098	208.76
759.538	230.66
759.979	276.46
760.42	389.86
760.86	740.96
761.301	1942.56
761.741	4652.06
762.182	6666.16
762.622	4708.16
763.063	1371.06
763.503	565.86
763.943	337.16
