Data from 20171114-ORNL-Ar_H_NY_Subt18_08-04-27-176.txt Node
Date: Tue Nov 14 08:04:27 EST 2017
User: Ender
Spectrometer: HR+D1039
Trigger mode: 0
Integration Time (sec): 2.730000E-2
Scans to average: 10
Electric dark correction enabled: true
Nonlinearity correction enabled: false
Boxcar width: 0
XAxis mode: Wavelengths
Number of Pixels in Spectrum: 2048
>>>>>Begin Spectral Data<<<<<
187.836	-7.05
188.309	-7.05
188.782	-7.05
189.255	2.45
189.728	-1.05
190.201	4.85
190.674	2.45
191.147	2.55
191.619	-0.55
192.092	4.65
192.565	5.65
193.038	5.95
193.511	-2.45
193.984	-2.85
194.456	-4.55
194.929	-3.25
195.402	-3.65
195.874	-3.15
196.347	-4.05
196.82	-10.85
197.292	3.05
197.765	2.65
198.237	-6.45
198.71	0.05
199.182	-4.55
199.655	-0.35
200.127	2.75
200.6	-4.05
201.072	-9.35
201.544	-9.55
202.017	-3.35
202.489	1.25
202.961	4.45
203.433	-3.45
203.906	-7.85
204.378	-9.55
204.85	-3.05
205.322	-11.75
205.794	-2.55
206.266	-3.15
206.739	-5.15
207.211	-2.05
207.683	-6.95
208.155	-4.65
208.627	-4.35
209.099	-4.85
209.57	-16.15
210.042	-5.85
210.514	1.55
210.986	-3.85
211.458	-10.85
211.93	-0.45
212.402	2.95
212.873	1.05
213.345	-9.15
213.817	-8.55
214.288	-1.15
214.76	-10.25
215.232	-7.15
215.703	-6.05
216.175	-0.75
216.646	-4.45
217.118	-6.35
217.589	-5.45
218.061	-3.65
218.532	-6.05
219.004	-4.85
219.475	-2.15
219.946	-1.15
220.418	-5.05
220.889	0.85
221.36	1.05
221.832	-2.65
222.303	-8.15
222.774	-3.45
223.245	-11.75
223.717	-10.95
224.188	-10.05
224.659	-5.95
225.13	-3.25
225.601	1.65
226.072	0.15
226.543	-2.35
227.014	3.45
227.485	-4.05
227.956	-3.05
228.427	-1.35
228.898	-1.05
229.369	1.75
229.839	-2.35
230.31	-0.25
230.781	1.95
231.252	4.05
231.722	-1.35
232.193	-1.55
232.664	-2.65
233.135	4.15
233.605	1.35
234.076	-4.85
234.546	0.85
235.017	7.85
235.487	2.65
235.958	-1.45
236.428	-1.45
236.899	-3.05
237.369	2.95
237.84	6.85
238.31	9.65
238.78	-0.35
239.251	1.65
239.721	1.95
240.191	0.75
240.662	2.75
241.132	-0.35
241.602	-3.45
242.072	7.85
242.542	6.05
243.013	-2.25
243.483	5.25
243.953	3.95
244.423	1.85
244.893	-5.75
245.363	5.05
245.833	1.95
246.303	2.75
246.773	5.85
247.243	6.45
247.712	4.65
248.182	10.35
248.652	4.45
249.122	1.85
249.592	13.65
250.061	21.25
250.531	29.65
251.001	13.75
251.471	25.75
251.94	25.55
252.41	9.85
252.879	3.35
253.349	14.55
253.818	8.05
254.288	3.55
254.757	4.45
255.227	3.35
255.696	0.55
256.166	6.55
256.635	6.45
257.105	3.45
257.574	1.85
258.043	8.75
258.513	15.35
258.982	17.95
259.451	11.95
259.92	14.15
260.389	12.05
260.859	11.45
261.328	13.05
261.797	25.65
262.266	15.15
262.735	10.25
263.204	8.15
263.673	1.45
264.142	4.65
264.611	-0.15
265.08	5.15
265.549	0.75
266.018	2.95
266.487	-5.05
266.955	-0.95
267.424	-4.85
267.893	2.95
268.362	6.15
268.83	5.95
269.299	14.45
269.768	10.15
270.236	3.85
270.705	2.05
271.174	3.45
271.642	10.75
272.111	13.75
272.579	15.95
273.048	21.95
273.516	31.95
273.985	31.55
274.453	19.95
274.922	22.35
275.39	13.95
275.858	10.55
276.327	15.35
276.795	17.45
277.263	11.95
277.731	30.45
278.2	49.75
278.668	59.05
279.136	49.95
279.604	26.95
280.072	16.85
280.54	12.85
281.008	11.15
281.477	9.55
281.945	13.75
282.413	18.05
282.881	15.05
283.348	10.85
283.816	14.35
284.284	17.05
284.752	17.15
285.22	13.95
285.688	19.55
286.156	22.65
286.623	39.05
287.091	54.95
287.559	25.95
288.026	13.85
288.494	18.05
288.962	14.95
289.429	10.15
289.897	18.05
290.364	14.15
290.832	19.55
291.3	18.85
291.767	15.35
292.234	18.35
292.702	11.15
293.169	19.95
293.637	19.95
294.104	20.05
294.571	9.25
295.039	13.15
295.506	10.85
295.973	17.25
296.44	15.55
296.908	16.95
297.375	17.05
297.842	15.35
298.309	14.75
298.776	10.25
299.243	25.15
299.71	10.95
300.177	22.75
300.644	19.25
301.111	19.35
301.578	24.65
302.045	14.25
302.512	18.05
302.979	24.65
303.446	26.05
303.913	19.35
304.379	21.75
304.846	28.55
305.313	25.65
305.78	23.25
306.246	24.35
306.713	25.45
307.18	24.85
307.646	33.35
308.113	29.65
308.579	19.45
309.046	28.15
309.512	26.05
309.979	20.15
310.445	23.15
310.912	31.85
311.378	30.65
311.845	34.75
312.311	32.95
312.777	33.85
313.244	31.35
313.71	36.15
314.176	40.85
314.642	29.95
315.109	35.55
315.575	38.75
316.041	39.65
316.507	28.95
316.973	41.25
317.439	26.35
317.905	31.05
318.371	34.65
318.837	37.65
319.303	34.35
319.769	30.85
320.235	37.45
320.701	34.75
321.167	39.85
321.633	32.75
322.099	37.45
322.564	38.15
323.03	39.45
323.496	38.15
323.962	42.85
324.427	32.75
324.893	41.05
325.359	33.65
325.824	37.55
326.29	43.95
326.755	38.25
327.221	40.15
327.686	40.05
328.152	51.25
328.617	35.35
329.083	48.45
329.548	50.55
330.014	46.05
330.479	40.85
330.944	44.45
331.41	41.25
331.875	38.85
332.34	42.05
332.805	46.95
333.271	40.25
333.736	42.95
334.201	50.05
334.666	45.55
335.131	55.05
335.596	49.55
336.061	50.65
336.526	43.35
336.991	50.25
337.456	54.45
337.921	48.65
338.386	43.55
338.851	43.95
339.316	44.25
339.781	46.35
340.246	51.65
340.711	46.45
341.175	47.75
341.64	41.35
342.105	50.25
342.569	54.35
343.034	53.95
343.499	52.55
343.963	48.05
344.428	60.45
344.893	54.45
345.357	58.25
345.822	62.75
346.286	72.55
346.751	73.75
347.215	66.75
347.679	65.55
348.144	91.95
348.608	83.15
349.073	67.65
349.537	65.55
350.001	64.55
350.465	89.45
350.93	79.85
351.394	77.45
351.858	68.95
352.322	80.75
352.786	75.95
353.25	92.25
353.715	104.85
354.179	93.65
354.643	112.45
355.107	119.25
355.571	98.55
356.035	99.65
356.498	107.15
356.962	116.15
357.426	121.85
357.89	110.65
358.354	87.15
358.818	76.15
359.281	80.75
359.745	78.15
360.209	70.35
360.673	67.95
361.136	79.15
361.6	80.05
362.064	79.05
362.527	76.55
362.991	86.75
363.454	75.65
363.918	72.55
364.381	74.25
364.845	70.75
365.308	76.75
365.772	75.95
366.235	81.15
366.698	77.55
367.162	83.25
367.625	82.55
368.088	80.35
368.552	82.65
369.015	84.15
369.478	92.55
369.941	89.65
370.404	91.75
370.867	94.05
371.331	98.95
371.794	100.05
372.257	99.85
372.72	109.55
373.183	103.65
373.646	90.45
374.109	97.15
374.572	98.05
375.035	103.55
375.497	105.85
375.96	94.15
376.423	102.75
376.886	102.15
377.349	104.45
377.811	94.85
378.274	89.35
378.737	94.45
379.199	102.65
379.662	100.45
380.125	106.55
380.587	106.95
381.05	109.25
381.512	122.85
381.975	120.95
382.437	116.25
382.9	111.95
383.362	116.65
383.825	123.15
384.287	130.75
384.75	131.75
385.212	128.45
385.674	130.15
386.136	121.95
386.599	107.85
387.061	113.75
387.523	118.15
387.985	125.15
388.447	132.55
388.91	132.55
389.372	137.65
389.834	136.05
390.296	132.35
390.758	140.25
391.22	149.45
391.682	183.55
392.144	263.75
392.606	211.35
393.068	146.85
393.529	150.65
393.991	137.25
394.453	134.35
394.915	144.85
395.377	176.35
395.838	186.65
396.3	147.25
396.762	129.45
397.224	125.15
397.685	112.65
398.147	123.55
398.608	119.95
399.07	113.85
399.531	122.35
399.993	135.45
400.454	138.95
400.916	136.15
401.377	130.95
401.839	133.15
402.3	141.65
402.762	150.15
403.223	167.25
403.684	159.15
404.145	144.05
404.607	138.65
405.068	148.45
405.529	146.85
405.99	168.65
406.451	160.85
406.913	156.45
407.374	151.25
407.835	148.75
408.296	150.95
408.757	155.35
409.218	166.45
409.679	159.25
410.14	158.25
410.601	163.45
411.062	162.95
411.522	177.55
411.983	172.85
412.444	159.85
412.905	166.35
413.366	163.05
413.826	174.95
414.287	205.25
414.748	237.95
415.208	224.55
415.669	192.75
416.13	189.35
416.59	185.35
417.051	193.35
417.511	198.45
417.972	212.95
418.432	218.55
418.893	265.45
419.353	226.85
419.814	184.65
420.274	163.85
420.734	168.25
421.195	178.35
421.655	175.85
422.115	172.25
422.576	182.85
423.036	178.55
423.496	180.75
423.956	195.05
424.416	208.65
424.876	237.55
425.336	238.35
425.797	246.85
426.257	223.75
426.717	223.25
427.177	219.75
427.637	204.35
428.097	209.25
428.556	221.05
429.016	240.55
429.476	236.85
429.936	245.65
430.396	251.35
430.856	266.45
431.315	286.85
431.775	318.05
432.235	346.45
432.694	310.65
433.154	327.95
433.614	351.45
434.073	304.65
434.533	259.45
434.993	243.45
435.452	251.45
435.912	260.75
436.371	265.55
436.83	260.55
437.29	246.05
437.749	221.55
438.209	216.45
438.668	247.25
439.127	259.05
439.587	241.85
440.046	221.35
440.505	234.05
440.964	247.75
441.424	286.65
441.883	273.75
442.342	240.25
442.801	202.85
443.26	198.35
443.719	201.35
444.178	198.05
444.637	190.85
445.096	198.75
445.555	201.85
446.014	203.55
446.473	205.55
446.932	209.05
447.391	202.15
447.849	205.85
448.308	194.65
448.767	205.25
449.226	208.25
449.685	212.85
450.143	223.05
450.602	220.95
451.061	209.25
451.519	213.75
451.978	205.95
452.436	210.45
452.895	212.35
453.353	227.15
453.812	217.95
454.27	208.95
454.729	220.15
455.187	217.75
455.646	225.95
456.104	225.65
456.562	231.05
457.021	237.45
457.479	231.55
457.937	240.05
458.395	241.75
458.854	226.45
459.312	225.35
459.77	236.95
460.228	224.75
460.686	222.85
461.144	230.55
461.602	223.05
462.06	222.85
462.518	225.15
462.976	231.25
463.434	230.85
463.892	236.35
464.35	252.25
464.808	265.65
465.266	242.15
465.724	241.75
466.181	254.05
466.639	251.55
467.097	265.65
467.555	272.75
468.012	281.55
468.47	283.65
468.928	304.65
469.385	309.75
469.843	309.25
470.3	313.15
470.758	330.65
471.215	354.65
471.673	368.15
472.13	367.05
472.588	372.95
473.045	334.65
473.503	335.85
473.96	355.35
474.417	367.65
474.875	396.25
475.332	433.65
475.789	420.55
476.246	419.55
476.704	440.05
477.161	464.75
477.618	472.95
478.075	509.15
478.532	552.15
478.989	627.75
479.446	720.15
479.903	697.35
480.36	744.95
480.817	793.45
481.274	883.65
481.731	988.35
482.188	1066.95
482.645	1199.15
483.102	1286.65
483.558	1409.25
484.015	1475.15
484.472	1450.45
484.929	1395.55
485.385	1364.45
485.842	1322.65
486.299	1253.05
486.755	1171.65
487.212	991.15
487.668	843.85
488.125	776.65
488.582	722.05
489.038	692.15
489.494	648.75
489.951	622.15
490.407	626.15
490.864	595.85
491.32	589.25
491.776	579.25
492.233	596.75
492.689	555.85
493.145	553.15
493.602	545.05
494.058	554.65
494.514	557.75
494.97	580.45
495.426	591.75
495.882	565.35
496.338	561.55
496.794	578.35
497.251	566.35
497.707	583.75
498.163	591.15
498.618	591.85
499.074	594.55
499.53	618.45
499.986	615.05
500.442	597.45
500.898	575.15
501.354	555.75
501.809	581.15
502.265	587.85
502.721	607.65
503.177	611.25
503.632	605.45
504.088	616.85
504.543	650.75
504.999	641.85
505.455	601.55
505.91	583.55
506.366	583.45
506.821	568.55
507.277	567.75
507.732	571.65
508.187	565.65
508.643	577.75
509.098	586.65
509.553	592.35
510.009	597.65
510.464	610.35
510.919	628.05
511.375	629.75
511.83	646.55
512.285	654.15
512.74	699.05
513.195	719.45
513.65	709.15
514.105	703.25
514.56	706.25
515.015	724.05
515.47	740.45
515.925	719.15
516.38	718.95
516.835	731.85
517.29	714.95
517.745	709.75
518.2	686.15
518.655	687.45
519.109	672.25
519.564	679.85
520.019	668.05
520.474	658.45
520.928	667.75
521.383	667.95
521.838	654.55
522.292	640.85
522.747	635.75
523.201	629.85
523.656	627.75
524.11	630.25
524.565	635.15
525.019	618.45
525.474	626.15
525.928	635.25
526.382	636.05
526.837	627.05
527.291	636.35
527.745	627.85
528.2	638.25
528.654	627.95
529.108	636.45
529.562	629.35
530.016	617.85
530.47	627.85
530.925	624.05
531.379	633.25
531.833	655.05
532.287	637.45
532.741	637.25
533.195	649.05
533.649	648.25
534.103	649.85
534.556	648.85
535.01	644.55
535.464	642.35
535.918	652.45
536.372	652.65
536.826	651.75
537.279	638.85
537.733	652.35
538.187	637.25
538.64	645.35
539.094	650.65
539.548	663.85
540.001	648.75
540.455	650.65
540.908	655.05
541.362	661.45
541.815	673.85
542.269	678.85
542.722	680.25
543.175	689.85
543.629	692.45
544.082	709.25
544.536	704.75
544.989	696.55
545.442	708.45
545.895	706.85
546.349	704.65
546.802	703.95
547.255	714.55
547.708	726.45
548.161	734.55
548.614	729.55
549.067	736.35
549.52	738.95
549.973	721.95
550.426	728.95
550.879	708.45
551.332	719.65
551.785	730.45
552.238	730.05
552.691	740.65
553.144	751.05
553.596	771.55
554.049	771.85
554.502	805.65
554.955	814.75
555.407	808.05
555.86	815.55
556.313	805.55
556.765	794.95
557.218	790.45
557.67	796.65
558.123	779.75
558.576	784.25
559.028	795.85
559.48	778.45
559.933	787.05
560.385	756.15
560.838	721.55
561.29	701.85
561.742	688.95
562.195	677.85
562.647	671.65
563.099	687.45
563.551	688.35
564.004	706.25
564.456	684.35
564.908	684.05
565.36	662.55
565.812	652.35
566.264	645.95
566.716	647.75
567.168	630.75
567.62	639.05
568.072	623.15
568.524	609.65
568.976	610.75
569.428	589.75
569.88	593.35
570.332	607.35
570.784	601.75
571.235	602.75
571.687	623.15
572.139	623.95
572.59	634.55
573.042	638.55
573.494	633.95
573.945	624.35
574.397	603.85
574.849	613.75
575.3	605.65
575.752	607.85
576.203	589.35
576.655	611.35
577.106	590.45
577.557	584.85
578.009	583.75
578.46	593.55
578.912	585.75
579.363	593.45
579.814	584.25
580.265	579.85
580.717	581.55
581.168	576.55
581.619	583.45
582.07	600.15
582.521	594.05
582.972	579.55
583.423	594.25
583.875	595.95
584.326	617.85
584.777	654.05
585.227	720.05
585.678	800.45
586.129	871.15
586.58	940.35
587.031	1016.85
587.482	1165.45
587.933	1341.05
588.384	1149.75
588.834	862.95
589.285	703.65
589.736	675.95
590.186	675.45
590.637	660.75
591.088	646.05
591.538	643.25
591.989	644.85
592.439	635.75
592.89	626.25
593.34	619.45
593.791	613.85
594.241	611.15
594.692	612.45
595.142	611.65
595.593	603.55
596.043	617.25
596.493	622.25
596.943	618.85
597.394	617.05
597.844	617.95
598.294	635.25
598.744	649.95
599.195	667.95
599.645	700.65
600.095	749.05
600.545	779.65
600.995	839.35
601.445	880.85
601.895	947.05
602.345	991.95
602.795	966.65
603.245	924.85
603.695	875.95
604.145	830.95
604.594	796.25
605.044	738.65
605.494	698.55
605.944	650.05
606.393	640.65
606.843	624.55
607.293	633.45
607.743	634.35
608.192	641.55
608.642	648.65
609.091	649.75
609.541	659.35
609.99	664.05
610.44	659.25
610.889	617.15
611.339	600.75
611.788	586.15
612.238	602.35
612.687	619.95
613.136	621.95
613.586	626.65
614.035	628.35
614.484	646.95
614.933	649.05
615.383	647.15
615.832	628.55
616.281	618.15
616.73	589.35
617.179	570.25
617.628	553.35
618.077	541.45
618.526	531.25
618.975	523.05
619.424	534.95
619.873	528.75
620.322	529.45
620.771	522.45
621.22	510.45
621.669	511.25
622.118	498.95
622.567	490.25
623.015	485.55
623.464	485.55
623.913	481.85
624.361	468.55
624.81	470.55
625.259	472.15
625.707	479.35
626.156	472.25
626.604	482.55
627.053	482.75
627.501	488.05
627.95	482.95
628.398	486.65
628.847	487.45
629.295	484.15
629.744	488.45
630.192	481.45
630.64	477.15
631.089	480.45
631.537	492.55
631.985	496.95
632.433	507.55
632.881	502.95
633.33	557.15
633.778	541.05
634.226	481.05
634.674	484.35
635.122	485.05
635.57	500.15
636.018	526.75
636.466	487.35
636.914	474.85
637.362	482.15
637.81	483.65
638.258	493.35
638.705	485.65
639.153	509.95
639.601	512.05
640.049	542.05
640.497	564.65
640.944	584.65
641.392	544.15
641.84	514.25
642.287	500.25
642.735	485.75
643.182	483.75
643.63	482.85
644.078	473.85
644.525	492.15
644.973	497.05
645.42	512.75
645.867	519.55
646.315	533.25
646.762	565.05
647.21	583.25
647.657	596.05
648.104	632.25
648.551	649.45
648.999	701.35
649.446	762.75
649.893	840.75
650.34	962.95
650.787	1167.95
651.234	1429.85
651.682	1846.65
652.129	2535.95
652.576	3641.05
653.023	5404.45
653.47	7486.65
653.917	9458.05
654.363	11079.85
654.81	12456.85
655.257	11862.85
655.704	7646.65
656.151	4500.05
656.598	2922.95
657.044	2065.15
657.491	1597.95
657.938	1259.45
658.385	1051.15
658.831	913.65
659.278	823.95
659.724	722.35
660.171	656.35
660.618	599.45
661.064	581.75
661.511	557.25
661.957	546.45
662.404	530.25
662.85	536.95
663.296	510.15
663.743	468.65
664.189	452.05
664.635	435.25
665.082	434.25
665.528	440.45
665.974	431.75
666.42	420.65
666.867	424.55
667.313	402.25
667.759	399.85
668.205	402.25
668.651	401.95
669.097	400.05
669.543	425.95
669.989	387.35
670.435	370.85
670.881	369.35
671.327	367.35
671.773	384.95
672.219	408.65
672.665	449.85
673.11	484.65
673.556	517.05
674.002	565.05
674.448	545.25
674.893	456.85
675.339	398.05
675.785	368.35
676.23	345.55
676.676	326.15
677.122	315.85
677.567	306.55
678.013	296.75
678.458	290.95
678.904	296.05
679.349	281.55
679.794	292.55
680.24	282.65
680.685	286.35
681.131	286.05
681.576	279.35
682.021	290.25
682.466	288.95
682.912	279.25
683.357	288.35
683.802	311.75
684.247	339.05
684.692	377.95
685.137	407.15
685.583	449.75
686.028	468.65
686.473	427.55
686.918	365.15
687.363	344.45
687.807	321.25
688.252	303.55
688.697	290.95
689.142	275.15
689.587	272.65
690.032	268.95
690.477	274.85
690.921	284.05
691.366	312.95
691.811	330.25
692.255	359.85
692.7	374.85
693.145	408.65
693.589	554.45
694.034	916.35
694.478	1252.25
694.923	1454.25
695.367	1940.65
695.812	1005.25
696.256	416.45
696.701	303.55
697.145	269.85
697.59	268.45
698.034	261.35
698.478	270.35
698.922	262.05
699.367	265.75
699.811	283.75
700.255	294.25
700.699	313.35
701.143	347.95
701.588	389.15
702.032	429.25
702.476	420.65
702.92	405.35
703.364	405.45
703.808	506.65
704.252	812.75
704.696	1172.75
705.14	1399.75
705.584	1808.75
706.027	892.35
706.471	429.05
706.915	324.55
707.359	287.15
707.803	261.15
708.246	259.05
708.69	262.65
709.134	259.05
709.577	253.55
710.021	262.65
710.465	245.25
710.908	247.95
711.352	243.75
711.795	256.15
712.239	293.65
712.682	308.25
713.126	343.15
713.569	377.85
714.012	306.65
714.456	262.55
714.899	238.85
715.342	217.55
715.786	215.95
716.229	211.05
716.672	205.15
717.115	202.85
717.558	201.55
718.002	205.85
718.445	209.15
718.888	241.55
719.331	243.55
719.774	251.65
720.217	249.25
720.66	224.25
721.103	217.85
721.546	202.15
721.989	205.45
722.432	185.55
722.874	197.35
723.317	190.45
723.76	194.15
724.203	213.75
724.645	254.95
725.088	358.65
725.531	464.15
725.974	540.25
726.416	449.05
726.859	253.25
727.301	206.95
727.744	205.05
728.187	195.05
728.629	197.25
729.071	200.95
729.514	204.45
729.956	218.55
730.399	230.85
730.841	232.75
731.283	223.45
731.726	222.25
732.168	215.15
732.61	220.05
733.053	230.45
733.495	260.25
733.937	285.65
734.379	319.25
734.821	344.55
735.263	436.85
735.705	669.95
736.148	1246.75
736.59	2075.75
737.032	2571.45
737.474	2097.55
737.916	662.75
738.357	349.75
738.799	268.95
739.241	250.65
739.683	235.25
740.125	234.85
740.567	239.65
741.008	256.45
741.45	254.35
741.892	256.75
742.334	283.35
742.775	293.45
743.217	278.15
743.658	223.85
744.1	205.15
744.542	212.45
744.983	257.25
745.425	283.75
745.866	284.85
746.307	237.85
746.749	226.85
747.19	261.25
747.632	352.85
748.073	679.15
748.514	1472.35
748.956	2345.35
749.397	2924.25
749.838	2450.75
750.279	2502.55
750.72	1253.15
751.162	443.95
751.603	269.45
752.044	209.75
752.485	179.65
752.926	170.95
753.367	164.85
753.808	157.55
754.249	153.95
754.69	151.45
755.131	150.55
755.572	147.85
756.013	142.45
756.453	153.15
756.894	152.45
757.335	153.05
757.776	163.35
758.216	166.75
758.657	163.75
759.098	163.05
759.538	180.65
759.979	207.55
760.42	293.85
760.86	547.25
761.301	1417.35
761.741	3572.05
762.182	5483.95
762.622	3882.15
763.063	1107.45
