Data from 20171114-ORNL-Ar_H_NY_Subt18_08-08-05-560.txt Node
Date: Tue Nov 14 08:08:05 EST 2017
User: Ender
Spectrometer: HR+D1039
Trigger mode: 0
Integration Time (sec): 2.730000E-2
Scans to average: 10
Electric dark correction enabled: true
Nonlinearity correction enabled: false
Boxcar width: 0
XAxis mode: Wavelengths
Number of Pixels in Spectrum: 2048
>>>>>Begin Spectral Data<<<<<
187.836	-4.84
188.309	-4.84
188.782	-4.84
189.255	2.86
189.728	-2.74
190.201	2.56
190.674	3.36
191.147	3.76
191.619	-12.24
192.092	3.66
192.565	7.16
193.038	-2.54
193.511	-0.04
193.984	-1.44
194.456	-1.24
194.929	-0.84
195.402	-1.14
195.874	3.76
196.347	-3.54
196.82	-9.54
197.292	10.06
197.765	-3.24
198.237	-5.44
198.71	5.26
199.182	-1.84
199.655	3.66
200.127	2.26
200.6	-1.04
201.072	-8.84
201.544	-6.64
202.017	-2.94
202.489	0.26
202.961	-2.94
203.433	-3.64
203.906	-2.94
204.378	-7.94
204.85	-4.04
205.322	-10.64
205.794	-1.94
206.266	-4.04
206.739	-7.54
207.211	0.86
207.683	-9.54
208.155	-1.94
208.627	-9.54
209.099	-4.04
209.57	-8.64
210.042	-5.84
210.514	-6.94
210.986	-2.24
211.458	-7.04
211.93	0.96
212.402	-0.64
212.873	-8.74
213.345	-6.94
213.817	-14.24
214.288	-6.34
214.76	-9.54
215.232	-5.54
215.703	-3.04
216.175	-3.54
216.646	-2.04
217.118	-10.54
217.589	-2.54
218.061	1.86
218.532	-5.74
219.004	-3.14
219.475	-4.14
219.946	1.16
220.418	-5.74
220.889	3.66
221.36	-4.54
221.832	-3.24
222.303	-9.04
222.774	-1.54
223.245	-7.64
223.717	-5.54
224.188	-4.34
224.659	-5.44
225.13	-5.74
225.601	-2.04
226.072	-6.44
226.543	-2.74
227.014	-3.24
227.485	4.06
227.956	-11.84
228.427	-4.74
228.898	-6.14
229.369	-1.84
229.839	-1.24
230.31	-8.54
230.781	-6.04
231.252	-1.44
231.722	-7.54
232.193	-2.64
232.664	-1.44
233.135	1.26
233.605	-2.54
234.076	-5.64
234.546	2.96
235.017	4.06
235.487	-0.14
235.958	0.16
236.428	-4.44
236.899	6.66
237.369	7.56
237.84	-0.04
238.31	6.36
238.78	1.86
239.251	2.56
239.721	-2.74
240.191	-5.54
240.662	-4.54
241.132	0.26
241.602	0.86
242.072	3.56
242.542	1.76
243.013	-0.64
243.483	1.56
243.953	1.26
244.423	-1.84
244.893	-2.14
245.363	-0.74
245.833	4.76
246.303	-0.54
246.773	5.26
247.243	2.56
247.712	-0.74
248.182	8.56
248.652	4.96
249.122	-5.44
249.592	11.46
250.061	20.46
250.531	26.26
251.001	15.06
251.471	23.36
251.94	23.16
252.41	8.06
252.879	-3.54
253.349	10.96
253.818	10.56
254.288	6.36
254.757	4.46
255.227	-0.94
255.696	5.26
256.166	6.76
256.635	6.76
257.105	12.76
257.574	-1.14
258.043	10.46
258.513	8.46
258.982	14.36
259.451	7.36
259.92	11.46
260.389	17.26
260.859	15.46
261.328	9.36
261.797	14.36
262.266	12.46
262.735	12.76
263.204	6.46
263.673	3.96
264.142	6.46
264.611	-2.74
265.08	0.36
265.549	-1.74
266.018	7.66
266.487	1.26
266.955	-1.64
267.424	2.46
267.893	2.56
268.362	3.76
268.83	4.36
269.299	9.16
269.768	8.06
270.236	3.16
270.705	0.26
271.174	6.46
271.642	6.96
272.111	8.56
272.579	10.06
273.048	21.16
273.516	22.76
273.985	26.76
274.453	22.46
274.922	12.76
275.39	9.76
275.858	5.06
276.327	13.06
276.795	14.26
277.263	10.26
277.731	29.16
278.2	49.86
278.668	59.06
279.136	46.76
279.604	20.86
280.072	13.66
280.54	3.96
281.008	8.06
281.477	16.06
281.945	11.06
282.413	14.96
282.881	11.66
283.348	4.76
283.816	8.86
284.284	14.36
284.752	19.46
285.22	12.06
285.688	14.56
286.156	17.86
286.623	48.26
287.091	50.86
287.559	25.36
288.026	14.86
288.494	11.16
288.962	5.66
289.429	8.36
289.897	14.96
290.364	18.06
290.832	12.56
291.3	11.56
291.767	14.36
292.234	17.26
292.702	14.26
293.169	14.96
293.637	20.66
294.104	16.16
294.571	5.66
295.039	9.36
295.506	13.16
295.973	13.26
296.44	7.16
296.908	17.96
297.375	16.36
297.842	16.56
298.309	20.76
298.776	17.56
299.243	21.56
299.71	7.96
300.177	20.96
300.644	24.46
301.111	13.76
301.578	20.26
302.045	15.96
302.512	21.16
302.979	26.96
303.446	25.86
303.913	20.56
304.379	19.56
304.846	29.16
305.313	24.96
305.78	19.06
306.246	26.96
306.713	16.16
307.18	26.56
307.646	25.36
308.113	28.56
308.579	24.06
309.046	28.66
309.512	25.96
309.979	23.76
310.445	28.86
310.912	29.06
311.378	28.86
311.845	23.06
312.311	32.46
312.777	33.46
313.244	27.76
313.71	31.66
314.176	29.86
314.642	27.36
315.109	32.16
315.575	43.06
316.041	36.86
316.507	29.16
316.973	39.06
317.439	29.56
317.905	33.16
318.371	38.36
318.837	27.46
319.303	32.76
319.769	34.56
320.235	30.66
320.701	36.06
321.167	33.06
321.633	34.76
322.099	37.56
322.564	45.36
323.03	43.16
323.496	33.76
323.962	41.16
324.427	37.16
324.893	36.56
325.359	38.76
325.824	32.46
326.29	38.36
326.755	40.96
327.221	38.86
327.686	34.26
328.152	46.26
328.617	40.16
329.083	43.66
329.548	48.96
330.014	43.76
330.479	40.06
330.944	42.36
331.41	43.46
331.875	46.56
332.34	43.26
332.805	40.66
333.271	47.96
333.736	45.86
334.201	53.86
334.666	45.56
335.131	48.06
335.596	50.16
336.061	42.36
336.526	43.36
336.991	47.26
337.456	54.76
337.921	45.16
338.386	40.56
338.851	42.46
339.316	49.96
339.781	49.86
340.246	54.16
340.711	41.46
341.175	50.66
341.64	42.06
342.105	52.76
342.569	54.06
343.034	61.96
343.499	51.06
343.963	49.26
344.428	63.26
344.893	61.56
345.357	59.56
345.822	58.26
346.286	62.36
346.751	78.66
347.215	69.16
347.679	73.86
348.144	97.36
348.608	82.46
349.073	71.56
349.537	68.56
350.001	75.86
350.465	90.96
350.93	79.96
351.394	78.96
351.858	69.66
352.322	84.26
352.786	81.26
353.25	97.06
353.715	118.46
354.179	97.76
354.643	127.06
355.107	122.66
355.571	110.56
356.035	108.56
356.498	124.66
356.962	119.76
357.426	128.96
357.89	114.56
358.354	95.96
358.818	73.66
359.281	84.06
359.745	73.86
360.209	80.26
360.673	77.86
361.136	76.16
361.6	85.66
362.064	76.46
362.527	86.66
362.991	91.26
363.454	82.86
363.918	80.56
364.381	80.16
364.845	82.96
365.308	86.16
365.772	81.06
366.235	89.56
366.698	84.66
367.162	85.66
367.625	89.86
368.088	86.16
368.552	89.36
369.015	86.46
369.478	101.16
369.941	107.96
370.404	96.16
370.867	105.36
371.331	109.86
371.794	122.46
372.257	113.06
372.72	122.96
373.183	109.36
373.646	107.26
374.109	101.16
374.572	104.26
375.035	113.06
375.497	114.16
375.96	106.96
376.423	108.86
376.886	112.16
377.349	110.36
377.811	110.16
378.274	115.26
378.737	114.36
379.199	116.16
379.662	118.56
380.125	119.96
380.587	121.16
381.05	116.96
381.512	131.06
381.975	130.36
382.437	133.76
382.9	126.76
383.362	134.86
383.825	149.26
384.287	149.06
384.75	143.96
385.212	150.16
385.674	143.76
386.136	142.96
386.599	129.76
387.061	131.36
387.523	132.96
387.985	143.96
388.447	150.46
388.91	145.36
389.372	167.16
389.834	159.46
390.296	152.36
390.758	155.36
391.22	174.66
391.682	216.16
392.144	302.46
392.606	243.56
393.068	164.96
393.529	167.36
393.991	159.06
394.453	152.76
394.915	164.86
395.377	199.76
395.838	216.56
396.3	160.86
396.762	140.16
397.224	135.16
397.685	131.66
398.147	139.26
398.608	139.86
399.07	136.06
399.531	144.66
399.993	142.26
400.454	163.26
400.916	151.36
401.377	149.46
401.839	159.66
402.3	158.76
402.762	170.26
403.223	187.26
403.684	171.76
404.145	165.96
404.607	166.26
405.068	172.56
405.529	174.66
405.99	192.26
406.451	176.96
406.913	174.66
407.374	165.46
407.835	166.96
408.296	161.86
408.757	175.06
409.218	188.96
409.679	183.56
410.14	189.86
410.601	185.26
411.062	187.86
411.522	204.36
411.983	196.96
412.444	173.86
412.905	189.16
413.366	180.06
413.826	197.26
414.287	220.96
414.748	260.66
415.208	246.86
415.669	214.26
416.13	210.26
416.59	203.26
417.051	218.96
417.511	222.66
417.972	242.26
418.432	251.76
418.893	289.66
419.353	254.36
419.814	205.46
420.274	196.26
420.734	183.46
421.195	203.46
421.655	203.06
422.115	196.96
422.576	194.36
423.036	206.46
423.496	211.36
423.956	218.66
424.416	234.36
424.876	265.96
425.336	267.96
425.797	271.36
426.257	261.76
426.717	244.76
427.177	240.76
427.637	223.56
428.097	244.16
428.556	253.26
429.016	275.56
429.476	271.76
429.936	284.76
430.396	288.46
430.856	300.36
431.315	330.46
431.775	356.56
432.235	399.76
432.694	363.56
433.154	370.96
433.614	415.86
434.073	346.86
434.533	296.76
434.993	274.46
435.452	289.76
435.912	301.36
436.371	298.16
436.83	290.36
437.29	281.26
437.749	259.16
438.209	246.46
438.668	273.76
439.127	302.56
439.587	270.66
440.046	247.26
440.505	260.96
440.964	285.56
441.424	331.06
441.883	320.46
442.342	261.96
442.801	230.36
443.26	220.86
443.719	227.96
444.178	225.86
444.637	213.66
445.096	225.66
445.555	223.96
446.014	230.96
446.473	232.06
446.932	241.16
447.391	235.26
447.849	237.86
448.308	226.96
448.767	231.66
449.226	240.86
449.685	245.26
450.143	254.26
450.602	244.26
451.061	230.56
451.519	235.36
451.978	238.26
452.436	237.36
452.895	242.86
453.353	257.76
453.812	248.56
454.27	246.76
454.729	243.26
455.187	246.26
455.646	250.36
456.104	246.66
456.562	269.46
457.021	267.26
457.479	266.36
457.937	271.66
458.395	262.06
458.854	247.56
459.312	264.66
459.77	279.76
460.228	259.96
460.686	252.36
461.144	255.66
461.602	253.56
462.06	247.36
462.518	259.26
462.976	262.56
463.434	267.56
463.892	265.76
464.35	280.16
464.808	293.86
465.266	273.96
465.724	267.46
466.181	275.26
466.639	274.76
467.097	296.36
467.555	303.66
468.012	309.56
468.47	311.16
468.928	339.96
469.385	349.56
469.843	358.66
470.3	355.76
470.758	362.86
471.215	394.56
471.673	414.46
472.13	419.46
472.588	430.56
473.045	383.46
473.503	390.16
473.96	404.66
474.417	409.06
474.875	431.86
475.332	485.36
475.789	464.76
476.246	473.86
476.704	501.76
477.161	514.26
477.618	537.26
478.075	576.86
478.532	636.16
478.989	713.56
479.446	819.56
479.903	791.76
480.36	828.16
480.817	875.46
481.274	976.86
481.731	1083.16
482.188	1176.46
482.645	1318.46
483.102	1421.96
483.558	1566.56
484.015	1619.66
484.472	1584.06
484.929	1552.16
485.385	1498.06
485.842	1449.96
486.299	1366.96
486.755	1321.16
487.212	1113.26
487.668	943.96
488.125	858.26
488.582	787.46
489.038	754.56
489.494	724.46
489.951	692.56
490.407	676.86
490.864	656.76
491.32	658.26
491.776	644.26
492.233	662.06
492.689	617.06
493.145	618.76
493.602	603.46
494.058	628.16
494.514	633.56
494.97	645.26
495.426	656.76
495.882	627.26
496.338	622.56
496.794	617.56
497.251	622.16
497.707	636.36
498.163	632.66
498.618	643.36
499.074	660.16
499.53	684.16
499.986	683.96
500.442	654.06
500.898	641.76
501.354	636.36
501.809	640.66
502.265	654.56
502.721	670.66
503.177	681.06
503.632	670.66
504.088	686.76
504.543	721.26
504.999	720.16
505.455	669.56
505.91	644.96
506.366	633.76
506.821	634.46
507.277	629.76
507.732	632.96
508.187	631.96
508.643	637.96
509.098	642.16
509.553	659.06
510.009	670.96
510.464	665.16
510.919	691.66
511.375	705.66
511.83	710.26
512.285	719.56
512.74	764.66
513.195	790.96
513.65	773.26
514.105	759.46
514.56	779.16
515.015	795.46
515.47	804.66
515.925	799.86
516.38	786.26
516.835	800.26
517.29	788.96
517.745	779.56
518.2	762.36
518.655	748.26
519.109	745.36
519.564	739.66
520.019	730.96
520.474	725.36
520.928	728.56
521.383	718.36
521.838	723.46
522.292	717.66
522.747	725.26
523.201	712.36
523.656	701.26
524.11	701.96
524.565	702.66
525.019	695.96
525.474	698.16
525.928	709.46
526.382	687.76
526.837	696.56
527.291	698.06
527.745	700.96
528.2	694.76
528.654	695.76
529.108	685.76
529.562	706.86
530.016	697.66
530.47	700.36
530.925	697.26
531.379	697.06
531.833	702.46
532.287	702.36
532.741	702.66
533.195	699.26
533.649	718.06
534.103	723.86
534.556	718.86
535.01	712.36
535.464	716.56
535.918	721.26
536.372	724.96
536.826	717.36
537.279	713.46
537.733	714.96
538.187	726.66
538.64	721.16
539.094	726.96
539.548	739.16
540.001	719.86
540.455	728.36
540.908	726.66
541.362	748.06
541.815	750.16
542.269	760.46
542.722	757.16
543.175	781.26
543.629	776.46
544.082	792.66
544.536	794.76
544.989	790.06
545.442	801.36
545.895	794.36
546.349	795.16
546.802	796.26
547.255	794.76
547.708	812.76
548.161	819.96
548.614	836.46
549.067	841.46
549.52	825.96
549.973	817.16
550.426	807.66
550.879	796.16
551.332	803.26
551.785	805.46
552.238	809.56
552.691	827.16
553.144	835.16
553.596	862.26
554.049	868.46
554.502	901.36
554.955	908.16
555.407	917.76
555.86	893.96
556.313	897.46
556.765	880.56
557.218	892.86
557.67	889.96
558.123	886.56
558.576	879.26
559.028	882.56
559.48	877.26
559.933	884.36
560.385	854.56
560.838	818.96
561.29	784.36
561.742	791.36
562.195	777.26
562.647	766.36
563.099	791.46
563.551	780.26
564.004	795.26
564.456	780.96
564.908	773.26
565.36	764.26
565.812	743.96
566.264	741.76
566.716	739.26
567.168	724.96
567.62	726.66
568.072	710.66
568.524	697.46
568.976	698.76
569.428	691.66
569.88	683.96
570.332	690.36
570.784	688.16
571.235	692.56
571.687	691.26
572.139	705.06
572.59	724.46
573.042	714.56
573.494	715.76
573.945	716.76
574.397	688.06
574.849	695.16
575.3	703.56
575.752	683.66
576.203	684.96
576.655	690.86
577.106	680.66
577.557	669.06
578.009	672.76
578.46	667.96
578.912	669.06
579.363	663.26
579.814	671.06
580.265	675.06
580.717	671.56
581.168	677.06
581.619	683.56
582.07	688.96
582.521	689.26
582.972	688.46
583.423	687.06
583.875	686.26
584.326	712.96
584.777	758.86
585.227	849.56
585.678	945.46
586.129	1032.76
586.58	1108.06
587.031	1175.66
587.482	1349.06
587.933	1526.26
588.384	1333.66
588.834	994.86
589.285	821.96
589.736	790.66
590.186	790.36
590.637	778.46
591.088	753.56
591.538	744.16
591.989	746.16
592.439	734.36
592.89	736.26
593.34	715.16
593.791	714.66
594.241	720.16
594.692	719.06
595.142	711.86
595.593	707.46
596.043	714.66
596.493	715.06
596.943	726.96
597.394	732.36
597.844	732.06
598.294	752.46
598.744	768.46
599.195	785.36
599.645	821.96
600.095	867.76
600.545	931.66
600.995	983.66
601.445	1034.16
601.895	1101.36
602.345	1146.26
602.795	1120.76
603.245	1069.96
603.695	1018.86
604.145	973.96
604.594	914.36
605.044	868.26
605.494	810.06
605.944	757.66
606.393	752.96
606.843	739.56
607.293	746.86
607.743	738.56
608.192	751.16
608.642	766.66
609.091	776.16
609.541	794.26
609.99	776.06
610.44	779.76
610.889	734.36
611.339	717.16
611.788	697.16
612.238	705.76
612.687	734.46
613.136	733.26
613.586	743.56
614.035	750.06
614.484	768.36
614.933	772.66
615.383	762.26
615.832	751.96
616.281	734.96
616.73	697.26
617.179	676.76
617.628	660.46
618.077	651.96
618.526	639.86
618.975	629.86
619.424	625.06
619.873	625.56
620.322	627.46
620.771	609.06
621.22	607.06
621.669	601.56
622.118	600.66
622.567	583.06
623.015	575.26
623.464	568.66
623.913	569.26
624.361	560.46
624.81	560.46
625.259	563.86
625.707	568.06
626.156	568.56
626.604	575.26
627.053	568.26
627.501	577.46
627.95	583.96
628.398	577.96
628.847	571.36
629.295	582.26
629.744	586.86
630.192	578.86
630.64	576.96
631.089	581.56
631.537	594.46
631.985	598.06
632.433	620.86
632.881	629.06
633.33	679.66
633.778	659.36
634.226	579.86
634.674	581.46
635.122	597.46
635.57	611.86
636.018	647.76
636.466	587.26
636.914	567.36
637.362	579.56
637.81	584.26
638.258	585.16
638.705	586.46
639.153	617.66
639.601	626.86
640.049	648.46
640.497	687.06
640.944	703.56
641.392	651.26
641.84	619.26
642.287	586.36
642.735	580.16
643.182	578.56
643.63	574.06
644.078	584.26
644.525	589.66
644.973	601.06
645.42	614.86
645.867	632.56
646.315	643.36
646.762	670.66
647.21	702.66
647.657	721.96
648.104	764.56
648.551	785.56
648.999	859.06
649.446	931.46
649.893	1022.06
650.34	1185.96
650.787	1422.46
651.234	1774.06
651.682	2331.16
652.129	3219.46
652.576	4617.66
653.023	6786.26
653.47	9303.86
653.917	11549.56
654.363	13220.16
654.81	14507.36
655.257	13818.56
655.704	9066.26
656.151	5336.46
656.598	3452.56
657.044	2454.66
657.491	1892.36
657.938	1507.36
658.385	1265.06
658.831	1089.76
659.278	979.16
659.724	874.86
660.171	800.76
660.618	730.26
661.064	698.26
661.511	685.96
661.957	658.66
662.404	653.46
662.85	660.46
663.296	632.26
663.743	574.16
664.189	544.86
664.635	538.16
665.082	534.26
665.528	538.46
665.974	524.36
666.42	513.96
666.867	519.66
667.313	493.46
667.759	491.86
668.205	493.46
668.651	490.36
669.097	497.96
669.543	516.76
669.989	470.76
670.435	457.06
670.881	450.26
671.327	457.76
671.773	479.16
672.219	493.56
672.665	555.96
673.11	608.26
673.556	636.16
674.002	681.36
674.448	657.16
674.893	549.66
675.339	484.86
675.785	445.66
676.23	421.06
676.676	400.26
677.122	388.96
677.567	373.96
678.013	370.06
678.458	361.66
678.904	371.26
679.349	354.06
679.794	367.46
680.24	362.36
680.685	361.66
681.131	353.86
681.576	354.36
682.021	361.06
682.466	351.46
682.912	352.76
683.357	354.76
683.802	388.26
684.247	421.56
684.692	456.26
685.137	492.46
685.583	541.56
686.028	556.56
686.473	520.56
686.918	448.66
687.363	418.76
687.807	400.16
688.252	364.96
688.697	351.76
689.142	343.76
689.587	338.66
690.032	330.46
690.477	342.76
690.921	359.46
691.366	391.76
691.811	404.86
692.255	432.76
692.7	472.46
693.145	512.46
693.589	725.26
694.034	1159.76
694.478	1569.56
694.923	1725.26
695.367	2254.16
695.812	1194.36
696.256	500.36
696.701	366.86
697.145	343.96
697.59	328.66
698.034	323.86
698.478	331.96
698.922	325.86
699.367	329.86
699.811	337.26
700.255	372.46
700.699	393.96
701.143	433.96
701.588	485.36
702.032	516.46
702.476	518.26
702.92	496.66
703.364	508.66
703.808	665.36
704.252	1078.06
704.696	1490.26
705.14	1679.76
705.584	2126.76
706.027	1065.16
706.471	526.26
706.915	398.66
707.359	358.96
707.803	328.46
708.246	318.06
708.69	316.96
709.134	318.36
709.577	319.16
710.021	328.26
710.465	314.46
710.908	298.76
711.352	306.86
711.795	312.66
712.239	365.76
712.682	383.36
713.126	429.96
713.569	476.06
714.012	375.46
714.456	328.96
714.899	302.86
715.342	281.16
715.786	261.56
716.229	258.46
716.672	260.86
717.115	249.36
717.558	251.96
718.002	259.36
718.445	260.86
718.888	293.46
719.331	297.86
719.774	313.16
720.217	307.86
720.66	281.66
721.103	272.46
721.546	261.66
721.989	249.76
722.432	234.26
722.874	238.86
723.317	234.86
723.76	240.06
724.203	262.76
724.645	326.06
725.088	455.46
725.531	572.86
725.974	638.86
726.416	558.56
726.859	308.36
727.301	252.76
727.744	244.06
728.187	239.76
728.629	238.86
729.071	241.96
729.514	271.16
729.956	271.26
730.399	289.06
730.841	296.06
731.283	281.26
731.726	264.16
732.168	260.16
732.61	273.26
733.053	288.66
733.495	318.86
733.937	355.66
734.379	399.16
734.821	438.86
735.263	556.66
735.705	862.96
736.148	1639.56
736.59	2616.26
737.032	3029.96
737.474	2455.36
737.916	816.26
738.357	430.16
738.799	332.76
739.241	305.26
739.683	287.16
740.125	300.96
740.567	298.86
741.008	317.46
741.45	316.76
741.892	321.26
742.334	347.06
742.775	363.16
743.217	343.66
743.658	268.46
744.1	257.16
744.542	257.76
744.983	316.06
745.425	341.56
745.866	338.66
746.307	289.86
746.749	287.26
747.19	324.96
747.632	474.96
748.073	928.66
748.514	1927.86
748.956	2877.76
749.397	3627.36
749.838	2979.26
750.279	2944.56
750.72	1495.26
751.162	553.66
751.603	323.66
752.044	254.76
752.485	221.26
752.926	214.26
753.367	209.26
753.808	191.76
754.249	189.96
754.69	191.16
755.131	186.76
755.572	185.36
756.013	178.76
756.453	188.96
756.894	188.06
757.335	184.96
757.776	200.06
758.216	203.86
758.657	205.26
759.098	201.46
759.538	232.26
759.979	276.06
760.42	385.86
760.86	732.26
761.301	1912.46
761.741	4536.96
762.182	6375.86
