Data from 20171114-ORNL-Ar_H_NY_Subt18_08-04-49-560.txt Node
Date: Tue Nov 14 08:04:49 EST 2017
User: Ender
Spectrometer: HR+D1039
Trigger mode: 0
Integration Time (sec): 2.730000E-2
Scans to average: 10
Electric dark correction enabled: true
Nonlinearity correction enabled: false
Boxcar width: 0
XAxis mode: Wavelengths
Number of Pixels in Spectrum: 2048
>>>>>Begin Spectral Data<<<<<
187.836	-2.88
188.309	-2.88
188.782	-2.88
189.255	-0.98
189.728	-2.28
190.201	2.42
190.674	4.32
191.147	1.52
191.619	-5.98
192.092	-1.78
192.565	6.82
193.038	4.82
193.511	-1.38
193.984	0.42
194.456	-1.28
194.929	0.92
195.402	-2.28
195.874	-2.48
196.347	-1.98
196.82	-7.18
197.292	0.82
197.765	-1.68
198.237	-3.48
198.71	-1.38
199.182	-2.18
199.655	-4.58
200.127	4.22
200.6	-6.28
201.072	-3.28
201.544	-2.28
202.017	0.42
202.489	6.22
202.961	-3.38
203.433	0.72
203.906	-14.58
204.378	-1.88
204.85	-2.88
205.322	-8.78
205.794	-4.88
206.266	-0.58
206.739	-13.68
207.211	0.62
207.683	-5.58
208.155	-4.28
208.627	-7.18
209.099	-8.48
209.57	-6.58
210.042	-8.58
210.514	0.62
210.986	-0.38
211.458	-10.98
211.93	-4.58
212.402	0.12
212.873	-8.68
213.345	-13.68
213.817	-10.48
214.288	-6.98
214.76	-9.28
215.232	-3.68
215.703	-7.28
216.175	-2.38
216.646	-6.08
217.118	-11.78
217.589	-3.78
218.061	-2.08
218.532	-4.38
219.004	1.32
219.475	-7.28
219.946	-4.38
220.418	-5.08
220.889	-2.28
221.36	2.82
221.832	-2.88
222.303	-8.38
222.774	-5.68
223.245	-4.98
223.717	-10.68
224.188	-6.18
224.659	-7.68
225.13	-13.08
225.601	-3.18
226.072	0.02
226.543	-5.88
227.014	-0.98
227.485	2.72
227.956	-9.88
228.427	-4.08
228.898	6.22
229.369	-0.28
229.839	-8.38
230.31	-3.28
230.781	6.62
231.252	-11.58
231.722	-3.38
232.193	-4.58
232.664	-5.28
233.135	-1.78
233.605	-2.38
234.076	-6.88
234.546	-3.28
235.017	5.02
235.487	4.82
235.958	2.02
236.428	-3.88
236.899	2.02
237.369	0.02
237.84	-3.58
238.31	9.42
238.78	1.52
239.251	4.92
239.721	3.12
240.191	-1.38
240.662	-6.38
241.132	0.52
241.602	2.72
242.072	-1.48
242.542	4.12
243.013	-2.98
243.483	2.82
243.953	2.32
244.423	0.22
244.893	-10.08
245.363	3.22
245.833	4.52
246.303	-1.48
246.773	7.52
247.243	3.42
247.712	2.62
248.182	10.42
248.652	7.62
249.122	3.42
249.592	11.42
250.061	19.12
250.531	32.52
251.001	14.82
251.471	21.02
251.94	19.62
252.41	11.02
252.879	4.22
253.349	14.42
253.818	5.72
254.288	4.92
254.757	3.82
255.227	11.02
255.696	6.42
256.166	7.62
256.635	6.72
257.105	7.32
257.574	5.82
258.043	7.12
258.513	12.42
258.982	17.32
259.451	6.52
259.92	14.62
260.389	12.62
260.859	19.42
261.328	12.12
261.797	22.02
262.266	16.32
262.735	6.82
263.204	4.62
263.673	1.42
264.142	7.82
264.611	-0.08
265.08	0.22
265.549	7.22
266.018	5.62
266.487	-2.38
266.955	3.92
267.424	-0.28
267.893	5.52
268.362	4.22
268.83	2.22
269.299	7.12
269.768	-3.68
270.236	5.62
270.705	5.22
271.174	8.92
271.642	12.22
272.111	14.32
272.579	21.92
273.048	23.62
273.516	28.52
273.985	28.92
274.453	22.72
274.922	18.02
275.39	12.12
275.858	6.52
276.327	12.12
276.795	20.52
277.263	16.62
277.731	28.32
278.2	54.32
278.668	58.22
279.136	48.72
279.604	25.32
280.072	21.42
280.54	10.02
281.008	13.12
281.477	13.52
281.945	8.02
282.413	17.82
282.881	17.82
283.348	13.92
283.816	15.42
284.284	10.92
284.752	19.32
285.22	14.32
285.688	17.12
286.156	21.42
286.623	49.22
287.091	53.02
287.559	24.82
288.026	17.52
288.494	24.52
288.962	11.02
289.429	11.12
289.897	21.62
290.364	19.52
290.832	19.12
291.3	18.02
291.767	20.42
292.234	23.62
292.702	16.02
293.169	19.82
293.637	26.72
294.104	21.72
294.571	9.32
295.039	10.42
295.506	23.32
295.973	19.82
296.44	12.72
296.908	24.62
297.375	19.82
297.842	23.42
298.309	19.72
298.776	16.32
299.243	23.02
299.71	14.42
300.177	19.12
300.644	21.52
301.111	18.92
301.578	26.82
302.045	14.92
302.512	27.12
302.979	25.52
303.446	22.52
303.913	15.52
304.379	22.02
304.846	30.12
305.313	23.82
305.78	22.52
306.246	29.32
306.713	26.42
307.18	23.32
307.646	27.42
308.113	37.82
308.579	27.72
309.046	22.72
309.512	22.32
309.979	14.32
310.445	31.12
310.912	22.82
311.378	27.22
311.845	28.82
312.311	28.82
312.777	37.42
313.244	31.12
313.71	43.02
314.176	29.52
314.642	35.02
315.109	29.62
315.575	35.52
316.041	38.92
316.507	38.22
316.973	38.42
317.439	32.02
317.905	32.02
318.371	34.82
318.837	35.72
319.303	36.02
319.769	35.72
320.235	39.52
320.701	35.52
321.167	42.32
321.633	35.92
322.099	39.32
322.564	44.52
323.03	45.42
323.496	40.12
323.962	44.62
324.427	36.22
324.893	41.72
325.359	36.62
325.824	32.92
326.29	31.32
326.755	42.52
327.221	39.32
327.686	42.12
328.152	46.02
328.617	40.22
329.083	45.22
329.548	50.62
330.014	47.02
330.479	43.42
330.944	40.22
331.41	38.92
331.875	44.02
332.34	43.72
332.805	47.72
333.271	49.52
333.736	42.92
334.201	48.42
334.666	52.02
335.131	53.62
335.596	48.82
336.061	53.62
336.526	44.72
336.991	53.62
337.456	55.32
337.921	49.52
338.386	46.72
338.851	49.72
339.316	40.62
339.781	45.52
340.246	54.62
340.711	43.42
341.175	50.52
341.64	43.92
342.105	52.92
342.569	50.82
343.034	58.72
343.499	47.92
343.963	52.92
344.428	69.12
344.893	58.42
345.357	65.02
345.822	59.42
346.286	67.52
346.751	75.52
347.215	66.52
347.679	65.82
348.144	96.52
348.608	84.32
349.073	68.32
349.537	70.82
350.001	80.12
350.465	88.62
350.93	84.32
351.394	83.62
351.858	76.12
352.322	87.12
352.786	84.42
353.25	98.32
353.715	107.82
354.179	102.52
354.643	118.22
355.107	121.42
355.571	105.02
356.035	102.02
356.498	114.12
356.962	124.12
357.426	129.62
357.89	112.52
358.354	85.82
358.818	81.02
359.281	73.92
359.745	77.12
360.209	76.92
360.673	76.82
361.136	75.32
361.6	78.72
362.064	83.12
362.527	81.32
362.991	87.42
363.454	79.52
363.918	75.32
364.381	76.42
364.845	80.92
365.308	86.82
365.772	84.02
366.235	81.02
366.698	77.62
367.162	86.02
367.625	86.22
368.088	78.82
368.552	92.02
369.015	86.12
369.478	97.92
369.941	99.02
370.404	91.72
370.867	102.72
371.331	104.82
371.794	109.62
372.257	107.42
372.72	116.02
373.183	107.42
373.646	105.82
374.109	99.32
374.572	109.02
375.035	110.52
375.497	106.22
375.96	100.12
376.423	105.32
376.886	112.32
377.349	107.42
377.811	98.12
378.274	101.82
378.737	99.92
379.199	106.72
379.662	108.82
380.125	110.72
380.587	115.12
381.05	117.12
381.512	119.82
381.975	125.32
382.437	120.22
382.9	115.72
383.362	123.32
383.825	135.82
384.287	137.42
384.75	131.52
385.212	137.22
385.674	136.72
386.136	126.82
386.599	111.52
387.061	126.52
387.523	129.52
387.985	126.82
388.447	139.32
388.91	136.72
389.372	155.02
389.834	144.92
390.296	139.62
390.758	149.62
391.22	162.62
391.682	200.02
392.144	277.92
392.606	217.02
393.068	156.82
393.529	158.52
393.991	144.82
394.453	145.72
394.915	149.02
395.377	183.02
395.838	197.62
396.3	140.92
396.762	135.02
397.224	129.72
397.685	122.62
398.147	125.12
398.608	120.22
399.07	123.92
399.531	126.02
399.993	132.42
400.454	145.52
400.916	137.02
401.377	138.32
401.839	146.32
402.3	150.22
402.762	154.32
403.223	163.92
403.684	167.82
404.145	151.52
404.607	144.72
405.068	148.92
405.529	165.02
405.99	184.32
406.451	169.62
406.913	166.42
407.374	157.12
407.835	150.32
408.296	155.32
408.757	160.72
409.218	178.12
409.679	167.52
410.14	163.82
410.601	168.52
411.062	173.22
411.522	178.72
411.983	171.12
412.444	165.02
412.905	170.02
413.366	177.42
413.826	180.82
414.287	204.42
414.748	244.92
415.208	229.22
415.669	194.12
416.13	194.12
416.59	188.22
417.051	196.62
417.511	204.12
417.972	223.22
418.432	231.52
418.893	272.12
419.353	236.22
419.814	181.32
420.274	167.92
420.734	168.82
421.195	186.52
421.655	179.42
422.115	178.02
422.576	178.32
423.036	192.92
423.496	197.32
423.956	201.82
424.416	216.02
424.876	251.62
425.336	237.62
425.797	243.92
426.257	242.42
426.717	224.52
427.177	221.12
427.637	208.72
428.097	220.12
428.556	233.92
429.016	255.22
429.476	249.22
429.936	266.02
430.396	256.72
430.856	278.22
431.315	299.22
431.775	328.22
432.235	356.22
432.694	330.12
433.154	341.82
433.614	360.92
434.073	319.02
434.533	271.92
434.993	261.32
435.452	266.82
435.912	279.72
436.371	271.72
436.83	263.22
437.29	245.62
437.749	232.82
438.209	232.42
438.668	261.32
439.127	276.12
439.587	248.12
440.046	233.12
440.505	248.12
440.964	251.32
441.424	300.62
441.883	288.22
442.342	241.32
442.801	210.82
443.26	213.52
443.719	210.52
444.178	205.32
444.637	198.32
445.096	204.62
445.555	209.92
446.014	209.02
446.473	213.62
446.932	221.72
447.391	212.72
447.849	217.12
448.308	201.82
448.767	215.62
449.226	219.22
449.685	222.72
450.143	233.22
450.602	218.12
451.061	212.62
451.519	218.12
451.978	218.92
452.436	220.62
452.895	226.12
453.353	236.42
453.812	219.72
454.27	227.42
454.729	225.32
455.187	225.52
455.646	227.92
456.104	233.52
456.562	244.42
457.021	251.22
457.479	241.12
457.937	255.52
458.395	247.62
458.854	231.12
459.312	236.22
459.77	258.52
460.228	235.32
460.686	224.92
461.144	239.22
461.602	228.32
462.06	225.62
462.518	233.72
462.976	234.22
463.434	242.62
463.892	253.32
464.35	264.02
464.808	273.52
465.266	248.32
465.724	248.02
466.181	262.82
466.639	256.12
467.097	276.92
467.555	290.62
468.012	283.92
468.47	288.82
468.928	307.92
469.385	318.22
469.843	323.32
470.3	331.12
470.758	347.02
471.215	364.12
471.673	375.12
472.13	376.62
472.588	390.72
473.045	353.82
473.503	345.12
473.96	371.72
474.417	384.12
474.875	409.12
475.332	443.52
475.789	435.72
476.246	446.02
476.704	451.22
477.161	477.02
477.618	492.52
478.075	526.72
478.532	578.82
478.989	651.12
479.446	754.72
479.903	732.32
480.36	764.42
480.817	822.32
481.274	922.42
481.731	1022.82
482.188	1110.53
482.645	1231.32
483.102	1354.32
483.558	1470.42
484.015	1524.32
484.472	1495.22
484.929	1468.12
485.385	1412.62
485.842	1378.22
486.299	1284.72
486.755	1241.72
487.212	1037.22
487.668	880.62
488.125	809.32
488.582	734.92
489.038	710.22
489.494	678.12
489.951	663.82
490.407	642.12
490.864	614.52
491.32	615.82
491.776	596.82
492.233	613.62
492.689	578.42
493.145	563.52
493.602	565.22
494.058	577.72
494.514	582.52
494.97	601.82
495.426	615.72
495.882	597.12
496.338	578.72
496.794	589.02
497.251	592.22
497.707	599.92
498.163	604.92
498.618	607.02
499.074	606.92
499.53	636.92
499.986	646.42
500.442	610.72
500.898	596.32
501.354	588.42
501.809	596.12
502.265	602.52
502.721	622.92
503.177	633.72
503.632	619.52
504.088	633.92
504.543	665.42
504.999	668.12
505.455	627.42
505.91	596.72
506.366	599.82
506.821	596.52
507.277	581.32
507.732	581.22
508.187	584.12
508.643	594.02
509.098	597.32
509.553	618.02
510.009	622.72
510.464	624.32
510.919	644.62
511.375	650.82
511.83	662.52
512.285	680.32
512.74	720.92
513.195	746.42
513.65	729.92
514.105	722.92
514.56	736.32
515.015	743.92
515.47	757.52
515.925	742.32
516.38	741.22
516.835	756.82
517.29	739.12
517.745	723.62
518.2	717.12
518.655	700.62
519.109	705.12
519.564	699.72
520.019	690.92
520.474	678.02
520.928	680.22
521.383	680.02
521.838	669.92
522.292	667.02
522.747	663.32
523.201	666.12
523.656	644.32
524.11	647.52
524.565	644.62
525.019	647.92
525.474	654.72
525.928	667.92
526.382	651.22
526.837	652.62
527.291	669.02
527.745	656.72
528.2	661.82
528.654	652.52
529.108	640.02
529.562	657.72
530.016	649.12
530.47	654.22
530.925	655.42
531.379	659.12
531.833	655.02
532.287	657.22
532.741	655.62
533.195	664.92
533.649	675.82
534.103	679.42
534.556	670.12
535.01	681.52
535.464	678.42
535.918	671.72
536.372	680.22
536.826	683.32
537.279	665.82
537.733	667.12
538.187	660.02
538.64	669.42
539.094	679.12
539.548	677.12
540.001	682.52
540.455	683.82
540.908	684.72
541.362	692.12
541.815	695.22
542.269	697.62
542.722	706.52
543.175	712.62
543.629	718.02
544.082	727.12
544.536	735.82
544.989	740.22
545.442	734.92
545.895	734.32
546.349	735.42
546.802	736.62
547.255	738.62
547.708	740.52
548.161	746.32
548.614	764.72
549.067	774.92
549.52	761.62
549.973	747.62
550.426	752.92
550.879	736.42
551.332	740.82
551.785	750.12
552.238	741.22
552.691	764.52
553.144	767.62
553.596	790.52
554.049	797.42
554.502	827.02
554.955	846.92
555.407	850.02
555.86	845.92
556.313	833.42
556.765	814.22
557.218	829.32
557.67	820.32
558.123	815.02
558.576	807.82
559.028	809.82
559.48	833.42
559.933	812.42
560.385	780.62
560.838	752.82
561.29	717.12
561.742	718.72
562.195	712.72
562.647	711.52
563.099	709.92
563.551	700.92
564.004	728.32
564.456	718.22
564.908	703.52
565.36	684.42
565.812	683.12
566.264	668.72
566.716	668.32
567.168	662.62
567.62	665.12
568.072	646.92
568.524	642.42
568.976	635.82
569.428	613.52
569.88	616.72
570.332	633.42
570.784	632.92
571.235	622.62
571.687	635.72
572.139	647.42
572.59	660.72
573.042	648.02
573.494	657.42
573.945	648.82
574.397	624.62
574.849	641.52
575.3	636.22
575.752	630.52
576.203	623.02
576.655	623.22
577.106	617.22
577.557	605.52
578.009	618.92
578.46	612.72
578.912	611.42
579.363	609.62
579.814	611.42
580.265	603.82
580.717	614.02
581.168	612.92
581.619	619.02
582.07	630.62
582.521	618.92
582.972	610.22
583.423	620.92
583.875	613.42
584.326	640.12
584.777	691.42
585.227	751.22
585.678	841.22
586.129	919.82
586.58	1002.72
587.031	1068.82
587.482	1216.62
587.933	1395.72
588.384	1214.42
588.834	889.62
589.285	728.82
589.736	713.72
590.186	703.12
590.637	694.52
591.088	683.42
591.538	670.42
591.989	662.62
592.439	664.42
592.89	655.72
593.34	642.22
593.791	647.92
594.241	646.42
594.692	632.72
595.142	637.72
595.593	629.72
596.043	635.92
596.493	642.52
596.943	650.82
597.394	659.62
597.844	645.52
598.294	656.42
598.744	681.42
599.195	698.42
599.645	738.72
600.095	771.22
600.545	833.32
600.995	874.92
601.445	927.82
601.895	987.52
602.345	1014.52
602.795	1001.32
603.245	963.12
603.695	924.32
604.145	866.32
604.594	825.32
605.044	778.72
605.494	721.82
605.944	671.52
606.393	663.42
606.843	663.62
607.293	655.72
607.743	652.12
608.192	669.02
608.642	682.82
609.091	688.02
609.541	694.82
609.99	690.42
610.44	695.82
610.889	646.62
611.339	633.02
611.788	607.62
612.238	626.62
612.687	650.62
613.136	652.52
613.586	672.82
614.035	666.62
614.484	683.62
614.933	670.32
615.383	671.02
615.832	658.72
616.281	655.62
616.73	614.62
617.179	591.22
617.628	584.42
618.077	565.02
618.526	563.92
618.975	542.62
619.424	555.52
619.873	552.82
620.322	543.22
620.771	530.82
621.22	539.92
621.669	538.22
622.118	524.12
622.567	511.22
623.015	505.62
623.464	511.42
623.913	493.12
624.361	486.02
624.81	484.92
625.259	482.22
625.707	492.42
626.156	489.82
626.604	508.22
627.053	492.12
627.501	505.82
627.95	506.12
628.398	521.52
628.847	508.62
629.295	511.82
629.744	509.12
630.192	506.32
630.64	497.72
631.089	502.22
631.537	505.72
631.985	512.52
632.433	530.22
632.881	538.32
633.33	582.32
633.778	562.92
634.226	499.22
634.674	502.52
635.122	513.62
635.57	522.92
636.018	550.52
636.466	505.52
636.914	496.42
637.362	516.42
637.81	510.52
638.258	510.42
638.705	509.22
639.153	534.42
639.601	544.82
640.049	567.42
640.497	589.12
640.944	622.12
641.392	569.12
641.84	534.22
642.287	519.02
642.735	500.62
643.182	499.92
643.63	497.52
644.078	505.32
644.525	514.62
644.973	527.92
645.42	532.62
645.867	548.02
646.315	553.42
646.762	583.52
647.21	617.12
647.657	625.92
648.104	665.22
648.551	683.72
648.999	741.52
649.446	803.42
649.893	883.42
650.34	1018.62
650.787	1217.43
651.234	1507.82
651.682	1960.12
652.129	2676.72
652.576	3851.62
653.023	5717.62
653.47	7900.93
653.917	9999.92
654.363	11683.33
654.81	13100.42
655.257	12432.42
655.704	8056.12
656.151	4742.43
656.598	3062.02
657.044	2174.92
657.491	1655.42
657.938	1320.42
658.385	1109.92
658.831	962.92
659.278	848.92
659.724	752.82
660.171	696.32
660.618	633.12
661.064	610.32
661.511	576.62
661.957	573.22
662.404	563.52
662.85	565.82
663.296	544.72
663.743	497.62
664.189	472.52
664.635	460.82
665.082	459.62
665.528	461.12
665.974	461.62
666.42	442.22
666.867	447.42
667.313	428.52
667.759	420.82
668.205	419.42
668.651	427.52
669.097	426.42
669.543	433.42
669.989	420.02
670.435	386.52
670.881	388.82
671.327	384.52
671.773	406.32
672.219	426.02
672.665	476.72
673.11	505.72
673.556	536.92
674.002	583.82
674.448	575.22
674.893	476.42
675.339	417.02
675.785	385.22
676.23	359.52
676.676	335.52
677.122	331.62
677.567	325.82
678.013	317.22
678.458	306.82
678.904	313.82
679.349	300.22
679.794	302.22
680.24	306.32
680.685	296.22
681.131	303.92
681.576	289.72
682.021	305.42
682.466	298.72
682.912	289.62
683.357	302.12
683.802	326.62
684.247	348.12
684.692	393.62
685.137	429.62
685.583	466.62
686.028	488.52
686.473	454.32
686.918	387.02
687.363	362.72
687.807	335.32
688.252	315.32
688.697	310.92
689.142	295.02
689.587	285.22
690.032	279.32
690.477	286.92
690.921	301.92
691.366	332.02
691.811	343.22
692.255	375.72
692.7	399.02
693.145	421.62
693.589	588.12
694.034	958.72
694.478	1310.62
694.923	1516.92
695.367	1997.43
695.812	1046.92
696.256	434.32
696.701	319.32
697.145	301.42
697.59	281.42
698.034	274.52
698.478	291.52
698.922	289.62
699.367	283.62
699.811	289.32
700.255	300.42
700.699	322.22
701.143	369.02
701.588	410.52
702.032	451.82
702.476	439.22
702.92	428.72
703.364	413.22
703.808	537.22
704.252	869.72
704.696	1243.32
705.14	1456.82
705.584	1873.62
706.027	923.72
706.471	443.22
706.915	336.72
707.359	300.52
707.803	276.22
708.246	273.72
708.69	267.72
709.134	273.82
709.577	264.62
710.021	271.12
710.465	268.42
710.908	252.72
711.352	250.52
711.795	269.52
712.239	294.82
712.682	336.22
713.126	352.52
713.569	403.02
714.012	320.32
714.456	283.02
714.899	253.42
715.342	237.52
715.786	226.82
716.229	215.82
716.672	217.52
717.115	208.92
717.558	216.12
718.002	222.42
718.445	215.92
718.888	245.92
719.331	248.92
719.774	264.72
720.217	262.72
720.66	237.22
721.103	233.82
721.546	221.82
721.989	210.22
722.432	199.22
722.874	199.02
723.317	194.02
723.76	200.92
724.203	218.32
724.645	265.02
725.088	379.02
725.531	484.32
725.974	558.52
726.416	465.62
726.859	270.72
727.301	209.82
727.744	204.82
728.187	202.12
728.629	206.12
729.071	197.02
729.514	212.02
729.956	230.12
730.399	242.12
730.841	250.72
731.283	227.62
731.726	227.12
732.168	223.52
732.61	231.22
733.053	246.22
733.495	269.92
733.937	298.62
734.379	331.12
734.821	363.02
735.263	455.02
735.705	689.92
736.148	1312.72
736.59	2185.12
737.032	2673.02
737.474	2184.52
737.916	694.52
738.357	362.32
738.799	280.52
739.241	255.92
739.683	234.82
740.125	242.22
740.567	254.72
741.008	271.62
741.45	277.42
741.892	264.92
742.334	293.82
742.775	299.32
743.217	295.82
743.658	231.72
744.1	215.12
744.542	220.12
744.983	261.42
745.425	296.12
745.866	292.22
746.307	243.62
746.749	240.02
747.19	278.02
747.632	375.32
748.073	726.92
748.514	1546.62
748.956	2451.72
749.397	3058.53
749.838	2524.53
750.279	2593.62
750.72	1305.22
751.162	466.42
751.603	273.32
752.044	216.82
752.485	190.72
752.926	173.42
753.367	170.82
753.808	172.52
754.249	160.92
754.69	156.92
755.131	159.32
755.572	153.42
756.013	150.52
756.453	156.12
756.894	162.72
757.335	161.62
757.776	168.82
758.216	167.92
758.657	166.22
759.098	173.62
759.538	191.42
759.979	221.22
760.42	321.82
760.86	583.52
761.301	1496.12
761.741	3727.43
762.182	5669.73
