Data from 20171114-ORNL-Ar_H_NY_Subt18_08-08-01-189.txt Node
Date: Tue Nov 14 08:08:01 EST 2017
User: Ender
Spectrometer: HR+D1039
Trigger mode: 0
Integration Time (sec): 2.730000E-2
Scans to average: 10
Electric dark correction enabled: true
Nonlinearity correction enabled: false
Boxcar width: 0
XAxis mode: Wavelengths
Number of Pixels in Spectrum: 2048
>>>>>Begin Spectral Data<<<<<
187.836	-1.64
188.309	-1.64
188.782	-1.64
189.255	0.86
189.728	-3.34
190.201	2.26
190.674	2.66
191.147	7.36
191.619	-7.64
192.092	3.66
192.565	1.76
193.038	-1.84
193.511	-1.74
193.984	-1.04
194.456	1.66
194.929	-3.04
195.402	0.96
195.874	-0.84
196.347	0.66
196.82	-9.24
197.292	1.56
197.765	-2.34
198.237	-8.34
198.71	5.86
199.182	-2.44
199.655	1.56
200.127	4.26
200.6	-7.34
201.072	-2.14
201.544	-1.94
202.017	-1.14
202.489	5.36
202.961	-0.84
203.433	-0.04
203.906	-2.84
204.378	-4.94
204.85	-6.94
205.322	-6.74
205.794	-1.94
206.266	-2.64
206.739	-5.54
207.211	-4.04
207.683	-7.94
208.155	-1.74
208.627	-7.54
209.099	-1.94
209.57	-14.84
210.042	-0.94
210.514	-9.44
210.986	-1.84
211.458	-7.14
211.93	-2.44
212.402	-1.14
212.873	-7.44
213.345	-6.24
213.817	-13.84
214.288	-2.34
214.76	-12.24
215.232	-4.34
215.703	-6.54
216.175	1.06
216.646	0.56
217.118	-4.74
217.589	-2.64
218.061	-5.34
218.532	-6.24
219.004	-1.04
219.475	3.36
219.946	-1.84
220.418	-3.34
220.889	2.56
221.36	-3.84
221.832	0.36
222.303	-10.74
222.774	0.46
223.245	-10.14
223.717	-3.94
224.188	-2.54
224.659	-8.04
225.13	-1.94
225.601	-5.14
226.072	2.06
226.543	0.06
227.014	3.46
227.485	-1.74
227.956	-0.14
228.427	-0.94
228.898	1.16
229.369	3.46
229.839	-4.14
230.31	-0.14
230.781	2.96
231.252	2.66
231.722	-3.64
232.193	-1.84
232.664	3.36
233.135	-0.74
233.605	7.66
234.076	-0.94
234.546	-0.14
235.017	0.56
235.487	-0.44
235.958	-5.34
236.428	-0.44
236.899	-1.34
237.369	7.76
237.84	-0.84
238.31	2.66
238.78	7.06
239.251	-2.84
239.721	5.76
240.191	-2.74
240.662	-4.44
241.132	3.56
241.602	1.06
242.072	3.36
242.542	9.46
243.013	0.36
243.483	3.36
243.953	1.96
244.423	-1.54
244.893	2.66
245.363	2.86
245.833	-0.74
246.303	-6.04
246.773	6.66
247.243	1.56
247.712	2.46
248.182	8.56
248.652	2.16
249.122	-3.44
249.592	5.46
250.061	17.36
250.531	32.16
251.001	11.46
251.471	20.86
251.94	19.46
252.41	4.26
252.879	-3.34
253.349	14.36
253.818	9.86
254.288	-0.74
254.757	7.46
255.227	1.06
255.696	10.56
256.166	11.66
256.635	12.66
257.105	5.66
257.574	6.46
258.043	6.96
258.513	9.36
258.982	16.46
259.451	10.56
259.92	9.36
260.389	14.56
260.859	18.96
261.328	7.06
261.797	16.16
262.266	3.56
262.735	7.76
263.204	7.36
263.673	2.86
264.142	5.36
264.611	-5.54
265.08	1.16
265.549	-3.24
266.018	12.46
266.487	1.66
266.955	-4.94
267.424	1.86
267.893	2.96
268.362	-0.34
268.83	0.26
269.299	9.46
269.768	-0.04
270.236	8.06
270.705	2.56
271.174	7.26
271.642	9.56
272.111	9.26
272.579	17.96
273.048	24.56
273.516	27.96
273.985	21.96
274.453	25.46
274.922	15.36
275.39	19.76
275.858	3.86
276.327	8.86
276.795	11.76
277.263	2.66
277.731	30.16
278.2	49.36
278.668	55.46
279.136	44.06
279.604	21.66
280.072	17.26
280.54	14.06
281.008	11.36
281.477	16.66
281.945	13.86
282.413	12.96
282.881	20.56
283.348	10.46
283.816	17.36
284.284	12.16
284.752	19.86
285.22	11.16
285.688	12.16
286.156	25.96
286.623	44.06
287.091	51.86
287.559	20.16
288.026	26.56
288.494	14.56
288.962	8.36
289.429	5.76
289.897	16.06
290.364	10.86
290.832	16.76
291.3	17.96
291.767	11.86
292.234	21.96
292.702	16.66
293.169	19.16
293.637	20.06
294.104	21.46
294.571	4.86
295.039	8.66
295.506	15.66
295.973	14.76
296.44	11.56
296.908	16.06
297.375	15.96
297.842	21.16
298.309	13.56
298.776	16.36
299.243	18.96
299.71	12.86
300.177	21.86
300.644	19.76
301.111	17.56
301.578	27.26
302.045	16.66
302.512	16.66
302.979	23.96
303.446	21.56
303.913	15.96
304.379	20.86
304.846	31.76
305.313	26.46
305.78	22.06
306.246	27.36
306.713	27.16
307.18	24.96
307.646	24.26
308.113	25.76
308.579	18.46
309.046	26.86
309.512	25.36
309.979	17.36
310.445	22.26
310.912	27.06
311.378	35.76
311.845	26.36
312.311	32.26
312.777	26.66
313.244	30.66
313.71	35.46
314.176	30.96
314.642	24.86
315.109	31.66
315.575	33.36
316.041	36.96
316.507	32.16
316.973	40.26
317.439	32.56
317.905	37.26
318.371	37.06
318.837	29.46
319.303	31.66
319.769	32.76
320.235	37.06
320.701	35.56
321.167	35.46
321.633	34.56
322.099	31.86
322.564	41.66
323.03	40.06
323.496	29.76
323.962	42.96
324.427	33.26
324.893	40.76
325.359	32.66
325.824	39.16
326.29	30.66
326.755	41.86
327.221	40.76
327.686	40.16
328.152	49.26
328.617	38.16
329.083	47.36
329.548	39.96
330.014	43.26
330.479	37.16
330.944	46.06
331.41	38.16
331.875	45.66
332.34	51.06
332.805	39.46
333.271	46.86
333.736	49.66
334.201	49.96
334.666	51.76
335.131	53.26
335.596	46.26
336.061	51.76
336.526	36.66
336.991	38.16
337.456	53.36
337.921	47.16
338.386	40.26
338.851	42.46
339.316	47.66
339.781	50.66
340.246	48.46
340.711	47.86
341.175	50.76
341.64	40.86
342.105	53.86
342.569	56.56
343.034	56.46
343.499	56.56
343.963	46.66
344.428	62.16
344.893	59.06
345.357	60.56
345.822	59.66
346.286	64.96
346.751	72.96
347.215	71.66
347.679	71.36
348.144	101.56
348.608	81.16
349.073	69.36
349.537	71.16
350.001	75.76
350.465	88.86
350.93	74.96
351.394	74.26
351.858	65.16
352.322	85.16
352.786	86.36
353.25	99.96
353.715	105.96
354.179	99.16
354.643	119.86
355.107	128.46
355.571	109.66
356.035	107.26
356.498	118.06
356.962	124.16
357.426	126.96
357.89	117.86
358.354	90.96
358.818	78.66
359.281	79.36
359.745	73.26
360.209	78.96
360.673	65.96
361.136	79.86
361.6	83.86
362.064	84.66
362.527	83.76
362.991	84.46
363.454	85.86
363.918	75.66
364.381	79.06
364.845	78.46
365.308	78.26
365.772	88.96
366.235	80.36
366.698	79.96
367.162	83.76
367.625	80.96
368.088	85.46
368.552	86.26
369.015	85.26
369.478	100.96
369.941	97.96
370.404	95.16
370.867	102.56
371.331	106.96
371.794	110.26
372.257	111.36
372.72	114.96
373.183	114.86
373.646	104.96
374.109	106.36
374.572	108.86
375.035	105.36
375.497	108.16
375.96	107.76
376.423	100.56
376.886	119.56
377.349	106.66
377.811	109.16
378.274	109.66
378.737	106.86
379.199	114.86
379.662	106.06
380.125	119.16
380.587	113.06
381.05	125.86
381.512	127.96
381.975	139.56
382.437	127.06
382.9	128.36
383.362	128.26
383.825	144.76
384.287	147.26
384.75	141.96
385.212	137.16
385.674	139.66
386.136	136.16
386.599	126.26
387.061	125.66
387.523	130.86
387.985	133.26
388.447	147.26
388.91	145.26
389.372	158.36
389.834	152.86
390.296	146.36
390.758	157.06
391.22	164.96
391.682	216.36
392.144	308.06
392.606	235.66
393.068	168.56
393.529	164.76
393.991	153.26
394.453	151.76
394.915	157.26
395.377	191.16
395.838	218.36
396.3	155.86
396.762	149.06
397.224	125.46
397.685	135.56
398.147	131.96
398.608	138.46
399.07	130.86
399.531	138.36
399.993	136.66
400.454	154.86
400.916	147.56
401.377	143.56
401.839	149.76
402.3	149.26
402.762	169.06
403.223	175.66
403.684	165.76
404.145	161.66
404.607	165.36
405.068	166.16
405.529	179.56
405.99	195.26
406.451	171.86
406.913	178.86
407.374	165.86
407.835	167.36
408.296	167.56
408.757	173.86
409.218	185.26
409.679	181.16
410.14	168.86
410.601	178.56
411.062	188.06
411.522	189.76
411.983	190.26
412.444	176.96
412.905	177.96
413.366	181.56
413.826	198.56
414.287	219.26
414.748	257.46
415.208	245.66
415.669	212.06
416.13	202.96
416.59	207.96
417.051	219.26
417.511	223.26
417.972	237.96
418.432	253.96
418.893	287.76
419.353	251.96
419.814	193.16
420.274	183.06
420.734	185.06
421.195	201.56
421.655	204.96
422.115	194.96
422.576	195.16
423.036	192.26
423.496	211.36
423.956	220.26
424.416	234.96
424.876	264.86
425.336	259.56
425.797	265.56
426.257	255.26
426.717	246.06
427.177	234.36
427.637	234.56
428.097	228.36
428.556	251.76
429.016	270.76
429.476	267.26
429.936	275.16
430.396	274.96
430.856	289.16
431.315	315.86
431.775	366.66
432.235	386.36
432.694	352.66
433.154	372.26
433.614	398.16
434.073	337.36
434.533	288.76
434.993	275.86
435.452	286.06
435.912	305.56
436.371	291.96
436.83	290.06
437.29	276.56
437.749	245.76
438.209	244.16
438.668	275.46
439.127	294.06
439.587	264.06
440.046	246.46
440.505	253.56
440.964	278.36
441.424	320.36
441.883	316.36
442.342	261.96
442.801	224.86
443.26	215.76
443.719	221.66
444.178	220.46
444.637	212.26
445.096	218.96
445.555	221.26
446.014	230.86
446.473	230.06
446.932	236.56
447.391	227.56
447.849	227.06
448.308	213.56
448.767	217.96
449.226	241.46
449.685	229.56
450.143	256.26
450.602	238.86
451.061	237.06
451.519	237.66
451.978	232.56
452.436	232.96
452.895	238.46
453.353	257.76
453.812	244.86
454.27	242.56
454.729	237.66
455.187	250.96
455.646	246.56
456.104	248.16
456.562	255.96
457.021	269.66
457.479	267.36
457.937	277.36
458.395	273.26
458.854	254.26
459.312	250.96
459.77	278.16
460.228	260.16
460.686	244.16
461.144	252.86
461.602	238.76
462.06	245.46
462.518	252.36
462.976	253.96
463.434	255.96
463.892	264.06
464.35	277.16
464.808	285.16
465.266	266.76
465.724	269.06
466.181	272.86
466.639	273.36
467.097	281.76
467.555	295.56
468.012	304.56
468.47	312.36
468.928	326.26
469.385	337.96
469.843	342.26
470.3	351.76
470.758	368.56
471.215	391.76
471.673	417.26
472.13	410.36
472.588	423.16
473.045	378.66
473.503	368.96
473.96	397.66
474.417	398.36
474.875	434.36
475.332	472.86
475.789	463.36
476.246	472.06
476.704	490.06
477.161	512.56
477.618	529.66
478.075	562.96
478.532	614.36
478.989	688.96
479.446	807.46
479.903	777.36
480.36	802.76
480.817	859.66
481.274	969.36
481.731	1064.96
482.188	1153.26
482.645	1291.26
483.102	1412.06
483.558	1527.96
484.015	1577.76
484.472	1537.86
484.929	1509.46
485.385	1461.46
485.842	1417.76
486.299	1353.26
486.755	1291.86
487.212	1097.06
487.668	928.86
488.125	848.56
488.582	774.66
489.038	736.76
489.494	708.96
489.951	682.16
490.407	663.56
490.864	655.56
491.32	641.56
491.776	637.76
492.233	651.16
492.689	619.86
493.145	610.36
493.602	601.16
494.058	610.76
494.514	617.06
494.97	638.16
495.426	656.46
495.882	617.46
496.338	612.16
496.794	623.66
497.251	618.66
497.707	637.56
498.163	638.46
498.618	640.56
499.074	637.56
499.53	684.96
499.986	667.56
500.442	652.26
500.898	633.36
501.354	634.06
501.809	637.46
502.265	641.66
502.721	666.66
503.177	677.86
503.632	660.26
504.088	678.76
504.543	710.36
504.999	714.66
505.455	662.06
505.91	638.06
506.366	628.96
506.821	630.26
507.277	623.76
507.732	624.56
508.187	627.06
508.643	639.66
509.098	637.66
509.553	660.16
510.009	664.66
510.464	666.26
510.919	683.36
511.375	701.06
511.83	713.96
512.285	719.86
512.74	753.96
513.195	790.56
513.65	768.26
514.105	766.76
514.56	770.16
515.015	791.56
515.47	806.96
515.925	784.26
516.38	775.66
516.835	784.06
517.29	784.86
517.745	772.86
518.2	765.56
518.655	751.46
519.109	745.66
519.564	743.36
520.019	725.26
520.474	727.46
520.928	727.36
521.383	717.16
521.838	704.46
522.292	706.86
522.747	706.16
523.201	705.36
523.656	700.26
524.11	699.96
524.565	694.46
525.019	691.56
525.474	698.96
525.928	701.56
526.382	694.76
526.837	700.96
527.291	691.96
527.745	698.76
528.2	698.06
528.654	686.06
529.108	687.76
529.562	690.66
530.016	681.76
530.47	692.06
530.925	692.56
531.379	683.86
531.833	715.16
532.287	700.46
532.741	693.06
533.195	706.66
533.649	710.76
534.103	721.46
534.556	701.66
535.01	708.66
535.464	705.06
535.918	715.36
536.372	715.56
536.826	707.36
537.279	702.66
537.733	710.76
538.187	711.86
538.64	701.46
539.094	718.96
539.548	728.16
540.001	720.96
540.455	730.66
540.908	731.86
541.362	741.26
541.815	733.06
542.269	762.16
542.722	757.16
543.175	779.06
543.629	769.96
544.082	785.26
544.536	790.96
544.989	775.36
545.442	792.66
545.895	788.16
546.349	796.46
546.802	777.46
547.255	806.66
547.708	799.96
548.161	812.76
548.614	823.46
549.067	826.76
549.52	824.06
549.973	811.66
550.426	811.76
550.879	788.96
551.332	803.26
551.785	805.66
552.238	800.46
552.691	810.66
553.144	835.36
553.596	842.86
554.049	861.96
554.502	884.06
554.955	912.26
555.407	898.76
555.86	894.76
556.313	884.56
556.765	886.26
557.218	885.26
557.67	886.46
558.123	874.86
558.576	872.06
559.028	879.66
559.48	881.56
559.933	869.86
560.385	837.56
560.838	809.06
561.29	788.16
561.742	784.96
562.195	760.06
562.647	762.46
563.099	769.76
563.551	778.26
564.004	789.16
564.456	780.96
564.908	766.76
565.36	738.76
565.812	725.36
566.264	725.66
566.716	733.46
567.168	711.26
567.62	729.16
568.072	714.16
568.524	704.86
568.976	689.76
569.428	667.36
569.88	672.46
570.332	674.76
570.784	688.76
571.235	677.66
571.687	698.96
572.139	703.96
572.59	716.36
573.042	710.36
573.494	709.86
573.945	704.66
574.397	670.56
574.849	685.86
575.3	687.06
575.752	683.36
576.203	678.06
576.655	684.26
577.106	674.66
577.557	663.66
578.009	670.66
578.46	660.46
578.912	660.56
579.363	665.56
579.814	669.56
580.265	667.56
580.717	670.96
581.168	675.26
581.619	676.06
582.07	688.36
582.521	679.66
582.972	673.86
583.423	679.86
583.875	689.86
584.326	704.46
584.777	752.46
585.227	830.66
585.678	913.86
586.129	1007.36
586.58	1078.06
587.031	1164.76
587.482	1301.26
587.933	1479.46
588.384	1285.16
588.834	967.36
589.285	813.06
589.736	781.36
590.186	776.46
590.637	770.06
591.088	754.56
591.538	745.16
591.989	742.86
592.439	731.76
592.89	720.66
593.34	717.06
593.791	714.26
594.241	707.66
594.692	716.76
595.142	698.96
595.593	715.66
596.043	707.46
596.493	720.76
596.943	715.46
597.394	713.16
597.844	716.86
598.294	734.26
598.744	755.36
599.195	792.86
599.645	831.96
600.095	866.76
600.545	923.86
600.995	976.86
601.445	1031.06
601.895	1101.56
602.345	1140.56
602.795	1117.06
603.245	1066.26
603.695	1014.46
604.145	962.16
604.594	911.76
605.044	868.56
605.494	802.86
605.944	757.56
606.393	745.96
606.843	727.86
607.293	733.76
607.743	743.36
608.192	756.46
608.642	765.16
609.091	782.16
609.541	770.76
609.99	771.56
610.44	771.26
610.889	728.16
611.339	707.76
611.788	687.46
612.238	718.46
612.687	715.66
613.136	722.06
613.586	732.36
614.035	728.86
614.484	757.96
614.933	766.46
615.383	759.06
615.832	752.26
616.281	733.26
616.73	694.26
617.179	682.46
617.628	655.46
618.077	638.06
618.526	627.86
618.975	623.36
619.424	620.26
619.873	616.46
620.322	623.56
620.771	616.16
621.22	613.96
621.669	598.96
622.118	596.56
622.567	592.76
623.015	584.96
623.464	576.76
623.913	564.56
624.361	555.36
624.81	556.56
625.259	559.06
625.707	556.06
626.156	562.86
626.604	572.96
627.053	563.46
627.501	566.86
627.95	576.66
628.398	582.86
628.847	575.26
629.295	571.46
629.744	577.76
630.192	573.16
630.64	569.26
631.089	568.26
631.537	595.56
631.985	596.26
632.433	613.96
632.881	623.66
633.33	674.96
633.778	663.06
634.226	583.96
634.674	585.96
635.122	587.56
635.57	598.76
636.018	638.66
636.466	589.56
636.914	553.26
637.362	569.36
637.81	581.86
638.258	579.66
638.705	585.56
639.153	611.56
639.601	617.26
640.049	650.36
640.497	675.46
640.944	691.56
641.392	643.96
641.84	619.06
642.287	591.96
642.735	577.86
643.182	575.76
643.63	581.86
644.078	583.06
644.525	598.16
644.973	602.26
645.42	606.26
645.867	633.06
646.315	643.46
646.762	664.26
647.21	699.36
647.657	714.66
648.104	752.56
648.551	783.26
648.999	843.46
649.446	928.66
649.893	1014.56
650.34	1179.96
650.787	1410.36
651.234	1752.66
651.682	2286.86
652.129	3157.96
652.576	4543.96
653.023	6700.56
653.47	9140.66
653.917	11341.76
654.363	12987.66
654.81	14307.46
655.257	13638.76
655.704	8895.16
656.151	5275.16
656.598	3399.86
657.044	2413.66
657.491	1856.06
657.938	1497.06
658.385	1253.66
658.831	1091.66
659.278	969.86
659.724	853.46
660.171	788.76
660.618	722.26
661.064	689.86
661.511	678.36
661.957	661.16
662.404	655.36
662.85	662.56
663.296	633.76
663.743	569.46
664.189	543.66
664.635	542.66
665.082	528.96
665.528	530.76
665.974	520.46
666.42	519.56
666.867	512.96
667.313	492.46
667.759	489.86
668.205	486.26
668.651	493.86
669.097	490.16
669.543	510.76
669.989	474.56
670.435	459.66
670.881	443.66
671.327	456.96
671.773	470.56
672.219	492.56
672.665	551.86
673.11	583.16
673.556	638.76
674.002	672.66
674.448	661.66
674.893	541.86
675.339	480.66
675.785	445.56
676.23	418.06
676.676	387.66
677.122	382.26
677.567	370.16
678.013	368.46
678.458	357.56
678.904	366.66
679.349	358.16
679.794	354.36
680.24	354.76
680.685	348.36
681.131	349.16
681.576	349.36
682.021	354.06
682.466	350.26
682.912	337.56
683.357	357.76
683.802	380.16
684.247	414.46
684.692	462.26
685.137	500.86
685.583	540.56
686.028	565.06
686.473	522.36
686.918	454.96
687.363	423.86
687.807	394.86
688.252	366.36
688.697	359.16
689.142	336.16
689.587	341.36
690.032	326.56
690.477	347.26
690.921	348.46
691.366	385.76
691.811	405.66
692.255	436.56
692.7	458.66
693.145	512.26
693.589	706.86
694.034	1145.26
694.478	1553.06
694.923	1734.26
695.367	2244.76
695.812	1193.26
696.256	505.46
696.701	372.66
697.145	351.56
697.59	331.66
698.034	324.56
698.478	327.56
698.922	326.26
699.367	336.16
699.811	338.86
700.255	356.26
700.699	398.66
701.143	430.96
701.588	475.26
702.032	517.66
702.476	514.66
702.92	497.06
703.364	498.66
703.808	649.46
704.252	1054.16
704.696	1478.66
705.14	1662.16
705.584	2118.16
706.027	1061.66
706.471	524.66
706.915	404.86
707.359	354.66
707.803	317.96
708.246	322.36
708.69	307.86
709.134	317.26
709.577	319.06
710.021	318.26
710.465	318.56
710.908	305.56
711.352	300.36
711.795	314.46
712.239	356.06
712.682	396.46
713.126	419.46
713.569	462.46
714.012	380.46
714.456	321.26
714.899	299.56
715.342	281.06
715.786	264.26
716.229	256.56
716.672	261.76
717.115	250.26
717.558	254.16
718.002	248.96
718.445	264.26
718.888	287.06
719.331	302.96
719.774	299.56
720.217	307.86
720.66	278.36
721.103	262.46
721.546	253.96
721.989	254.86
722.432	236.46
722.874	235.96
723.317	237.06
723.76	243.16
724.203	260.56
724.645	324.26
725.088	463.46
725.531	575.46
725.974	644.36
726.416	548.16
726.859	307.76
727.301	251.16
727.744	242.46
728.187	240.56
728.629	244.36
729.071	252.66
729.514	266.16
729.956	274.36
730.399	286.26
730.841	290.26
731.283	277.76
731.726	260.26
732.168	259.86
732.61	266.56
733.053	289.06
733.495	314.86
733.937	362.86
734.379	407.56
734.821	442.16
735.263	548.06
735.705	858.46
736.148	1619.76
736.59	2610.16
737.032	3025.36
737.474	2471.56
737.916	814.16
738.357	435.56
738.799	329.76
739.241	308.06
739.683	275.76
740.125	295.86
740.567	300.66
741.008	325.16
741.45	316.86
741.892	314.36
742.334	348.76
742.775	361.76
743.217	348.76
743.658	270.96
744.1	251.16
744.542	264.26
744.983	309.86
745.425	343.66
745.866	347.26
746.307	285.86
746.749	287.26
747.19	338.56
747.632	464.56
748.073	910.36
748.514	1901.06
748.956	2863.86
749.397	3601.86
749.838	2984.46
750.279	2950.46
750.72	1490.36
751.162	549.56
751.603	325.06
752.044	249.56
752.485	219.86
752.926	211.66
753.367	200.86
753.808	197.66
754.249	190.46
754.69	183.66
755.131	183.06
755.572	179.86
756.013	185.76
756.453	186.06
756.894	181.46
757.335	186.06
757.776	194.36
758.216	195.96
758.657	200.66
759.098	207.76
759.538	226.06
759.979	268.66
760.42	386.16
760.86	734.66
761.301	1892.46
761.741	4513.96
762.182	6351.26
