Data from 20171114-ORNL-Ar_H_NY_Subt18_08-04-41-917.txt Node
Date: Tue Nov 14 08:04:41 EST 2017
User: Ender
Spectrometer: HR+D1039
Trigger mode: 0
Integration Time (sec): 2.730000E-2
Scans to average: 10
Electric dark correction enabled: true
Nonlinearity correction enabled: false
Boxcar width: 0
XAxis mode: Wavelengths
Number of Pixels in Spectrum: 2048
>>>>>Begin Spectral Data<<<<<
187.836	-3.86
188.309	-3.86
188.782	-3.86
189.255	-1.26
189.728	-3.16
190.201	3.34
190.674	1.04
191.147	0.64
191.619	-7.46
192.092	4.44
192.565	1.24
193.038	5.94
193.511	-3.06
193.984	4.84
194.456	-1.96
194.929	-2.66
195.402	-2.16
195.874	4.14
196.347	4.24
196.82	-7.86
197.292	5.84
197.765	-2.86
198.237	-2.96
198.71	1.34
199.182	0.04
199.655	4.84
200.127	6.34
200.6	1.54
201.072	-0.26
201.544	-8.36
202.017	-6.76
202.489	9.04
202.961	-3.86
203.433	-7.26
203.906	-9.16
204.378	-7.76
204.85	0.04
205.322	-4.36
205.794	0.44
206.266	-0.66
206.739	-3.46
207.211	3.84
207.683	-6.06
208.155	-0.56
208.627	-5.66
209.099	-3.86
209.57	-3.46
210.042	-4.26
210.514	-0.46
210.986	0.54
211.458	-7.46
211.93	-2.46
212.402	-1.36
212.873	-5.56
213.345	-11.26
213.817	-10.26
214.288	-0.26
214.76	-12.26
215.232	0.74
215.703	-5.46
216.175	-2.06
216.646	-5.06
217.118	-1.26
217.589	-0.86
218.061	3.04
218.532	-2.36
219.004	-1.16
219.475	0.74
219.946	-0.86
220.418	-7.86
220.889	4.54
221.36	-0.76
221.832	-2.96
222.303	-5.46
222.774	-0.96
223.245	-9.66
223.717	-0.36
224.188	-2.06
224.659	-8.86
225.13	-2.46
225.601	-1.86
226.072	6.44
226.543	8.44
227.014	-0.16
227.485	-4.46
227.956	-0.66
228.427	2.34
228.898	-1.66
229.369	4.74
229.839	0.34
230.31	-7.16
230.781	3.34
231.252	0.74
231.722	-1.46
232.193	-2.16
232.664	-0.76
233.135	-4.06
233.605	3.24
234.076	-3.56
234.546	1.54
235.017	6.54
235.487	3.44
235.958	-0.16
236.428	-0.36
236.899	9.94
237.369	3.94
237.84	1.54
238.31	13.04
238.78	7.44
239.251	5.94
239.721	2.64
240.191	6.74
240.662	2.44
241.132	4.64
241.602	0.44
242.072	2.54
242.542	6.34
243.013	4.04
243.483	3.44
243.953	2.24
244.423	4.44
244.893	4.04
245.363	4.64
245.833	9.34
246.303	1.64
246.773	9.74
247.243	11.64
247.712	4.14
248.182	9.64
248.652	11.24
249.122	1.84
249.592	16.24
250.061	25.04
250.531	35.34
251.001	28.34
251.471	21.04
251.94	21.64
252.41	6.94
252.879	6.14
253.349	10.34
253.818	18.74
254.288	11.44
254.757	8.44
255.227	10.84
255.696	6.74
256.166	6.04
256.635	11.74
257.105	13.54
257.574	9.34
258.043	12.04
258.513	11.84
258.982	24.64
259.451	9.44
259.92	17.44
260.389	20.84
260.859	24.54
261.328	13.74
261.797	17.64
262.266	8.94
262.735	11.14
263.204	12.64
263.673	2.74
264.142	12.94
264.611	3.04
265.08	4.74
265.549	5.14
266.018	14.84
266.487	1.94
266.955	1.14
267.424	9.64
267.893	7.64
268.362	6.84
268.83	6.14
269.299	8.44
269.768	12.04
270.236	10.94
270.705	2.84
271.174	3.64
271.642	8.34
272.111	6.44
272.579	19.94
273.048	28.64
273.516	32.84
273.985	32.44
274.453	26.74
274.922	20.14
275.39	16.44
275.858	4.84
276.327	15.24
276.795	20.84
277.263	17.54
277.731	30.84
278.2	61.74
278.668	61.24
279.136	52.44
279.604	26.74
280.072	22.04
280.54	17.34
281.008	16.64
281.477	23.24
281.945	16.24
282.413	20.84
282.881	20.34
283.348	10.54
283.816	17.34
284.284	19.74
284.752	27.14
285.22	10.14
285.688	20.14
286.156	22.24
286.623	47.24
287.091	58.54
287.559	29.34
288.026	22.54
288.494	26.14
288.962	6.54
289.429	13.94
289.897	24.94
290.364	21.04
290.832	26.44
291.3	23.24
291.767	13.44
292.234	22.54
292.702	16.44
293.169	27.74
293.637	21.34
294.104	25.74
294.571	7.04
295.039	10.94
295.506	11.74
295.973	23.94
296.44	17.14
296.908	24.64
297.375	20.64
297.842	22.74
298.309	18.94
298.776	16.74
299.243	29.14
299.71	16.64
300.177	24.94
300.644	21.74
301.111	23.74
301.578	29.44
302.045	20.14
302.512	25.94
302.979	28.74
303.446	25.14
303.913	24.44
304.379	27.84
304.846	27.84
305.313	34.54
305.78	26.04
306.246	27.64
306.713	33.04
307.18	29.14
307.646	34.44
308.113	34.04
308.579	26.74
309.046	32.34
309.512	35.74
309.979	25.84
310.445	32.24
310.912	35.84
311.378	37.34
311.845	34.04
312.311	36.84
312.777	34.24
313.244	34.84
313.71	40.04
314.176	32.84
314.642	35.44
315.109	40.74
315.575	32.44
316.041	46.64
316.507	37.34
316.973	40.04
317.439	39.74
317.905	44.44
318.371	40.94
318.837	39.44
319.303	40.64
319.769	41.64
320.235	37.44
320.701	34.94
321.167	41.34
321.633	40.34
322.099	46.14
322.564	51.54
323.03	45.24
323.496	41.74
323.962	47.64
324.427	35.14
324.893	50.64
325.359	39.64
325.824	41.94
326.29	42.94
326.755	43.54
327.221	48.64
327.686	42.94
328.152	51.74
328.617	47.04
329.083	44.34
329.548	50.84
330.014	53.34
330.479	43.54
330.944	44.34
331.41	43.34
331.875	50.04
332.34	54.74
332.805	44.84
333.271	49.74
333.736	52.04
334.201	62.94
334.666	55.24
335.131	58.34
335.596	50.14
336.061	55.14
336.526	46.74
336.991	54.24
337.456	60.44
337.921	51.14
338.386	42.44
338.851	48.34
339.316	47.84
339.781	53.34
340.246	59.14
340.711	54.84
341.175	56.34
341.64	48.14
342.105	54.44
342.569	51.34
343.034	65.84
343.499	56.74
343.963	51.34
344.428	59.64
344.893	59.44
345.357	65.44
345.822	60.44
346.286	76.04
346.751	76.64
347.215	62.24
347.679	78.74
348.144	103.04
348.608	84.34
349.073	73.54
349.537	72.44
350.001	84.64
350.465	96.94
350.93	84.74
351.394	80.94
351.858	76.44
352.322	88.54
352.786	90.84
353.25	103.54
353.715	115.24
354.179	101.64
354.643	127.54
355.107	128.24
355.571	113.94
356.035	105.84
356.498	119.54
356.962	124.34
357.426	133.24
357.89	115.44
358.354	88.84
358.818	89.34
359.281	84.64
359.745	83.94
360.209	83.64
360.673	76.54
361.136	84.34
361.6	93.04
362.064	85.34
362.527	91.54
362.991	91.94
363.454	80.44
363.918	80.24
364.381	83.94
364.845	83.44
365.308	84.94
365.772	87.34
366.235	93.74
366.698	90.54
367.162	90.24
367.625	87.14
368.088	90.34
368.552	89.54
369.015	89.24
369.478	96.64
369.941	100.04
370.404	96.54
370.867	104.24
371.331	104.94
371.794	114.94
372.257	109.14
372.72	117.24
373.183	108.74
373.646	104.64
374.109	96.44
374.572	108.34
375.035	111.34
375.497	103.04
375.96	103.94
376.423	105.54
376.886	116.74
377.349	112.24
377.811	110.84
378.274	110.54
378.737	109.44
379.199	107.44
379.662	106.14
380.125	122.64
380.587	119.64
381.05	116.14
381.512	132.34
381.975	128.24
382.437	124.04
382.9	128.24
383.362	135.94
383.825	136.34
384.287	144.14
384.75	139.94
385.212	143.84
385.674	145.14
386.136	134.84
386.599	127.24
387.061	120.14
387.523	132.94
387.985	137.34
388.447	139.74
388.91	143.84
389.372	150.14
389.834	151.84
390.296	142.14
390.758	155.34
391.22	164.54
391.682	200.24
392.144	279.94
392.606	223.94
393.068	167.94
393.529	167.34
393.991	153.84
394.453	143.34
394.915	155.44
395.377	187.14
395.838	206.64
396.3	153.84
396.762	142.24
397.224	134.94
397.685	129.64
398.147	128.14
398.608	132.44
399.07	123.14
399.531	130.84
399.993	143.74
400.454	151.04
400.916	143.24
401.377	142.94
401.839	153.54
402.3	146.34
402.762	165.14
403.223	177.84
403.684	170.64
404.145	160.54
404.607	162.44
405.068	164.04
405.529	162.44
405.99	191.14
406.451	176.14
406.913	170.54
407.374	161.44
407.835	152.14
408.296	158.74
408.757	169.14
409.218	183.84
409.679	180.34
410.14	174.84
410.601	173.54
411.062	174.14
411.522	181.84
411.983	186.34
412.444	173.34
412.905	175.94
413.366	173.14
413.826	188.24
414.287	213.84
414.748	255.34
415.208	248.64
415.669	209.04
416.13	203.64
416.59	197.84
417.051	211.14
417.511	218.84
417.972	238.74
418.432	244.04
418.893	282.44
419.353	240.34
419.814	199.84
420.274	181.44
420.734	171.84
421.195	193.34
421.655	195.14
422.115	199.34
422.576	185.54
423.036	198.24
423.496	209.44
423.956	213.54
424.416	227.74
424.876	260.84
425.336	254.64
425.797	262.24
426.257	251.44
426.717	229.14
427.177	227.44
427.637	215.74
428.097	227.84
428.556	235.24
429.016	260.14
429.476	261.84
429.936	269.74
430.396	256.54
430.856	283.24
431.315	308.74
431.775	341.64
432.235	359.54
432.694	332.84
433.154	350.94
433.614	378.64
434.073	322.64
434.533	273.44
434.993	261.84
435.452	269.84
435.912	285.64
436.371	282.84
436.83	272.94
437.29	261.74
437.749	244.24
438.209	234.74
438.668	261.94
439.127	275.54
439.587	253.94
440.046	241.64
440.505	252.24
440.964	270.24
441.424	308.74
441.883	292.74
442.342	251.54
442.801	220.04
443.26	211.04
443.719	219.14
444.178	214.94
444.637	200.84
445.096	212.34
445.555	213.44
446.014	218.54
446.473	217.74
446.932	223.44
447.391	223.74
447.849	222.94
448.308	218.84
448.767	216.64
449.226	227.64
449.685	230.74
450.143	236.04
450.602	243.84
451.061	227.94
451.519	231.84
451.978	227.04
452.436	226.74
452.895	231.44
453.353	245.04
453.812	235.54
454.27	234.64
454.729	238.74
455.187	239.34
455.646	241.44
456.104	243.24
456.562	249.04
457.021	255.24
457.479	250.94
457.937	262.64
458.395	253.04
458.854	241.14
459.312	248.44
459.77	268.34
460.228	250.34
460.686	241.34
461.144	240.74
461.602	238.84
462.06	235.24
462.518	240.94
462.976	245.34
463.434	255.44
463.892	254.84
464.35	266.24
464.808	277.14
465.266	257.14
465.724	260.04
466.181	266.24
466.639	268.84
467.097	280.64
467.555	287.24
468.012	292.84
468.47	306.54
468.928	322.94
469.385	331.34
469.843	341.64
470.3	337.84
470.758	342.34
471.215	375.94
471.673	387.74
472.13	389.54
472.588	402.84
473.045	364.54
473.503	371.44
473.96	385.74
474.417	385.94
474.875	416.64
475.332	456.54
475.789	438.64
476.246	455.34
476.704	471.44
477.161	490.04
477.618	506.94
478.075	537.74
478.532	595.54
478.989	668.04
479.446	760.64
479.903	750.74
480.36	778.54
480.817	836.74
481.274	933.44
481.731	1042.54
482.188	1128.24
482.645	1254.54
483.102	1352.44
483.558	1492.84
484.015	1555.74
484.472	1524.74
484.929	1466.64
485.385	1435.14
485.842	1386.54
486.299	1313.74
486.755	1246.74
487.212	1056.24
487.668	902.04
488.125	822.24
488.582	753.64
489.038	728.44
489.494	697.34
489.951	666.44
490.407	645.84
490.864	624.94
491.32	626.84
491.776	628.84
492.233	626.74
492.689	590.84
493.145	580.64
493.602	575.04
494.058	599.54
494.514	597.64
494.97	603.14
495.426	626.04
495.882	608.14
496.338	595.54
496.794	608.04
497.251	599.44
497.707	616.34
498.163	620.14
498.618	617.54
499.074	627.34
499.53	662.24
499.986	650.04
500.442	634.54
500.898	614.54
501.354	603.34
501.809	616.64
502.265	624.54
502.721	640.44
503.177	640.64
503.632	644.24
504.088	651.44
504.543	679.74
504.999	689.74
505.455	640.54
505.91	617.54
506.366	610.44
506.821	609.04
507.277	598.14
507.732	608.94
508.187	602.14
508.643	620.24
509.098	618.84
509.553	639.94
510.009	638.84
510.464	638.44
510.919	662.24
511.375	666.74
511.83	686.84
512.285	700.84
512.74	735.24
513.195	753.94
513.65	739.44
514.105	740.34
514.56	753.04
515.015	760.04
515.47	780.34
515.925	769.44
516.38	766.04
516.835	771.24
517.29	755.94
517.745	760.44
518.2	738.44
518.655	721.14
519.109	727.64
519.564	721.24
520.019	706.14
520.474	707.84
520.928	703.64
521.383	693.14
521.838	696.14
522.292	694.44
522.747	673.54
523.201	677.64
523.656	667.74
524.11	662.74
524.565	666.34
525.019	662.54
525.474	681.44
525.928	677.54
526.382	673.64
526.837	671.04
527.291	674.44
527.745	673.64
528.2	680.04
528.654	659.14
529.108	661.14
529.562	669.54
530.016	671.54
530.47	660.84
530.925	666.24
531.379	669.34
531.833	679.14
532.287	684.14
532.741	663.44
533.195	674.34
533.649	682.84
534.103	694.04
534.556	685.24
535.01	686.64
535.464	678.54
535.918	687.54
536.372	690.94
536.826	690.34
537.279	676.54
537.733	687.64
538.187	682.64
538.64	686.94
539.094	695.44
539.548	697.84
540.001	693.94
540.455	684.04
540.908	694.44
541.362	701.64
541.815	720.74
542.269	722.64
542.722	720.44
543.175	736.44
543.629	730.44
544.082	756.14
544.536	763.44
544.989	762.64
545.442	759.54
545.895	758.74
546.349	753.84
546.802	745.34
547.255	753.84
547.708	761.84
548.161	765.24
548.614	762.14
549.067	797.14
549.52	775.84
549.973	773.34
550.426	768.34
550.879	760.44
551.332	749.14
551.785	760.24
552.238	765.74
552.691	782.74
553.144	792.94
553.596	811.04
554.049	822.54
554.502	855.14
554.955	872.44
555.407	863.94
555.86	853.24
556.313	847.24
556.765	845.34
557.218	843.04
557.67	850.34
558.123	841.24
558.576	836.64
559.028	833.34
559.48	828.34
559.933	829.04
560.385	788.54
560.838	762.34
561.29	735.34
561.742	745.24
562.195	723.14
562.647	712.84
563.099	725.94
563.551	739.94
564.004	738.14
564.456	741.14
564.908	721.74
565.36	717.14
565.812	692.04
566.264	684.14
566.716	682.24
567.168	667.94
567.62	686.34
568.072	659.44
568.524	661.94
568.976	647.74
569.428	632.24
569.88	622.54
570.332	642.74
570.784	635.24
571.235	642.34
571.687	653.14
572.139	657.14
572.59	668.44
573.042	678.94
573.494	667.34
573.945	661.14
574.397	644.04
574.849	649.44
575.3	645.04
575.752	650.04
576.203	640.14
576.655	642.44
577.106	640.14
577.557	621.04
578.009	633.74
578.46	636.54
578.912	627.54
579.363	625.74
579.814	622.04
580.265	614.44
580.717	623.34
581.168	630.84
581.619	636.74
582.07	637.14
582.521	627.14
582.972	622.64
583.423	626.14
583.875	636.24
584.326	651.94
584.777	691.04
585.227	766.94
585.678	842.94
586.129	915.54
586.58	990.34
587.031	1069.74
587.482	1233.84
587.933	1399.04
588.384	1211.84
588.834	907.44
589.285	751.24
589.736	735.64
590.186	717.84
590.637	711.24
591.088	687.64
591.538	677.44
591.989	682.04
592.439	673.24
592.89	661.64
593.34	658.74
593.791	660.54
594.241	659.34
594.692	656.84
595.142	651.64
595.593	647.24
596.043	651.14
596.493	662.64
596.943	664.84
597.394	661.14
597.844	665.04
598.294	677.54
598.744	691.14
599.195	713.34
599.645	750.14
600.095	779.74
600.545	835.34
600.995	880.74
601.445	942.34
601.895	997.14
602.345	1049.14
602.795	1029.94
603.245	977.64
603.695	937.44
604.145	884.64
604.594	836.34
605.044	791.54
605.494	730.24
605.944	693.64
606.393	686.94
606.843	663.74
607.293	677.64
607.743	667.74
608.192	684.24
608.642	695.04
609.091	699.64
609.541	710.14
609.99	691.34
610.44	703.84
610.889	662.94
611.339	642.54
611.788	633.34
612.238	641.74
612.687	654.14
613.136	668.94
613.586	667.34
614.035	673.34
614.484	693.04
614.933	688.34
615.383	683.14
615.832	674.84
616.281	660.24
616.73	624.04
617.179	604.04
617.628	598.64
618.077	582.14
618.526	570.14
618.975	558.84
619.424	562.54
619.873	552.74
620.322	557.14
620.771	555.34
621.22	545.44
621.669	547.04
622.118	539.84
622.567	524.04
623.015	518.74
623.464	520.14
623.913	509.94
624.361	498.14
624.81	501.54
625.259	497.14
625.707	506.24
626.156	501.74
626.604	520.34
627.053	506.34
627.501	513.04
627.95	511.94
628.398	521.44
628.847	518.54
629.295	516.94
629.744	518.94
630.192	518.14
630.64	510.54
631.089	510.54
631.537	516.04
631.985	523.84
632.433	542.84
632.881	543.64
633.33	578.84
633.778	561.34
634.226	498.64
634.674	507.84
635.122	518.94
635.57	539.64
636.018	563.74
636.466	522.34
636.914	500.84
637.362	509.64
637.81	524.24
638.258	513.34
638.705	524.54
639.153	540.74
639.601	552.84
640.049	578.24
640.497	603.74
640.944	627.34
641.392	577.74
641.84	548.14
642.287	522.64
642.735	515.64
643.182	515.04
643.63	516.44
644.078	512.04
644.525	527.94
644.973	532.54
645.42	543.74
645.867	555.34
646.315	578.44
646.762	590.84
647.21	620.44
647.657	633.34
648.104	677.64
648.551	691.44
648.999	747.04
649.446	815.04
649.893	896.24
650.34	1026.54
650.787	1235.04
651.234	1517.44
651.682	1968.34
652.129	2689.94
652.576	3871.64
653.023	5701.54
653.47	7878.34
653.917	9933.84
654.363	11604.54
654.81	13049.34
655.257	12366.84
655.704	8067.64
656.151	4741.74
656.598	3068.64
657.044	2173.64
657.491	1671.74
657.938	1326.74
658.385	1119.14
658.831	975.04
659.278	857.04
659.724	764.44
660.171	702.54
660.618	645.14
661.064	603.44
661.511	588.34
661.957	574.24
662.404	565.44
662.85	573.74
663.296	551.74
663.743	490.64
664.189	478.14
664.635	474.44
665.082	475.54
665.528	463.84
665.974	452.84
666.42	452.04
666.867	445.74
667.313	436.74
667.759	425.74
668.205	434.34
668.651	434.34
669.097	430.84
669.543	445.34
669.989	420.24
670.435	402.64
670.881	391.54
671.327	394.94
671.773	419.24
672.219	438.14
672.665	475.24
673.11	517.94
673.556	558.24
674.002	592.34
674.448	576.54
674.893	482.24
675.339	423.34
675.785	392.64
676.23	369.64
676.676	355.04
677.122	344.34
677.567	329.24
678.013	322.54
678.458	313.04
678.904	319.14
679.349	299.74
679.794	317.34
680.24	297.74
680.685	301.04
681.131	306.54
681.576	311.34
682.021	315.74
682.466	305.04
682.912	307.74
683.357	305.54
683.802	336.84
684.247	357.44
684.692	404.24
685.137	438.64
685.583	478.64
686.028	495.54
686.473	449.84
686.918	386.34
687.363	366.34
687.807	354.24
688.252	322.44
688.697	316.44
689.142	294.64
689.587	290.34
690.032	285.04
690.477	296.24
690.921	304.84
691.366	342.94
691.811	358.74
692.255	381.34
692.7	403.04
693.145	440.34
693.589	595.04
694.034	963.24
694.478	1344.84
694.923	1549.54
695.367	2032.54
695.812	1059.04
696.256	440.04
696.701	323.54
697.145	305.54
697.59	288.14
698.034	279.14
698.478	290.64
698.922	285.24
699.367	287.94
699.811	294.34
700.255	309.64
700.699	329.44
701.143	367.84
701.588	416.94
702.032	453.44
702.476	452.74
702.92	425.74
703.364	425.44
703.808	543.54
704.252	880.74
704.696	1252.44
705.14	1472.44
705.584	1922.24
706.027	946.44
706.471	458.44
706.915	344.04
707.359	305.64
707.803	287.14
708.246	267.14
708.69	270.34
709.134	278.44
709.577	268.64
710.021	277.14
710.465	270.64
710.908	262.44
711.352	265.34
711.795	268.34
712.239	304.34
712.682	335.44
713.126	371.34
713.569	407.74
714.012	330.04
714.456	284.44
714.899	256.64
715.342	237.64
715.786	226.54
716.229	219.54
716.672	217.84
717.115	216.54
717.558	215.54
718.002	223.34
718.445	232.04
718.888	247.74
719.331	257.04
719.774	269.64
720.217	261.74
720.66	246.74
721.103	234.44
721.546	220.84
721.989	216.34
722.432	204.04
722.874	206.14
723.317	199.84
723.76	203.14
724.203	226.54
724.645	274.14
725.088	381.64
725.531	494.54
725.974	563.84
726.416	487.04
726.859	270.44
727.301	209.54
727.744	208.54
728.187	201.34
728.629	211.84
729.071	208.34
729.514	227.04
729.956	243.74
730.399	249.64
730.841	257.14
731.283	235.44
731.726	232.04
732.168	231.24
732.61	227.94
733.053	248.64
733.495	269.94
733.937	308.34
734.379	345.74
734.821	383.54
735.263	465.54
735.705	703.24
736.148	1329.74
736.59	2231.64
737.032	2727.14
737.474	2224.54
737.916	713.24
738.357	372.54
738.799	294.24
739.241	261.34
739.683	245.44
740.125	255.34
740.567	258.44
741.008	273.84
741.45	271.44
741.892	269.54
742.334	296.74
742.775	318.64
743.217	300.54
743.658	233.74
744.1	215.54
744.542	220.64
744.983	276.64
745.425	307.54
745.866	302.54
746.307	250.64
746.749	243.44
747.19	276.34
747.632	387.74
748.073	732.74
748.514	1573.64
748.956	2479.14
749.397	3118.74
749.838	2587.44
750.279	2637.04
750.72	1312.34
751.162	481.44
751.603	280.04
752.044	218.84
752.485	190.14
752.926	184.84
753.367	178.14
753.808	164.84
754.249	172.54
754.69	164.94
755.131	156.34
755.572	157.94
756.013	148.94
756.453	168.34
756.894	166.84
757.335	166.14
757.776	170.64
758.216	175.54
758.657	172.04
759.098	182.94
759.538	197.84
759.979	226.34
760.42	322.84
760.86	592.74
761.301	1510.14
761.741	3777.44
762.182	5775.04
762.622	4072.94
