Data from 20171114-ORNL-Ar_H_NY_Subt18_08-04-56-930.txt Node
Date: Tue Nov 14 08:04:56 EST 2017
User: Ender
Spectrometer: HR+D1039
Trigger mode: 0
Integration Time (sec): 2.730000E-2
Scans to average: 10
Electric dark correction enabled: true
Nonlinearity correction enabled: false
Boxcar width: 0
XAxis mode: Wavelengths
Number of Pixels in Spectrum: 2048
>>>>>Begin Spectral Data<<<<<
187.836	-4.39
188.309	-4.39
188.782	-4.39
189.255	1.81
189.728	-0.29
190.201	2.81
190.674	4.91
191.147	5.71
191.619	-9.59
192.092	3.81
192.565	2.51
193.038	-5.29
193.511	-0.09
193.984	2.01
194.456	-0.89
194.929	-0.09
195.402	-4.49
195.874	1.61
196.347	2.11
196.82	-5.49
197.292	2.71
197.765	-0.89
198.237	-10.29
198.71	-1.19
199.182	-2.89
199.655	4.31
200.127	-0.49
200.6	-4.89
201.072	-2.59
201.544	-1.79
202.017	1.81
202.489	1.31
202.961	-1.89
203.433	-3.59
203.906	-5.99
204.378	-0.59
204.85	2.01
205.322	-11.39
205.794	-3.79
206.266	-2.29
206.739	-10.69
207.211	0.11
207.683	-4.09
208.155	-5.09
208.627	-7.39
209.099	1.11
209.57	-5.19
210.042	-3.49
210.514	-0.09
210.986	1.51
211.458	-4.79
211.93	-5.69
212.402	2.11
212.873	2.11
213.345	-10.79
213.817	-10.79
214.288	-3.09
214.76	-8.89
215.232	-2.09
215.703	-0.39
216.175	1.01
216.646	-2.79
217.118	-6.19
217.589	0.51
218.061	-1.19
218.532	-11.09
219.004	0.51
219.475	-4.39
219.946	-2.19
220.418	-1.09
220.889	0.51
221.36	-2.49
221.832	-5.19
222.303	-6.39
222.774	-1.49
223.245	-7.79
223.717	-12.49
224.188	-10.19
224.659	-5.99
225.13	-4.69
225.601	1.11
226.072	-6.29
226.543	1.11
227.014	-0.19
227.485	-6.79
227.956	-10.29
228.427	-1.89
228.898	-2.49
229.369	4.91
229.839	-0.79
230.31	-7.39
230.781	5.11
231.252	-2.69
231.722	-7.69
232.193	0.01
232.664	1.81
233.135	0.01
233.605	-1.99
234.076	-0.19
234.546	-1.29
235.017	8.51
235.487	5.21
235.958	2.01
236.428	-0.99
236.899	3.81
237.369	1.41
237.84	-3.29
238.31	5.61
238.78	4.01
239.251	1.61
239.721	2.01
240.191	-0.89
240.662	7.41
241.132	4.81
241.602	-3.29
242.072	2.71
242.542	13.91
243.013	-4.19
243.483	7.91
243.953	8.11
244.423	-0.09
244.893	-5.49
245.363	4.01
245.833	5.21
246.303	2.31
246.773	4.61
247.243	4.21
247.712	3.11
248.182	5.61
248.652	6.91
249.122	-1.09
249.592	13.71
250.061	19.01
250.531	34.71
251.001	22.21
251.471	23.31
251.94	16.91
252.41	9.41
252.879	1.01
253.349	8.21
253.818	7.71
254.288	5.71
254.757	6.31
255.227	5.71
255.696	8.01
256.166	7.71
256.635	11.41
257.105	10.01
257.574	7.41
258.043	14.01
258.513	13.61
258.982	21.81
259.451	13.11
259.92	8.71
260.389	11.81
260.859	21.81
261.328	14.01
261.797	17.21
262.266	10.41
262.735	18.61
263.204	6.81
263.673	7.01
264.142	9.51
264.611	-6.99
265.08	0.71
265.549	4.11
266.018	2.01
266.487	-0.59
266.955	-2.69
267.424	7.51
267.893	7.61
268.362	3.71
268.83	7.11
269.299	13.21
269.768	6.51
270.236	8.71
270.705	7.91
271.174	12.71
271.642	8.91
272.111	9.11
272.579	14.41
273.048	25.21
273.516	28.81
273.985	29.61
274.453	23.91
274.922	23.31
275.39	20.41
275.858	4.51
276.327	9.41
276.795	20.01
277.263	10.01
277.731	36.11
278.2	66.91
278.668	64.81
279.136	55.71
279.604	24.01
280.072	18.01
280.54	18.51
281.008	13.61
281.477	11.81
281.945	12.11
282.413	23.51
282.881	18.81
283.348	10.71
283.816	15.61
284.284	13.61
284.752	16.31
285.22	21.51
285.688	19.31
286.156	21.81
286.623	48.91
287.091	57.11
287.559	31.81
288.026	12.71
288.494	19.51
288.962	4.61
289.429	7.11
289.897	21.71
290.364	20.21
290.832	21.51
291.3	15.61
291.767	16.91
292.234	22.11
292.702	12.71
293.169	21.41
293.637	21.41
294.104	21.91
294.571	15.91
295.039	16.01
295.506	19.31
295.973	20.21
296.44	14.81
296.908	22.41
297.375	20.31
297.842	24.41
298.309	11.41
298.776	20.61
299.243	22.41
299.71	12.81
300.177	22.21
300.644	27.21
301.111	28.71
301.578	28.91
302.045	15.21
302.512	24.71
302.979	25.21
303.446	24.21
303.913	19.31
304.379	14.71
304.846	26.81
305.313	29.11
305.78	25.51
306.246	25.71
306.713	29.31
307.18	27.31
307.646	29.21
308.113	31.11
308.579	28.31
309.046	30.61
309.512	28.21
309.979	23.81
310.445	27.31
310.912	33.21
311.378	35.61
311.845	32.51
312.311	31.11
312.777	35.51
313.244	30.61
313.71	41.01
314.176	30.61
314.642	36.71
315.109	33.11
315.575	35.01
316.041	38.41
316.507	38.21
316.973	46.51
317.439	35.61
317.905	38.81
318.371	38.61
318.837	39.91
319.303	40.81
319.769	40.91
320.235	37.41
320.701	37.31
321.167	41.41
321.633	40.41
322.099	37.01
322.564	48.11
323.03	46.71
323.496	37.81
323.962	44.81
324.427	38.31
324.893	47.41
325.359	36.11
325.824	37.41
326.29	40.11
326.755	41.31
327.221	38.71
327.686	37.51
328.152	50.41
328.617	47.31
329.083	52.21
329.548	48.71
330.014	44.41
330.479	42.61
330.944	46.61
331.41	45.21
331.875	52.21
332.34	48.01
332.805	49.91
333.271	51.81
333.736	46.11
334.201	57.41
334.666	48.11
335.131	53.71
335.596	55.81
336.061	50.51
336.526	42.21
336.991	51.61
337.456	60.91
337.921	47.51
338.386	47.81
338.851	50.11
339.316	39.71
339.781	50.61
340.246	51.21
340.711	52.41
341.175	54.01
341.64	47.11
342.105	50.61
342.569	54.61
343.034	61.41
343.499	58.61
343.963	52.51
344.428	62.81
344.893	69.81
345.357	62.91
345.822	63.81
346.286	68.81
346.751	75.31
347.215	69.71
347.679	74.51
348.144	100.51
348.608	82.61
349.073	78.41
349.537	82.11
350.001	77.51
350.465	93.51
350.93	84.71
351.394	82.21
351.858	71.01
352.322	92.71
352.786	84.81
353.25	96.21
353.715	109.81
354.179	102.41
354.643	122.31
355.107	123.01
355.571	108.71
356.035	109.01
356.498	120.51
356.962	126.61
357.426	135.21
357.89	114.81
358.354	89.81
358.818	85.31
359.281	74.61
359.745	75.31
360.209	77.41
360.673	80.11
361.136	82.41
361.6	88.61
362.064	87.11
362.527	87.81
362.991	93.81
363.454	87.71
363.918	80.81
364.381	77.51
364.845	83.31
365.308	87.41
365.772	85.41
366.235	81.11
366.698	81.71
367.162	87.21
367.625	85.71
368.088	85.31
368.552	83.91
369.015	92.81
369.478	100.01
369.941	102.41
370.404	93.01
370.867	103.31
371.331	108.51
371.794	114.91
372.257	112.41
372.72	113.11
373.183	109.81
373.646	103.31
374.109	100.81
374.572	101.91
375.035	108.61
375.497	109.01
375.96	107.91
376.423	102.11
376.886	116.81
377.349	108.91
377.811	96.81
378.274	106.41
378.737	104.41
379.199	110.31
379.662	109.41
380.125	118.31
380.587	119.01
381.05	114.91
381.512	122.71
381.975	133.01
382.437	126.01
382.9	124.01
383.362	125.61
383.825	138.81
384.287	145.31
384.75	138.61
385.212	139.51
385.674	136.71
386.136	131.41
386.599	123.21
387.061	126.91
387.523	134.51
387.985	131.51
388.447	139.01
388.91	140.81
389.372	150.91
389.834	151.31
390.296	141.11
390.758	148.71
391.22	161.61
391.682	202.91
392.144	289.71
392.606	224.41
393.068	158.21
393.529	159.11
393.991	148.91
394.453	141.81
394.915	147.41
395.377	189.51
395.838	212.71
396.3	156.51
396.762	139.21
397.224	129.01
397.685	122.61
398.147	126.71
398.608	127.01
399.07	119.01
399.531	126.81
399.993	137.01
400.454	149.51
400.916	147.51
401.377	141.01
401.839	153.21
402.3	143.01
402.762	158.51
403.223	176.01
403.684	167.61
404.145	151.61
404.607	153.51
405.068	163.31
405.529	171.21
405.99	185.51
406.451	170.11
406.913	169.71
407.374	160.11
407.835	154.91
408.296	162.41
408.757	157.01
409.218	181.11
409.679	180.01
410.14	175.51
410.601	173.61
411.062	173.81
411.522	187.31
411.983	179.51
412.444	174.51
412.905	175.31
413.366	177.21
413.826	181.91
414.287	214.61
414.748	261.61
415.208	250.71
415.669	207.71
416.13	199.71
416.59	203.61
417.051	204.11
417.511	206.81
417.972	230.11
418.432	239.91
418.893	278.01
419.353	251.81
419.814	191.31
420.274	178.51
420.734	181.31
421.195	188.11
421.655	190.81
422.115	186.81
422.576	183.91
423.036	189.61
423.496	196.71
423.956	210.31
424.416	223.61
424.876	268.21
425.336	253.41
425.797	257.21
426.257	248.21
426.717	229.31
427.177	225.01
427.637	217.71
428.097	222.71
428.556	239.81
429.016	264.01
429.476	254.11
429.936	257.01
430.396	266.81
430.856	282.61
431.315	315.21
431.775	347.31
432.235	370.31
432.694	343.21
433.154	347.91
433.614	378.21
434.073	327.61
434.533	271.01
434.993	262.81
435.452	275.51
435.912	281.91
436.371	282.41
436.83	275.61
437.29	259.51
437.749	232.01
438.209	238.61
438.668	264.81
439.127	278.41
439.587	255.41
440.046	239.21
440.505	257.91
440.964	265.61
441.424	310.01
441.883	300.81
442.342	257.81
442.801	218.71
443.26	225.91
443.719	210.01
444.178	216.81
444.637	202.81
445.096	213.01
445.555	224.01
446.014	219.01
446.473	218.51
446.932	226.11
447.391	222.61
447.849	218.21
448.308	213.01
448.767	218.11
449.226	228.71
449.685	229.51
450.143	240.51
450.602	228.41
451.061	223.51
451.519	225.51
451.978	227.61
452.436	231.91
452.895	230.01
453.353	243.81
453.812	229.21
454.27	231.51
454.729	235.31
455.187	230.61
455.646	239.31
456.104	238.71
456.562	251.61
457.021	262.21
457.479	248.01
457.937	264.01
458.395	249.61
458.854	233.51
459.312	245.11
459.77	267.11
460.228	250.51
460.686	233.81
461.144	240.51
461.602	232.61
462.06	227.71
462.518	249.31
462.976	248.31
463.434	252.51
463.892	250.81
464.35	264.91
464.808	280.31
465.266	260.61
465.724	259.61
466.181	262.91
466.639	257.71
467.097	282.91
467.555	293.31
468.012	297.01
468.47	298.81
468.928	309.01
469.385	328.81
469.843	338.21
470.3	329.21
470.758	348.21
471.215	373.31
471.673	395.81
472.13	381.41
472.588	398.61
473.045	361.21
473.503	367.51
473.96	375.01
474.417	392.31
474.875	417.61
475.332	459.91
475.789	447.41
476.246	452.61
476.704	470.61
477.161	499.11
477.618	510.31
478.075	540.11
478.532	599.21
478.989	678.61
479.446	779.51
479.903	747.71
480.36	798.01
480.817	828.81
481.274	948.71
481.731	1040.01
482.188	1140.61
482.645	1272.21
483.102	1370.61
483.558	1500.11
484.015	1554.21
484.472	1535.81
484.929	1488.21
485.385	1443.91
485.842	1401.61
486.299	1339.11
486.755	1278.01
487.212	1068.21
487.668	897.81
488.125	828.41
488.582	758.91
489.038	725.61
489.494	694.91
489.951	671.81
490.407	651.71
490.864	632.91
491.32	624.41
491.776	623.41
492.233	629.21
492.689	601.91
493.145	579.01
493.602	570.71
494.058	596.01
494.514	592.51
494.97	614.61
495.426	626.71
495.882	609.31
496.338	588.51
496.794	610.91
497.251	595.11
497.707	629.01
498.163	629.71
498.618	626.31
499.074	628.61
499.53	658.21
499.986	653.91
500.442	641.21
500.898	614.41
501.354	602.31
501.809	614.01
502.265	627.21
502.721	645.31
503.177	650.21
503.632	641.61
504.088	659.61
504.543	695.41
504.999	685.81
505.455	645.21
505.91	623.81
506.366	613.31
506.821	610.81
507.277	604.21
507.732	606.31
508.187	612.11
508.643	615.61
509.098	616.21
509.553	627.41
510.009	649.31
510.464	649.41
510.919	661.71
511.375	677.71
511.83	691.71
512.285	698.71
512.74	742.11
513.195	760.21
513.65	748.81
514.105	753.81
514.56	746.21
515.015	778.21
515.47	781.71
515.925	771.51
516.38	765.81
516.835	773.11
517.29	760.01
517.745	757.41
518.2	747.21
518.655	731.51
519.109	724.61
519.564	715.31
520.019	711.81
520.474	703.71
520.928	706.31
521.383	688.61
521.838	688.81
522.292	692.31
522.747	689.31
523.201	680.51
523.656	677.01
524.11	660.71
524.565	669.21
525.019	669.31
525.474	673.71
525.928	675.41
526.382	676.51
526.837	673.31
527.291	679.91
527.745	666.61
528.2	676.81
528.654	668.51
529.108	666.81
529.562	668.61
530.016	674.91
530.47	669.91
530.925	663.21
531.379	666.01
531.833	677.71
532.287	673.81
532.741	673.41
533.195	678.91
533.649	691.91
534.103	692.11
534.556	677.51
535.01	696.21
535.464	686.41
535.918	690.21
536.372	696.31
536.826	696.91
537.279	681.01
537.733	687.61
538.187	693.01
538.64	692.11
539.094	703.21
539.548	696.51
540.001	705.31
540.455	700.51
540.908	712.31
541.362	720.11
541.815	713.11
542.269	724.71
542.722	728.81
543.175	739.01
543.629	739.21
544.082	750.71
544.536	761.51
544.989	750.51
545.442	752.21
545.895	750.61
546.349	753.01
546.802	752.61
547.255	758.61
547.708	771.41
548.161	781.21
548.614	796.61
549.067	795.01
549.52	786.91
549.973	777.31
550.426	783.51
550.879	763.21
551.332	764.51
551.785	768.71
552.238	768.51
552.691	777.71
553.144	791.11
553.596	811.91
554.049	835.61
554.502	866.21
554.955	871.11
555.407	870.51
555.86	874.81
556.313	873.91
556.765	841.01
557.218	846.31
557.67	844.41
558.123	839.71
558.576	835.31
559.028	844.11
559.48	849.11
559.933	824.91
560.385	808.21
560.838	779.81
561.29	752.11
561.742	751.41
562.195	723.11
562.647	731.21
563.099	736.41
563.551	735.41
564.004	741.81
564.456	734.21
564.908	726.01
565.36	717.61
565.812	697.91
566.264	687.61
566.716	680.31
567.168	679.61
567.62	688.81
568.072	665.61
568.524	663.11
568.976	663.71
569.428	638.11
569.88	640.71
570.332	641.01
570.784	657.11
571.235	644.11
571.687	657.21
572.139	673.51
572.59	672.81
573.042	676.11
573.494	677.31
573.945	663.21
574.397	651.31
574.849	656.61
575.3	649.21
575.752	648.71
576.203	650.81
576.655	644.91
577.106	637.41
577.557	627.91
578.009	625.21
578.46	638.71
578.912	633.81
579.363	633.91
579.814	623.41
580.265	626.51
580.717	632.71
581.168	637.41
581.619	635.51
582.07	640.61
582.521	642.21
582.972	646.01
583.423	639.91
583.875	647.21
584.326	657.71
584.777	702.11
585.227	770.31
585.678	856.41
586.129	934.71
586.58	1009.21
587.031	1096.71
587.482	1261.31
587.933	1426.31
588.384	1228.41
588.834	910.91
589.285	762.71
589.736	736.81
590.186	723.01
590.637	719.21
591.088	700.31
591.538	683.61
591.989	691.81
592.439	683.51
592.89	669.81
593.34	664.81
593.791	659.61
594.241	661.61
594.692	661.41
595.142	661.01
595.593	656.11
596.043	667.51
596.493	672.81
596.943	673.31
597.394	680.61
597.844	667.51
598.294	678.51
598.744	699.91
599.195	718.71
599.645	754.11
600.095	804.81
600.545	851.21
600.995	902.21
601.445	958.21
601.895	1012.41
602.345	1062.91
602.795	1032.81
603.245	995.31
603.695	950.31
604.145	887.31
604.594	844.81
605.044	811.91
605.494	739.71
605.944	704.31
606.393	697.01
606.843	689.21
607.293	684.31
607.743	682.11
608.192	693.51
608.642	712.21
609.091	700.91
609.541	711.81
609.99	715.41
610.44	710.21
610.889	668.71
611.339	649.51
611.788	641.31
612.238	650.41
612.687	664.31
613.136	665.61
613.586	681.81
614.035	679.11
614.484	693.61
614.933	706.11
615.383	691.21
615.832	682.41
616.281	676.11
616.73	637.41
617.179	619.51
617.628	609.71
618.077	586.21
618.526	573.21
618.975	568.91
619.424	566.01
619.873	566.91
620.322	572.21
620.771	567.51
621.22	554.31
621.669	545.31
622.118	550.11
622.567	532.81
623.015	526.81
623.464	521.81
623.913	516.21
624.361	504.81
624.81	501.81
625.259	508.01
625.707	512.91
626.156	517.01
626.604	520.51
627.053	519.41
627.501	519.61
627.95	523.91
628.398	536.81
628.847	527.71
629.295	526.11
629.744	533.61
630.192	522.51
630.64	519.71
631.089	515.31
631.537	532.11
631.985	538.51
632.433	548.81
632.881	547.11
633.33	601.31
633.778	588.01
634.226	524.41
634.674	522.81
635.122	529.91
635.57	545.41
636.018	568.71
636.466	526.91
636.914	510.31
637.362	523.21
637.81	519.51
638.258	529.11
638.705	534.61
639.153	552.41
639.601	557.81
640.049	578.21
640.497	625.51
640.944	629.31
641.392	584.41
641.84	556.31
642.287	532.81
642.735	517.71
643.182	527.81
643.63	519.91
644.078	523.01
644.525	535.21
644.973	544.31
645.42	556.21
645.867	564.11
646.315	577.61
646.762	592.91
647.21	617.01
647.657	658.11
648.104	678.61
648.551	708.21
648.999	751.61
649.446	828.41
649.893	908.21
650.34	1047.71
650.787	1267.41
651.234	1545.71
651.682	2011.51
652.129	2748.51
652.576	3960.61
653.023	5858.91
653.47	8099.11
653.917	10157.21
654.363	11889.81
654.81	13308.81
655.257	12661.71
655.704	8240.81
656.151	4841.61
656.598	3144.41
657.044	2219.71
657.491	1706.91
657.938	1364.21
658.385	1135.31
658.831	983.11
659.278	875.81
659.724	779.01
660.171	718.11
660.618	658.91
661.064	624.71
661.511	602.81
661.957	601.11
662.404	582.91
662.85	589.21
663.296	564.11
663.743	511.91
664.189	489.91
664.635	484.51
665.082	466.01
665.528	468.51
665.974	470.81
666.42	467.21
666.867	455.91
667.313	442.31
667.759	428.71
668.205	433.51
668.651	438.51
669.097	430.51
669.543	447.41
669.989	420.51
670.435	407.21
670.881	400.51
671.327	410.21
671.773	423.81
672.219	441.31
672.665	479.91
673.11	522.31
673.556	564.21
674.002	602.21
674.448	588.81
674.893	485.11
675.339	428.11
675.785	397.61
676.23	382.91
676.676	352.01
677.122	345.31
677.567	341.31
678.013	322.01
678.458	321.61
678.904	318.31
679.349	312.31
679.794	318.21
680.24	313.31
680.685	318.61
681.131	310.41
681.576	323.01
682.021	317.91
682.466	314.31
682.912	311.01
683.357	313.01
683.802	341.11
684.247	364.41
684.692	399.51
685.137	441.31
685.583	484.21
686.028	503.11
686.473	468.71
686.918	400.91
687.363	376.21
687.807	364.11
688.252	331.51
688.697	312.41
689.142	309.41
689.587	297.11
690.032	297.31
690.477	298.61
690.921	314.11
691.366	345.61
691.811	354.11
692.255	382.41
692.7	414.81
693.145	448.81
693.589	607.91
694.034	986.61
694.478	1369.01
694.923	1560.31
695.367	2066.81
695.812	1077.01
696.256	452.81
696.701	334.91
697.145	304.71
697.59	288.11
698.034	285.21
698.478	304.31
698.922	285.81
699.367	294.41
699.811	299.21
700.255	315.51
700.699	341.61
701.143	373.91
701.588	420.31
702.032	464.11
702.476	448.21
702.92	439.81
703.364	444.71
703.808	542.01
704.252	896.01
704.696	1279.41
705.14	1503.01
705.584	1932.81
706.027	954.31
706.471	465.01
706.915	358.61
707.359	313.91
707.803	282.91
708.246	269.01
708.69	280.21
709.134	284.21
709.577	276.61
710.021	282.51
710.465	273.21
710.908	264.81
711.352	261.71
711.795	272.81
712.239	311.31
712.682	345.11
713.126	369.61
713.569	418.21
714.012	327.41
714.456	287.11
714.899	267.21
715.342	248.31
715.786	227.41
716.229	235.31
716.672	223.91
717.115	225.11
717.558	220.91
718.002	220.91
718.445	237.81
718.888	259.01
719.331	252.81
719.774	275.61
720.217	275.81
720.66	259.21
721.103	237.41
721.546	220.91
721.989	217.01
722.432	202.41
722.874	214.61
723.317	203.11
723.76	209.11
724.203	234.61
724.645	277.21
725.088	389.71
725.531	505.41
725.974	583.21
726.416	488.61
726.859	272.01
727.301	217.31
727.744	212.01
728.187	205.81
728.629	212.11
729.071	214.61
729.514	231.51
729.956	240.81
730.399	257.91
730.841	250.41
731.283	241.21
731.726	231.61
732.168	230.01
732.61	232.11
733.053	251.11
733.495	275.11
733.937	304.71
734.379	345.41
734.821	384.01
735.263	470.51
735.705	719.01
736.148	1349.21
736.59	2268.31
737.032	2781.21
737.474	2264.91
737.916	714.21
738.357	381.51
738.799	290.71
739.241	260.81
739.683	250.91
740.125	262.21
740.567	258.91
741.008	282.91
741.45	275.31
741.892	286.31
742.334	311.31
742.775	314.61
743.217	308.91
743.658	239.61
744.1	223.81
744.542	228.31
744.983	276.41
745.425	308.21
745.866	306.61
746.307	256.21
746.749	243.91
747.19	286.01
747.632	396.81
748.073	751.71
748.514	1605.91
748.956	2526.51
749.397	3173.01
749.838	2644.91
750.279	2692.41
750.72	1361.31
751.162	485.51
751.603	277.21
752.044	224.81
752.485	194.61
752.926	178.51
753.367	173.61
753.808	175.31
754.249	172.41
754.69	164.31
755.131	161.21
755.572	155.61
756.013	157.81
756.453	163.51
756.894	162.51
757.335	163.11
757.776	174.61
758.216	169.01
758.657	170.21
759.098	173.41
759.538	199.91
759.979	231.91
760.42	325.11
760.86	601.01
761.301	1564.11
761.741	3852.41
762.182	5878.61
762.622	4129.21
