Data from 20171114-ORNL-Ar_H_NY_Subt18_08-09-20-138.txt Node
Date: Tue Nov 14 08:09:20 EST 2017
User: Ender
Spectrometer: HR+D1039
Trigger mode: 0
Integration Time (sec): 2.730000E-2
Scans to average: 10
Electric dark correction enabled: true
Nonlinearity correction enabled: false
Boxcar width: 0
XAxis mode: Wavelengths
Number of Pixels in Spectrum: 2048
>>>>>Begin Spectral Data<<<<<
187.836	-7.11
188.309	-7.11
188.782	-7.11
189.255	0.59
189.728	-0.91
190.201	4.69
190.674	1.69
191.147	2.19
191.619	-3.81
192.092	8.09
192.565	1.59
193.038	0.09
193.511	-0.71
193.984	-4.11
194.456	-3.21
194.929	2.99
195.402	-0.01
195.874	-2.11
196.347	1.79
196.82	-8.91
197.292	5.49
197.765	-3.01
198.237	-5.01
198.71	-4.21
199.182	0.09
199.655	5.29
200.127	3.19
200.6	1.49
201.072	1.89
201.544	-1.01
202.017	-5.51
202.489	9.89
202.961	-4.61
203.433	-1.21
203.906	-8.41
204.378	-6.21
204.85	-2.21
205.322	-4.21
205.794	-1.71
206.266	-7.21
206.739	-7.41
207.211	-0.31
207.683	-9.11
208.155	-4.11
208.627	-5.31
209.099	-0.41
209.57	-7.71
210.042	-5.81
210.514	-6.41
210.986	-4.31
211.458	-11.11
211.93	-6.31
212.402	2.69
212.873	-10.11
213.345	-6.81
213.817	-13.21
214.288	-0.01
214.76	-16.91
215.232	-3.21
215.703	-5.01
216.175	-2.41
216.646	-11.81
217.118	-5.71
217.589	-2.11
218.061	0.29
218.532	-3.41
219.004	-4.81
219.475	-0.21
219.946	-6.91
220.418	0.79
220.889	-1.51
221.36	3.19
221.832	-9.81
222.303	-7.21
222.774	1.79
223.245	-10.61
223.717	-5.41
224.188	-8.61
224.659	-5.01
225.13	-5.61
225.601	-0.61
226.072	0.69
226.543	-9.11
227.014	-0.61
227.485	-3.21
227.956	-5.41
228.427	-4.51
228.898	2.29
229.369	-1.91
229.839	-4.21
230.31	-5.51
230.781	2.49
231.252	-2.71
231.722	-11.41
232.193	-1.51
232.664	-1.61
233.135	-2.21
233.605	-8.81
234.076	-8.11
234.546	0.59
235.017	-3.21
235.487	-3.71
235.958	-2.81
236.428	-1.91
236.899	-5.51
237.369	-5.71
237.84	-4.91
238.31	-1.01
238.78	-7.11
239.251	-8.21
239.721	-1.91
240.191	-5.31
240.662	-1.91
241.132	-9.31
241.602	-4.21
242.072	-2.81
242.542	-2.81
243.013	-5.71
243.483	1.09
243.953	-2.91
244.423	-7.71
244.893	-5.71
245.363	-0.11
245.833	-5.11
246.303	-7.51
246.773	-0.01
247.243	-1.31
247.712	-2.21
248.182	4.19
248.652	-4.01
249.122	-8.51
249.592	-4.61
250.061	-2.21
250.531	7.09
251.001	-2.31
251.471	6.39
251.94	6.89
252.41	-1.61
252.879	-10.01
253.349	7.59
253.818	1.19
254.288	4.99
254.757	-2.21
255.227	-6.51
255.696	-2.41
256.166	0.69
256.635	0.29
257.105	-0.11
257.574	-0.11
258.043	-4.91
258.513	-3.51
258.982	1.39
259.451	-4.11
259.92	2.89
260.389	-5.11
260.859	4.29
261.328	-6.21
261.797	-0.21
262.266	-0.51
262.735	3.49
263.204	-0.31
263.673	-1.81
264.142	-0.41
264.611	-5.41
265.08	-0.91
265.549	-0.71
266.018	1.09
266.487	-12.71
266.955	-6.11
267.424	-9.81
267.893	2.49
268.362	-7.81
268.83	-2.51
269.299	4.59
269.768	-1.91
270.236	-1.61
270.705	-5.51
271.174	4.19
271.642	-0.81
272.111	4.19
272.579	1.79
273.048	4.09
273.516	-6.11
273.985	1.29
274.453	5.89
274.922	3.49
275.39	7.39
275.858	-7.71
276.327	2.69
276.795	9.59
277.263	-2.51
277.731	9.89
278.2	4.69
278.668	4.79
279.136	-0.11
279.604	4.89
280.072	4.19
280.54	5.69
281.008	5.79
281.477	6.19
281.945	2.99
282.413	5.49
282.881	9.39
283.348	0.89
283.816	4.19
284.284	2.79
284.752	7.79
285.22	3.99
285.688	9.29
286.156	10.29
286.623	10.79
287.091	6.09
287.559	2.99
288.026	7.59
288.494	8.09
288.962	-1.81
289.429	-2.31
289.897	6.79
290.364	6.09
290.832	11.59
291.3	12.99
291.767	4.79
292.234	6.49
292.702	-2.11
293.169	11.09
293.637	11.29
294.104	7.99
294.571	1.39
295.039	0.59
295.506	3.19
295.973	4.19
296.44	4.99
296.908	3.79
297.375	8.79
297.842	12.29
298.309	8.69
298.776	6.19
299.243	12.79
299.71	-1.11
300.177	8.69
300.644	15.69
301.111	10.69
301.578	14.09
302.045	4.39
302.512	17.19
302.979	17.29
303.446	12.09
303.913	12.29
304.379	8.19
304.846	18.39
305.313	13.89
305.78	17.79
306.246	9.49
306.713	14.79
307.18	15.39
307.646	14.49
308.113	14.69
308.579	9.39
309.046	15.79
309.512	13.69
309.979	7.49
310.445	18.99
310.912	13.99
311.378	21.59
311.845	19.79
312.311	15.89
312.777	18.29
313.244	19.99
313.71	21.79
314.176	15.59
314.642	16.89
315.109	19.39
315.575	24.79
316.041	29.19
316.507	18.49
316.973	20.29
317.439	20.79
317.905	23.59
318.371	24.29
318.837	20.99
319.303	19.59
319.769	19.59
320.235	19.79
320.701	22.59
321.167	20.49
321.633	20.89
322.099	26.69
322.564	26.09
323.03	25.29
323.496	24.29
323.962	19.79
324.427	22.79
324.893	30.79
325.359	21.79
325.824	26.39
326.29	21.79
326.755	27.39
327.221	20.19
327.686	23.99
328.152	33.19
328.617	28.69
329.083	36.19
329.548	38.89
330.014	33.59
330.479	24.89
330.944	30.99
331.41	29.19
331.875	28.19
332.34	27.89
332.805	29.29
333.271	31.89
333.736	28.39
334.201	38.19
334.666	41.09
335.131	40.39
335.596	33.69
336.061	35.69
336.526	25.79
336.991	32.59
337.456	42.69
337.921	37.49
338.386	32.59
338.851	32.09
339.316	34.09
339.781	36.59
340.246	41.59
340.711	34.29
341.175	41.89
341.64	32.89
342.105	33.89
342.569	41.99
343.034	43.59
343.499	45.59
343.963	29.19
344.428	48.59
344.893	45.59
345.357	49.39
345.822	47.69
346.286	47.89
346.751	58.89
347.215	46.99
347.679	52.89
348.144	68.29
348.608	67.59
349.073	54.29
349.537	60.99
350.001	59.89
350.465	68.29
350.93	68.69
351.394	61.19
351.858	56.19
352.322	69.29
352.786	69.69
353.25	79.29
353.715	81.89
354.179	70.49
354.643	90.49
355.107	85.29
355.571	76.89
356.035	77.19
356.498	85.39
356.962	81.69
357.426	87.09
357.89	82.49
358.354	66.19
358.818	58.69
359.281	67.19
359.745	57.09
360.209	59.79
360.673	48.19
361.136	59.69
361.6	68.79
362.064	67.59
362.527	65.99
362.991	73.59
363.454	69.79
363.918	59.39
364.381	66.29
364.845	63.99
365.308	69.59
365.772	70.69
366.235	74.59
366.698	71.29
367.162	63.39
367.625	68.19
368.088	65.89
368.552	70.79
369.015	72.09
369.478	82.19
369.941	76.49
370.404	80.19
370.867	86.59
371.331	87.19
371.794	88.39
372.257	76.09
372.72	86.29
373.183	88.69
373.646	74.69
374.109	74.09
374.572	77.39
375.035	83.99
375.497	88.19
375.96	90.49
376.423	88.09
376.886	95.89
377.349	89.39
377.811	80.39
378.274	91.39
378.737	92.69
379.199	91.89
379.662	95.39
380.125	98.49
380.587	87.59
381.05	97.79
381.512	96.49
381.975	108.99
382.437	98.99
382.9	100.79
383.362	101.29
383.825	106.49
384.287	106.29
384.75	102.99
385.212	105.69
385.674	108.49
386.136	117.49
386.599	99.29
387.061	112.49
387.523	106.89
387.985	110.39
388.447	114.99
388.91	114.89
389.372	113.59
389.834	115.89
390.296	112.59
390.758	115.39
391.22	119.09
391.682	118.59
392.144	134.79
392.606	123.69
393.068	125.89
393.529	140.59
393.991	126.19
394.453	116.49
394.915	113.49
395.377	120.29
395.838	117.99
396.3	125.19
396.762	126.19
397.224	119.39
397.685	119.69
398.147	118.99
398.608	118.69
399.07	115.29
399.531	126.19
399.993	126.69
400.454	140.39
400.916	133.89
401.377	130.79
401.839	139.79
402.3	139.89
402.762	154.39
403.223	159.89
403.684	147.79
404.145	146.69
404.607	149.39
405.068	157.69
405.529	154.39
405.99	169.39
406.451	157.89
406.913	161.89
407.374	149.69
407.835	150.09
408.296	160.59
408.757	161.19
409.218	163.39
409.679	168.09
410.14	163.29
410.601	157.79
411.062	170.09
411.522	169.69
411.983	163.19
412.444	158.09
412.905	166.79
413.366	169.39
413.826	190.49
414.287	211.79
414.748	252.89
415.208	240.69
415.669	200.99
416.13	196.29
416.59	193.89
417.051	201.89
417.511	213.79
417.972	227.69
418.432	239.49
418.893	281.49
419.353	246.79
419.814	194.29
420.274	183.59
420.734	172.09
421.195	184.39
421.655	179.89
422.115	180.09
422.576	189.99
423.036	190.19
423.496	200.09
423.956	208.79
424.416	223.59
424.876	258.89
425.336	241.49
425.797	248.39
426.257	233.59
426.717	229.29
427.177	220.19
427.637	205.19
428.097	222.89
428.556	227.89
429.016	253.69
429.476	244.09
429.936	258.49
430.396	259.59
430.856	276.49
431.315	293.49
431.775	323.99
432.235	348.59
432.694	332.69
433.154	339.89
433.614	357.59
434.073	312.59
434.533	267.19
434.993	253.89
435.452	260.29
435.912	279.79
436.371	266.29
436.83	264.99
437.29	253.99
437.749	230.69
438.209	225.79
438.668	260.39
439.127	273.59
439.587	253.89
440.046	241.19
440.505	250.49
440.964	273.09
441.424	302.09
441.883	298.89
442.342	250.59
442.801	221.09
443.26	222.19
443.719	220.59
444.178	217.69
444.637	211.59
445.096	209.69
445.555	220.39
446.014	223.69
446.473	220.59
446.932	221.69
447.391	223.29
447.849	229.59
448.308	211.29
448.767	219.49
449.226	238.79
449.685	231.89
450.143	250.09
450.602	241.49
451.061	230.09
451.519	228.49
451.978	227.19
452.436	233.09
452.895	231.89
453.353	246.29
453.812	236.29
454.27	237.79
454.729	235.39
455.187	234.59
455.646	238.19
456.104	245.29
456.562	254.69
457.021	260.59
457.479	258.99
457.937	266.49
458.395	261.49
458.854	242.39
459.312	253.49
459.77	262.69
460.228	254.39
460.686	246.09
461.144	246.09
461.602	244.59
462.06	243.99
462.518	256.39
462.976	261.69
463.434	259.69
463.892	260.99
464.35	270.79
464.808	287.09
465.266	270.89
465.724	271.69
466.181	278.39
466.639	269.79
467.097	285.49
467.555	299.69
468.012	306.39
468.47	311.89
468.928	317.39
469.385	335.09
469.843	344.09
470.3	343.59
470.758	356.89
471.215	375.59
471.673	393.69
472.13	394.59
472.588	413.69
473.045	364.19
473.503	374.49
473.96	397.09
474.417	398.09
474.875	425.79
475.332	463.89
475.789	459.19
476.246	452.39
476.704	481.39
477.161	503.59
477.618	514.59
478.075	549.79
478.532	596.99
478.989	666.89
479.446	779.59
479.903	738.99
480.36	756.59
480.817	806.79
481.274	899.69
481.731	989.29
482.188	1057.99
482.645	1181.19
483.102	1253.89
483.558	1378.99
484.015	1414.89
484.472	1382.89
484.929	1346.59
485.385	1302.69
485.842	1272.29
486.299	1231.69
486.755	1206.39
487.212	1018.99
487.668	877.59
488.125	805.49
488.582	745.89
489.038	722.79
489.494	695.09
489.951	670.49
490.407	656.49
490.864	631.29
491.32	627.79
491.776	629.69
492.233	632.99
492.689	594.59
493.145	595.39
493.602	599.39
494.058	603.29
494.514	611.89
494.97	627.89
495.426	644.09
495.882	619.69
496.338	603.19
496.794	614.09
497.251	610.69
497.707	619.79
498.163	624.79
498.618	642.29
499.074	639.09
499.53	659.49
499.986	657.09
500.442	640.19
500.898	616.09
501.354	612.89
501.809	620.79
502.265	619.49
502.721	626.79
503.177	634.29
503.632	642.59
504.088	647.59
504.543	661.89
504.999	677.09
505.455	653.09
505.91	630.09
506.366	623.49
506.821	629.39
507.277	635.29
507.732	634.89
508.187	635.89
508.643	640.19
509.098	641.09
509.553	667.19
510.009	678.09
510.464	672.19
510.919	688.59
511.375	697.09
511.83	714.79
512.285	725.79
512.74	752.89
513.195	776.79
513.65	766.79
514.105	766.29
514.56	758.69
515.015	790.09
515.47	788.99
515.925	780.29
516.38	781.39
516.835	788.99
517.29	781.69
517.745	767.39
518.2	763.59
518.655	753.99
519.109	756.39
519.564	730.59
520.019	726.59
520.474	727.49
520.928	731.19
521.383	721.29
521.838	712.89
522.292	724.29
522.747	715.29
523.201	717.99
523.656	709.29
524.11	700.19
524.565	699.39
525.019	694.19
525.474	699.79
525.928	704.29
526.382	703.19
526.837	704.49
527.291	709.59
527.745	691.39
528.2	712.79
528.654	693.89
529.108	700.69
529.562	698.89
530.016	694.19
530.47	687.99
530.925	687.59
531.379	697.39
531.833	706.39
532.287	704.29
532.741	701.79
533.195	701.99
533.649	710.79
534.103	719.79
534.556	711.59
535.01	706.29
535.464	707.39
535.918	714.49
536.372	724.09
536.826	723.09
537.279	709.69
537.733	719.69
538.187	719.39
538.64	715.19
539.094	718.69
539.548	736.09
540.001	731.79
540.455	728.29
540.908	744.59
541.362	751.49
541.815	752.49
542.269	763.09
542.722	770.79
543.175	773.39
543.629	780.19
544.082	795.59
544.536	794.89
544.989	782.89
545.442	804.29
545.895	800.59
546.349	801.69
546.802	807.29
547.255	816.69
547.708	813.39
548.161	825.69
548.614	835.49
549.067	832.09
549.52	837.19
549.973	821.89
550.426	816.19
550.879	801.69
551.332	820.09
551.785	827.79
552.238	825.49
552.691	829.69
553.144	842.29
553.596	867.59
554.049	878.39
554.502	902.99
554.955	926.19
555.407	922.99
555.86	917.39
556.313	900.39
556.765	898.59
557.218	896.49
557.67	896.09
558.123	882.89
558.576	890.69
559.028	880.69
559.48	897.79
559.933	896.89
560.385	845.29
560.838	820.59
561.29	799.19
561.742	797.99
562.195	789.39
562.647	787.59
563.099	798.39
563.551	787.69
564.004	797.49
564.456	776.99
564.908	772.59
565.36	758.69
565.812	743.99
566.264	733.99
566.716	735.19
567.168	721.29
567.62	719.29
568.072	710.69
568.524	702.09
568.976	704.09
569.428	701.69
569.88	698.39
570.332	696.49
570.784	697.19
571.235	697.69
571.687	707.29
572.139	722.09
572.59	720.59
573.042	729.39
573.494	724.89
573.945	721.19
574.397	702.79
574.849	709.19
575.3	708.19
575.752	697.29
576.203	684.59
576.655	703.99
577.106	689.29
577.557	680.19
578.009	687.99
578.46	681.59
578.912	683.49
579.363	678.89
579.814	685.29
580.265	673.09
580.717	689.29
581.168	680.89
581.619	687.29
582.07	696.89
582.521	680.69
582.972	690.39
583.423	687.69
583.875	677.69
584.326	694.49
584.777	708.49
585.227	725.99
585.678	729.39
586.129	745.89
586.58	768.89
587.031	782.99
587.482	805.09
587.933	822.99
588.384	821.49
588.834	793.59
589.285	783.09
589.736	792.49
590.186	791.29
590.637	773.29
591.088	763.99
591.538	755.19
591.989	750.79
592.439	736.49
592.89	727.89
593.34	720.49
593.791	712.89
594.241	708.29
594.692	712.29
595.142	710.09
595.593	718.69
596.043	703.09
596.493	716.89
596.943	722.49
597.394	736.89
597.844	736.39
598.294	759.79
598.744	782.49
599.195	794.79
599.645	841.79
600.095	883.29
600.545	942.99
600.995	990.99
601.445	1049.79
601.895	1106.29
602.345	1170.59
602.795	1130.49
603.245	1097.79
603.695	1040.69
604.145	985.29
604.594	934.69
605.044	888.69
605.494	825.99
605.944	772.29
606.393	755.59
606.843	745.89
607.293	749.49
607.743	740.19
608.192	756.29
608.642	777.39
609.091	785.39
609.541	774.89
609.99	781.29
610.44	766.69
610.889	730.19
611.339	715.69
611.788	695.49
612.238	695.89
612.687	713.29
613.136	715.69
613.586	727.59
614.035	712.69
614.484	724.29
614.933	723.69
615.383	719.59
615.832	717.29
616.281	716.19
616.73	684.99
617.179	657.09
617.628	663.19
618.077	644.89
618.526	633.69
618.975	633.19
619.424	630.89
619.873	630.29
620.322	637.99
620.771	624.39
621.22	607.89
621.669	612.89
622.118	604.89
622.567	592.99
623.015	582.39
623.464	577.39
623.913	566.89
624.361	565.99
624.81	567.69
625.259	570.59
625.707	556.69
626.156	574.79
626.604	583.09
627.053	574.39
627.501	573.59
627.95	585.19
628.398	600.39
628.847	585.09
629.295	585.69
629.744	590.69
630.192	577.89
630.64	577.29
631.089	552.99
631.537	558.89
631.985	539.19
632.433	544.49
632.881	529.39
633.33	531.59
633.778	540.09
634.226	526.49
634.674	555.79
635.122	556.29
635.57	568.39
636.018	570.59
636.466	578.99
636.914	566.39
637.362	579.49
637.81	593.89
638.258	594.39
638.705	601.99
639.153	626.99
639.601	641.19
640.049	664.09
640.497	691.19
640.944	703.59
641.392	655.59
641.84	630.59
642.287	599.89
642.735	577.19
643.182	570.59
643.63	586.09
644.078	573.19
644.525	589.09
644.973	589.79
645.42	608.49
645.867	628.09
646.315	637.79
646.762	674.09
647.21	696.69
647.657	721.99
648.104	742.59
648.551	770.29
648.999	828.99
649.446	903.99
649.893	982.49
650.34	1116.59
650.787	1346.39
651.234	1663.49
651.682	2143.69
652.129	2910.59
652.576	4147.89
653.023	6044.89
653.47	8138.69
653.917	10002.19
654.363	11415.19
654.81	12548.39
655.257	11882.59
655.704	7831.69
656.151	4739.89
656.598	3132.59
657.044	2224.89
657.491	1749.09
657.938	1413.49
658.385	1194.59
658.831	1040.59
659.278	934.69
659.724	838.09
660.171	787.19
660.618	717.49
661.064	678.29
661.511	662.29
661.957	653.19
662.404	644.89
662.85	661.69
663.296	623.29
663.743	562.59
664.189	547.19
664.635	553.99
665.082	532.59
665.528	539.99
665.974	531.79
666.42	526.69
666.867	518.99
667.313	491.19
667.759	481.39
668.205	465.99
668.651	461.29
669.097	460.19
669.543	453.79
669.989	455.49
670.435	467.09
670.881	463.99
671.327	470.19
671.773	487.19
672.219	511.49
672.665	569.79
673.11	614.59
673.556	660.09
674.002	694.69
674.448	679.09
674.893	582.19
675.339	495.09
675.785	462.09
676.23	427.49
676.676	409.69
677.122	401.39
677.567	383.99
678.013	382.19
678.458	376.09
678.904	371.19
679.349	366.09
679.794	363.99
680.24	371.69
680.685	364.49
681.131	360.29
681.576	367.79
682.021	362.49
682.466	363.19
682.912	360.49
683.357	367.59
683.802	396.09
684.247	429.29
684.692	475.69
685.137	517.79
685.583	559.29
686.028	585.69
686.473	541.39
686.918	466.69
687.363	430.89
687.807	410.19
688.252	376.29
688.697	369.49
689.142	345.69
689.587	350.29
690.032	349.09
690.477	356.09
690.921	361.89
691.366	400.89
691.811	424.39
692.255	454.89
692.7	482.59
693.145	528.59
693.589	765.19
694.034	1221.79
694.478	1642.39
694.923	1818.79
695.367	2362.49
695.812	1255.89
696.256	520.19
696.701	384.49
697.145	360.69
697.59	340.29
698.034	325.69
698.478	335.59
698.922	330.29
699.367	334.59
699.811	345.79
700.255	366.89
700.699	403.29
701.143	443.99
701.588	504.99
702.032	538.49
702.476	537.69
702.92	508.49
703.364	525.69
703.808	694.79
704.252	1127.09
704.696	1568.49
705.14	1745.79
705.584	2218.99
706.027	1120.79
706.471	557.19
706.915	416.29
707.359	370.89
707.803	336.79
708.246	326.79
708.69	326.49
709.134	327.29
709.577	327.29
710.021	328.39
710.465	321.39
710.908	313.39
711.352	311.49
711.795	326.39
712.239	366.99
712.682	407.19
713.126	422.59
713.569	466.09
714.012	370.49
714.456	314.09
714.899	304.19
715.342	287.09
715.786	271.09
716.229	262.49
716.672	263.29
717.115	258.39
717.558	259.59
718.002	257.49
718.445	276.89
718.888	297.39
719.331	308.99
719.774	322.49
720.217	314.19
720.66	295.99
721.103	281.09
721.546	267.09
721.989	254.09
722.432	247.09
722.874	247.39
723.317	234.39
723.76	250.89
724.203	263.29
724.645	337.49
725.088	473.29
725.531	604.79
725.974	659.69
726.416	570.09
726.859	329.09
727.301	265.39
727.744	256.49
728.187	245.99
728.629	248.69
729.071	253.79
729.514	265.99
729.956	277.59
730.399	297.49
730.841	300.89
731.283	286.49
731.726	273.79
732.168	273.99
732.61	284.19
733.053	298.89
733.495	346.39
733.937	380.09
734.379	417.59
734.821	475.69
735.263	602.99
735.705	930.39
736.148	1755.29
736.59	2787.39
737.032	3159.89
737.474	2599.49
737.916	859.09
738.357	457.59
738.799	351.69
739.241	309.89
739.683	305.39
740.125	304.09
740.567	320.69
741.008	332.19
741.45	342.89
741.892	336.99
742.334	370.89
742.775	379.09
743.217	358.69
743.658	288.69
744.1	269.79
744.542	289.39
744.983	338.09
745.425	368.39
745.866	357.29
746.307	287.99
746.749	293.99
747.19	349.19
747.632	495.29
748.073	989.09
748.514	2063.89
748.956	3028.29
749.397	3835.59
749.838	3158.09
750.279	3084.69
750.72	1576.79
751.162	590.99
751.603	344.99
752.044	267.49
752.485	232.59
752.926	221.69
753.367	212.09
753.808	204.99
754.249	197.09
754.69	196.79
755.131	191.19
755.572	193.39
756.013	186.39
756.453	190.39
756.894	194.89
757.335	202.69
757.776	205.79
758.216	206.99
758.657	211.19
759.098	212.39
759.538	244.39
759.979	296.79
760.42	412.89
760.86	791.09
761.301	2109.49
761.741	4883.69
762.182	6703.09
762.622	4721.69
763.063	1403.19
763.503	575.09
763.943	344.09
