Data from 20171114-ORNL-Ar_H_NY_Subt18_08-08-23-027.txt Node
Date: Tue Nov 14 08:08:23 EST 2017
User: Ender
Spectrometer: HR+D1039
Trigger mode: 0
Integration Time (sec): 2.730000E-2
Scans to average: 10
Electric dark correction enabled: true
Nonlinearity correction enabled: false
Boxcar width: 0
XAxis mode: Wavelengths
Number of Pixels in Spectrum: 2048
>>>>>Begin Spectral Data<<<<<
187.836	-4.06
188.309	-4.06
188.782	-4.06
189.255	-2.76
189.728	2.74
190.201	2.54
190.674	2.34
191.147	1.14
191.619	-8.96
192.092	-0.56
192.565	5.14
193.038	2.74
193.511	-0.86
193.984	-1.16
194.456	-0.16
194.929	1.84
195.402	-3.66
195.874	3.64
196.347	0.94
196.82	-6.76
197.292	6.04
197.765	-2.56
198.237	-11.06
198.71	2.94
199.182	-5.26
199.655	-0.76
200.127	3.84
200.6	-1.46
201.072	-2.36
201.544	-3.96
202.017	-2.96
202.489	8.14
202.961	-4.06
203.433	-5.66
203.906	-7.16
204.378	-8.16
204.85	-9.16
205.322	-11.36
205.794	-1.66
206.266	-1.76
206.739	-6.36
207.211	2.14
207.683	-8.16
208.155	-3.16
208.627	-11.96
209.099	-1.66
209.57	-13.26
210.042	-8.26
210.514	-11.86
210.986	-2.46
211.458	-6.66
211.93	-6.66
212.402	0.84
212.873	-6.06
213.345	-8.86
213.817	-11.46
214.288	-6.66
214.76	-12.36
215.232	-6.96
215.703	-9.16
216.175	-8.66
216.646	0.54
217.118	-5.46
217.589	-2.96
218.061	-6.36
218.532	-7.86
219.004	-0.86
219.475	-5.36
219.946	-4.36
220.418	-5.16
220.889	0.54
221.36	-0.86
221.832	-6.06
222.303	-16.66
222.774	-3.16
223.245	-3.46
223.717	-3.46
224.188	-3.36
224.659	-11.56
225.13	-8.66
225.601	-11.46
226.072	-3.26
226.543	-3.56
227.014	-2.26
227.485	-6.66
227.956	-9.46
228.427	-5.46
228.898	1.64
229.369	6.44
229.839	-9.36
230.31	-8.16
230.781	-1.76
231.252	-7.26
231.722	-4.26
232.193	-4.96
232.664	-3.66
233.135	-1.66
233.605	-1.76
234.076	-4.06
234.546	5.14
235.017	0.54
235.487	0.54
235.958	-1.76
236.428	-7.46
236.899	2.64
237.369	3.74
237.84	1.34
238.31	1.84
238.78	-4.86
239.251	-3.66
239.721	6.04
240.191	-1.16
240.662	-0.26
241.132	-0.56
241.602	-2.66
242.072	3.54
242.542	5.84
243.013	-1.86
243.483	4.44
243.953	-3.16
244.423	-5.26
244.893	-5.06
245.363	1.64
245.833	-2.96
246.303	1.14
246.773	3.84
247.243	-1.86
247.712	-1.06
248.182	6.24
248.652	6.94
249.122	-2.66
249.592	12.24
250.061	18.64
250.531	29.44
251.001	19.14
251.471	14.34
251.94	17.44
252.41	3.74
252.879	0.44
253.349	9.34
253.818	6.64
254.288	1.84
254.757	4.64
255.227	2.74
255.696	0.34
256.166	2.34
256.635	7.64
257.105	3.54
257.574	0.94
258.043	5.94
258.513	6.54
258.982	9.14
259.451	7.64
259.92	10.54
260.389	10.94
260.859	13.04
261.328	7.64
261.797	11.44
262.266	6.54
262.735	6.44
263.204	-0.36
263.673	6.54
264.142	5.74
264.611	-6.16
265.08	-2.06
265.549	3.14
266.018	6.14
266.487	-2.76
266.955	-4.86
267.424	-2.86
267.893	5.34
268.362	-2.96
268.83	3.74
269.299	10.64
269.768	8.94
270.236	2.14
270.705	2.94
271.174	0.64
271.642	7.44
272.111	4.74
272.579	13.14
273.048	18.34
273.516	24.14
273.985	24.14
274.453	23.04
274.922	13.04
275.39	8.64
275.858	3.44
276.327	10.14
276.795	16.04
277.263	8.04
277.731	25.94
278.2	45.14
278.668	54.74
279.136	40.54
279.604	17.34
280.072	13.64
280.54	7.24
281.008	10.44
281.477	12.34
281.945	6.64
282.413	11.74
282.881	11.54
283.348	4.64
283.816	9.44
284.284	11.34
284.752	21.34
285.22	10.44
285.688	12.04
286.156	23.64
286.623	42.84
287.091	49.04
287.559	23.84
288.026	10.94
288.494	17.84
288.962	6.04
289.429	6.54
289.897	14.34
290.364	12.94
290.832	15.34
291.3	7.84
291.767	18.44
292.234	19.04
292.702	13.24
293.169	13.44
293.637	17.04
294.104	14.84
294.571	11.74
295.039	5.54
295.506	10.04
295.973	17.14
296.44	5.44
296.908	15.74
297.375	16.54
297.842	17.34
298.309	18.64
298.776	11.64
299.243	20.34
299.71	11.34
300.177	17.64
300.644	24.44
301.111	17.14
301.578	17.24
302.045	12.04
302.512	23.44
302.979	16.44
303.446	22.74
303.913	17.54
304.379	15.24
304.846	24.74
305.313	17.64
305.78	18.24
306.246	27.04
306.713	23.94
307.18	22.04
307.646	21.94
308.113	27.44
308.579	24.64
309.046	19.54
309.512	24.24
309.979	18.14
310.445	22.74
310.912	22.54
311.378	26.54
311.845	33.54
312.311	28.54
312.777	29.14
313.244	26.84
313.71	32.44
314.176	27.44
314.642	27.44
315.109	30.74
315.575	35.74
316.041	30.14
316.507	26.74
316.973	41.54
317.439	28.64
317.905	33.34
318.371	29.64
318.837	23.34
319.303	36.44
319.769	32.94
320.235	37.04
320.701	28.74
321.167	32.54
321.633	36.04
322.099	33.44
322.564	40.44
323.03	34.54
323.496	36.24
323.962	39.14
324.427	29.14
324.893	35.24
325.359	39.84
325.824	34.24
326.29	27.64
326.755	37.24
327.221	41.84
327.686	32.94
328.152	44.84
328.617	37.84
329.083	41.94
329.548	43.14
330.014	41.34
330.479	34.14
330.944	37.34
331.41	40.04
331.875	37.84
332.34	35.64
332.805	35.64
333.271	40.34
333.736	37.34
334.201	47.04
334.666	45.04
335.131	53.44
335.596	55.24
336.061	50.64
336.526	42.54
336.991	49.54
337.456	51.94
337.921	40.94
338.386	39.14
338.851	37.54
339.316	38.94
339.781	41.34
340.246	50.54
340.711	43.04
341.175	46.34
341.64	45.84
342.105	46.14
342.569	50.04
343.034	50.64
343.499	52.14
343.963	48.54
344.428	57.64
344.893	52.44
345.357	55.74
345.822	58.84
346.286	58.24
346.751	72.64
347.215	59.04
347.679	66.94
348.144	92.74
348.608	77.64
349.073	65.04
349.537	65.54
350.001	77.34
350.465	86.84
350.93	80.24
351.394	75.74
351.858	69.64
352.322	79.34
352.786	82.84
353.25	93.34
353.715	107.64
354.179	93.94
354.643	116.84
355.107	126.44
355.571	105.14
356.035	94.74
356.498	120.84
356.962	121.54
357.426	126.14
357.89	112.54
358.354	89.24
358.818	82.14
359.281	75.14
359.745	73.04
360.209	70.64
360.673	70.84
361.136	78.44
361.6	78.64
362.064	73.64
362.527	79.44
362.991	85.84
363.454	80.24
363.918	72.84
364.381	77.74
364.845	72.54
365.308	75.04
365.772	78.64
366.235	79.14
366.698	84.04
367.162	85.54
367.625	84.24
368.088	81.54
368.552	83.54
369.015	87.54
369.478	97.24
369.941	98.84
370.404	92.44
370.867	99.34
371.331	102.14
371.794	106.54
372.257	104.24
372.72	117.24
373.183	106.74
373.646	104.14
374.109	103.04
374.572	104.44
375.035	108.74
375.497	107.94
375.96	106.24
376.423	99.24
376.886	107.84
377.349	105.94
377.811	94.84
378.274	105.94
378.737	100.44
379.199	105.54
379.662	103.44
380.125	118.34
380.587	124.94
381.05	118.04
381.512	123.34
381.975	132.74
382.437	130.34
382.9	121.24
383.362	126.84
383.825	136.14
384.287	146.94
384.75	136.24
385.212	138.04
385.674	140.74
386.136	131.24
386.599	120.04
387.061	126.24
387.523	129.54
387.985	131.84
388.447	145.54
388.91	143.14
389.372	158.94
389.834	150.44
390.296	142.44
390.758	156.64
391.22	172.84
391.682	215.84
392.144	319.54
392.606	241.14
393.068	168.44
393.529	171.94
393.991	154.64
394.453	148.64
394.915	153.54
395.377	203.04
395.838	224.54
396.3	163.34
396.762	135.34
397.224	129.34
397.685	130.64
398.147	123.74
398.608	121.74
399.07	125.14
399.531	131.34
399.993	142.34
400.454	139.74
400.916	144.74
401.377	143.04
401.839	151.44
402.3	146.94
402.762	158.04
403.223	173.34
403.684	166.94
404.145	155.44
404.607	155.74
405.068	163.74
405.529	167.54
405.99	187.84
406.451	169.94
406.913	168.04
407.374	162.94
407.835	158.54
408.296	162.54
408.757	167.34
409.218	185.34
409.679	177.44
410.14	176.74
410.601	170.74
411.062	183.54
411.522	189.04
411.983	194.04
412.444	168.34
412.905	172.74
413.366	179.64
413.826	190.14
414.287	209.94
414.748	249.04
415.208	228.84
415.669	200.14
416.13	189.44
416.59	196.24
417.051	209.64
417.511	209.24
417.972	230.84
418.432	242.04
418.893	279.64
419.353	243.74
419.814	193.44
420.274	184.04
420.734	170.44
421.195	192.64
421.655	198.04
422.115	186.44
422.576	187.24
423.036	187.64
423.496	205.84
423.956	209.04
424.416	221.84
424.876	264.54
425.336	251.34
425.797	255.74
426.257	248.54
426.717	235.64
427.177	228.14
427.637	214.34
428.097	223.64
428.556	243.94
429.016	265.24
429.476	259.14
429.936	267.44
430.396	272.94
430.856	292.04
431.315	308.54
431.775	347.74
432.235	386.04
432.694	352.24
433.154	361.34
433.614	388.74
434.073	335.24
434.533	283.44
434.993	268.34
435.452	280.24
435.912	292.94
436.371	283.74
436.83	282.34
437.29	268.14
437.749	244.94
438.209	247.14
438.668	265.34
439.127	288.94
439.587	255.64
440.046	243.04
440.505	258.14
440.964	268.44
441.424	314.84
441.883	304.94
442.342	254.94
442.801	225.44
443.26	216.64
443.719	216.74
444.178	216.74
444.637	199.64
445.096	216.44
445.555	218.84
446.014	217.54
446.473	222.64
446.932	225.94
447.391	216.64
447.849	221.84
448.308	214.34
448.767	214.84
449.226	224.84
449.685	228.64
450.143	236.14
450.602	234.74
451.061	218.94
451.519	224.74
451.978	228.34
452.436	226.44
452.895	232.54
453.353	241.94
453.812	237.54
454.27	231.14
454.729	231.94
455.187	228.64
455.646	238.54
456.104	240.84
456.562	262.54
457.021	256.54
457.479	258.84
457.937	269.34
458.395	257.84
458.854	238.24
459.312	245.94
459.77	268.84
460.228	245.44
460.686	232.64
461.144	239.54
461.602	230.34
462.06	225.94
462.518	243.64
462.976	242.34
463.434	250.54
463.892	255.04
464.35	262.64
464.808	274.54
465.266	254.44
465.724	257.24
466.181	262.74
466.639	262.94
467.097	279.94
467.555	282.74
468.012	290.14
468.47	297.54
468.928	321.64
469.385	327.74
469.843	333.84
470.3	338.24
470.758	341.84
471.215	379.74
471.673	399.84
472.13	396.74
472.588	405.54
473.045	363.64
473.503	364.84
473.96	379.54
474.417	390.44
474.875	422.34
475.332	462.44
475.789	441.44
476.246	450.34
476.704	469.64
477.161	499.54
477.618	509.74
478.075	547.04
478.532	598.34
478.989	674.64
479.446	793.14
479.903	750.34
480.36	789.64
480.817	850.94
481.274	949.94
481.731	1032.84
482.188	1128.54
482.645	1261.14
483.102	1360.04
483.558	1507.34
484.015	1573.34
484.472	1551.14
484.929	1487.94
485.385	1443.14
485.842	1396.14
486.299	1336.24
486.755	1274.14
487.212	1067.44
487.668	891.64
488.125	835.04
488.582	756.24
489.038	729.54
489.494	691.14
489.951	661.34
490.407	636.34
490.864	621.54
491.32	624.64
491.776	613.24
492.233	629.24
492.689	583.54
493.145	587.54
493.602	574.44
494.058	583.54
494.514	590.54
494.97	606.14
495.426	627.14
495.882	595.74
496.338	581.84
496.794	602.84
497.251	593.14
497.707	615.84
498.163	612.24
498.618	625.84
499.074	615.24
499.53	646.44
499.986	647.54
500.442	640.44
500.898	616.84
501.354	603.54
501.809	621.44
502.265	621.04
502.721	649.04
503.177	649.04
503.632	645.34
504.088	658.84
504.543	695.74
504.999	696.14
505.455	635.64
505.91	611.54
506.366	597.84
506.821	605.54
507.277	588.64
507.732	599.34
508.187	590.24
508.643	608.64
509.098	606.64
509.553	628.74
510.009	650.24
510.464	650.84
510.919	664.14
511.375	668.04
511.83	689.54
512.285	694.84
512.74	724.74
513.195	761.74
513.65	741.54
514.105	729.04
514.56	742.44
515.015	756.94
515.47	775.44
515.925	752.34
516.38	765.04
516.835	762.74
517.29	759.24
517.745	744.94
518.2	727.94
518.655	720.54
519.109	711.54
519.564	708.54
520.019	698.04
520.474	695.64
520.928	700.64
521.383	695.34
521.838	677.04
522.292	680.04
522.747	676.44
523.201	678.34
523.656	673.34
524.11	667.84
524.565	667.34
525.019	669.24
525.474	669.84
525.928	667.64
526.382	660.44
526.837	663.94
527.291	680.24
527.745	672.14
528.2	671.94
528.654	661.84
529.108	663.94
529.562	655.14
530.016	666.24
530.47	659.84
530.925	667.14
531.379	670.34
531.833	675.84
532.287	676.84
532.741	683.44
533.195	675.54
533.649	694.84
534.103	689.44
534.556	681.74
535.01	690.74
535.464	671.54
535.918	696.64
536.372	688.54
536.826	689.54
537.279	677.14
537.733	688.94
538.187	686.44
538.64	679.74
539.094	693.84
539.548	704.24
540.001	690.24
540.455	697.24
540.908	703.24
541.362	712.84
541.815	723.74
542.269	727.94
542.722	726.94
543.175	737.24
543.629	743.74
544.082	756.74
544.536	759.14
544.989	754.14
545.442	771.04
545.895	768.44
546.349	762.44
546.802	768.64
547.255	770.04
547.708	772.64
548.161	781.64
548.614	799.04
549.067	797.94
549.52	786.24
549.973	775.44
550.426	776.04
550.879	759.24
551.332	765.24
551.785	781.44
552.238	772.84
552.691	780.54
553.144	804.94
553.596	813.44
554.049	819.44
554.502	854.44
554.955	873.94
555.407	869.44
555.86	868.24
556.313	862.44
556.765	855.94
557.218	853.94
557.67	854.24
558.123	848.94
558.576	825.24
559.028	850.74
559.48	845.64
559.933	843.04
560.385	814.34
560.838	786.54
561.29	754.94
561.742	749.04
562.195	735.24
562.647	734.54
563.099	742.64
563.551	740.14
564.004	757.24
564.456	748.14
564.908	734.34
565.36	722.34
565.812	705.34
566.264	712.34
566.716	709.24
567.168	703.34
567.62	703.24
568.072	675.84
568.524	675.94
568.976	661.74
569.428	652.34
569.88	657.64
570.332	668.94
570.784	652.94
571.235	663.14
571.687	677.14
572.139	669.44
572.59	686.44
573.042	686.64
573.494	693.54
573.945	680.94
574.397	658.24
574.849	662.24
575.3	669.04
575.752	657.34
576.203	656.54
576.655	662.14
577.106	653.14
577.557	646.44
578.009	648.94
578.46	648.84
578.912	630.84
579.363	649.84
579.814	651.14
580.265	642.44
580.717	648.44
581.168	642.24
581.619	654.24
582.07	666.24
582.521	655.54
582.972	654.84
583.423	662.14
583.875	662.34
584.326	686.24
584.777	741.84
585.227	825.24
585.678	928.34
586.129	1020.84
586.58	1102.54
587.031	1187.04
587.482	1345.64
587.933	1561.14
588.384	1340.14
588.834	973.14
589.285	785.84
589.736	765.44
590.186	753.44
590.637	746.84
591.088	728.24
591.538	720.94
591.989	715.14
592.439	710.44
592.89	705.44
593.34	691.64
593.791	683.64
594.241	686.54
594.692	694.14
595.142	688.34
595.593	676.14
596.043	681.14
596.493	700.44
596.943	701.14
597.394	712.14
597.844	693.14
598.294	712.94
598.744	744.84
599.195	757.44
599.645	799.24
600.095	830.74
600.545	893.74
600.995	942.94
601.445	994.14
601.895	1045.74
602.345	1112.54
602.795	1069.14
603.245	1024.54
603.695	965.94
604.145	919.14
604.594	883.24
605.044	825.14
605.494	780.54
605.944	732.04
606.393	718.34
606.843	705.84
607.293	713.94
607.743	715.04
608.192	736.74
608.642	741.04
609.091	747.84
609.541	751.64
609.99	751.14
610.44	741.44
610.889	700.14
611.339	692.14
611.788	671.84
612.238	694.24
612.687	707.94
613.136	703.64
613.586	726.34
614.035	714.84
614.484	740.94
614.933	749.84
615.383	735.24
615.832	729.24
616.281	718.74
616.73	681.34
617.179	653.04
617.628	632.84
618.077	624.54
618.526	602.44
618.975	600.44
619.424	605.94
619.873	605.44
620.322	607.84
620.771	596.94
621.22	590.94
621.669	577.04
622.118	578.64
622.567	571.04
623.015	549.84
623.464	558.44
623.913	548.24
624.361	534.74
624.81	543.14
625.259	540.94
625.707	549.84
626.156	552.54
626.604	551.24
627.053	541.04
627.501	558.24
627.95	555.64
628.398	570.04
628.847	553.84
629.295	555.64
629.744	555.24
630.192	553.04
630.64	563.04
631.089	554.04
631.537	570.94
631.985	578.74
632.433	605.34
632.881	617.14
633.33	669.54
633.778	655.24
634.226	566.84
634.674	564.74
635.122	573.74
635.57	593.54
636.018	625.24
636.466	574.74
636.914	547.24
637.362	553.44
637.81	572.44
638.258	566.74
638.705	571.54
639.153	588.74
639.601	601.84
640.049	629.74
640.497	661.24
640.944	670.14
641.392	635.24
641.84	592.04
642.287	581.44
642.735	555.24
643.182	556.44
643.63	561.94
644.078	562.94
644.525	576.84
644.973	599.44
645.42	590.34
645.867	605.34
646.315	630.04
646.762	647.44
647.21	674.34
647.657	703.14
648.104	740.04
648.551	753.84
648.999	822.94
649.446	903.94
649.893	1007.64
650.34	1160.34
650.787	1399.64
651.234	1739.64
651.682	2280.74
652.129	3133.34
652.576	4566.44
653.023	6750.04
653.47	9228.94
653.917	11416.64
654.363	13115.24
654.81	14344.04
655.257	13646.94
655.704	8942.54
656.151	5264.64
656.598	3402.84
657.044	2389.84
657.491	1843.24
657.938	1472.44
658.385	1238.44
658.831	1062.34
659.278	955.24
659.724	849.34
660.171	780.84
660.618	709.74
661.064	678.24
661.511	655.34
661.957	645.84
662.404	630.14
662.85	644.34
663.296	618.54
663.743	551.44
664.189	525.04
664.635	534.74
665.082	515.94
665.528	515.04
665.974	512.74
666.42	501.34
666.867	496.54
667.313	486.84
667.759	472.24
668.205	475.34
668.651	480.14
669.097	481.24
669.543	509.74
669.989	469.84
670.435	445.84
670.881	440.54
671.327	438.04
671.773	458.84
672.219	482.64
672.665	538.24
673.11	574.44
673.556	609.54
674.002	645.54
674.448	638.04
674.893	533.44
675.339	459.64
675.785	427.04
676.23	410.14
676.676	388.34
677.122	371.64
677.567	358.34
678.013	358.04
678.458	351.64
678.904	352.44
679.349	341.54
679.794	349.64
680.24	341.14
680.685	338.74
681.131	337.44
681.576	337.34
682.021	349.44
682.466	336.34
682.912	332.84
683.357	350.14
683.802	379.24
684.247	395.94
684.692	444.54
685.137	486.34
685.583	518.54
686.028	545.64
686.473	507.24
686.918	429.54
687.363	403.74
687.807	387.44
688.252	359.24
688.697	349.14
689.142	325.34
689.587	331.24
690.032	324.04
690.477	335.74
690.921	345.04
691.366	374.14
691.811	396.84
692.255	429.64
692.7	451.34
693.145	490.54
693.589	702.64
694.034	1129.44
694.478	1507.84
694.923	1666.34
695.367	2174.24
695.812	1148.44
696.256	484.54
696.701	368.64
697.145	337.54
697.59	324.24
698.034	317.54
698.478	318.14
698.922	321.44
699.367	322.74
699.811	325.64
700.255	348.94
700.699	387.14
701.143	424.94
701.588	467.44
702.032	501.14
702.476	498.24
702.92	479.44
703.364	482.24
703.808	635.74
704.252	1035.94
704.696	1431.84
705.14	1627.34
705.584	2053.44
706.027	1037.24
706.471	509.24
706.915	384.74
707.359	342.84
707.803	314.84
708.246	305.54
708.69	305.04
709.134	311.14
709.577	309.24
710.021	315.34
710.465	307.74
710.908	295.84
711.352	285.94
711.795	310.94
712.239	340.24
712.682	374.84
713.126	411.44
713.569	455.34
714.012	356.04
714.456	314.34
714.899	293.34
715.342	272.94
715.786	248.14
716.229	257.54
716.672	252.54
717.115	249.44
717.558	250.54
718.002	242.54
718.445	259.04
718.888	282.24
719.331	284.64
719.774	303.44
720.217	297.34
720.66	272.14
721.103	254.24
721.546	251.44
721.989	247.84
722.432	223.54
722.874	232.14
723.317	232.14
723.76	227.04
724.203	256.84
724.645	319.54
725.088	439.64
725.531	563.24
725.974	623.64
726.416	528.34
726.859	300.44
727.301	235.44
727.744	228.24
728.187	230.64
728.629	230.34
729.071	235.64
729.514	258.24
729.956	261.44
730.399	282.74
730.841	278.34
731.283	266.94
731.726	261.54
732.168	252.04
732.61	261.44
733.053	284.24
733.495	306.14
733.937	343.84
734.379	388.44
734.821	431.74
735.263	542.14
735.705	843.04
736.148	1582.74
736.59	2530.74
737.032	2917.64
737.474	2394.44
737.916	788.24
738.357	417.54
738.799	324.04
739.241	293.54
739.683	272.34
740.125	292.34
740.567	297.84
741.008	306.74
741.45	305.34
741.892	311.44
742.334	340.04
742.775	345.84
743.217	331.54
743.658	266.34
744.1	241.64
744.542	257.04
744.983	295.44
745.425	327.54
745.866	332.54
746.307	285.64
746.749	272.34
747.19	322.94
747.632	456.04
748.073	906.94
748.514	1875.54
748.956	2769.14
749.397	3512.54
749.838	2886.54
750.279	2838.64
750.72	1447.94
751.162	530.64
751.603	323.84
752.044	244.44
752.485	205.74
752.926	202.94
753.367	201.24
753.808	186.54
754.249	189.34
754.69	184.14
755.131	180.24
755.572	172.64
756.013	176.94
756.453	181.94
756.894	180.84
757.335	182.94
757.776	188.84
758.216	203.04
758.657	195.24
759.098	197.24
759.538	222.84
759.979	266.44
760.42	374.94
760.86	716.54
761.301	1860.64
761.741	4404.54
762.182	6126.44
