Data from 20171114-ORNL-Ar_H_NY_Subt18_08-06-42-572.txt Node
Date: Tue Nov 14 08:06:42 EST 2017
User: Ender
Spectrometer: HR+D1039
Trigger mode: 0
Integration Time (sec): 2.730000E-2
Scans to average: 10
Electric dark correction enabled: true
Nonlinearity correction enabled: false
Boxcar width: 0
XAxis mode: Wavelengths
Number of Pixels in Spectrum: 2048
>>>>>Begin Spectral Data<<<<<
187.836	-3.23
188.309	-3.23
188.782	-3.23
189.255	-1.93
189.728	-2.73
190.201	4.47
190.674	5.77
191.147	2.47
191.619	-4.73
192.092	1.07
192.565	5.07
193.038	-0.63
193.511	3.87
193.984	-1.93
194.456	-3.12
194.929	3.07
195.402	-3.83
195.874	-3.73
196.347	0.67
196.82	-2.53
197.292	5.77
197.765	-2.02
198.237	-0.83
198.71	0.57
199.182	-2.73
199.655	-1.53
200.127	-0.93
200.6	-3.93
201.072	-6.33
201.544	-4.23
202.017	-4.13
202.489	-0.53
202.961	-1.02
203.433	-6.93
203.906	-3.33
204.378	-4.43
204.85	-4.13
205.322	-10.23
205.794	-3.83
206.266	-2.83
206.739	-10.43
207.211	0.57
207.683	-10.43
208.155	-5.63
208.627	-8.03
209.099	-6.13
209.57	-11.93
210.042	-0.33
210.514	-1.83
210.986	0.67
211.458	-15.73
211.93	-6.63
212.402	-0.83
212.873	-7.33
213.345	-13.12
213.817	-16.63
214.288	-8.13
214.76	-9.63
215.232	-6.43
215.703	-6.53
216.175	-2.03
216.646	-3.43
217.118	-3.83
217.589	-9.52
218.061	-4.13
218.532	-0.52
219.004	-0.43
219.475	-5.62
219.946	-0.33
220.418	-1.52
220.889	4.37
221.36	-0.62
221.832	-4.13
222.303	-8.83
222.774	0.67
223.245	-7.02
223.717	-6.93
224.188	-4.62
224.659	-16.23
225.13	-6.23
225.601	-3.03
226.072	-0.73
226.543	-0.63
227.014	-3.63
227.485	5.47
227.956	-3.93
228.427	-4.43
228.898	-1.73
229.369	4.47
229.839	-2.63
230.31	-3.23
230.781	5.07
231.252	-1.73
231.722	-6.33
232.193	-1.23
232.664	-2.23
233.135	0.37
233.605	-5.43
234.076	-2.03
234.546	-3.83
235.017	5.97
235.487	-6.03
235.958	-5.43
236.428	-11.23
236.899	-3.02
237.369	-1.33
237.84	-3.63
238.31	2.67
238.78	-3.43
239.251	-1.93
239.721	-4.23
240.191	-7.02
240.662	1.17
241.132	-4.43
241.602	-4.53
242.072	-0.33
242.542	0.57
243.013	-1.13
243.483	-1.83
243.953	2.57
244.423	-2.12
244.893	0.27
245.363	3.67
245.833	-1.13
246.303	-5.53
246.773	2.27
247.243	0.57
247.712	1.97
248.182	9.77
248.652	3.97
249.122	-6.23
249.592	0.87
250.061	-0.23
250.531	11.77
251.001	-1.43
251.471	6.17
251.94	4.77
252.41	-4.52
252.879	-2.93
253.349	7.77
253.818	4.37
254.288	-2.02
254.757	3.17
255.227	0.07
255.696	3.67
256.166	-0.23
256.635	5.07
257.105	4.77
257.574	1.17
258.043	-4.23
258.513	-4.73
258.982	2.67
259.451	0.37
259.92	-1.23
260.389	1.17
260.859	10.27
261.328	1.38
261.797	4.57
262.266	-0.53
262.735	9.67
263.204	5.37
263.673	2.37
264.142	7.38
264.611	-0.03
265.08	3.07
265.549	2.77
266.018	3.98
266.487	-1.63
266.955	-4.03
267.424	-1.83
267.893	-0.62
268.362	-1.83
268.83	3.97
269.299	5.07
269.768	2.67
270.236	3.88
270.705	2.27
271.174	7.17
271.642	5.57
272.111	7.57
272.579	3.97
273.048	4.17
273.516	4.77
273.985	2.07
274.453	9.87
274.922	10.97
275.39	8.37
275.858	-0.43
276.327	15.87
276.795	12.17
277.263	5.17
277.731	7.67
278.2	9.67
278.668	11.27
279.136	11.57
279.604	1.38
280.072	10.38
280.54	10.07
281.008	11.27
281.477	20.37
281.945	10.17
282.413	10.67
282.881	11.97
283.348	7.57
283.816	14.37
284.284	12.27
284.752	18.77
285.22	15.07
285.688	18.17
286.156	14.38
286.623	19.87
287.091	12.38
287.559	14.57
288.026	10.77
288.494	11.97
288.962	8.77
289.429	8.47
289.897	12.27
290.364	14.67
290.832	19.17
291.3	12.57
291.767	14.88
292.234	22.57
292.702	14.38
293.169	14.57
293.637	16.47
294.104	12.67
294.571	9.97
295.039	14.87
295.506	13.47
295.973	18.37
296.44	15.97
296.908	21.67
297.375	14.77
297.842	14.87
298.309	19.97
298.776	14.77
299.243	20.97
299.71	12.17
300.177	25.57
300.644	22.07
301.111	16.57
301.578	17.47
302.045	14.57
302.512	28.38
302.979	27.97
303.446	26.57
303.913	14.48
304.379	24.37
304.846	26.98
305.313	26.37
305.78	17.67
306.246	20.57
306.713	23.17
307.18	26.88
307.646	24.17
308.113	33.77
308.579	27.87
309.046	22.98
309.512	24.17
309.979	23.07
310.445	27.17
310.912	31.67
311.378	30.57
311.845	29.57
312.311	27.37
312.777	31.17
313.244	34.67
313.71	39.87
314.176	29.48
314.642	25.47
315.109	27.27
315.575	37.88
316.041	34.97
316.507	32.47
316.973	34.67
317.439	30.27
317.905	32.07
318.371	28.37
318.837	35.17
319.303	29.67
319.769	36.38
320.235	30.87
320.701	34.97
321.167	40.37
321.633	33.27
322.099	39.47
322.564	37.97
323.03	38.97
323.496	38.97
323.962	39.17
324.427	33.27
324.893	45.97
325.359	40.57
325.824	36.17
326.29	36.57
326.755	45.67
327.221	39.07
327.686	41.07
328.152	46.38
328.617	51.47
329.083	51.17
329.548	54.97
330.014	55.57
330.479	43.17
330.944	54.57
331.41	46.87
331.875	45.27
332.34	48.57
332.805	45.17
333.271	43.57
333.736	46.47
334.201	46.88
334.666	50.57
335.131	50.17
335.596	56.87
336.061	51.97
336.526	39.17
336.991	49.27
337.456	55.17
337.921	49.47
338.386	51.27
338.851	43.77
339.316	44.87
339.781	47.77
340.246	50.97
340.711	50.07
341.175	50.87
341.64	50.07
342.105	57.77
342.569	52.17
343.034	58.37
343.499	52.67
343.963	58.77
344.428	64.48
344.893	60.87
345.357	65.07
345.822	64.17
346.286	73.97
346.751	81.57
347.215	70.27
347.679	77.47
348.144	103.37
348.608	91.77
349.073	73.27
349.537	85.88
350.001	77.17
350.465	82.88
350.93	85.17
351.394	86.77
351.858	79.67
352.322	96.57
352.786	86.38
353.25	110.97
353.715	111.27
354.179	105.67
354.643	122.38
355.107	127.77
355.571	108.97
356.035	102.87
356.498	116.57
356.962	118.47
357.426	123.87
357.89	114.88
358.354	90.27
358.818	83.97
359.281	84.98
359.745	82.38
360.209	76.57
360.673	84.27
361.136	80.17
361.6	89.37
362.064	85.98
362.527	91.07
362.991	99.87
363.454	83.07
363.918	89.47
364.381	82.07
364.845	92.97
365.308	97.87
365.772	93.67
366.235	94.47
366.698	85.87
367.162	91.27
367.625	89.77
368.088	95.07
368.552	92.87
369.015	91.88
369.478	102.27
369.941	101.37
370.404	98.57
370.867	109.07
371.331	111.37
371.794	116.97
372.257	106.47
372.72	115.97
373.183	105.97
373.646	103.37
374.109	101.98
374.572	108.37
375.035	105.47
375.497	111.07
375.96	114.27
376.423	114.77
376.886	116.17
377.349	126.37
377.811	110.47
378.274	110.57
378.737	107.87
379.199	111.88
379.662	117.97
380.125	114.88
380.587	114.27
381.05	122.77
381.512	118.17
381.975	127.67
382.437	135.97
382.9	128.67
383.362	135.57
383.825	138.67
384.287	138.97
384.75	131.97
385.212	130.97
385.674	144.07
386.136	143.67
386.599	127.07
387.061	132.98
387.523	126.47
387.985	136.47
388.447	141.77
388.91	139.67
389.372	137.77
389.834	137.87
390.296	138.67
390.758	144.87
391.22	148.17
391.682	160.67
392.144	164.67
392.606	159.27
393.068	151.88
393.529	162.87
393.991	153.27
394.453	144.37
394.915	147.57
395.377	148.67
395.838	153.87
396.3	151.87
396.762	153.07
397.224	150.67
397.685	150.67
398.147	146.38
398.608	141.88
399.07	142.47
399.531	147.88
399.993	157.98
400.454	171.57
400.916	161.97
401.377	162.07
401.839	167.47
402.3	170.97
402.762	187.17
403.223	191.27
403.684	184.97
404.145	176.27
404.607	176.07
405.068	185.47
405.529	185.67
405.99	205.27
406.451	193.77
406.913	193.57
407.374	184.07
407.835	185.97
408.296	192.07
408.757	187.47
409.218	202.07
409.679	199.98
410.14	185.67
410.601	192.87
411.062	188.27
411.522	195.67
411.983	194.47
412.444	197.17
412.905	201.37
413.366	203.77
413.826	216.37
414.287	245.17
414.748	290.67
415.208	278.17
415.669	238.87
416.13	235.07
416.59	232.87
417.051	241.48
417.511	238.47
417.972	264.18
418.432	285.17
418.893	321.67
419.353	285.57
419.814	224.67
420.274	207.47
420.734	202.27
421.195	214.57
421.655	212.07
422.115	215.67
422.576	220.67
423.036	222.87
423.496	235.67
423.956	242.87
424.416	256.07
424.876	309.87
425.336	288.47
425.797	292.77
426.257	276.87
426.717	265.48
427.177	261.97
427.637	250.77
428.097	258.97
428.556	270.47
429.016	292.67
429.476	290.48
429.936	302.37
430.396	300.88
430.856	318.97
431.315	342.67
431.775	381.87
432.235	411.67
432.694	380.57
433.154	394.97
433.614	425.67
434.073	366.87
434.533	312.77
434.993	297.77
435.452	307.97
435.912	325.27
436.371	310.77
436.83	312.18
437.29	294.27
437.749	268.97
438.209	275.17
438.668	301.97
439.127	317.38
439.587	294.37
440.046	273.88
440.505	290.68
440.964	297.17
441.424	362.67
441.883	332.77
442.342	285.07
442.801	261.77
443.26	253.97
443.719	257.58
444.178	249.77
444.637	239.87
445.096	253.98
445.555	251.27
446.014	250.77
446.473	250.77
446.932	260.98
447.391	261.47
447.849	263.27
448.308	252.77
448.767	254.57
449.226	263.48
449.685	271.27
450.143	279.67
450.602	272.87
451.061	255.97
451.519	264.77
451.978	263.27
452.436	261.67
452.895	275.37
453.353	291.48
453.812	274.87
454.27	274.07
454.729	274.87
455.187	269.97
455.646	273.98
456.104	277.97
456.562	294.98
457.021	298.97
457.479	288.57
457.937	307.37
458.395	302.67
458.854	281.38
459.312	291.67
459.77	308.97
460.228	288.67
460.686	274.77
461.144	289.97
461.602	274.98
462.06	287.17
462.518	287.27
462.976	292.17
463.434	290.17
463.892	294.08
464.35	309.97
464.808	326.08
465.266	302.08
465.724	308.87
466.181	315.88
466.639	304.07
467.097	327.08
467.555	345.38
468.012	344.17
468.47	350.17
468.928	367.17
469.385	379.68
469.843	392.67
470.3	397.07
470.758	408.27
471.215	434.67
471.673	453.97
472.13	453.17
472.588	466.38
473.045	418.77
473.503	421.68
473.96	434.97
474.417	454.77
474.875	477.37
475.332	528.88
475.789	513.07
476.246	522.57
476.704	538.98
477.161	563.67
477.618	585.07
478.075	622.98
478.532	669.08
478.989	746.27
479.446	877.77
479.903	828.18
480.36	860.17
480.817	918.17
481.274	1014.37
481.731	1110.38
482.188	1184.17
482.645	1316.38
483.102	1429.38
483.558	1545.97
484.015	1593.67
484.472	1553.97
484.929	1520.27
485.385	1477.57
485.842	1461.37
486.299	1404.87
486.755	1346.27
487.212	1156.38
487.668	983.08
488.125	914.47
488.582	849.57
489.038	818.57
489.494	776.57
489.951	751.88
490.407	724.77
490.864	708.77
491.32	707.38
491.776	711.97
492.233	718.57
492.689	678.38
493.145	682.98
493.602	658.88
494.058	680.77
494.514	681.68
494.97	707.68
495.426	718.17
495.882	684.88
496.338	679.27
496.794	690.47
497.251	683.57
497.707	705.98
498.163	702.07
498.618	711.27
499.074	711.38
499.53	732.27
499.986	735.17
500.442	708.48
500.898	686.37
501.354	686.57
501.809	699.37
502.265	691.47
502.721	695.77
503.177	709.07
503.632	711.97
504.088	720.17
504.543	743.67
504.999	766.47
505.455	731.47
505.91	711.17
506.366	705.77
506.821	706.37
507.277	706.77
507.732	709.87
508.187	704.57
508.643	716.97
509.098	713.67
509.553	730.97
510.009	750.77
510.464	746.57
510.919	772.67
511.375	786.07
511.83	784.07
512.285	801.57
512.74	855.27
513.195	870.58
513.65	852.27
514.105	857.97
514.56	851.37
515.015	863.57
515.47	881.17
515.925	863.48
516.38	871.07
516.835	872.07
517.29	857.98
517.745	852.37
518.2	844.57
518.655	830.07
519.109	823.68
519.564	820.17
520.019	804.77
520.474	814.68
520.928	817.67
521.383	800.77
521.838	802.88
522.292	790.08
522.747	789.38
523.201	784.27
523.656	780.97
524.11	768.48
524.565	770.08
525.019	765.87
525.474	770.27
525.928	768.37
526.382	781.57
526.837	774.58
527.291	784.77
527.745	774.37
528.2	773.57
528.654	768.38
529.108	775.38
529.562	765.27
530.016	773.68
530.47	769.38
530.925	764.27
531.379	770.67
531.833	771.57
532.287	766.57
532.741	764.07
533.195	767.27
533.649	784.67
534.103	798.58
534.556	784.27
535.01	777.87
535.464	774.07
535.918	795.07
536.372	788.87
536.826	787.37
537.279	767.98
537.733	786.77
538.187	788.47
538.64	779.77
539.094	798.77
539.548	808.17
540.001	796.17
540.455	795.37
540.908	809.38
541.362	804.77
541.815	833.67
542.269	843.47
542.722	840.47
543.175	848.97
543.629	847.17
544.082	863.38
544.536	865.08
544.989	870.07
545.442	892.57
545.895	874.37
546.349	870.18
546.802	873.77
547.255	887.77
547.708	895.08
548.161	905.37
548.614	917.47
549.067	914.38
549.52	903.38
549.973	899.97
550.426	894.97
550.879	894.27
551.332	890.37
551.785	890.57
552.238	898.38
552.691	903.18
553.144	927.87
553.596	935.58
554.049	947.68
554.502	991.57
554.955	1005.67
555.407	1001.97
555.86	989.18
556.313	983.57
556.765	986.07
557.218	966.67
557.67	967.17
558.123	964.97
558.576	967.68
559.028	968.08
559.48	975.97
559.933	960.38
560.385	938.08
560.838	884.87
561.29	865.38
561.742	877.77
562.195	860.08
562.647	845.87
563.099	860.87
563.551	851.38
564.004	867.87
564.456	838.07
564.908	830.37
565.36	817.57
565.812	793.98
566.264	800.87
566.716	784.98
567.168	772.87
567.62	778.07
568.072	775.08
568.524	760.77
568.976	762.67
569.428	740.38
569.88	739.67
570.332	745.77
570.784	749.87
571.235	760.48
571.687	754.17
572.139	768.57
572.59	776.67
573.042	776.07
573.494	775.27
573.945	776.47
574.397	751.97
574.849	759.97
575.3	765.08
575.752	743.17
576.203	745.07
576.655	743.07
577.106	737.58
577.557	727.48
578.009	729.37
578.46	734.07
578.912	726.87
579.363	729.08
579.814	740.57
580.265	726.87
580.717	728.27
581.168	730.07
581.619	748.77
582.07	749.27
582.521	740.77
582.972	736.77
583.423	740.77
583.875	743.88
584.326	750.87
584.777	763.37
585.227	789.97
585.678	808.97
586.129	820.37
586.58	857.68
587.031	876.38
587.482	908.67
587.933	951.98
588.384	916.17
588.834	855.27
589.285	843.17
589.736	840.97
590.186	839.67
590.637	841.07
591.088	813.37
591.538	811.88
591.989	806.47
592.439	786.77
592.89	768.87
593.34	776.67
593.791	781.77
594.241	761.17
594.692	763.08
595.142	756.27
595.593	747.67
596.043	762.48
596.493	772.47
596.943	769.98
597.394	785.88
597.844	783.38
598.294	790.48
598.744	826.77
599.195	856.97
599.645	886.47
600.095	934.88
600.545	995.67
600.995	1051.78
601.445	1127.27
601.895	1184.48
602.345	1232.97
602.795	1205.28
603.245	1166.07
603.695	1119.88
604.145	1045.47
604.594	984.27
605.044	936.47
605.494	873.57
605.944	822.88
606.393	810.07
606.843	796.47
607.293	794.27
607.743	790.08
608.192	805.67
608.642	814.17
609.091	817.87
609.541	826.47
609.99	827.87
610.44	820.87
610.889	770.57
611.339	762.77
611.788	743.48
612.238	751.37
612.687	754.57
613.136	749.88
613.586	765.77
614.035	752.07
614.484	778.47
614.933	759.57
615.383	758.17
615.832	761.07
616.281	757.57
616.73	721.08
617.179	713.77
617.628	696.37
618.077	675.77
618.526	673.97
618.975	660.27
619.424	661.47
619.873	656.77
620.322	665.17
620.771	667.08
621.22	650.87
621.669	642.87
622.118	639.17
622.567	630.48
623.015	615.88
623.464	613.27
623.913	599.57
624.361	597.77
624.81	597.67
625.259	595.27
625.707	607.48
626.156	590.17
626.604	617.17
627.053	611.57
627.501	614.17
627.95	607.48
628.398	636.57
628.847	614.68
629.295	615.97
629.744	620.57
630.192	604.57
630.64	595.07
631.089	590.27
631.537	581.08
631.985	583.08
632.433	578.58
632.881	565.27
633.33	581.67
633.778	566.38
634.226	563.48
634.674	591.77
635.122	577.67
635.57	593.17
636.018	606.77
636.466	602.38
636.914	601.17
637.362	613.57
637.81	617.98
638.258	626.68
638.705	620.27
639.153	660.67
639.601	669.17
640.049	689.17
640.497	727.57
640.944	737.87
641.392	685.07
641.84	664.77
642.287	632.17
642.735	612.37
643.182	607.37
643.63	604.77
644.078	607.07
644.525	610.87
644.973	627.47
645.42	636.27
645.867	660.38
646.315	675.18
646.762	707.68
647.21	723.27
647.657	755.07
648.104	791.38
648.551	806.17
648.999	873.08
649.446	946.67
649.893	1035.17
650.34	1181.07
650.787	1410.47
651.234	1720.57
651.682	2213.37
652.129	3002.87
652.576	4234.98
653.023	6204.98
653.47	8382.27
653.917	10404.27
654.363	12011.08
654.81	13236.48
655.257	12549.48
655.704	8348.88
656.151	5044.07
656.598	3316.67
657.044	2367.88
657.491	1846.07
657.938	1492.17
658.385	1250.87
658.831	1103.08
659.278	987.37
659.724	891.48
660.171	816.07
660.618	753.57
661.064	724.37
661.511	694.88
661.957	680.98
662.404	673.47
662.85	691.18
663.296	671.17
663.743	599.67
664.189	574.37
664.635	573.38
665.082	555.77
665.528	561.87
665.974	550.88
666.42	545.87
666.867	540.47
667.313	523.47
667.759	506.07
668.205	488.98
668.651	490.27
669.097	480.57
669.543	471.77
669.989	472.67
670.435	480.48
670.881	480.07
671.327	483.77
671.773	509.47
672.219	529.67
672.665	582.27
673.11	630.47
673.556	679.27
674.002	722.08
674.448	716.27
674.893	599.58
675.339	517.48
675.785	477.38
676.23	456.87
676.676	430.58
677.122	413.48
677.567	407.47
678.013	395.27
678.458	378.88
678.904	383.18
679.349	373.88
679.794	375.97
680.24	381.17
680.685	381.27
681.131	377.38
681.576	377.27
682.021	383.88
682.466	374.87
682.912	385.87
683.357	378.77
683.802	409.68
684.247	441.27
684.692	491.17
685.137	528.67
685.583	581.88
686.028	597.27
686.473	566.07
686.918	480.97
687.363	444.27
687.807	415.57
688.252	395.98
688.697	386.07
689.142	360.57
689.587	360.48
690.032	352.57
690.477	370.37
690.921	377.87
691.366	416.57
691.811	433.87
692.255	459.17
692.7	484.17
693.145	534.68
693.589	743.57
694.034	1218.68
694.478	1660.67
694.923	1887.28
695.367	2458.97
695.812	1308.77
696.256	532.27
696.701	408.77
697.145	375.47
697.59	357.67
698.034	348.87
698.478	351.27
698.922	348.48
699.367	350.97
699.811	353.77
700.255	372.68
700.699	407.58
701.143	450.77
701.588	508.98
702.032	548.47
702.476	551.98
702.92	525.27
703.364	531.27
703.808	694.37
704.252	1131.78
704.696	1572.97
705.14	1812.87
705.584	2301.47
706.027	1162.37
706.471	570.87
706.915	431.77
707.359	378.17
707.803	341.07
708.246	332.37
708.69	340.67
709.134	333.38
709.577	330.77
710.021	341.87
710.465	339.27
710.908	321.07
711.352	320.17
711.795	334.87
712.239	382.77
712.682	414.47
713.126	448.27
713.569	484.88
714.012	382.77
714.456	328.18
714.899	313.67
715.342	295.77
715.786	289.47
716.229	276.98
716.672	283.47
717.115	264.27
717.558	269.18
718.002	281.17
718.445	278.08
718.888	307.17
719.331	314.48
719.774	327.88
720.217	327.67
720.66	312.67
721.103	291.17
721.546	267.18
721.989	270.27
722.432	254.08
722.874	252.17
723.317	244.27
723.76	254.57
724.203	271.37
724.645	339.67
725.088	480.57
725.531	618.07
725.974	694.47
726.416	593.37
726.859	328.27
727.301	263.47
727.744	257.37
728.187	255.68
728.629	248.87
729.071	264.47
729.514	275.57
729.956	292.48
730.399	301.27
730.841	314.07
731.283	291.77
731.726	281.98
732.168	284.27
732.61	293.67
733.053	306.68
733.495	343.57
733.937	375.77
734.379	429.27
734.821	469.67
735.263	583.27
735.705	903.38
736.148	1707.07
736.59	2808.88
737.032	3323.18
737.474	2710.38
737.916	892.17
738.357	469.38
738.799	354.88
739.241	318.38
739.683	299.77
740.125	319.88
740.567	322.77
741.008	340.77
741.45	347.97
741.892	334.17
742.334	378.27
742.775	395.67
743.217	377.67
743.658	285.27
744.1	278.07
744.542	284.47
744.983	345.47
745.425	375.48
745.866	365.38
746.307	304.08
746.749	298.67
747.19	343.68
747.632	491.07
748.073	957.67
748.514	2029.58
748.956	3096.67
749.397	3880.68
749.838	3227.47
750.279	3212.47
750.72	1626.77
751.162	602.08
751.603	350.07
752.044	271.67
752.485	233.88
752.926	232.67
753.367	216.07
753.808	204.97
754.249	211.07
754.69	197.47
755.131	200.67
755.572	190.37
756.013	190.97
756.453	194.17
756.894	204.98
757.335	201.37
757.776	200.07
758.216	210.97
758.657	215.18
759.098	211.97
759.538	245.67
759.979	296.87
760.42	401.38
760.86	767.47
761.301	1982.97
761.741	4820.08
762.182	6949.38
