Data from 20171114-ORNL-Ar_H_NY_Subt18_08-08-21-389.txt Node
Date: Tue Nov 14 08:08:21 EST 2017
User: Ender
Spectrometer: HR+D1039
Trigger mode: 0
Integration Time (sec): 2.730000E-2
Scans to average: 10
Electric dark correction enabled: true
Nonlinearity correction enabled: false
Boxcar width: 0
XAxis mode: Wavelengths
Number of Pixels in Spectrum: 2048
>>>>>Begin Spectral Data<<<<<
187.836	-6.23
188.309	-6.23
188.782	-6.23
189.255	-5.33
189.728	-0.63
190.201	1.97
190.674	1.87
191.147	9.07
191.619	-7.03
192.092	1.87
192.565	1.37
193.038	-1.13
193.511	2.97
193.984	3.97
194.456	-2.33
194.929	-1.13
195.402	3.27
195.874	-2.53
196.347	-3.43
196.82	-9.43
197.292	4.97
197.765	-0.73
198.237	-5.23
198.71	1.67
199.182	5.87
199.655	3.97
200.127	3.27
200.6	0.77
201.072	1.77
201.544	-3.83
202.017	-2.73
202.489	4.27
202.961	4.37
203.433	-5.33
203.906	-6.73
204.378	-9.53
204.85	1.27
205.322	-10.03
205.794	-6.63
206.266	0.37
206.739	-9.93
207.211	-0.63
207.683	-2.43
208.155	-6.13
208.627	-5.23
209.099	-4.53
209.57	-8.63
210.042	-4.93
210.514	-7.03
210.986	-2.53
211.458	-10.63
211.93	-4.23
212.402	-1.73
212.873	-5.13
213.345	-6.53
213.817	-13.53
214.288	-5.53
214.76	-14.53
215.232	-3.83
215.703	-4.03
216.175	0.27
216.646	-5.63
217.118	-5.73
217.589	-5.83
218.061	-10.33
218.532	-6.23
219.004	-3.73
219.475	-12.13
219.946	-1.83
220.418	-5.43
220.889	7.67
221.36	1.57
221.832	-7.83
222.303	-9.13
222.774	-0.53
223.245	-7.63
223.717	-6.53
224.188	-3.73
224.659	-9.43
225.13	-8.23
225.601	-3.33
226.072	-0.03
226.543	-3.93
227.014	1.77
227.485	-6.23
227.956	-5.03
228.427	-4.33
228.898	-1.63
229.369	0.47
229.839	-1.73
230.31	-10.63
230.781	-0.13
231.252	-5.53
231.722	-1.63
232.193	0.27
232.664	-0.33
233.135	0.17
233.605	-2.13
234.076	-7.43
234.546	-3.93
235.017	1.87
235.487	3.27
235.958	0.67
236.428	-3.23
236.899	5.37
237.369	3.17
237.84	-0.33
238.31	7.87
238.78	1.37
239.251	1.17
239.721	-0.83
240.191	3.27
240.662	-0.83
241.132	-4.03
241.602	-3.23
242.072	1.97
242.542	0.27
243.013	0.97
243.483	1.77
243.953	-1.33
244.423	-1.03
244.893	-0.33
245.363	-0.63
245.833	1.47
246.303	-2.03
246.773	7.07
247.243	-3.43
247.712	-1.03
248.182	7.07
248.652	7.87
249.122	-5.93
249.592	6.77
250.061	20.97
250.531	26.07
251.001	7.97
251.471	22.47
251.94	19.37
252.41	4.27
252.879	-1.33
253.349	14.37
253.818	4.67
254.288	1.47
254.757	4.77
255.227	-3.73
255.696	2.17
256.166	4.67
256.635	10.17
257.105	7.77
257.574	4.87
258.043	6.07
258.513	9.97
258.982	14.17
259.451	7.27
259.92	15.27
260.389	6.77
260.859	19.57
261.328	9.97
261.797	14.67
262.266	13.47
262.735	8.87
263.204	7.87
263.673	-1.03
264.142	3.67
264.611	-1.93
265.08	-3.73
265.549	2.37
266.018	4.27
266.487	-2.73
266.955	-6.03
267.424	-1.73
267.893	2.47
268.362	-0.83
268.83	1.57
269.299	10.57
269.768	4.77
270.236	7.27
270.705	3.07
271.174	8.67
271.642	10.87
272.111	10.27
272.579	17.87
273.048	21.77
273.516	23.67
273.985	28.27
274.453	21.67
274.922	18.57
275.39	5.87
275.858	-3.53
276.327	13.47
276.795	18.27
277.263	7.17
277.731	28.07
278.2	50.07
278.668	55.27
279.136	41.27
279.604	15.87
280.072	15.57
280.54	11.87
281.008	9.77
281.477	11.57
281.945	9.47
282.413	12.77
282.881	17.57
283.348	3.97
283.816	17.27
284.284	6.87
284.752	17.27
285.22	6.87
285.688	16.97
286.156	14.27
286.623	44.67
287.091	45.87
287.559	22.57
288.026	13.47
288.494	16.17
288.962	1.77
289.429	11.07
289.897	15.67
290.364	14.57
290.832	16.67
291.3	9.97
291.767	14.87
292.234	18.37
292.702	13.07
293.169	16.47
293.637	22.37
294.104	15.57
294.571	9.97
295.039	11.27
295.506	14.87
295.973	17.07
296.44	8.07
296.908	16.57
297.375	17.67
297.842	18.17
298.309	17.07
298.776	9.27
299.243	17.57
299.71	11.37
300.177	18.47
300.644	13.57
301.111	17.67
301.578	17.47
302.045	14.97
302.512	21.77
302.979	20.67
303.446	17.37
303.913	14.17
304.379	13.27
304.846	26.27
305.313	24.87
305.78	20.47
306.246	26.47
306.713	25.67
307.18	22.97
307.646	26.97
308.113	27.27
308.579	30.77
309.046	24.37
309.512	24.27
309.979	18.57
310.445	22.67
310.912	25.67
311.378	30.07
311.845	28.87
312.311	24.77
312.777	26.97
313.244	34.27
313.71	36.97
314.176	31.97
314.642	31.17
315.109	28.97
315.575	33.97
316.041	33.47
316.507	34.87
316.973	35.77
317.439	25.87
317.905	35.77
318.371	35.27
318.837	30.87
319.303	36.47
319.769	29.47
320.235	31.27
320.701	32.17
321.167	39.67
321.633	37.07
322.099	34.47
322.564	41.87
323.03	46.27
323.496	37.97
323.962	41.47
324.427	32.07
324.893	36.67
325.359	35.47
325.824	38.97
326.29	36.87
326.755	40.17
327.221	35.47
327.686	33.77
328.152	42.67
328.617	43.97
329.083	50.37
329.548	55.77
330.014	45.17
330.479	40.27
330.944	40.97
331.41	37.07
331.875	42.37
332.34	36.67
332.805	39.47
333.271	43.87
333.736	46.27
334.201	48.17
334.666	48.97
335.131	50.17
335.596	51.17
336.061	47.37
336.526	39.87
336.991	47.47
337.456	55.77
337.921	48.37
338.386	42.27
338.851	40.47
339.316	40.87
339.781	43.37
340.246	53.07
340.711	45.77
341.175	49.57
341.64	38.07
342.105	51.77
342.569	52.87
343.034	59.27
343.499	47.97
343.963	43.37
344.428	56.57
344.893	60.17
345.357	58.87
345.822	65.27
346.286	69.87
346.751	74.57
347.215	66.77
347.679	66.87
348.144	101.17
348.608	86.77
349.073	68.17
349.537	74.37
350.001	78.37
350.465	89.17
350.93	78.67
351.394	83.77
351.858	72.27
352.322	84.17
352.786	83.07
353.25	99.07
353.715	111.97
354.179	106.87
354.643	122.07
355.107	129.37
355.571	109.17
356.035	105.57
356.498	121.97
356.962	123.07
357.426	130.87
357.89	119.67
358.354	94.07
358.818	82.77
359.281	78.77
359.745	73.77
360.209	83.17
360.673	81.37
361.136	78.87
361.6	94.17
362.064	88.97
362.527	85.27
362.991	85.47
363.454	81.07
363.918	80.27
364.381	80.07
364.845	77.97
365.308	82.87
365.772	89.27
366.235	88.97
366.698	90.37
367.162	85.97
367.625	89.67
368.088	88.67
368.552	97.87
369.015	90.47
369.478	91.57
369.941	101.07
370.404	96.87
370.867	102.17
371.331	109.27
371.794	115.57
372.257	112.87
372.72	126.37
373.183	115.57
373.646	106.77
374.109	103.57
374.572	107.77
375.035	109.77
375.497	115.37
375.96	106.27
376.423	109.07
376.886	117.07
377.349	114.27
377.811	107.77
378.274	106.17
378.737	113.07
379.199	116.17
379.662	115.27
380.125	118.87
380.587	118.57
381.05	129.27
381.512	135.37
381.975	134.37
382.437	130.97
382.9	128.87
383.362	135.67
383.825	149.37
384.287	156.57
384.75	146.27
385.212	139.87
385.674	136.37
386.136	137.17
386.599	127.57
387.061	136.07
387.523	134.07
387.985	142.47
388.447	154.07
388.91	146.27
389.372	162.97
389.834	160.77
390.296	151.87
390.758	168.77
391.22	173.47
391.682	224.67
392.144	312.67
392.606	233.57
393.068	164.37
393.529	179.97
393.991	162.37
394.453	157.07
394.915	163.87
395.377	201.77
395.838	227.07
396.3	158.27
396.762	148.87
397.224	140.97
397.685	133.97
398.147	137.27
398.608	134.07
399.07	134.77
399.531	139.77
399.993	149.47
400.454	158.97
400.916	151.87
401.377	144.97
401.839	158.37
402.3	156.27
402.762	175.67
403.223	184.17
403.684	180.17
404.145	164.27
404.607	164.87
405.068	167.17
405.529	173.27
405.99	191.97
406.451	179.57
406.913	172.37
407.374	166.37
407.835	164.67
408.296	176.37
408.757	182.57
409.218	202.97
409.679	189.87
410.14	185.67
410.601	185.17
411.062	190.27
411.522	199.97
411.983	192.87
412.444	184.47
412.905	196.37
413.366	196.77
413.826	198.47
414.287	221.27
414.748	266.17
415.208	252.37
415.669	223.67
416.13	213.67
416.59	213.07
417.051	222.27
417.511	234.47
417.972	242.27
418.432	258.07
418.893	300.87
419.353	262.57
419.814	205.37
420.274	190.27
420.734	190.07
421.195	210.67
421.655	201.87
422.115	198.77
422.576	193.37
423.036	202.87
423.496	217.17
423.956	228.87
424.416	239.57
424.876	272.37
425.336	269.57
425.797	272.97
426.257	265.87
426.717	253.87
427.177	243.57
427.637	229.17
428.097	243.47
428.556	252.77
429.016	283.87
429.476	276.77
429.936	284.57
430.396	290.87
430.856	306.07
431.315	329.97
431.775	363.17
432.235	393.37
432.694	371.27
433.154	377.37
433.614	415.57
434.073	356.57
434.533	295.37
434.993	279.87
435.452	287.57
435.912	310.27
436.371	304.87
436.83	292.87
437.29	273.77
437.749	267.07
438.209	255.97
438.668	287.37
439.127	298.17
439.587	276.37
440.046	259.37
440.505	269.67
440.964	280.97
441.424	333.77
441.883	322.27
442.342	270.97
442.801	238.57
443.26	231.97
443.719	234.97
444.178	228.97
444.637	225.07
445.096	231.77
445.555	237.07
446.014	232.27
446.473	236.87
446.932	245.87
447.391	236.57
447.849	231.07
448.308	228.47
448.767	235.57
449.226	239.57
449.685	243.87
450.143	258.17
450.602	243.17
451.061	245.77
451.519	241.97
451.978	243.77
452.436	245.57
452.895	252.77
453.353	265.17
453.812	250.87
454.27	249.97
454.729	239.07
455.187	244.27
455.646	253.47
456.104	253.97
456.562	280.47
457.021	283.17
457.479	266.87
457.937	284.37
458.395	275.27
458.854	263.07
459.312	265.17
459.77	284.17
460.228	260.17
460.686	251.57
461.144	255.17
461.602	247.27
462.06	250.17
462.518	257.77
462.976	271.27
463.434	264.77
463.892	275.37
464.35	286.77
464.808	293.27
465.266	271.17
465.724	277.67
466.181	279.47
466.639	286.57
467.097	306.57
467.555	307.37
468.012	305.97
468.47	320.07
468.928	335.87
469.385	360.37
469.843	361.47
470.3	354.57
470.758	376.07
471.215	394.27
471.673	428.77
472.13	421.17
472.588	426.97
473.045	375.17
473.503	391.27
473.96	408.67
474.417	418.97
474.875	445.17
475.332	493.67
475.789	480.77
476.246	487.17
476.704	501.57
477.161	530.07
477.618	545.17
478.075	579.87
478.532	629.47
478.989	704.47
479.446	837.57
479.903	795.07
480.36	833.57
480.817	888.67
481.274	990.87
481.731	1091.97
482.188	1190.27
482.645	1334.57
483.102	1447.97
483.558	1566.27
484.015	1615.67
484.472	1602.37
484.929	1554.67
485.385	1504.47
485.842	1444.77
486.299	1393.37
486.755	1326.97
487.212	1127.07
487.668	953.47
488.125	866.67
488.582	800.17
489.038	758.17
489.494	727.67
489.951	691.07
490.407	678.07
490.864	661.87
491.32	662.27
491.776	653.57
492.233	662.57
492.689	625.97
493.145	615.97
493.602	621.47
494.058	634.27
494.514	628.77
494.97	653.77
495.426	655.47
495.882	644.97
496.338	615.57
496.794	635.47
497.251	632.17
497.707	637.07
498.163	637.17
498.618	655.77
499.074	655.37
499.53	690.67
499.986	685.97
500.442	668.97
500.898	652.07
501.354	642.37
501.809	656.57
502.265	648.97
502.721	669.47
503.177	681.77
503.632	679.17
504.088	696.67
504.543	725.77
504.999	724.47
505.455	676.87
505.91	643.97
506.366	637.57
506.821	644.97
507.277	643.97
507.732	640.87
508.187	636.77
508.643	640.37
509.098	649.47
509.553	669.27
510.009	678.77
510.464	678.37
510.919	704.07
511.375	710.07
511.83	717.47
512.285	738.67
512.74	779.07
513.195	799.77
513.65	776.77
514.105	777.17
514.56	785.07
515.015	806.87
515.47	825.57
515.925	805.67
516.38	796.87
516.835	806.77
517.29	801.37
517.745	794.17
518.2	772.97
518.655	765.27
519.109	754.97
519.564	745.67
520.019	746.57
520.474	732.07
520.928	733.27
521.383	724.77
521.838	718.97
522.292	720.47
522.747	722.47
523.201	718.57
523.656	713.77
524.11	708.97
524.565	710.97
525.019	700.07
525.474	712.07
525.928	717.87
526.382	708.07
526.837	706.87
527.291	721.37
527.745	707.37
528.2	704.87
528.654	707.17
529.108	690.37
529.562	704.87
530.016	704.47
530.47	711.67
530.925	704.27
531.379	720.97
531.833	722.07
532.287	711.27
532.741	712.17
533.195	715.87
533.649	715.47
534.103	733.17
534.556	720.67
535.01	716.67
535.464	722.87
535.918	732.07
536.372	730.17
536.826	718.17
537.279	714.87
537.733	713.37
538.187	716.47
538.64	725.17
539.094	736.27
539.548	747.27
540.001	732.07
540.455	734.07
540.908	740.37
541.362	759.27
541.815	762.57
542.269	772.37
542.722	772.47
543.175	783.07
543.629	790.37
544.082	804.07
544.536	801.97
544.989	791.87
545.442	804.67
545.895	800.17
546.349	802.37
546.802	808.27
547.255	816.47
547.708	821.27
548.161	827.97
548.614	835.97
549.067	848.77
549.52	831.97
549.973	827.37
550.426	823.57
550.879	810.27
551.332	813.87
551.785	826.27
552.238	820.07
552.691	834.27
553.144	847.57
553.596	854.37
554.049	878.07
554.502	905.27
554.955	923.17
555.407	923.47
555.86	910.47
556.313	898.87
556.765	899.17
557.218	900.17
557.67	894.37
558.123	885.17
558.576	888.87
559.028	902.57
559.48	902.47
559.933	884.17
560.385	860.97
560.838	827.87
561.29	801.57
561.742	801.77
562.195	789.47
562.647	776.37
563.099	786.07
563.551	781.37
564.004	792.87
564.456	786.17
564.908	767.27
565.36	753.07
565.812	760.17
566.264	741.77
566.716	741.17
567.168	742.07
567.62	742.57
568.072	709.27
568.524	707.27
568.976	711.17
569.428	689.57
569.88	697.67
570.332	699.67
570.784	706.47
571.235	695.97
571.687	713.57
572.139	713.57
572.59	727.77
573.042	723.67
573.494	725.17
573.945	714.47
574.397	708.37
574.849	693.67
575.3	697.07
575.752	701.07
576.203	690.67
576.655	697.77
577.106	684.57
577.557	675.07
578.009	676.17
578.46	684.77
578.912	664.97
579.363	684.07
579.814	673.07
580.265	669.17
580.717	671.67
581.168	680.77
581.619	678.77
582.07	686.47
582.521	684.27
582.972	691.47
583.423	691.17
583.875	696.67
584.326	718.07
584.777	768.27
585.227	857.97
585.678	950.17
586.129	1026.67
586.58	1100.97
587.031	1179.77
587.482	1340.67
587.933	1535.37
588.384	1339.27
588.834	999.77
589.285	832.97
589.736	800.27
590.186	798.97
590.637	793.67
591.088	758.97
591.538	756.17
591.989	741.17
592.439	739.07
592.89	732.17
593.34	732.37
593.791	727.37
594.241	729.67
594.692	726.27
595.142	720.77
595.593	717.57
596.043	731.07
596.493	732.67
596.943	729.57
597.394	734.97
597.844	736.27
598.294	751.67
598.744	766.87
599.195	807.97
599.645	838.37
600.095	875.77
600.545	937.17
600.995	990.67
601.445	1045.67
601.895	1119.27
602.345	1151.87
602.795	1133.77
603.245	1090.37
603.695	1033.57
604.145	981.57
604.594	923.87
605.044	881.57
605.494	822.07
605.944	769.87
606.393	766.27
606.843	739.37
607.293	754.47
607.743	741.97
608.192	755.77
608.642	785.07
609.091	798.67
609.541	797.07
609.99	792.27
610.44	790.87
610.889	738.77
611.339	721.97
611.788	707.87
612.238	721.27
612.687	738.47
613.136	734.67
613.586	754.57
614.035	752.47
614.484	771.87
614.933	783.27
615.383	771.97
615.832	751.17
616.281	740.57
616.73	706.77
617.179	680.17
617.628	660.47
618.077	655.77
618.526	640.67
618.975	624.37
619.424	628.27
619.873	620.37
620.322	631.07
620.771	627.07
621.22	626.57
621.669	612.27
622.118	603.47
622.567	602.87
623.015	591.07
623.464	581.87
623.913	578.47
624.361	564.67
624.81	564.27
625.259	571.47
625.707	568.37
626.156	572.07
626.604	586.67
627.053	573.17
627.501	575.27
627.95	589.47
628.398	592.97
628.847	583.87
629.295	583.37
629.744	586.97
630.192	586.17
630.64	578.27
631.089	576.97
631.537	598.27
631.985	608.67
632.433	620.97
632.881	636.77
633.33	680.37
633.778	657.87
634.226	583.47
634.674	590.97
635.122	593.27
635.57	621.87
636.018	644.77
636.466	593.47
636.914	570.87
637.362	588.47
637.81	581.17
638.258	593.37
638.705	597.87
639.153	629.17
639.601	632.27
640.049	666.07
640.497	692.17
640.944	711.47
641.392	649.47
641.84	632.47
642.287	595.27
642.735	588.57
643.182	582.97
643.63	588.67
644.078	587.47
644.525	604.27
644.973	613.67
645.42	627.47
645.867	650.27
646.315	656.17
646.762	681.27
647.21	711.57
647.657	725.97
648.104	775.77
648.551	791.07
648.999	867.97
649.446	951.27
649.893	1045.37
650.34	1193.57
650.787	1451.67
651.234	1812.27
651.682	2344.17
652.129	3252.87
652.576	4688.37
653.023	6866.87
653.47	9387.87
653.917	11642.07
654.363	13279.37
654.81	14599.27
655.257	13901.07
655.704	9131.17
656.151	5391.07
656.598	3491.57
657.044	2476.97
657.491	1903.57
657.938	1511.97
658.385	1272.17
658.831	1111.37
659.278	993.37
659.724	878.77
660.171	808.37
660.618	735.07
661.064	709.67
661.511	682.97
661.957	663.17
662.404	671.67
662.85	669.77
663.296	639.57
663.743	581.77
664.189	553.87
664.635	546.67
665.082	537.27
665.528	541.57
665.974	530.27
666.42	527.07
666.867	525.07
667.313	506.57
667.759	494.17
668.205	490.47
668.651	501.67
669.097	505.77
669.543	516.87
669.989	486.67
670.435	465.57
670.881	463.17
671.327	467.27
671.773	476.87
672.219	500.47
672.665	558.57
673.11	604.77
673.556	659.77
674.002	678.87
674.448	672.27
674.893	560.97
675.339	483.67
675.785	447.87
676.23	426.27
676.676	404.97
677.122	397.67
677.567	376.77
678.013	380.27
678.458	372.67
678.904	373.37
679.349	357.27
679.794	366.07
680.24	361.27
680.685	359.57
681.131	358.07
681.576	360.57
682.021	366.47
682.466	353.77
682.912	352.77
683.357	359.87
683.802	388.07
684.247	425.07
684.692	471.57
685.137	515.27
685.583	545.57
686.028	565.87
686.473	525.07
686.918	452.77
687.363	417.57
687.807	401.57
688.252	370.97
688.697	368.67
689.142	345.57
689.587	346.17
690.032	331.07
690.477	353.37
690.921	361.07
691.366	382.97
691.811	403.07
692.255	441.97
692.7	479.87
693.145	522.67
693.589	733.07
694.034	1179.87
694.478	1597.37
694.923	1770.17
695.367	2286.67
695.812	1219.37
696.256	503.37
696.701	381.57
697.145	348.57
697.59	339.47
698.034	331.57
698.478	342.67
698.922	334.47
699.367	341.77
699.811	345.77
700.255	366.87
700.699	399.57
701.143	448.07
701.588	494.47
702.032	530.97
702.476	524.07
702.92	503.77
703.364	500.07
703.808	670.67
704.252	1077.17
704.696	1500.87
705.14	1693.07
705.584	2171.47
706.027	1084.07
706.471	527.57
706.915	409.97
707.359	365.07
707.803	332.87
708.246	318.97
708.69	320.27
709.134	325.77
709.577	312.47
710.021	324.17
710.465	319.97
710.908	313.47
711.352	305.97
711.795	324.57
712.239	358.67
712.682	399.07
713.126	432.77
713.569	474.47
714.012	379.97
714.456	334.47
714.899	306.87
715.342	286.17
715.786	265.57
716.229	263.57
716.672	267.07
717.115	260.97
717.558	259.77
718.002	255.27
718.445	268.17
718.888	298.57
719.331	305.37
719.774	318.87
720.217	310.17
720.66	286.17
721.103	273.87
721.546	268.77
721.989	258.67
722.432	240.17
722.874	246.97
723.317	238.27
723.76	238.57
724.203	270.67
724.645	324.57
725.088	463.97
725.531	579.47
725.974	641.97
726.416	557.37
726.859	315.27
727.301	249.87
727.744	249.07
728.187	240.37
728.629	243.97
729.071	254.07
729.514	266.57
729.956	283.47
730.399	291.57
730.841	294.37
731.283	288.07
731.726	270.47
732.168	261.97
732.61	268.77
733.053	286.77
733.495	331.47
733.937	368.87
734.379	410.77
734.821	444.77
735.263	572.47
735.705	886.57
736.148	1670.27
736.59	2663.57
737.032	3094.27
737.474	2509.47
737.916	828.97
738.357	439.47
738.799	338.97
739.241	305.87
739.683	293.07
740.125	297.07
740.567	307.07
741.008	323.57
741.45	319.17
741.892	327.57
742.334	364.57
742.775	368.17
743.217	346.17
743.658	274.47
744.1	257.27
744.542	269.77
744.983	324.67
745.425	345.17
745.866	352.97
746.307	294.77
746.749	288.07
747.19	336.67
747.632	478.97
748.073	940.27
748.514	1962.27
748.956	2930.87
749.397	3685.87
749.838	3029.07
750.279	2968.47
750.72	1514.97
751.162	565.87
751.603	324.97
752.044	258.07
752.485	225.07
752.926	213.47
753.367	211.17
753.808	204.87
754.249	191.47
754.69	195.57
755.131	188.17
755.572	189.67
756.013	186.07
756.453	191.57
756.894	194.77
757.335	199.07
757.776	202.67
758.216	197.87
758.657	195.77
759.098	204.27
759.538	239.17
759.979	272.77
760.42	388.57
760.86	754.97
761.301	1956.07
761.741	4618.27
762.182	6447.17
