Data from 20171114-ORNL-Ar_H_NY_Subt18_08-07-28-705.txt Node
Date: Tue Nov 14 08:07:28 EST 2017
User: Ender
Spectrometer: HR+D1039
Trigger mode: 0
Integration Time (sec): 2.730000E-2
Scans to average: 10
Electric dark correction enabled: true
Nonlinearity correction enabled: false
Boxcar width: 0
XAxis mode: Wavelengths
Number of Pixels in Spectrum: 2048
>>>>>Begin Spectral Data<<<<<
187.836	-2.26
188.309	-2.26
188.782	-2.26
189.255	2.54
189.728	-4.66
190.201	8.14
190.674	0.14
191.147	-0.46
191.619	-9.16
192.092	1.14
192.565	1.94
193.038	-0.26
193.511	-5.96
193.984	-1.06
194.456	1.84
194.929	3.24
195.402	1.24
195.874	3.64
196.347	1.24
196.82	-9.76
197.292	1.14
197.765	-0.16
198.237	-6.16
198.71	4.34
199.182	3.34
199.655	3.34
200.127	4.24
200.6	0.64
201.072	0.64
201.544	-3.06
202.017	-3.16
202.489	1.74
202.961	0.14
203.433	-7.16
203.906	-3.46
204.378	-6.56
204.85	-7.36
205.322	-6.96
205.794	-4.06
206.266	2.24
206.739	-7.26
207.211	-2.16
207.683	-8.36
208.155	-3.46
208.627	-11.06
209.099	-3.56
209.57	-6.66
210.042	2.14
210.514	0.34
210.986	-5.36
211.458	-6.96
211.93	0.64
212.402	-2.86
212.873	-3.96
213.345	-9.16
213.817	-11.06
214.288	-1.86
214.76	-11.06
215.232	-2.96
215.703	-4.56
216.175	-2.26
216.646	-0.86
217.118	-3.26
217.589	-8.06
218.061	0.14
218.532	-6.06
219.004	0.54
219.475	-7.26
219.946	1.84
220.418	-6.46
220.889	0.64
221.36	-1.86
221.832	-4.06
222.303	-7.86
222.774	2.34
223.245	-5.56
223.717	-5.56
224.188	-2.76
224.659	-4.26
225.13	-7.66
225.601	-6.76
226.072	2.94
226.543	1.04
227.014	-0.76
227.485	-3.86
227.956	-1.46
228.427	-3.76
228.898	-9.86
229.369	-1.56
229.839	-4.56
230.31	-6.06
230.781	-1.76
231.252	2.14
231.722	-4.56
232.193	0.04
232.664	-4.86
233.135	-5.86
233.605	-0.96
234.076	-2.26
234.546	3.04
235.017	3.24
235.487	0.34
235.958	-1.86
236.428	-5.36
236.899	0.24
237.369	1.54
237.84	-1.96
238.31	1.04
238.78	0.04
239.251	-6.56
239.721	-3.46
240.191	1.34
240.662	0.64
241.132	0.04
241.602	-3.46
242.072	1.14
242.542	4.74
243.013	0.54
243.483	3.44
243.953	-0.26
244.423	-4.96
244.893	-0.26
245.363	-0.46
245.833	-0.76
246.303	-6.16
246.773	3.24
247.243	-6.56
247.712	-1.16
248.182	7.74
248.652	8.64
249.122	-10.26
249.592	4.24
250.061	16.64
250.531	27.44
251.001	11.14
251.471	12.74
251.94	15.84
252.41	4.34
252.879	-5.26
253.349	9.74
253.818	3.04
254.288	0.64
254.757	4.84
255.227	-5.26
255.696	2.14
256.166	5.34
256.635	2.34
257.105	7.04
257.574	5.24
258.043	1.64
258.513	4.54
258.982	11.54
259.451	4.34
259.92	4.64
260.389	5.24
260.859	11.14
261.328	5.74
261.797	8.04
262.266	5.34
262.735	4.94
263.204	6.04
263.673	0.54
264.142	6.64
264.611	-3.66
265.08	-4.16
265.549	-0.56
266.018	6.54
266.487	-9.56
266.955	-9.16
267.424	4.24
267.893	6.04
268.362	1.04
268.83	-0.06
269.299	0.74
269.768	-0.86
270.236	3.24
270.705	4.44
271.174	1.84
271.642	4.94
272.111	7.94
272.579	9.54
273.048	15.74
273.516	13.64
273.985	14.14
274.453	18.84
274.922	11.74
275.39	10.34
275.858	-1.66
276.327	5.94
276.795	7.94
277.263	1.24
277.731	22.84
278.2	41.64
278.668	43.64
279.136	36.64
279.604	7.94
280.072	10.04
280.54	5.84
281.008	9.54
281.477	11.34
281.945	10.74
282.413	8.74
282.881	11.84
283.348	5.74
283.816	7.24
284.284	10.44
284.752	19.54
285.22	11.34
285.688	6.04
286.156	13.44
286.623	33.24
287.091	35.24
287.559	18.94
288.026	15.44
288.494	14.84
288.962	-0.66
289.429	2.84
289.897	13.14
290.364	4.24
290.832	10.04
291.3	6.74
291.767	10.14
292.234	12.24
292.702	10.84
293.169	12.04
293.637	13.84
294.104	5.94
294.571	3.74
295.039	9.84
295.506	11.04
295.973	17.04
296.44	4.04
296.908	10.14
297.375	14.94
297.842	15.04
298.309	12.94
298.776	8.84
299.243	13.34
299.71	1.34
300.177	12.44
300.644	13.54
301.111	12.84
301.578	14.74
302.045	11.64
302.512	10.04
302.979	16.14
303.446	21.44
303.913	5.54
304.379	8.54
304.846	20.54
305.313	18.04
305.78	18.24
306.246	19.44
306.713	17.44
307.18	19.24
307.646	14.54
308.113	21.74
308.579	18.94
309.046	17.74
309.512	19.74
309.979	18.44
310.445	22.24
310.912	24.14
311.378	23.44
311.845	20.34
312.311	25.44
312.777	28.94
313.244	19.54
313.71	26.64
314.176	21.44
314.642	17.84
315.109	16.24
315.575	24.04
316.041	27.84
316.507	21.54
316.973	26.54
317.439	25.34
317.905	29.54
318.371	28.44
318.837	26.24
319.303	22.54
319.769	24.54
320.235	22.84
320.701	25.84
321.167	28.14
321.633	27.64
322.099	26.04
322.564	33.84
323.03	28.74
323.496	27.74
323.962	27.54
324.427	22.04
324.893	31.54
325.359	28.84
325.824	21.94
326.29	25.34
326.755	27.24
327.221	31.54
327.686	29.04
328.152	36.34
328.617	28.64
329.083	29.04
329.548	38.84
330.014	34.94
330.479	32.04
330.944	34.54
331.41	33.64
331.875	30.14
332.34	28.24
332.805	33.84
333.271	41.24
333.736	35.24
334.201	41.54
334.666	39.64
335.131	39.74
335.596	43.94
336.061	42.84
336.526	29.44
336.991	37.44
337.456	45.94
337.921	38.34
338.386	34.14
338.851	44.04
339.316	40.64
339.781	38.54
340.246	40.04
340.711	31.74
341.175	38.34
341.64	39.04
342.105	39.34
342.569	40.84
343.034	45.14
343.499	49.74
343.963	38.74
344.428	50.64
344.893	51.24
345.357	45.94
345.822	52.64
346.286	55.64
346.751	56.64
347.215	46.44
347.679	50.24
348.144	76.74
348.608	64.94
349.073	57.74
349.537	62.44
350.001	65.34
350.465	68.04
350.93	59.54
351.394	62.74
351.858	63.04
352.322	66.64
352.786	64.74
353.25	69.84
353.715	85.94
354.179	74.64
354.643	92.84
355.107	94.74
355.571	81.64
356.035	86.44
356.498	93.34
356.962	95.74
357.426	98.04
357.89	87.64
358.354	72.64
358.818	71.44
359.281	66.74
359.745	60.84
360.209	60.84
360.673	59.64
361.136	67.34
361.6	73.24
362.064	67.94
362.527	66.94
362.991	67.74
363.454	72.54
363.918	62.84
364.381	62.64
364.845	65.84
365.308	70.94
365.772	73.44
366.235	73.54
366.698	73.24
367.162	69.44
367.625	74.94
368.088	70.04
368.552	75.24
369.015	77.44
369.478	83.44
369.941	86.14
370.404	73.74
370.867	79.44
371.331	85.34
371.794	100.74
372.257	86.44
372.72	100.24
373.183	94.04
373.646	82.84
374.109	88.44
374.572	91.14
375.035	96.24
375.497	91.74
375.96	91.84
376.423	85.64
376.886	96.94
377.349	92.94
377.811	86.54
378.274	96.04
378.737	88.44
379.199	93.44
379.662	96.84
380.125	99.94
380.587	106.04
381.05	104.44
381.512	110.94
381.975	118.14
382.437	116.14
382.9	111.14
383.362	108.24
383.825	114.64
384.287	127.84
384.75	120.14
385.212	121.14
385.674	124.14
386.136	120.44
386.599	107.34
387.061	106.94
387.523	107.84
387.985	119.34
388.447	122.24
388.91	126.04
389.372	135.44
389.834	130.94
390.296	126.94
390.758	135.34
391.22	146.84
391.682	184.84
392.144	251.24
392.606	198.44
393.068	149.34
393.529	147.44
393.991	133.34
394.453	130.74
394.915	133.24
395.377	169.44
395.838	182.54
396.3	136.74
396.762	122.84
397.224	118.84
397.685	113.64
398.147	117.14
398.608	117.94
399.07	117.14
399.531	117.84
399.993	124.94
400.454	136.34
400.916	132.04
401.377	128.34
401.839	132.84
402.3	132.24
402.762	152.64
403.223	159.94
403.684	152.24
404.145	142.24
404.607	147.54
405.068	159.24
405.529	152.24
405.99	170.54
406.451	152.84
406.913	152.34
407.374	145.44
407.835	143.94
408.296	154.04
408.757	160.24
409.218	166.54
409.679	162.64
410.14	158.54
410.601	161.14
411.062	160.04
411.522	175.44
411.983	167.24
412.444	161.64
412.905	164.64
413.366	168.54
413.826	176.34
414.287	194.24
414.748	238.14
415.208	221.84
415.669	188.04
416.13	187.24
416.59	187.34
417.051	194.64
417.511	196.64
417.972	213.34
418.432	224.44
418.893	260.94
419.353	231.44
419.814	179.54
420.274	173.24
420.734	163.74
421.195	182.54
421.655	179.64
422.115	175.94
422.576	178.54
423.036	187.44
423.496	189.94
423.956	192.94
424.416	206.84
424.876	241.54
425.336	234.04
425.797	244.64
426.257	237.64
426.717	218.34
427.177	214.64
427.637	212.74
428.097	214.04
428.556	226.44
429.016	253.54
429.476	242.04
429.936	252.84
430.396	254.44
430.856	272.84
431.315	289.24
431.775	313.44
432.235	355.54
432.694	320.04
433.154	332.54
433.614	352.14
434.073	308.64
434.533	260.74
434.993	251.24
435.452	257.64
435.912	270.44
436.371	264.44
436.83	259.64
437.29	243.94
437.749	229.04
438.209	237.34
438.668	253.94
439.127	266.74
439.587	243.74
440.046	224.34
440.505	234.64
440.964	249.44
441.424	297.14
441.883	277.84
442.342	242.94
442.801	210.24
443.26	203.84
443.719	210.34
444.178	207.34
444.637	201.44
445.096	207.24
445.555	216.04
446.014	211.44
446.473	216.24
446.932	214.64
447.391	219.84
447.849	206.44
448.308	205.04
448.767	206.84
449.226	220.24
449.685	224.04
450.143	233.44
450.602	221.74
451.061	211.24
451.519	221.14
451.978	219.34
452.436	220.34
452.895	226.34
453.353	235.44
453.812	230.94
454.27	226.94
454.729	228.14
455.187	219.64
455.646	235.54
456.104	223.54
456.562	244.74
457.021	249.94
457.479	245.64
457.937	256.04
458.395	245.84
458.854	234.44
459.312	243.34
459.77	253.74
460.228	234.04
460.686	224.84
461.144	230.54
461.602	232.94
462.06	227.34
462.518	237.44
462.976	240.84
463.434	238.54
463.892	243.54
464.35	252.74
464.808	273.94
465.266	248.64
465.724	256.14
466.181	256.24
466.639	250.64
467.097	269.74
467.555	285.94
468.012	288.04
468.47	289.34
468.928	308.24
469.385	316.04
469.843	319.74
470.3	328.74
470.758	347.64
471.215	362.04
471.673	383.54
472.13	374.64
472.588	385.24
473.045	358.04
473.503	361.94
473.96	372.14
474.417	375.54
474.875	406.14
475.332	447.84
475.789	436.64
476.246	446.54
476.704	460.34
477.161	486.34
477.618	498.54
478.075	528.94
478.532	591.04
478.989	647.54
479.446	744.94
479.903	723.04
480.36	769.54
480.817	822.44
481.274	917.04
481.731	1009.04
482.188	1101.94
482.645	1217.14
483.102	1340.94
483.558	1455.84
484.015	1504.24
484.472	1489.24
484.929	1437.84
485.385	1394.54
485.842	1342.14
486.299	1276.54
486.755	1224.44
487.212	1021.34
487.668	879.34
488.125	802.24
488.582	738.84
489.038	697.94
489.494	668.44
489.951	647.14
490.407	636.34
490.864	613.84
491.32	610.84
491.776	607.24
492.233	621.64
492.689	579.44
493.145	577.44
493.602	571.14
494.058	575.94
494.514	583.14
494.97	608.44
495.426	616.14
495.882	595.14
496.338	584.14
496.794	589.34
497.251	585.74
497.707	591.94
498.163	601.34
498.618	605.84
499.074	607.14
499.53	645.24
499.986	635.54
500.442	617.54
500.898	593.64
501.354	594.44
501.809	604.34
502.265	608.54
502.721	634.54
503.177	638.54
503.632	624.74
504.088	641.14
504.543	670.94
504.999	669.54
505.455	628.04
505.91	605.74
506.366	602.84
506.821	595.14
507.277	592.14
507.732	600.04
508.187	603.64
508.643	614.24
509.098	608.04
509.553	627.64
510.009	632.24
510.464	638.64
510.919	649.14
511.375	657.14
511.83	673.34
512.285	690.04
512.74	724.94
513.195	754.24
513.65	735.94
514.105	733.64
514.56	731.94
515.015	759.04
515.47	782.94
515.925	758.44
516.38	753.44
516.835	764.24
517.29	752.94
517.745	737.94
518.2	729.64
518.655	715.34
519.109	714.14
519.564	704.14
520.019	697.94
520.474	696.44
520.928	688.14
521.383	688.44
521.838	678.64
522.292	676.34
522.747	684.34
523.201	686.74
523.656	668.94
524.11	673.04
524.565	666.84
525.019	668.44
525.474	674.84
525.928	672.94
526.382	676.14
526.837	666.84
527.291	683.44
527.745	667.94
528.2	666.54
528.654	668.34
529.108	663.64
529.562	664.44
530.016	662.24
530.47	654.24
530.925	674.14
531.379	667.74
531.833	674.74
532.287	670.44
532.741	669.04
533.195	682.74
533.649	682.24
534.103	692.04
534.556	672.04
535.01	680.94
535.464	689.14
535.918	688.44
536.372	693.54
536.826	699.74
537.279	676.84
537.733	684.74
538.187	684.84
538.64	685.14
539.094	701.44
539.548	697.14
540.001	689.74
540.455	689.94
540.908	706.54
541.362	703.44
541.815	727.04
542.269	727.04
542.722	729.44
543.175	735.94
543.629	738.24
544.082	749.74
544.536	754.94
544.989	752.74
545.442	770.74
545.895	763.64
546.349	770.34
546.802	764.34
547.255	753.24
547.708	784.94
548.161	779.54
548.614	792.34
549.067	805.34
549.52	783.64
549.973	785.44
550.426	783.44
550.879	767.84
551.332	768.24
551.785	782.14
552.238	773.74
552.691	785.84
553.144	800.04
553.596	815.44
554.049	834.14
554.502	855.94
554.955	881.94
555.407	878.74
555.86	870.64
556.313	857.84
556.765	842.94
557.218	857.74
557.67	847.94
558.123	840.14
558.576	839.44
559.028	846.84
559.48	851.14
559.933	834.94
560.385	805.14
560.838	788.24
561.29	750.84
561.742	753.74
562.195	733.94
562.647	736.04
563.099	746.24
563.551	748.94
564.004	763.34
564.456	747.74
564.908	739.44
565.36	720.64
565.812	698.14
566.264	695.54
566.716	701.44
567.168	688.94
567.62	695.74
568.072	691.54
568.524	678.04
568.976	668.34
569.428	655.44
569.88	649.44
570.332	670.84
570.784	663.44
571.235	666.94
571.687	667.74
572.139	684.04
572.59	694.14
573.042	686.64
573.494	690.94
573.945	678.54
574.397	657.94
574.849	671.84
575.3	675.74
575.752	654.44
576.203	657.74
576.655	653.24
577.106	646.74
577.557	654.64
578.009	655.04
578.46	646.34
578.912	645.64
579.363	638.74
579.814	637.64
580.265	646.94
580.717	647.44
581.168	644.44
581.619	649.54
582.07	662.64
582.521	648.64
582.972	652.94
583.423	660.64
583.875	656.34
584.326	678.64
584.777	726.34
585.227	801.64
585.678	856.84
586.129	937.24
586.58	1007.14
587.031	1085.14
587.482	1209.64
587.933	1366.14
588.384	1207.14
588.834	925.84
589.285	782.34
589.736	762.24
590.186	751.84
590.637	737.64
591.088	717.14
591.538	728.14
591.989	714.84
592.439	704.54
592.89	699.14
593.34	682.24
593.791	693.04
594.241	684.04
594.692	696.34
595.142	671.64
595.593	675.84
596.043	691.34
596.493	693.94
596.943	694.54
597.394	698.34
597.844	680.04
598.294	698.04
598.744	728.54
599.195	744.04
599.645	797.24
600.095	839.04
600.545	894.24
600.995	946.14
601.445	1000.34
601.895	1061.14
602.345	1112.54
602.795	1084.14
603.245	1030.44
603.695	974.94
604.145	929.34
604.594	895.74
605.044	829.14
605.494	765.94
605.944	722.64
606.393	718.24
606.843	702.04
607.293	714.14
607.743	717.84
608.192	729.54
608.642	734.14
609.091	747.34
609.541	749.84
609.99	746.74
610.44	747.84
610.889	700.84
611.339	679.04
611.788	665.84
612.238	677.14
612.687	696.34
613.136	703.24
613.586	716.14
614.035	717.64
614.484	732.04
614.933	735.74
615.383	722.44
615.832	726.84
616.281	704.04
616.73	666.44
617.179	649.54
617.628	638.64
618.077	617.64
618.526	612.14
618.975	601.24
619.424	601.04
619.873	596.44
620.322	602.54
620.771	585.14
621.22	593.34
621.669	578.14
622.118	569.84
622.567	574.44
623.015	553.04
623.464	567.34
623.913	548.44
624.361	545.34
624.81	535.24
625.259	543.04
625.707	544.14
626.156	540.34
626.604	558.74
627.053	544.54
627.501	544.14
627.95	548.44
628.398	563.84
628.847	558.84
629.295	552.94
629.744	552.14
630.192	547.64
630.64	553.54
631.089	550.14
631.537	555.74
631.985	561.34
632.433	561.74
632.881	578.44
633.33	615.84
633.778	612.64
634.226	540.54
634.674	551.64
635.122	556.14
635.57	583.14
636.018	601.34
636.466	564.14
636.914	540.14
637.362	554.24
637.81	553.24
638.258	557.34
638.705	559.04
639.153	596.64
639.601	596.04
640.049	627.24
640.497	653.64
640.944	679.14
641.392	636.04
641.84	596.94
642.287	563.94
642.735	558.54
643.182	553.04
643.63	561.94
644.078	557.94
644.525	570.34
644.973	590.84
645.42	589.44
645.867	601.74
646.315	609.34
646.762	641.44
647.21	674.74
647.657	683.34
648.104	725.04
648.551	749.84
648.999	804.94
649.446	880.64
649.893	988.04
650.34	1123.14
650.787	1344.54
651.234	1673.34
651.682	2194.44
652.129	3012.64
652.576	4383.04
653.023	6447.24
653.47	8821.84
653.917	10961.84
654.363	12652.84
654.81	13916.44
655.257	13227.34
655.704	8626.94
656.151	5050.14
656.598	3276.24
657.044	2320.44
657.491	1786.74
657.938	1434.84
658.385	1198.54
658.831	1046.34
659.278	935.94
659.724	824.94
660.171	763.74
660.618	699.24
661.064	672.94
661.511	647.24
661.957	631.24
662.404	621.14
662.85	631.94
663.296	603.34
663.743	545.14
664.189	526.54
664.635	519.74
665.082	508.64
665.528	513.04
665.974	503.34
666.42	499.64
666.867	492.14
667.313	475.94
667.759	467.54
668.205	457.24
668.651	470.64
669.097	465.14
669.543	477.54
669.989	455.14
670.435	431.44
670.881	440.14
671.327	435.44
671.773	465.34
672.219	473.94
672.665	536.04
673.11	574.14
673.556	611.34
674.002	659.54
674.448	650.44
674.893	540.24
675.339	466.34
675.785	429.24
676.23	407.94
676.676	386.24
677.122	369.54
677.567	358.84
678.013	349.34
678.458	353.44
678.904	350.14
679.349	332.34
679.794	330.44
680.24	334.84
680.685	347.14
681.131	336.94
681.576	340.74
682.021	340.24
682.466	339.44
682.912	340.24
683.357	345.74
683.802	380.44
684.247	403.34
684.692	445.14
685.137	488.24
685.583	519.24
686.028	544.44
686.473	507.24
686.918	430.24
687.363	407.34
687.807	383.84
688.252	355.74
688.697	350.04
689.142	323.24
689.587	328.54
690.032	326.04
690.477	332.14
690.921	336.04
691.366	373.04
691.811	383.44
692.255	423.54
692.7	451.84
693.145	499.24
693.589	692.24
694.034	1122.24
694.478	1504.84
694.923	1696.04
695.367	2220.24
695.812	1169.24
696.256	480.34
696.701	357.14
697.145	338.74
697.59	325.34
698.034	312.84
698.478	326.04
698.922	318.34
699.367	317.44
699.811	333.44
700.255	340.94
700.699	378.34
701.143	414.54
701.588	468.14
702.032	504.04
702.476	504.94
702.92	479.94
703.364	482.44
703.808	626.24
704.252	1027.24
704.696	1435.34
705.14	1630.94
705.584	2073.44
706.027	1042.54
706.471	508.54
706.915	383.94
707.359	339.44
707.803	311.74
708.246	296.84
708.69	303.34
709.134	307.84
709.577	307.44
710.021	307.04
710.465	302.34
710.908	289.74
711.352	288.24
711.795	303.14
712.239	345.84
712.682	380.84
713.126	407.54
713.569	459.54
714.012	356.34
714.456	319.64
714.899	290.14
715.342	270.14
715.786	253.74
716.229	250.04
716.672	250.04
717.115	245.84
717.558	246.84
718.002	246.04
718.445	255.34
718.888	280.14
719.331	289.84
719.774	298.94
720.217	291.14
720.66	276.14
721.103	259.24
721.546	249.24
721.989	239.84
722.432	222.74
722.874	227.74
723.317	224.44
723.76	226.94
724.203	257.84
724.645	315.54
725.088	440.04
725.531	562.34
725.974	626.94
726.416	542.44
726.859	294.44
727.301	242.24
727.744	233.24
728.187	221.44
728.629	243.04
729.071	235.14
729.514	246.54
729.956	270.14
730.399	277.34
730.841	272.24
731.283	263.04
731.726	259.54
732.168	253.74
732.61	262.34
733.053	286.54
733.495	309.94
733.937	347.34
734.379	397.14
734.821	428.24
735.263	532.84
735.705	837.24
736.148	1574.04
736.59	2541.24
737.032	2985.94
737.474	2404.04
737.916	790.24
738.357	417.94
738.799	322.24
739.241	290.74
739.683	278.54
740.125	291.24
740.567	289.24
741.008	302.74
741.45	309.74
741.892	316.64
742.334	333.64
742.775	347.84
743.217	333.84
743.658	263.54
744.1	245.04
744.542	249.34
744.983	302.04
745.425	331.84
745.866	340.74
746.307	278.84
746.749	279.84
747.19	324.14
747.632	449.94
748.073	895.84
748.514	1854.94
748.956	2797.24
749.397	3518.74
749.838	2912.64
750.279	2898.34
750.72	1466.14
751.162	534.84
751.603	312.64
752.044	252.34
752.485	212.04
752.926	203.74
753.367	195.34
753.808	185.74
754.249	185.74
754.69	179.64
755.131	176.14
755.572	168.94
756.013	172.94
756.453	181.24
756.894	181.54
757.335	182.64
757.776	191.34
758.216	190.74
758.657	186.24
759.098	195.94
759.538	230.04
759.979	262.24
760.42	367.84
760.86	705.74
761.301	1847.04
761.741	4397.44
762.182	6296.24
762.622	4393.34
763.063	1276.94
763.503	521.24
763.943	333.14
