Data from 20171114-ORNL-Ar_H_NY_Subt18_08-06-45-848.txt Node
Date: Tue Nov 14 08:06:45 EST 2017
User: Ender
Spectrometer: HR+D1039
Trigger mode: 0
Integration Time (sec): 2.730000E-2
Scans to average: 10
Electric dark correction enabled: true
Nonlinearity correction enabled: false
Boxcar width: 0
XAxis mode: Wavelengths
Number of Pixels in Spectrum: 2048
>>>>>Begin Spectral Data<<<<<
187.836	-1.8
188.309	-1.8
188.782	-1.8
189.255	2.5
189.728	0.9
190.201	1.8
190.674	-0.5
191.147	1.3
191.619	-6.7
192.092	2.2
192.565	4
193.038	-1.9
193.511	0.6
193.984	-1
194.456	-2
194.929	2.3
195.402	-1.4
195.874	-0.3
196.347	-3
196.82	-5.4
197.292	2.1
197.765	1.9
198.237	-7.3
198.71	3.5
199.182	-2.6
199.655	5.3
200.127	7.8
200.6	0.6
201.072	1.6
201.544	-1
202.017	0.8
202.489	1.9
202.961	-2.1
203.433	-0.2
203.906	-7.5
204.378	-2.5
204.85	1.4
205.322	-6.1
205.794	-1.4
206.266	-4.9
206.739	-7.2
207.211	4
207.683	-7.2
208.155	-8.8
208.627	-10.9
209.099	-0.5
209.57	-3.4
210.042	-5.3
210.514	-6.8
210.986	-4.6
211.458	-10.3
211.93	-3.8
212.402	3.7
212.873	-4.7
213.345	-10
213.817	-14.9
214.288	-4
214.76	-13.3
215.232	-3.5
215.703	-2.5
216.175	-4.9
216.646	-4.8
217.118	-5.6
217.589	-4.3
218.061	3.2
218.532	-1.4
219.004	-2.5
219.475	-7.1
219.946	-2.7
220.418	-6.6
220.889	2.9
221.36	-1.4
221.832	-7.9
222.303	-6.5
222.774	-3.4
223.245	-5.7
223.717	-5.3
224.188	-2.6
224.659	-6.3
225.13	-6.8
225.601	3.3
226.072	-7.9
226.543	3.5
227.014	3
227.485	0.9
227.956	-10.4
228.427	-4.8
228.898	1.7
229.369	2.8
229.839	1.7
230.31	-2
230.781	0.5
231.252	-6.7
231.722	-4.5
232.193	-2.8
232.664	-5.1
233.135	0.7
233.605	-4.7
234.076	-4.7
234.546	2.1
235.017	1.2
235.487	-2
235.958	-1.1
236.428	-4.8
236.899	-0.6
237.369	-1.4
237.84	-7
238.31	3.7
238.78	1.5
239.251	-9.1
239.721	-3.5
240.191	-4.4
240.662	-2
241.132	0.8
241.602	-7.6
242.072	-2.3
242.542	2.4
243.013	0.2
243.483	1.6
243.953	2.1
244.423	-2.4
244.893	-3.7
245.363	0.8
245.833	-6.2
246.303	-6.1
246.773	7.2
247.243	-1.1
247.712	-3.6
248.182	1.8
248.652	5.3
249.122	-5.1
249.592	1.5
250.061	8.9
250.531	14.2
251.001	-5
251.471	4.6
251.94	7
252.41	-4.4
252.879	-6.1
253.349	5.4
253.818	8.6
254.288	2.7
254.757	1.4
255.227	-7.1
255.696	-0.3
256.166	10.5
256.635	4.3
257.105	1.3
257.574	3.3
258.043	1.9
258.513	-2.9
258.982	3.8
259.451	-1.2
259.92	1.2
260.389	12.5
260.859	7.9
261.328	12.7
261.797	8.1
262.266	3.4
262.735	5
263.204	1.5
263.673	-1.8
264.142	3.4
264.611	-4.2
265.08	3.4
265.549	0.2
266.018	6.2
266.487	-4.1
266.955	-2.9
267.424	6.3
267.893	9.3
268.362	-0.2
268.83	2.6
269.299	9.2
269.768	4.9
270.236	6.5
270.705	-1.6
271.174	6.1
271.642	3.8
272.111	6.3
272.579	5.1
273.048	8.2
273.516	2.1
273.985	8.2
274.453	12.5
274.922	14.1
275.39	1.1
275.858	-0.5
276.327	5.6
276.795	9.5
277.263	3.6
277.731	14.1
278.2	12.2
278.668	15
279.136	11.4
279.604	6.6
280.072	11.8
280.54	5.3
281.008	7.6
281.477	11.1
281.945	6.7
282.413	7.3
282.881	11.7
283.348	4.5
283.816	9.7
284.284	14.3
284.752	15.7
285.22	12.8
285.688	10.7
286.156	6
286.623	18.5
287.091	14.5
287.559	15.5
288.026	14.2
288.494	15.9
288.962	1.8
289.429	14.8
289.897	19.4
290.364	14.6
290.832	13.7
291.3	9.8
291.767	15.9
292.234	14.8
292.702	13
293.169	19.9
293.637	18.6
294.104	14.2
294.571	12.8
295.039	8.9
295.506	10.9
295.973	15.5
296.44	15.7
296.908	11.1
297.375	9.6
297.842	16.9
298.309	15.8
298.776	8.4
299.243	13.8
299.71	7.4
300.177	19.7
300.644	21.1
301.111	24.4
301.578	20.5
302.045	12.3
302.512	23.7
302.979	26.6
303.446	21.9
303.913	12.9
304.379	11
304.846	30.5
305.313	24.8
305.78	20.5
306.246	22.7
306.713	25.4
307.18	25.1
307.646	23.7
308.113	27.1
308.579	18.9
309.046	24.2
309.512	23.2
309.979	15.8
310.445	28.6
310.912	24.7
311.378	24.4
311.845	26.8
312.311	34.4
312.777	34
313.244	28
313.71	33.5
314.176	27
314.642	26.6
315.109	32.9
315.575	32.8
316.041	35.9
316.507	32.7
316.973	35.2
317.439	33.7
317.905	32.2
318.371	38.5
318.837	34.7
319.303	30.1
319.769	32.2
320.235	35.7
320.701	31.8
321.167	37.6
321.633	30.7
322.099	35.9
322.564	35.2
323.03	33.5
323.496	37.7
323.962	33.8
324.427	35.2
324.893	42.7
325.359	37.4
325.824	32.1
326.29	35.5
326.755	40.1
327.221	40.9
327.686	41.4
328.152	46.6
328.617	38.7
329.083	42.2
329.548	56.5
330.014	44.4
330.479	43
330.944	42.1
331.41	39.1
331.875	44.1
332.34	36.9
332.805	39.7
333.271	51.3
333.736	38.9
334.201	40.9
334.666	46.3
335.131	43.7
335.596	47.5
336.061	40.8
336.526	42.7
336.991	46.9
337.456	50.8
337.921	44.4
338.386	43.7
338.851	40.4
339.316	49.8
339.781	42.6
340.246	48.7
340.711	52.2
341.175	46.9
341.64	45.7
342.105	52.8
342.569	55.3
343.034	53.9
343.499	57.3
343.963	47.3
344.428	63.9
344.893	58.2
345.357	58.7
345.822	60.7
346.286	67.8
346.751	74
347.215	68.6
347.679	70.1
348.144	81.2
348.608	77.5
349.073	68.6
349.537	71.1
350.001	79.2
350.465	86.9
350.93	77.7
351.394	77.6
351.858	73.6
352.322	82.2
352.786	84.1
353.25	101
353.715	109.8
354.179	99.9
354.643	116.2
355.107	116.4
355.571	107.3
356.035	92.1
356.498	115.5
356.962	110.9
357.426	120.9
357.89	107.4
358.354	87.6
358.818	82.2
359.281	75.9
359.745	82.1
360.209	73.9
360.673	77.5
361.136	80.6
361.6	84.8
362.064	87.4
362.527	80.5
362.991	87
363.454	73.9
363.918	73.8
364.381	78.6
364.845	80.8
365.308	80.2
365.772	90
366.235	85.2
366.698	81.5
367.162	85.7
367.625	81.6
368.088	90.9
368.552	87.1
369.015	86.6
369.478	91
369.941	97.4
370.404	91.5
370.867	100
371.331	104.9
371.794	108.2
372.257	97.1
372.72	99.6
373.183	103.2
373.646	95.8
374.109	96.2
374.572	96
375.035	97.6
375.497	104.1
375.96	104.5
376.423	103.1
376.886	109.2
377.349	110.8
377.811	100.6
378.274	100.7
378.737	97.4
379.199	107
379.662	107.3
380.125	111.9
380.587	107.4
381.05	111.4
381.512	116.4
381.975	110.2
382.437	118.6
382.9	116.5
383.362	123.8
383.825	137.7
384.287	126.2
384.75	117.8
385.212	129.1
385.674	135
386.136	132.5
386.599	130.3
387.061	127.6
387.523	127.2
387.985	127.2
388.447	130.6
388.91	131
389.372	131.2
389.834	133.7
390.296	129.2
390.758	137.9
391.22	137.4
391.682	156.5
392.144	165.5
392.606	157.1
393.068	154
393.529	153.1
393.991	140.8
394.453	132
394.915	135.7
395.377	137.5
395.838	142.8
396.3	141.5
396.762	144.3
397.224	133.8
397.685	135.1
398.147	134.9
398.608	129.7
399.07	129
399.531	141.5
399.993	151.2
400.454	154.7
400.916	145.5
401.377	148.5
401.839	154.6
402.3	155.1
402.762	168
403.223	181
403.684	174.3
404.145	164
404.607	161
405.068	173.7
405.529	167.8
405.99	188.9
406.451	175.2
406.913	173.7
407.374	166.3
407.835	172.6
408.296	168.2
408.757	179.2
409.218	185.6
409.679	185.2
410.14	188.9
410.601	172.7
411.062	184.4
411.522	187.5
411.983	177.9
412.444	183.3
412.905	192.5
413.366	191.4
413.826	202.8
414.287	232.9
414.748	278.4
415.208	261.8
415.669	225.6
416.13	218
416.59	213.5
417.051	224.7
417.511	230
417.972	249.9
418.432	261.1
418.893	303.3
419.353	261.9
419.814	204.7
420.274	198.3
420.734	189.4
421.195	212.9
421.655	195
422.115	202.8
422.576	202.9
423.036	210.6
423.496	215.6
423.956	224.5
424.416	244
424.876	276.1
425.336	267.7
425.797	276.3
426.257	265.7
426.717	254.7
427.177	246
427.637	234
428.097	242.7
428.556	255.5
429.016	276.3
429.476	270
429.936	283.7
430.396	282.9
430.856	292.3
431.315	315.6
431.775	350.5
432.235	381.9
432.694	360.4
433.154	364.3
433.614	392.1
434.073	342.3
434.533	290.9
434.993	270.3
435.452	281.8
435.912	301.4
436.371	302
436.83	288.7
437.29	276.5
437.749	258.1
438.209	251.4
438.668	273.8
439.127	297.7
439.587	275.2
440.046	260.6
440.505	275.7
440.964	287.2
441.424	332.9
441.883	325.8
442.342	277.7
442.801	241.2
443.26	239.4
443.719	235.6
444.178	236.3
444.637	227
445.096	237.3
445.555	239.4
446.014	238.6
446.473	246.5
446.932	250.3
447.391	241.1
447.849	246.2
448.308	226.7
448.767	236.4
449.226	251.8
449.685	252.3
450.143	266.8
450.602	250.8
451.061	247.7
451.519	250.9
451.978	246.5
452.436	253
452.895	260.5
453.353	271.8
453.812	262.1
454.27	258.7
454.729	263.5
455.187	252
455.646	262.8
456.104	266.9
456.562	279.2
457.021	282.5
457.479	277
457.937	286.3
458.395	281.6
458.854	268.9
459.312	274.9
459.77	289.8
460.228	271.7
460.686	252
461.144	265.9
461.602	261.4
462.06	250.2
462.518	275.2
462.976	272.5
463.434	278.5
463.892	280
464.35	293.1
464.808	303.9
465.266	286
465.724	287.8
466.181	286.1
466.639	293
467.097	307.3
467.555	318.8
468.012	325.3
468.47	325
468.928	352.3
469.385	363.9
469.843	376
470.3	370
470.758	382.6
471.215	407.6
471.673	432
472.13	426.6
472.588	441.8
473.045	398
473.503	401.1
473.96	417.1
474.417	426.3
474.875	459.6
475.332	498
475.789	481.1
476.246	493.2
476.704	504.2
477.161	528.5
477.618	551.2
478.075	584.1
478.532	650.4
478.989	723.5
479.446	829.5
479.903	784.9
480.36	823.5
480.817	866
481.274	959.3
481.731	1060.5
482.188	1142.4
482.645	1252
483.102	1344.2
483.558	1464.8
484.015	1514.9
484.472	1496.2
484.929	1442.8
485.385	1415.9
485.842	1383.2
486.299	1331.7
486.755	1285
487.212	1094.1
487.668	932.9
488.125	869.4
488.582	800.4
489.038	766
489.494	733.7
489.951	715.7
490.407	693.2
490.864	678.7
491.32	672
491.776	680.8
492.233	677
492.689	637.9
493.145	633.9
493.602	623.8
494.058	649.8
494.514	651.3
494.97	671.3
495.426	677.6
495.882	654.1
496.338	644
496.794	660.7
497.251	647
497.707	663.3
498.163	668.9
498.618	677.1
499.074	677.4
499.53	701.8
499.986	699.3
500.442	677.4
500.898	653.7
501.354	644.8
501.809	647.8
502.265	658.9
502.721	674
503.177	676
503.632	679.3
504.088	682.7
504.543	709.5
504.999	727
505.455	692.7
505.91	667
506.366	671
506.821	665
507.277	657.4
507.732	655.8
508.187	663.4
508.643	673.4
509.098	678.2
509.553	704.5
510.009	707.6
510.464	715.9
510.919	732.3
511.375	735.7
511.83	750.2
512.285	761.1
512.74	801.4
513.195	823.8
513.65	813.8
514.105	805.6
514.56	815.5
515.015	840.9
515.47	834.2
515.925	827.4
516.38	830.9
516.835	836.3
517.29	823.3
517.745	819.6
518.2	813.4
518.655	797.3
519.109	785.1
519.564	776
520.019	767.1
520.474	766.2
520.928	768.7
521.383	766
521.838	744
522.292	746
522.747	753
523.201	750.9
523.656	738.4
524.11	731.8
524.565	729.6
525.019	726.1
525.474	735
525.928	745.3
526.382	742.1
526.837	739.3
527.291	747
527.745	736.9
528.2	738
528.654	728.5
529.108	723.4
529.562	718.8
530.016	721
530.47	727
530.925	721.4
531.379	749.5
531.833	728.6
532.287	738.4
532.741	727.2
533.195	739.6
533.649	744.5
534.103	757.1
534.556	753.9
535.01	754.3
535.464	735.5
535.918	757.3
536.372	758.6
536.826	752.8
537.279	734.8
537.733	747.1
538.187	758.6
538.64	752.1
539.094	762.2
539.548	774.2
540.001	760.2
540.455	751.9
540.908	762.9
541.362	772.1
541.815	786.3
542.269	796.2
542.722	805.9
543.175	819.1
543.629	798.2
544.082	826
544.536	827.1
544.989	827.3
545.442	840.5
545.895	832.9
546.349	841
546.802	836.2
547.255	850.5
547.708	858
548.161	858.4
548.614	871.9
549.067	877.8
549.52	863.2
549.973	847.4
550.426	852.1
550.879	831.9
551.332	844.6
551.785	847
552.238	847.2
552.691	860
553.144	880.8
553.596	892.7
554.049	910.8
554.502	934.6
554.955	953.2
555.407	964.6
555.86	944.3
556.313	935.4
556.765	929.3
557.218	926.7
557.67	932
558.123	929.3
558.576	923.9
559.028	925.6
559.48	931.3
559.933	933
560.385	896.2
560.838	851.3
561.29	828.5
561.742	825.2
562.195	816.7
562.647	807.7
563.099	816.4
563.551	812.9
564.004	827.7
564.456	816.5
564.908	799.9
565.36	785.1
565.812	772.6
566.264	762
566.716	753.3
567.168	733.9
567.62	748.9
568.072	732.7
568.524	733.8
568.976	731
569.428	708.8
569.88	713.2
570.332	713.6
570.784	730.3
571.235	731.5
571.687	736.8
572.139	737.9
572.59	748.7
573.042	749
573.494	741.1
573.945	745.7
574.397	722.5
574.849	720.5
575.3	738.3
575.752	725.4
576.203	711.1
576.655	715.2
577.106	702.4
577.557	701.3
578.009	703.2
578.46	704.4
578.912	700
579.363	695.4
579.814	698.1
580.265	707.9
580.717	707.7
581.168	705.5
581.619	710.2
582.07	715.7
582.521	702.1
582.972	693.3
583.423	714.3
583.875	700.4
584.326	713.2
584.777	728.4
585.227	753.4
585.678	776.5
586.129	804.9
586.58	827.6
587.031	853.7
587.482	904.2
587.933	950.1
588.384	905.4
588.834	840
589.285	821.3
589.736	805.4
590.186	793.5
590.637	795
591.088	773.6
591.538	772.5
591.989	774.3
592.439	762.1
592.89	749.9
593.34	740.6
593.791	727.5
594.241	726
594.692	726.2
595.142	724.1
595.593	722.9
596.043	728.6
596.493	729.6
596.943	735.6
597.394	753.6
597.844	743.6
598.294	772.2
598.744	792
599.195	819.7
599.645	867.2
600.095	893.4
600.545	938.2
600.995	1011.7
601.445	1067.5
601.895	1122.7
602.345	1184.4
602.795	1166.5
603.245	1119.6
603.695	1062.7
604.145	1005.8
604.594	955.3
605.044	895.4
605.494	840.6
605.944	789.8
606.393	770.6
606.843	758.7
607.293	755.3
607.743	759.5
608.192	771.5
608.642	779.9
609.091	789.6
609.541	795
609.99	794.1
610.44	793.4
610.889	738.7
611.339	725.9
611.788	705.7
612.238	718.3
612.687	724.2
613.136	719.6
613.586	735
614.035	727.4
614.484	738.6
614.933	740.3
615.383	734.9
615.832	728.1
616.281	722
616.73	700.8
617.179	682.5
617.628	660.4
618.077	647.5
618.526	637.8
618.975	635.5
619.424	637.1
619.873	633.7
620.322	645.6
620.771	632.9
621.22	623.8
621.669	619.4
622.118	620.4
622.567	609.8
623.015	588.3
623.464	588.7
623.913	584.3
624.361	567.5
624.81	575
625.259	579.5
625.707	568.1
626.156	578.2
626.604	582
627.053	575.2
627.501	590.2
627.95	597.8
628.398	607.1
628.847	594.9
629.295	594.1
629.744	596.6
630.192	582.2
630.64	578
631.089	573.3
631.537	556.1
631.985	549.7
632.433	556.4
632.881	546.7
633.33	573.6
633.778	543.4
634.226	542.6
634.674	552.7
635.122	562.6
635.57	569.6
636.018	578.8
636.466	592.7
636.914	574.9
637.362	596.4
637.81	600.3
638.258	606.5
638.705	600.9
639.153	627.9
639.601	640.6
640.049	666.2
640.497	692.9
640.944	715.6
641.392	665.1
641.84	631.5
642.287	601.8
642.735	591.5
643.182	578.6
643.63	588.3
644.078	583
644.525	583
644.973	600.3
645.42	609.4
645.867	632
646.315	647
646.762	674.8
647.21	699.7
647.657	721
648.104	756.7
648.551	776.3
648.999	841.1
649.446	911.4
649.893	993.4
650.34	1139.2
650.787	1353.3
651.234	1657.2
651.682	2133.2
652.129	2897.9
652.576	4106
653.023	5980.7
653.47	8101.5
653.917	10097.3
654.363	11663.5
654.81	12884.6
655.257	12203
655.704	8068
656.151	4880.1
656.598	3192.8
657.044	2275.3
657.491	1775.2
657.938	1435.9
658.385	1205.3
658.831	1062.2
659.278	947.1
659.724	853.5
660.171	790.8
660.618	730.2
661.064	691.6
661.511	671
661.957	662.3
662.404	653.7
662.85	661.2
663.296	632.5
663.743	570.8
664.189	553.7
664.635	547.4
665.082	534.5
665.528	540
665.974	530.3
666.42	515.2
666.867	518.7
667.313	497.5
667.759	479.6
668.205	468.7
668.651	467.7
669.097	461.6
669.543	451.9
669.989	458
670.435	457.1
670.881	464.2
671.327	463.6
671.773	486.9
672.219	510
672.665	567.5
673.11	605.3
673.556	653.3
674.002	695.3
674.448	673.6
674.893	571.4
675.339	493.6
675.785	458.9
676.23	438.6
676.676	417.9
677.122	398.8
677.567	390.1
678.013	376
678.458	379.4
678.904	370.4
679.349	361.2
679.794	370.5
680.24	362.4
680.685	360.8
681.131	357.2
681.576	362.9
682.021	358.4
682.466	363.9
682.912	359.9
683.357	364.5
683.802	394.5
684.247	427.4
684.692	465.8
685.137	517.3
685.583	554.7
686.028	591
686.473	545
686.918	462.2
687.363	433.9
687.807	410.4
688.252	379.2
688.697	363.1
689.142	353
689.587	348.4
690.032	338.6
690.477	354.2
690.921	371.7
691.366	393.7
691.811	410
692.255	444.2
692.7	471.1
693.145	522
693.589	726.8
694.034	1181.4
694.478	1595
694.923	1810.7
695.367	2365.1
695.812	1243.3
696.256	518.7
696.701	380.6
697.145	359.4
697.59	348.5
698.034	335.2
698.478	339.9
698.922	336.2
699.367	341.1
699.811	349.5
700.255	359.8
700.699	399.7
701.143	431.2
701.588	487.6
702.032	520.6
702.476	531.2
702.92	510.3
703.364	513.9
703.808	662.1
704.252	1078.4
704.696	1514.7
705.14	1737.8
705.584	2217.1
706.027	1107.5
706.471	547.1
706.915	415.2
707.359	374.6
707.803	338.7
708.246	326.7
708.69	322.7
709.134	323.1
709.577	332.6
710.021	329.7
710.465	317.6
710.908	317.1
711.352	314.1
711.795	325.3
712.239	364.2
712.682	399.7
713.126	428.5
713.569	466.4
714.012	365
714.456	316.2
714.899	298
715.342	289.6
715.786	276
716.229	258.7
716.672	258.2
717.115	254.6
717.558	262.1
718.002	260.9
718.445	265.3
718.888	292
719.331	307.3
719.774	316.2
720.217	312.3
720.66	296.4
721.103	275.6
721.546	259.6
721.989	258.5
722.432	244.8
722.874	246.5
723.317	239.1
723.76	246.9
724.203	263.9
724.645	327.3
725.088	459.8
725.531	587.5
725.974	670.9
726.416	570.6
726.859	314.7
727.301	254.8
727.744	242
728.187	245.2
728.629	249.8
729.071	252.3
729.514	266.5
729.956	272
730.399	291.6
730.841	300.3
731.283	283.4
731.726	276.6
732.168	276.2
732.61	275.6
733.053	292.6
733.495	326.6
733.937	374.5
734.379	413.1
734.821	449.3
735.263	569.9
735.705	867.1
736.148	1664.7
736.59	2702.4
737.032	3197.3
737.474	2596.5
737.916	852.6
738.357	443.1
738.799	337.4
739.241	312.9
739.683	297.3
740.125	297.8
740.567	306.9
741.008	327.9
741.45	324.7
741.892	334.4
742.334	361.9
742.775	383.7
743.217	355.9
743.658	288.2
744.1	271.3
744.542	278.4
744.983	339.4
745.425	361.1
745.866	351.5
746.307	290.4
746.749	276.7
747.19	336.9
747.632	469
748.073	914.3
748.514	1957.3
748.956	2966.1
749.397	3744.1
749.838	3101.3
750.279	3111.1
750.72	1566.4
751.162	575.6
751.603	330.9
752.044	260.1
752.485	224.7
752.926	217.1
753.367	211.1
753.808	202.3
754.249	192
754.69	190.8
755.131	188
755.572	192.2
756.013	195.6
756.453	192.2
756.894	197
757.335	195.6
757.776	197.7
758.216	199.8
758.657	200.7
759.098	212.8
759.538	232.3
759.979	280.3
760.42	383.4
760.86	733.7
761.301	1904.5
761.741	4618.6
762.182	6695
762.622	4717.2
763.063	1373.9
763.503	562.7
763.943	343.5
764.384	288.5
764.824	270
765.264	267.5
765.705	223.4
766.145	190.6
766.585	184.6
767.025	176.4
767.465	170.6
767.906	192.2
768.346	209.9
768.786	225.6
769.226	227.5
769.666	321.1
770.106	645.9
770.546	1624.2
770.986	2758.8
771.426	2459.6
771.866	822.2
772.306	332.8
772.745	215
773.185	171.4
773.625	167.5
774.065	151.8
774.505	165.6
774.944	225.9
775.384	395
775.824	655.7
776.263	638.5
776.703	305.4
777.142	168.8
777.582	141.6
778.021	127.8
778.461	125
778.9	121.1
779.34	120.5
779.779	116.6
780.219	118.9
780.658	115.6
781.097	112
781.537	116.9
781.976	113.5
782.415	109.8
782.855	103.4
783.294	107.7
783.733	110.9
784.172	110.1
784.611	108.4
785.05	107.5
785.489	113.7
785.928	124.3
786.367	127.1
786.806	124.3
787.245	125.6
787.684	142.1
788.123	148.6
788.562	143.6
789.001	131.3
789.44	131.1
789.879	125.8
790.317	122.7
790.756	137
791.195	130.3
791.634	153.6
792.072	214.5
792.511	372.2
792.95	1037.8
793.388	2215.6
793.827	1989.8
794.265	691.6
794.704	289.7
795.142	191.3
795.581	157.1
796.019	142.4
796.458	132
796.896	132.6
797.334	138.3
797.773	159.4
798.211	225.8
798.649	469.7
799.087	1073.4
799.526	1668.8
799.964	2084.2
800.402	2092.1
800.84	788.1
801.278	314.8
801.716	196
802.154	159.2
802.592	147.5
803.03	151.3
803.468	138.7
803.906	148.1
804.344	150.3
804.782	144.8
805.22	135.4
805.658	135.8
806.096	153.9
806.533	160
806.971	186.7
807.409	232.7
807.847	332.4
808.284	696
808.722	1961.4
