Data from 20171114-ORNL-Ar_H_NY_Subt18_08-07-39-078.txt Node
Date: Tue Nov 14 08:07:39 EST 2017
User: Ender
Spectrometer: HR+D1039
Trigger mode: 0
Integration Time (sec): 2.730000E-2
Scans to average: 10
Electric dark correction enabled: true
Nonlinearity correction enabled: false
Boxcar width: 0
XAxis mode: Wavelengths
Number of Pixels in Spectrum: 2048
>>>>>Begin Spectral Data<<<<<
187.836	-2.62
188.309	-2.62
188.782	-2.62
189.255	6.47
189.728	-1.12
190.201	4.07
190.674	-0.62
191.147	-0.63
191.619	-3.03
192.092	-0.42
192.565	2.27
193.038	-2.33
193.511	-1.93
193.984	1.27
194.456	1.38
194.929	4.77
195.402	-5.93
195.874	-1.62
196.347	-3.43
196.82	-1.73
197.292	5.47
197.765	2.08
198.237	-6.42
198.71	-3.23
199.182	-0.62
199.655	-2.53
200.127	1.97
200.6	1.98
201.072	4.57
201.544	-4.83
202.017	-1.93
202.489	4.57
202.961	-0.32
203.433	-2.33
203.906	-6.23
204.378	-2.52
204.85	-4.93
205.322	-6.12
205.794	-5.43
206.266	-2.83
206.739	-13.62
207.211	7.67
207.683	-7.23
208.155	-4.12
208.627	-7.73
209.099	-0.73
209.57	-10.32
210.042	-8.63
210.514	0.08
210.986	-2.02
211.458	-7.23
211.93	2.47
212.402	9.97
212.873	-4.83
213.345	-6.42
213.817	-5.83
214.288	-4.43
214.76	-9.62
215.232	-6.82
215.703	-1.92
216.175	0.27
216.646	-0.33
217.118	-3.33
217.589	-6.02
218.061	1.87
218.532	-10.62
219.004	-1.52
219.475	-1.92
219.946	-0.53
220.418	-2.82
220.889	2.57
221.36	-2.42
221.832	-3.23
222.303	-7.42
222.774	3.98
223.245	-8.02
223.717	-3.43
224.188	-7.23
224.659	-12.23
225.13	-9.12
225.601	-2.63
226.072	0.67
226.543	-1.23
227.014	1.27
227.485	-3.93
227.956	-7.02
228.427	0.88
228.898	0.38
229.369	3.97
229.839	-1.83
230.31	-7.73
230.781	5.38
231.252	-3.33
231.722	-4.93
232.193	-3.23
232.664	2.67
233.135	-1.73
233.605	0.08
234.076	-6.83
234.546	-1.43
235.017	2.88
235.487	-2.52
235.958	0.38
236.428	-2.23
236.899	-2.02
237.369	1.68
237.84	-1.52
238.31	9.27
238.78	-1.73
239.251	-0.82
239.721	4.27
240.191	-3.82
240.662	-1.12
241.132	1.77
241.602	-1.03
242.072	2.48
242.542	3.88
243.013	1.67
243.483	7.77
243.953	-0.92
244.423	-3.32
244.893	-10.62
245.363	3.27
245.833	4.98
246.303	-3.33
246.773	5.57
247.243	-1.33
247.712	5.87
248.182	10.97
248.652	9.17
249.122	-0.23
249.592	14.17
250.061	14.98
250.531	24.68
251.001	10.27
251.471	15.17
251.94	17.27
252.41	6.48
252.879	4.67
253.349	15.27
253.818	10.67
254.288	1.68
254.757	4.77
255.227	-0.02
255.696	1.17
256.166	1.98
256.635	2.08
257.105	5.98
257.574	1.17
258.043	6.08
258.513	8.57
258.982	9.68
259.451	9.88
259.92	7.98
260.389	6.67
260.859	13.38
261.328	7.08
261.797	19.98
262.266	5.38
262.735	4.27
263.204	2.57
263.673	-1.02
264.142	8.08
264.611	-0.23
265.08	-0.33
265.549	-3.92
266.018	10.98
266.487	-5.13
266.955	-3.02
267.424	-1.33
267.893	6.98
268.362	-0.23
268.83	2.98
269.299	10.18
269.768	6.17
270.236	7.67
270.705	1.07
271.174	2.38
271.642	6.88
272.111	9.17
272.579	14.17
273.048	12.57
273.516	20.58
273.985	25.08
274.453	24.07
274.922	18.77
275.39	15.27
275.858	3.38
276.327	7.07
276.795	14.17
277.263	8.47
277.731	25.47
278.2	45.77
278.668	43.98
279.136	43.67
279.604	13.77
280.072	9.77
280.54	9.58
281.008	8.07
281.477	13.27
281.945	5.17
282.413	13.38
282.881	9.98
283.348	5.27
283.816	9.77
284.284	16.57
284.752	19.17
285.22	10.67
285.688	10.97
286.156	13.88
286.623	37.27
287.091	44.38
287.559	25.77
288.026	21.77
288.494	14.38
288.962	3.17
289.429	9.27
289.897	21.58
290.364	16.57
290.832	11.27
291.3	9.77
291.767	16.68
292.234	19.88
292.702	11.08
293.169	13.38
293.637	18.77
294.104	19.57
294.571	5.77
295.039	9.38
295.506	9.88
295.973	18.77
296.44	7.27
296.908	19.38
297.375	16.48
297.842	18.07
298.309	10.38
298.776	7.77
299.243	17.67
299.71	9.67
300.177	21.27
300.644	15.98
301.111	19.48
301.578	18.57
302.045	16.48
302.512	21.27
302.979	18.17
303.446	16.47
303.913	13.48
304.379	18.07
304.846	19.48
305.313	18.17
305.78	12.17
306.246	19.27
306.713	17.37
307.18	20.98
307.646	23.97
308.113	27.27
308.579	22.57
309.046	19.38
309.512	25.68
309.979	9.77
310.445	20.17
310.912	25.57
311.378	28.57
311.845	25.27
312.311	26.07
312.777	28.57
313.244	25.18
313.71	30.27
314.176	22.38
314.642	26.88
315.109	29.17
315.575	33.58
316.041	37.67
316.507	25.27
316.973	33.07
317.439	25.77
317.905	31.38
318.371	25.57
318.837	25.58
319.303	30.57
319.769	29.18
320.235	32.17
320.701	30.97
321.167	36.27
321.633	31.98
322.099	32.87
322.564	37.77
323.03	39.27
323.496	35.88
323.962	36.27
324.427	31.48
324.893	38.67
325.359	37.17
325.824	31.27
326.29	29.97
326.755	30.77
327.221	32.97
327.686	37.07
328.152	37.98
328.617	30.48
329.083	37.38
329.548	39.88
330.014	38.77
330.479	34.27
330.944	32.97
331.41	38.38
331.875	34.68
332.34	38.48
332.805	40.47
333.271	41.88
333.736	36.48
334.201	42.27
334.666	42.17
335.131	45.47
335.596	38.57
336.061	47.27
336.526	33.77
336.991	45.88
337.456	54.27
337.921	47.27
338.386	33.57
338.851	43.77
339.316	43.77
339.781	40.77
340.246	45.58
340.711	39.38
341.175	46.17
341.64	38.27
342.105	41.77
342.569	45.87
343.034	52.17
343.499	48.77
343.963	45.18
344.428	52.27
344.893	55.37
345.357	49.77
345.822	56.97
346.286	60.07
346.751	64.88
347.215	58.77
347.679	65.48
348.144	75.38
348.608	69.48
349.073	56.98
349.537	56.77
350.001	66.17
350.465	79.88
350.93	69.07
351.394	74.98
351.858	58.77
352.322	85.38
352.786	74.18
353.25	81.97
353.715	94.58
354.179	85.87
354.643	102.58
355.107	110.67
355.571	96.38
356.035	87.98
356.498	102.38
356.962	110.47
357.426	115.97
357.89	100.27
358.354	75.67
358.818	78.88
359.281	74.27
359.745	70.27
360.209	68.38
360.673	69.48
361.136	60.27
361.6	74.37
362.064	75.27
362.527	82.17
362.991	72.98
363.454	76.67
363.918	72.38
364.381	70.77
364.845	70.97
365.308	75.17
365.772	80.77
366.235	81.17
366.698	79.97
367.162	77.97
367.625	76.88
368.088	76.97
368.552	83.67
369.015	85.48
369.478	86.77
369.941	99.88
370.404	88.57
370.867	96.47
371.331	100.67
371.794	105.27
372.257	104.48
372.72	105.17
373.183	92.67
373.646	92.88
374.109	96.98
374.572	100.37
375.035	96.38
375.497	97.77
375.96	99.17
376.423	98.87
376.886	98.08
377.349	101.47
377.811	94.17
378.274	94.98
378.737	102.17
379.199	103.58
379.662	107.77
380.125	105.27
380.587	109.58
381.05	113.68
381.512	121.67
381.975	118.67
382.437	123.88
382.9	114.17
383.362	124.07
383.825	129.18
384.287	135.48
384.75	133.07
385.212	134.27
385.674	132.37
386.136	126.98
386.599	115.07
387.061	118.88
387.523	125.38
387.985	128.77
388.447	139.17
388.91	136.98
389.372	150.68
389.834	141.17
390.296	135.47
390.758	145.98
391.22	158.98
391.682	197.38
392.144	286.97
392.606	218.57
393.068	156.08
393.529	154.77
393.991	144.58
394.453	136.67
394.915	144.07
395.377	179.48
395.838	206.08
396.3	148.07
396.762	130.58
397.224	119.07
397.685	120.47
398.147	112.08
398.608	124.58
399.07	123.98
399.531	128.88
399.993	127.88
400.454	142.77
400.916	129.77
401.377	132.58
401.839	141.37
402.3	136.17
402.762	150.77
403.223	168.77
403.684	159.47
404.145	152.67
404.607	151.17
405.068	154.47
405.529	156.27
405.99	176.58
406.451	158.97
406.913	161.47
407.374	155.77
407.835	157.77
408.296	155.38
408.757	155.48
409.218	178.67
409.679	165.88
410.14	172.68
410.601	169.57
411.062	170.17
411.522	188.48
411.983	179.47
412.444	160.48
412.905	173.27
413.366	172.88
413.826	182.67
414.287	203.78
414.748	244.58
415.208	229.67
415.669	200.67
416.13	195.47
416.59	185.47
417.051	202.27
417.511	204.98
417.972	217.77
418.432	228.97
418.893	276.17
419.353	232.48
419.814	184.17
420.274	171.77
420.734	171.07
421.195	182.87
421.655	182.68
422.115	181.17
422.576	183.77
423.036	185.98
423.496	200.38
423.956	204.38
424.416	212.77
424.876	255.48
425.336	247.67
425.797	247.68
426.257	249.27
426.717	229.38
427.177	223.58
427.637	212.57
428.097	215.57
428.556	231.97
429.016	260.08
429.476	249.27
429.936	262.48
430.396	264.77
430.856	280.48
431.315	302.57
431.775	328.67
432.235	365.97
432.694	331.77
433.154	343.58
433.614	375.77
434.073	321.68
434.533	278.98
434.993	264.17
435.452	272.58
435.912	281.67
436.371	267.38
436.83	267.88
437.29	258.17
437.749	232.78
438.209	231.67
438.668	260.77
439.127	279.08
439.587	258.18
440.046	238.67
440.505	244.98
440.964	258.98
441.424	304.48
441.883	295.07
442.342	251.27
442.801	215.17
443.26	214.27
443.719	213.58
444.178	212.77
444.637	202.57
445.096	213.18
445.555	219.77
446.014	213.07
446.473	217.88
446.932	224.68
447.391	218.47
447.849	213.07
448.308	216.38
448.767	210.27
449.226	220.48
449.685	225.38
450.143	240.38
450.602	229.48
451.061	218.08
451.519	223.27
451.978	227.27
452.436	219.78
452.895	230.88
453.353	246.27
453.812	230.38
454.27	233.08
454.729	230.38
455.187	226.27
455.646	235.68
456.104	247.58
456.562	252.07
457.021	258.47
457.479	250.08
457.937	268.87
458.395	255.07
458.854	235.67
459.312	240.58
459.77	261.17
460.228	246.37
460.686	230.17
461.144	243.97
461.602	238.48
462.06	236.48
462.518	246.37
462.976	246.98
463.434	242.97
463.892	249.38
464.35	268.37
464.808	277.47
465.266	257.97
465.724	259.98
466.181	267.28
466.639	263.67
467.097	281.58
467.555	288.88
468.012	288.38
468.47	293.78
468.928	304.48
469.385	329.57
469.843	333.58
470.3	328.38
470.758	350.67
471.215	368.88
471.673	390.67
472.13	391.18
472.588	407.47
473.045	354.77
473.503	366.57
473.96	381.08
474.417	384.38
474.875	418.48
475.332	458.28
475.789	445.77
476.246	452.57
476.704	475.57
477.161	491.28
477.618	505.17
478.075	534.38
478.532	598.47
478.989	658.17
479.446	782.98
479.903	751.98
480.36	790.67
480.817	822.98
481.274	935.47
481.731	1033.07
482.188	1121.97
482.645	1259.08
483.102	1363.08
483.558	1491.28
484.015	1550.98
484.472	1522.28
484.929	1478.78
485.385	1422.77
485.842	1376.88
486.299	1320.08
486.755	1257.27
487.212	1061.47
487.668	902.07
488.125	824.47
488.582	754.88
489.038	728.97
489.494	691.18
489.951	660.28
490.407	660.18
490.864	635.18
491.32	622.28
491.776	615.17
492.233	621.57
492.689	589.97
493.145	586.37
493.602	580.27
494.058	595.08
494.514	599.98
494.97	608.77
495.426	631.28
495.882	602.78
496.338	602.58
496.794	606.28
497.251	598.08
497.707	617.98
498.163	623.47
498.618	620.67
499.074	631.47
499.53	647.77
499.986	653.98
500.442	635.68
500.898	614.98
501.354	607.48
501.809	618.48
502.265	619.78
502.721	642.77
503.177	655.27
503.632	635.58
504.088	653.57
504.543	691.87
504.999	687.38
505.455	625.87
505.91	611.28
506.366	614.97
506.821	611.67
507.277	603.17
507.732	611.77
508.187	611.58
508.643	611.78
509.098	618.28
509.553	632.87
510.009	641.18
510.464	648.47
510.919	661.17
511.375	668.87
511.83	677.67
512.285	698.48
512.74	730.58
513.195	753.28
513.65	749.27
514.105	737.77
514.56	750.37
515.015	771.68
515.47	776.67
515.925	766.98
516.38	764.27
516.835	762.77
517.29	760.98
517.745	756.88
518.2	736.48
518.655	724.87
519.109	719.88
519.564	721.37
520.019	711.27
520.474	695.88
520.928	698.18
521.383	695.57
521.838	685.38
522.292	690.08
522.747	689.97
523.201	682.67
523.656	675.38
524.11	681.18
524.565	678.08
525.019	680.07
525.474	684.58
525.928	674.88
526.382	685.08
526.837	680.67
527.291	681.17
527.745	677.98
528.2	676.07
528.654	675.47
529.108	673.97
529.562	671.58
530.016	664.27
530.47	671.08
530.925	674.17
531.379	683.47
531.833	688.68
532.287	678.67
532.741	688.77
533.195	683.48
533.649	697.58
534.103	703.08
534.556	690.07
535.01	685.77
535.464	688.88
535.918	703.07
536.372	700.68
536.826	701.18
537.279	692.57
537.733	687.28
538.187	692.67
538.64	697.87
539.094	703.97
539.548	717.07
540.001	702.77
540.455	704.77
540.908	717.77
541.362	724.78
541.815	718.78
542.269	729.17
542.722	737.38
543.175	744.47
543.629	750.67
544.082	777.88
544.536	766.78
544.989	767.48
545.442	772.17
545.895	761.48
546.349	771.48
546.802	771.67
547.255	778.58
547.708	790.47
548.161	792.27
548.614	809.27
549.067	808.08
549.52	798.17
549.973	786.27
550.426	786.87
550.879	775.58
551.332	773.18
551.785	785.27
552.238	783.58
552.691	791.38
553.144	805.67
553.596	839.27
554.049	841.08
554.502	868.17
554.955	885.67
555.407	885.47
555.86	878.58
556.313	874.17
556.765	859.18
557.218	860.77
557.67	869.27
558.123	854.67
558.576	845.47
559.028	856.88
559.48	858.77
559.933	852.47
560.385	813.07
560.838	793.07
561.29	766.17
561.742	768.57
562.195	752.67
562.647	758.07
563.099	761.37
563.551	764.88
564.004	771.77
564.456	760.98
564.908	747.98
565.36	738.58
565.812	717.98
566.264	716.27
566.716	715.18
567.168	701.27
567.62	710.68
568.072	690.97
568.524	683.98
568.976	677.57
569.428	669.47
569.88	649.67
570.332	661.77
570.784	669.57
571.235	664.68
571.687	684.78
572.139	685.37
572.59	696.07
573.042	702.37
573.494	693.48
573.945	694.27
574.397	673.17
574.849	678.77
575.3	669.47
575.752	677.67
576.203	674.17
576.655	674.57
577.106	657.97
577.557	654.07
578.009	652.07
578.46	656.07
578.912	639.18
579.363	653.78
579.814	660.57
580.265	652.68
580.717	652.58
581.168	655.38
581.619	658.98
582.07	671.98
582.521	654.37
582.972	662.57
583.423	666.77
583.875	668.17
584.326	697.87
584.777	735.27
585.227	811.08
585.678	896.27
586.129	992.18
586.58	1063.38
587.031	1147.57
587.482	1303.58
587.933	1480.68
588.384	1279.28
588.834	961.28
589.285	790.87
589.736	767.67
590.186	761.77
590.637	764.17
591.088	734.07
591.538	724.47
591.989	723.28
592.439	722.48
592.89	707.57
593.34	701.08
593.791	702.07
594.241	702.48
594.692	692.88
595.142	689.47
595.593	688.67
596.043	689.37
596.493	697.78
596.943	709.48
597.394	704.67
597.844	697.88
598.294	713.18
598.744	739.58
599.195	765.58
599.645	803.97
600.095	841.48
600.545	892.27
600.995	959.28
601.445	1011.58
601.895	1066.17
602.345	1116.38
602.795	1087.97
603.245	1040.68
603.695	993.28
604.145	935.57
604.594	888.07
605.044	835.58
605.494	786.27
605.944	729.17
606.393	733.68
606.843	714.77
607.293	721.27
607.743	719.38
608.192	730.98
608.642	750.58
609.091	749.77
609.541	763.77
609.99	751.77
610.44	748.98
610.889	714.77
611.339	690.87
611.788	678.98
612.238	695.48
612.687	709.98
613.136	711.47
613.586	732.48
614.035	729.38
614.484	747.27
614.933	755.77
615.383	745.67
615.832	731.77
616.281	712.98
616.73	682.28
617.179	658.37
617.628	641.87
618.077	622.17
618.526	608.87
618.975	609.87
619.424	606.67
619.873	610.88
620.322	613.58
620.771	591.88
621.22	597.37
621.669	579.07
622.118	572.98
622.567	570.77
623.015	563.97
623.464	567.58
623.913	558.48
624.361	554.67
624.81	550.88
625.259	545.27
625.707	543.77
626.156	549.58
626.604	562.57
627.053	558.07
627.501	563.67
627.95	559.98
628.398	571.87
628.847	567.98
629.295	561.78
629.744	565.57
630.192	557.68
630.64	556.67
631.089	553.77
631.537	572.58
631.985	583.97
632.433	604.58
632.881	612.18
633.33	650.57
633.778	636.08
634.226	559.27
634.674	574.48
635.122	569.87
635.57	592.57
636.018	615.77
636.466	574.17
636.914	544.58
637.362	561.88
637.81	564.87
638.258	570.68
638.705	570.67
639.153	595.08
639.601	623.27
640.049	633.87
640.497	658.48
640.944	678.18
641.392	636.17
641.84	616.77
642.287	583.67
642.735	559.48
643.182	562.57
643.63	573.58
644.078	568.27
644.525	581.77
644.973	593.88
645.42	591.48
645.867	615.28
646.315	630.68
646.762	654.68
647.21	687.18
647.657	704.27
648.104	738.27
648.551	764.78
648.999	836.88
649.446	907.97
649.893	1004.97
650.34	1153.28
650.787	1377.28
651.234	1731.28
651.682	2252.78
652.129	3102.97
652.576	4462.18
653.023	6583.18
653.47	9035.57
653.917	11211.67
654.363	12892.08
654.81	14212.67
655.257	13516.88
655.704	8852.87
656.151	5221.68
656.598	3374.48
657.044	2401.27
657.491	1850.68
657.938	1473.18
658.385	1237.08
658.831	1071.17
659.278	949.37
659.724	847.07
660.171	777.27
660.618	715.58
661.064	692.07
661.511	664.58
661.957	649.18
662.404	631.58
662.85	642.77
663.296	614.17
663.743	553.37
664.189	532.27
664.635	523.17
665.082	516.58
665.528	518.18
665.974	521.08
666.42	509.18
666.867	503.58
667.313	488.88
667.759	478.87
668.205	467.57
668.651	480.57
669.097	478.27
669.543	498.27
669.989	466.58
670.435	445.77
670.881	444.48
671.327	443.47
671.773	470.17
672.219	485.57
672.665	535.07
673.11	574.17
673.556	616.27
674.002	661.67
674.448	645.67
674.893	535.88
675.339	470.27
675.785	433.67
676.23	416.07
676.676	386.38
677.122	376.48
677.567	362.27
678.013	363.58
678.458	353.47
678.904	362.07
679.349	345.38
679.794	356.78
680.24	345.77
680.685	338.17
681.131	346.17
681.576	344.17
682.021	355.17
682.466	339.07
682.912	346.07
683.357	354.58
683.802	377.57
684.247	403.17
684.692	448.07
685.137	492.38
685.583	524.67
686.028	555.07
686.473	511.48
686.918	448.37
687.363	417.18
687.807	380.77
688.252	360.98
688.697	355.07
689.142	333.47
689.587	328.48
690.032	317.67
690.477	342.27
690.921	346.57
691.366	372.88
691.811	387.68
692.255	418.88
692.7	454.97
693.145	503.38
693.589	707.68
694.034	1140.18
694.478	1517.17
694.923	1692.48
695.367	2209.88
695.812	1169.88
696.256	484.77
696.701	368.57
697.145	339.28
697.59	331.67
698.034	318.67
698.478	324.38
698.922	322.68
699.367	322.78
699.811	344.17
700.255	347.48
700.699	381.97
701.143	416.07
701.588	473.07
702.032	511.08
702.476	504.48
702.92	481.88
703.364	483.48
703.808	642.87
704.252	1035.78
704.696	1444.78
705.14	1637.07
705.584	2079.88
706.027	1055.77
706.471	517.98
706.915	395.37
707.359	343.88
707.803	309.48
708.246	309.18
708.69	311.68
709.134	302.58
709.577	314.88
710.021	319.37
710.465	309.07
710.908	300.77
711.352	291.17
711.795	306.07
712.239	351.38
712.682	380.67
713.126	418.17
713.569	457.08
714.012	365.58
714.456	312.57
714.899	293.67
715.342	271.07
715.786	260.97
716.229	250.37
716.672	250.47
717.115	245.58
717.558	240.07
718.002	247.98
718.445	261.58
718.888	282.87
719.331	288.98
719.774	298.38
720.217	298.38
720.66	273.98
721.103	266.37
721.546	243.27
721.989	244.67
722.432	229.78
722.874	232.98
723.317	229.38
723.76	229.67
724.203	253.17
724.645	314.28
725.088	441.98
725.531	573.48
725.974	624.67
726.416	535.37
726.859	299.68
727.301	240.97
727.744	242.48
728.187	219.48
728.629	237.57
729.071	240.08
729.514	260.97
729.956	270.57
730.399	276.27
730.841	281.77
731.283	269.88
731.726	256.88
732.168	259.08
732.61	264.27
733.053	281.07
733.495	310.48
733.937	344.98
734.379	393.57
734.821	438.88
735.263	539.18
735.705	832.58
736.148	1586.78
736.59	2554.57
737.032	2975.48
737.474	2427.18
737.916	800.38
738.357	418.17
738.799	330.88
739.241	291.67
739.683	285.17
740.125	289.38
740.567	295.38
741.008	309.87
741.45	310.47
741.892	312.58
742.334	343.98
742.775	351.27
743.217	327.87
743.658	272.57
744.1	257.18
744.542	255.58
744.983	303.28
745.425	338.07
745.866	333.47
746.307	286.97
746.749	277.78
747.19	322.57
747.632	460.88
748.073	893.27
748.514	1870.17
748.956	2798.38
749.397	3533.38
749.838	2932.57
750.279	2872.47
750.72	1457.98
751.162	542.28
751.603	315.87
752.044	248.27
752.485	214.67
752.926	208.18
753.367	201.57
753.808	184.77
754.249	189.27
754.69	186.17
755.131	183.67
755.572	177.88
756.013	178.07
756.453	177.77
756.894	184.68
757.335	189.58
757.776	192.38
758.216	191.47
758.657	199.48
759.098	201.28
759.538	226.47
759.979	270.98
760.42	382.67
760.86	710.97
761.301	1842.28
761.741	4392.88
762.182	6245.48
762.622	4377.07
763.063	1285.97
