Data from 20171114-ORNL-Ar_H_NY_Subt18_08-07-41-535.txt Node
Date: Tue Nov 14 08:07:41 EST 2017
User: Ender
Spectrometer: HR+D1039
Trigger mode: 0
Integration Time (sec): 2.730000E-2
Scans to average: 10
Electric dark correction enabled: true
Nonlinearity correction enabled: false
Boxcar width: 0
XAxis mode: Wavelengths
Number of Pixels in Spectrum: 2048
>>>>>Begin Spectral Data<<<<<
187.836	-0.31
188.309	-0.31
188.782	-0.31
189.255	-3.51
189.728	-5.11
190.201	-2.71
190.674	1.49
191.147	1.69
191.619	-6.71
192.092	-0.81
192.565	2.79
193.038	1.69
193.511	6.99
193.984	2.49
194.456	0.49
194.929	3.29
195.402	0.09
195.874	-1.91
196.347	2.09
196.82	-8.81
197.292	2.29
197.765	2.09
198.237	-4.31
198.71	1.49
199.182	-1.61
199.655	0.89
200.127	2.29
200.6	2.19
201.072	-3.81
201.544	-3.81
202.017	0.39
202.489	3.29
202.961	-8.01
203.433	-9.01
203.906	-9.01
204.378	-3.31
204.85	-2.31
205.322	-5.51
205.794	-1.71
206.266	-5.61
206.739	-7.61
207.211	1.59
207.683	-11.71
208.155	-9.81
208.627	-4.31
209.099	-1.01
209.57	-7.81
210.042	-4.71
210.514	-3.21
210.986	-0.21
211.458	-8.01
211.93	-0.81
212.402	-2.61
212.873	-8.21
213.345	-7.11
213.817	-7.31
214.288	-5.51
214.76	-7.21
215.232	-3.91
215.703	-3.51
216.175	-3.91
216.646	-1.71
217.118	-9.01
217.589	-7.01
218.061	-1.01
218.532	-5.21
219.004	-3.11
219.475	-6.51
219.946	-5.21
220.418	-9.71
220.889	-0.61
221.36	3.39
221.832	-9.31
222.303	-11.01
222.774	0.29
223.245	-8.91
223.717	-8.01
224.188	-4.11
224.659	-9.11
225.13	-6.91
225.601	-5.01
226.072	-0.71
226.543	-4.61
227.014	-2.81
227.485	-9.31
227.956	-10.61
228.427	-8.61
228.898	0.49
229.369	3.29
229.839	-5.21
230.31	-4.71
230.781	4.69
231.252	-0.81
231.722	-3.11
232.193	-2.41
232.664	-0.71
233.135	0.19
233.605	-3.41
234.076	-10.11
234.546	-3.31
235.017	3.99
235.487	1.09
235.958	-2.81
236.428	-0.81
236.899	-1.51
237.369	3.99
237.84	-3.61
238.31	5.09
238.78	-2.31
239.251	3.29
239.721	-4.51
240.191	0.89
240.662	-1.81
241.132	5.39
241.602	-0.11
242.072	-2.91
242.542	4.79
243.013	-1.51
243.483	3.99
243.953	8.49
244.423	-0.41
244.893	-7.71
245.363	4.49
245.833	-4.91
246.303	-6.61
246.773	9.89
247.243	-0.11
247.712	-3.81
248.182	8.09
248.652	6.09
249.122	-0.41
249.592	10.79
250.061	17.39
250.531	32.79
251.001	15.99
251.471	16.89
251.94	12.79
252.41	8.69
252.879	-3.61
253.349	9.49
253.818	5.39
254.288	-0.81
254.757	7.79
255.227	2.99
255.696	4.09
256.166	4.39
256.635	8.49
257.105	6.19
257.574	1.09
258.043	6.59
258.513	7.89
258.982	13.99
259.451	3.99
259.92	10.89
260.389	9.69
260.859	12.59
261.328	7.89
261.797	14.79
262.266	6.29
262.735	9.79
263.204	7.09
263.673	-0.81
264.142	7.29
264.611	-5.81
265.08	2.29
265.549	0.29
266.018	5.39
266.487	0.79
266.955	-6.71
267.424	-0.21
267.893	5.29
268.362	-6.31
268.83	3.09
269.299	10.89
269.768	2.89
270.236	5.39
270.705	-1.71
271.174	1.29
271.642	4.49
272.111	9.69
272.579	15.79
273.048	22.69
273.516	22.39
273.985	24.79
274.453	22.09
274.922	20.09
275.39	12.79
275.858	-0.91
276.327	15.49
276.795	13.19
277.263	3.29
277.731	23.69
278.2	47.59
278.668	44.99
279.136	42.39
279.604	19.09
280.072	12.99
280.54	8.39
281.008	12.59
281.477	11.19
281.945	12.09
282.413	11.99
282.881	6.29
283.348	4.19
283.816	7.49
284.284	14.29
284.752	24.29
285.22	7.49
285.688	9.29
286.156	15.49
286.623	41.09
287.091	45.49
287.559	28.39
288.026	14.99
288.494	8.99
288.962	2.19
289.429	10.69
289.897	10.39
290.364	12.09
290.832	15.49
291.3	14.89
291.767	12.19
292.234	12.89
292.702	8.79
293.169	15.29
293.637	18.19
294.104	13.29
294.571	8.29
295.039	12.59
295.506	10.69
295.973	14.89
296.44	16.29
296.908	13.29
297.375	14.49
297.842	16.99
298.309	16.09
298.776	11.79
299.243	14.79
299.71	6.29
300.177	18.29
300.644	20.59
301.111	17.19
301.578	14.29
302.045	19.69
302.512	17.79
302.979	19.59
303.446	15.99
303.913	17.09
304.379	13.79
304.846	22.19
305.313	19.49
305.78	15.19
306.246	21.39
306.713	20.99
307.18	16.99
307.646	25.69
308.113	26.49
308.579	21.59
309.046	18.69
309.512	18.59
309.979	12.19
310.445	23.69
310.912	27.09
311.378	23.69
311.845	24.19
312.311	27.49
312.777	26.89
313.244	22.19
313.71	26.29
314.176	28.69
314.642	25.59
315.109	25.39
315.575	34.69
316.041	34.89
316.507	29.19
316.973	33.89
317.439	34.89
317.905	30.69
318.371	24.79
318.837	28.59
319.303	28.49
319.769	27.69
320.235	27.59
320.701	34.99
321.167	33.59
321.633	28.89
322.099	31.99
322.564	39.09
323.03	35.19
323.496	30.79
323.962	35.79
324.427	27.09
324.893	36.59
325.359	28.29
325.824	32.09
326.29	28.89
326.755	29.79
327.221	33.09
327.686	36.49
328.152	40.19
328.617	37.89
329.083	42.99
329.548	47.09
330.014	40.59
330.479	33.89
330.944	44.19
331.41	34.19
331.875	43.29
332.34	34.29
332.805	35.99
333.271	39.39
333.736	36.99
334.201	49.69
334.666	48.09
335.131	49.29
335.596	45.59
336.061	44.69
336.526	34.99
336.991	44.89
337.456	48.49
337.921	45.39
338.386	38.09
338.851	39.09
339.316	43.69
339.781	38.29
340.246	44.59
340.711	42.89
341.175	47.89
341.64	45.59
342.105	41.79
342.569	50.79
343.034	57.09
343.499	55.49
343.963	46.29
344.428	54.39
344.893	52.99
345.357	50.19
345.822	52.19
346.286	63.09
346.751	66.29
347.215	64.69
347.679	63.59
348.144	78.39
348.608	75.59
349.073	62.49
349.537	66.29
350.001	78.69
350.465	78.99
350.93	66.49
351.394	76.59
351.858	62.19
352.322	74.49
352.786	71.59
353.25	84.69
353.715	101.29
354.179	98.89
354.643	110.29
355.107	109.29
355.571	98.49
356.035	85.59
356.498	100.09
356.962	107.39
357.426	126.29
357.89	105.39
358.354	82.99
358.818	71.99
359.281	68.99
359.745	67.99
360.209	69.19
360.673	62.99
361.136	80.79
361.6	75.99
362.064	73.39
362.527	78.39
362.991	78.39
363.454	76.29
363.918	71.09
364.381	69.59
364.845	71.49
365.308	79.89
365.772	80.39
366.235	69.69
366.698	75.89
367.162	73.69
367.625	75.69
368.088	78.49
368.552	76.79
369.015	81.69
369.478	91.29
369.941	93.09
370.404	84.99
370.867	96.59
371.331	92.59
371.794	106.59
372.257	104.09
372.72	109.39
373.183	101.49
373.646	95.09
374.109	94.79
374.572	98.79
375.035	101.19
375.497	95.09
375.96	95.79
376.423	87.69
376.886	100.39
377.349	104.39
377.811	101.59
378.274	98.09
378.737	98.19
379.199	101.69
379.662	106.29
380.125	106.19
380.587	107.09
381.05	115.79
381.512	122.29
381.975	130.69
382.437	124.99
382.9	116.89
383.362	125.09
383.825	130.09
384.287	135.49
384.75	131.69
385.212	128.99
385.674	129.59
386.136	127.29
386.599	120.49
387.061	115.89
387.523	121.59
387.985	132.79
388.447	135.19
388.91	139.59
389.372	147.39
389.834	142.89
390.296	136.99
390.758	146.99
391.22	159.69
391.682	206.59
392.144	291.99
392.606	223.19
393.068	157.29
393.529	160.69
393.991	147.29
394.453	139.69
394.915	151.19
395.377	188.29
395.838	210.29
396.3	146.89
396.762	139.19
397.224	128.29
397.685	125.89
398.147	117.69
398.608	119.09
399.07	116.19
399.531	126.49
399.993	136.49
400.454	141.79
400.916	139.99
401.377	132.69
401.839	144.59
402.3	141.69
402.762	157.59
403.223	168.79
403.684	159.19
404.145	146.19
404.607	149.89
405.068	161.79
405.529	164.29
405.99	172.19
406.451	162.79
406.913	163.79
407.374	153.89
407.835	145.19
408.296	149.19
408.757	162.09
409.218	179.99
409.679	168.49
410.14	170.39
410.601	176.89
411.062	177.29
411.522	183.09
411.983	180.29
412.444	166.99
412.905	170.29
413.366	175.59
413.826	184.79
414.287	200.39
414.748	252.39
415.208	238.79
415.669	199.59
416.13	191.99
416.59	194.59
417.051	200.19
417.511	212.09
417.972	230.39
418.432	233.59
418.893	268.99
419.353	233.39
419.814	185.69
420.274	168.99
420.734	166.89
421.195	193.59
421.655	185.39
422.115	180.79
422.576	182.89
423.036	192.49
423.496	200.39
423.956	212.09
424.416	215.79
424.876	249.79
425.336	247.49
425.797	251.79
426.257	238.29
426.717	233.79
427.177	228.69
427.637	209.59
428.097	228.39
428.556	240.59
429.016	260.69
429.476	259.49
429.936	264.79
430.396	265.99
430.856	276.69
431.315	301.29
431.775	339.79
432.235	365.49
432.694	341.49
433.154	349.79
433.614	372.89
434.073	326.49
434.533	273.79
434.993	260.99
435.452	269.49
435.912	282.19
436.371	276.59
436.83	270.39
437.29	262.19
437.749	243.99
438.209	242.19
438.668	259.79
439.127	278.49
439.587	255.69
440.046	233.89
440.505	237.69
440.964	267.19
441.424	308.79
441.883	297.79
442.342	247.99
442.801	213.29
443.26	209.09
443.719	214.99
444.178	207.69
444.637	198.79
445.096	212.79
445.555	210.69
446.014	215.09
446.473	214.39
446.932	217.89
447.391	221.69
447.849	217.79
448.308	213.39
448.767	212.29
449.226	232.09
449.685	228.99
450.143	240.89
450.602	226.79
451.061	217.79
451.519	225.09
451.978	225.49
452.436	226.79
452.895	230.39
453.353	234.79
453.812	230.19
454.27	225.49
454.729	225.19
455.187	229.59
455.646	234.89
456.104	234.59
456.562	251.79
457.021	258.59
457.479	249.59
457.937	265.39
458.395	253.59
458.854	242.49
459.312	244.69
459.77	270.89
460.228	243.39
460.686	224.29
461.144	231.19
461.602	231.89
462.06	236.79
462.518	248.39
462.976	244.99
463.434	243.39
463.892	250.79
464.35	261.99
464.808	275.59
465.266	255.19
465.724	254.89
466.181	265.29
466.639	265.39
467.097	274.29
467.555	286.99
468.012	285.09
468.47	299.89
468.928	318.39
469.385	325.89
469.843	333.09
470.3	333.79
470.758	347.09
471.215	371.09
471.673	398.09
472.13	396.99
472.588	402.79
473.045	354.99
473.503	362.89
473.96	383.99
474.417	389.09
474.875	417.69
475.332	464.99
475.789	443.29
476.246	458.39
476.704	474.99
477.161	492.99
477.618	508.39
478.075	543.09
478.532	602.19
478.989	669.19
479.446	780.29
479.903	740.59
480.36	788.49
480.817	835.49
481.274	942.09
481.731	1040.19
482.188	1130.39
482.645	1256.09
483.102	1366.99
483.558	1506.09
484.015	1553.99
484.472	1537.29
484.929	1478.69
485.385	1431.59
485.842	1387.69
486.299	1317.09
486.755	1262.19
487.212	1060.29
487.668	887.39
488.125	824.79
488.582	762.19
489.038	719.59
489.494	681.39
489.951	658.79
490.407	655.69
490.864	632.79
491.32	624.99
491.776	613.89
492.233	627.99
492.689	589.99
493.145	586.89
493.602	566.49
494.058	587.69
494.514	590.69
494.97	622.39
495.426	630.49
495.882	600.59
496.338	592.89
496.794	608.49
497.251	596.69
497.707	602.09
498.163	597.79
498.618	610.59
499.074	624.49
499.53	650.79
499.986	654.89
500.442	617.79
500.898	613.59
501.354	603.79
501.809	612.39
502.265	623.99
502.721	630.99
503.177	647.99
503.632	648.79
504.088	664.69
504.543	684.89
504.999	679.09
505.455	640.89
505.91	611.89
506.366	613.29
506.821	602.99
507.277	603.89
507.732	609.49
508.187	605.29
508.643	606.69
509.098	604.59
509.553	637.99
510.009	647.69
510.464	648.49
510.919	658.09
511.375	670.89
511.83	690.79
512.285	700.89
512.74	722.09
513.195	757.69
513.65	741.69
514.105	739.79
514.56	745.39
515.015	758.99
515.47	782.99
515.925	765.09
516.38	767.29
516.835	766.49
517.29	748.79
517.745	753.89
518.2	739.49
518.655	727.49
519.109	717.49
519.564	716.29
520.019	702.09
520.474	699.79
520.928	711.79
521.383	688.09
521.838	691.29
522.292	690.29
522.747	695.49
523.201	691.39
523.656	674.49
524.11	676.09
524.565	671.79
525.019	665.39
525.474	674.09
525.928	681.19
526.382	677.39
526.837	680.29
527.291	675.69
527.745	675.89
528.2	675.29
528.654	669.69
529.108	664.69
529.562	679.19
530.016	664.69
530.47	670.59
530.925	660.39
531.379	680.09
531.833	673.69
532.287	682.09
532.741	676.79
533.195	675.69
533.649	694.89
534.103	706.09
534.556	678.69
535.01	686.79
535.464	685.19
535.918	695.09
536.372	694.69
536.826	688.09
537.279	682.59
537.733	689.29
538.187	692.79
538.64	692.59
539.094	705.49
539.548	705.19
540.001	705.29
540.455	700.29
540.908	705.89
541.362	722.59
541.815	724.39
542.269	740.49
542.722	737.89
543.175	754.49
543.629	741.49
544.082	755.59
544.536	769.89
544.989	759.99
545.442	773.79
545.895	774.09
546.349	766.49
546.802	772.79
547.255	766.09
547.708	781.79
548.161	796.09
548.614	793.99
549.067	802.69
549.52	799.49
549.973	785.49
550.426	782.79
550.879	768.69
551.332	778.19
551.785	791.29
552.238	783.09
552.691	795.39
553.144	816.79
553.596	823.79
554.049	830.69
554.502	869.19
554.955	884.59
555.407	887.39
555.86	876.29
556.313	866.99
556.765	865.59
557.218	856.09
557.67	842.49
558.123	852.39
558.576	847.99
559.028	854.59
559.48	863.19
559.933	844.59
560.385	813.29
560.838	791.99
561.29	756.19
561.742	757.69
562.195	749.19
562.647	741.59
563.099	755.59
563.551	749.39
564.004	765.99
564.456	754.19
564.908	747.99
565.36	730.29
565.812	718.79
566.264	705.39
566.716	704.39
567.168	697.49
567.62	701.99
568.072	681.99
568.524	682.99
568.976	673.49
569.428	655.29
569.88	649.49
570.332	666.09
570.784	663.19
571.235	658.99
571.687	683.39
572.139	669.29
572.59	694.89
573.042	686.99
573.494	690.09
573.945	690.59
574.397	668.09
574.849	674.99
575.3	678.99
575.752	668.19
576.203	663.39
576.655	673.59
577.106	654.39
577.557	646.09
578.009	656.79
578.46	648.59
578.912	642.39
579.363	645.69
579.814	644.29
580.265	649.79
580.717	648.69
581.168	655.69
581.619	659.49
582.07	662.39
582.521	659.99
582.972	655.29
583.423	663.09
583.875	664.49
584.326	690.29
584.777	732.19
585.227	810.09
585.678	910.99
586.129	994.69
586.58	1063.29
587.031	1150.99
587.482	1304.09
587.933	1490.89
588.384	1286.59
588.834	954.19
589.285	786.19
589.736	767.29
590.186	754.69
590.637	748.69
591.088	728.09
591.538	725.89
591.989	710.79
592.439	714.29
592.89	703.89
593.34	694.99
593.791	697.19
594.241	687.59
594.692	689.09
595.142	686.59
595.593	687.39
596.043	695.29
596.493	698.69
596.943	694.49
597.394	718.59
597.844	693.89
598.294	705.59
598.744	726.99
599.195	751.19
599.645	800.79
600.095	844.39
600.545	896.19
600.995	958.59
601.445	1008.99
601.895	1066.59
602.345	1113.19
602.795	1093.99
603.245	1038.59
603.695	979.29
604.145	932.29
604.594	897.59
605.044	832.19
605.494	779.89
605.944	738.69
606.393	726.99
606.843	709.49
607.293	721.19
607.743	710.79
608.192	723.59
608.642	747.49
609.091	747.09
609.541	756.99
609.99	758.19
610.44	754.69
610.889	716.09
611.339	690.49
611.788	686.89
612.238	688.49
612.687	706.59
613.136	713.99
613.586	728.59
614.035	722.39
614.484	743.79
614.933	746.49
615.383	742.39
615.832	730.79
616.281	709.49
616.73	681.69
617.179	659.09
617.628	642.99
618.077	621.49
618.526	607.39
618.975	609.89
619.424	596.59
619.873	596.89
620.322	608.59
620.771	587.69
621.22	597.89
621.669	582.29
622.118	580.79
622.567	565.19
623.015	560.09
623.464	569.89
623.913	548.89
624.361	541.89
624.81	540.49
625.259	548.09
625.707	547.59
626.156	546.79
626.604	558.39
627.053	549.29
627.501	558.69
627.95	547.99
628.398	562.69
628.847	557.69
629.295	554.59
629.744	559.49
630.192	558.09
630.64	550.39
631.089	561.19
631.537	572.99
631.985	573.19
632.433	599.09
632.881	596.39
633.33	652.89
633.778	638.09
634.226	554.09
634.674	574.59
635.122	568.99
635.57	591.09
636.018	618.79
636.466	575.59
636.914	545.69
637.362	560.69
637.81	566.49
638.258	573.19
638.705	578.39
639.153	604.59
639.601	605.09
640.049	619.89
640.497	660.79
640.944	678.99
641.392	628.29
641.84	599.09
642.287	571.19
642.735	559.49
643.182	563.19
643.63	561.59
644.078	564.39
644.525	577.59
644.973	583.69
645.42	591.89
645.867	605.49
646.315	631.89
646.762	648.69
647.21	682.09
647.657	699.69
648.104	738.99
648.551	758.79
648.999	828.79
649.446	908.89
649.893	992.89
650.34	1148.99
650.787	1386.09
651.234	1714.99
651.682	2252.29
652.129	3105.39
652.576	4468.59
653.023	6595.39
653.47	9036.49
653.917	11212.89
654.363	12870.59
654.81	14195.19
655.257	13518.29
655.704	8829.09
656.151	5195.69
656.598	3363.29
657.044	2388.99
657.491	1831.89
657.938	1468.29
658.385	1218.19
658.831	1055.89
659.278	949.59
659.724	844.09
660.171	776.19
660.618	714.49
661.064	680.39
661.511	659.49
661.957	638.89
662.404	632.09
662.85	634.49
663.296	608.89
663.743	550.79
664.189	523.49
664.635	522.69
665.082	524.49
665.528	520.49
665.974	514.99
666.42	506.09
666.867	500.59
667.313	480.09
667.759	480.59
668.205	477.29
668.651	486.79
669.097	477.59
669.543	500.19
669.989	458.89
670.435	442.49
670.881	434.09
671.327	439.39
671.773	461.29
672.219	480.39
672.665	535.79
673.11	569.79
673.556	606.69
674.002	658.49
674.448	648.79
674.893	530.99
675.339	472.29
675.785	429.49
676.23	414.69
676.676	388.09
677.122	374.69
677.567	366.29
678.013	359.69
678.458	354.59
678.904	361.39
679.349	341.09
679.794	339.79
680.24	340.69
680.685	345.79
681.131	330.99
681.576	343.29
682.021	348.39
682.466	346.79
682.912	341.29
683.357	349.19
683.802	367.59
684.247	408.89
684.692	446.49
685.137	488.69
685.583	516.59
686.028	551.99
686.473	504.79
686.918	438.99
687.363	406.49
687.807	390.99
688.252	356.59
688.697	350.29
689.142	323.99
689.587	329.49
690.032	317.69
690.477	330.19
690.921	341.29
691.366	373.59
691.811	393.79
692.255	423.79
692.7	452.19
693.145	496.49
693.589	695.69
694.034	1114.69
694.478	1501.59
694.923	1691.29
695.367	2183.59
695.812	1170.39
696.256	491.79
696.701	371.79
697.145	330.79
697.59	320.89
698.034	321.19
698.478	324.49
698.922	316.69
699.367	325.39
699.811	326.89
700.255	344.29
700.699	384.39
701.143	420.79
701.588	465.79
702.032	506.29
702.476	497.29
702.92	483.09
703.364	483.79
703.808	629.99
704.252	1029.89
704.696	1433.99
705.14	1616.49
705.584	2062.29
706.027	1028.99
706.471	517.49
706.915	385.69
707.359	344.49
707.803	314.49
708.246	306.49
708.69	310.59
709.134	311.39
709.577	307.69
710.021	306.19
710.465	301.59
710.908	298.89
711.352	287.99
711.795	300.19
712.239	349.19
712.682	380.39
713.126	406.99
713.569	448.99
714.012	359.99
714.456	314.29
714.899	298.79
715.342	267.49
715.786	255.79
716.229	250.99
716.672	254.69
717.115	240.19
717.558	247.59
718.002	243.99
718.445	254.29
718.888	271.49
719.331	297.39
719.774	292.89
720.217	299.19
720.66	278.29
721.103	262.59
721.546	246.89
721.989	239.39
722.432	229.29
722.874	234.39
723.317	230.19
723.76	239.19
724.203	248.89
724.645	320.59
725.088	439.39
725.531	557.49
725.974	629.39
726.416	535.09
726.859	298.19
727.301	239.49
727.744	240.69
728.187	228.99
728.629	230.79
729.071	232.89
729.514	248.49
729.956	266.89
730.399	281.29
730.841	274.99
731.283	264.39
731.726	260.79
732.168	259.79
732.61	258.39
733.053	276.19
733.495	317.79
733.937	350.19
734.379	388.69
734.821	428.99
735.263	533.09
735.705	829.49
736.148	1572.89
736.59	2534.19
737.032	2953.39
737.474	2407.39
737.916	792.19
738.357	416.69
738.799	322.19
739.241	290.99
739.683	278.09
740.125	285.19
740.567	294.09
741.008	307.49
741.45	307.09
741.892	310.79
742.334	337.49
742.775	352.29
743.217	327.19
743.658	263.29
744.1	252.09
744.542	260.49
744.983	306.19
745.425	334.79
745.866	333.59
746.307	283.89
746.749	279.79
747.19	322.49
747.632	458.09
748.073	886.29
748.514	1854.49
748.956	2780.79
749.397	3493.09
749.838	2884.99
750.279	2865.69
750.72	1451.39
751.162	530.09
751.603	314.89
752.044	248.39
752.485	212.19
752.926	205.19
753.367	198.99
753.808	190.79
754.249	192.79
754.69	188.49
755.131	178.69
755.572	179.29
756.013	173.19
756.453	182.89
756.894	187.59
757.335	190.59
757.776	189.69
758.216	187.29
758.657	196.09
759.098	202.59
759.538	224.49
759.979	266.29
760.42	366.99
760.86	701.99
761.301	1836.69
761.741	4385.09
762.182	6208.19
762.622	4352.09
