Data from 20171114-ORNL-Ar_H_NY_Subt18_08-08-23-300.txt Node
Date: Tue Nov 14 08:08:23 EST 2017
User: Ender
Spectrometer: HR+D1039
Trigger mode: 0
Integration Time (sec): 2.730000E-2
Scans to average: 10
Electric dark correction enabled: true
Nonlinearity correction enabled: false
Boxcar width: 0
XAxis mode: Wavelengths
Number of Pixels in Spectrum: 2048
>>>>>Begin Spectral Data<<<<<
187.836	-8.87
188.309	-8.87
188.782	-8.87
189.255	0.13
189.728	-2.77
190.201	7.43
190.674	1.93
191.147	6.83
191.619	-8.97
192.092	4.63
192.565	6.73
193.038	2.33
193.511	0.23
193.984	1.93
194.456	-3.17
194.929	-3.37
195.402	-2.07
195.874	-2.97
196.347	-1.47
196.82	-2.87
197.292	7.03
197.765	3.03
198.237	1.23
198.71	-2.37
199.182	-3.87
199.655	3.63
200.127	8.23
200.6	1.43
201.072	-4.37
201.544	-3.87
202.017	-3.57
202.489	4.73
202.961	0.23
203.433	-4.37
203.906	-6.27
204.378	-6.97
204.85	-2.57
205.322	-6.07
205.794	-3.27
206.266	-3.67
206.739	-6.07
207.211	3.53
207.683	-3.27
208.155	-5.27
208.627	-4.97
209.099	-5.37
209.57	-10.27
210.042	-4.37
210.514	-13.77
210.986	0.43
211.458	-7.57
211.93	-5.17
212.402	3.43
212.873	-5.07
213.345	-5.37
213.817	-11.47
214.288	-4.87
214.76	-11.77
215.232	0.73
215.703	-7.17
216.175	1.63
216.646	1.63
217.118	-7.07
217.589	-3.97
218.061	-4.97
218.532	-4.57
219.004	-6.17
219.475	-0.07
219.946	1.03
220.418	-3.07
220.889	2.03
221.36	7.23
221.832	-5.67
222.303	-5.37
222.774	3.53
223.245	-11.37
223.717	-3.57
224.188	-7.47
224.659	-7.07
225.13	-4.07
225.601	0.23
226.072	4.53
226.543	2.13
227.014	0.83
227.485	-2.57
227.956	-2.17
228.427	-6.47
228.898	2.73
229.369	4.63
229.839	-2.37
230.31	-5.77
230.781	5.43
231.252	-2.57
231.722	-7.77
232.193	0.83
232.664	-0.87
233.135	3.53
233.605	-2.77
234.076	-5.37
234.546	3.93
235.017	4.43
235.487	7.13
235.958	3.53
236.428	-3.57
236.899	2.23
237.369	2.63
237.84	-4.47
238.31	8.53
238.78	4.13
239.251	-0.47
239.721	5.83
240.191	-1.27
240.662	3.63
241.132	1.73
241.602	0.63
242.072	2.73
242.542	5.73
243.013	0.83
243.483	0.23
243.953	6.83
244.423	1.23
244.893	-0.87
245.363	5.13
245.833	5.23
246.303	-2.47
246.773	9.93
247.243	8.43
247.712	-0.67
248.182	6.23
248.652	8.23
249.122	5.43
249.592	5.53
250.061	21.83
250.531	31.23
251.001	12.23
251.471	19.83
251.94	15.13
252.41	5.23
252.879	-1.27
253.349	13.83
253.818	10.33
254.288	10.13
254.757	1.33
255.227	5.93
255.696	5.23
256.166	6.33
256.635	4.33
257.105	-0.27
257.574	9.23
258.043	5.63
258.513	15.83
258.982	17.63
259.451	6.83
259.92	15.63
260.389	12.13
260.859	11.23
261.328	11.63
261.797	19.43
262.266	7.43
262.735	12.53
263.204	3.93
263.673	-0.67
264.142	11.13
264.611	-1.97
265.08	0.03
265.549	-2.87
266.018	7.53
266.487	2.93
266.955	-0.37
267.424	-0.67
267.893	3.23
268.362	4.23
268.83	-0.87
269.299	13.33
269.768	6.33
270.236	10.33
270.705	-0.47
271.174	8.93
271.642	6.13
272.111	5.83
272.579	15.53
273.048	19.43
273.516	22.13
273.985	23.33
274.453	34.13
274.922	19.43
275.39	15.33
275.858	5.33
276.327	17.33
276.795	16.03
277.263	6.23
277.731	30.13
278.2	46.43
278.668	50.03
279.136	41.23
279.604	24.03
280.072	15.73
280.54	9.13
281.008	11.53
281.477	15.83
281.945	9.43
282.413	11.23
282.881	13.83
283.348	6.13
283.816	16.93
284.284	15.13
284.752	21.03
285.22	7.23
285.688	17.63
286.156	16.63
286.623	38.63
287.091	49.13
287.559	30.33
288.026	21.23
288.494	12.13
288.962	4.83
289.429	10.73
289.897	20.43
290.364	12.83
290.832	15.63
291.3	8.43
291.767	16.13
292.234	20.73
292.702	9.33
293.169	23.93
293.637	15.93
294.104	21.03
294.571	13.63
295.039	12.63
295.506	17.53
295.973	9.53
296.44	12.83
296.908	15.73
297.375	15.43
297.842	21.63
298.309	17.63
298.776	14.93
299.243	21.23
299.71	18.33
300.177	22.73
300.644	26.53
301.111	14.03
301.578	25.43
302.045	17.53
302.512	25.63
302.979	24.63
303.446	21.43
303.913	18.53
304.379	16.33
304.846	26.53
305.313	22.73
305.78	26.13
306.246	22.53
306.713	21.03
307.18	28.63
307.646	25.63
308.113	29.13
308.579	25.43
309.046	24.93
309.512	23.03
309.979	21.73
310.445	30.03
310.912	29.43
311.378	28.73
311.845	27.03
312.311	29.93
312.777	28.43
313.244	27.43
313.71	36.73
314.176	30.03
314.642	23.43
315.109	30.93
315.575	35.13
316.041	37.43
316.507	36.63
316.973	42.53
317.439	30.93
317.905	30.53
318.371	32.23
318.837	28.53
319.303	33.83
319.769	35.93
320.235	32.23
320.701	37.53
321.167	37.13
321.633	33.03
322.099	39.73
322.564	45.43
323.03	41.93
323.496	38.93
323.962	45.33
324.427	33.13
324.893	36.73
325.359	35.93
325.824	37.43
326.29	35.23
326.755	34.83
327.221	37.23
327.686	37.23
328.152	42.93
328.617	39.13
329.083	47.03
329.548	50.13
330.014	45.43
330.479	38.23
330.944	48.13
331.41	37.73
331.875	51.33
332.34	37.93
332.805	42.23
333.271	42.93
333.736	43.33
334.201	51.03
334.666	49.83
335.131	53.53
335.596	51.73
336.061	46.23
336.526	44.83
336.991	47.53
337.456	56.93
337.921	48.43
338.386	40.93
338.851	40.63
339.316	45.33
339.781	42.53
340.246	57.33
340.711	46.13
341.175	48.83
341.64	47.43
342.105	49.33
342.569	49.53
343.034	57.13
343.499	60.43
343.963	47.83
344.428	59.23
344.893	56.23
345.357	58.93
345.822	59.83
346.286	65.73
346.751	74.73
347.215	70.43
347.679	66.13
348.144	93.73
348.608	81.03
349.073	72.13
349.537	75.93
350.001	79.13
350.465	91.03
350.93	77.43
351.394	80.13
351.858	71.33
352.322	83.03
352.786	82.73
353.25	103.03
353.715	112.33
354.179	102.63
354.643	128.93
355.107	121.63
355.571	104.93
356.035	97.93
356.498	115.23
356.962	118.33
357.426	134.23
357.89	119.23
358.354	85.83
358.818	83.93
359.281	77.93
359.745	77.53
360.209	78.33
360.673	72.53
361.136	79.93
361.6	83.03
362.064	83.03
362.527	85.33
362.991	97.53
363.454	80.13
363.918	74.23
364.381	78.43
364.845	85.33
365.308	81.63
365.772	83.53
366.235	81.43
366.698	84.53
367.162	88.63
367.625	82.93
368.088	87.43
368.552	95.33
369.015	83.13
369.478	102.93
369.941	98.03
370.404	99.33
370.867	104.63
371.331	113.83
371.794	115.83
372.257	108.73
372.72	116.33
373.183	109.43
373.646	106.23
374.109	106.33
374.572	111.33
375.035	107.23
375.497	105.33
375.96	106.03
376.423	107.03
376.886	120.33
377.349	111.53
377.811	104.93
378.274	106.03
378.737	105.83
379.199	109.03
379.662	112.53
380.125	120.23
380.587	116.73
381.05	123.73
381.512	126.63
381.975	132.33
382.437	130.83
382.9	127.43
383.362	130.23
383.825	138.83
384.287	148.03
384.75	144.43
385.212	140.03
385.674	140.53
386.136	133.03
386.599	120.53
387.061	128.63
387.523	130.23
387.985	135.93
388.447	153.73
388.91	146.73
389.372	164.03
389.834	155.83
390.296	150.53
390.758	158.83
391.22	177.33
391.682	220.73
392.144	330.43
392.606	240.03
393.068	174.03
393.529	171.03
393.991	152.73
394.453	146.63
394.915	161.53
395.377	207.13
395.838	230.23
396.3	154.43
396.762	151.43
397.224	142.23
397.685	132.13
398.147	131.33
398.608	129.73
399.07	132.23
399.531	140.63
399.993	145.03
400.454	146.83
400.916	145.03
401.377	143.43
401.839	150.83
402.3	157.13
402.762	167.03
403.223	181.63
403.684	169.93
404.145	168.13
404.607	160.23
405.068	166.93
405.529	175.63
405.99	186.63
406.451	177.83
406.913	182.73
407.374	166.73
407.835	168.93
408.296	167.33
408.757	176.33
409.218	190.13
409.679	184.13
410.14	180.13
410.601	175.13
411.062	189.73
411.522	198.03
411.983	199.23
412.444	177.63
412.905	186.73
413.366	185.43
413.826	203.53
414.287	215.13
414.748	261.83
415.208	256.53
415.669	207.13
416.13	204.43
416.59	212.03
417.051	219.73
417.511	222.73
417.972	239.33
418.432	247.73
418.893	287.03
419.353	252.33
419.814	206.43
420.274	186.33
420.734	184.63
421.195	200.13
421.655	202.53
422.115	191.03
422.576	193.23
423.036	204.43
423.496	217.33
423.956	214.33
424.416	234.33
424.876	261.43
425.336	260.23
425.797	271.83
426.257	258.23
426.717	239.53
427.177	233.43
427.637	227.53
428.097	236.03
428.556	255.53
429.016	274.33
429.476	264.03
429.936	277.53
430.396	282.73
430.856	294.23
431.315	322.43
431.775	360.43
432.235	385.33
432.694	365.23
433.154	367.43
433.614	397.63
434.073	342.53
434.533	290.73
434.993	270.83
435.452	291.53
435.912	294.33
436.371	286.93
436.83	295.83
437.29	272.83
437.749	250.33
438.209	258.23
438.668	282.33
439.127	292.63
439.587	259.73
440.046	256.53
440.505	263.83
440.964	281.83
441.424	326.03
441.883	319.43
442.342	270.03
442.801	229.43
443.26	227.43
443.719	219.33
444.178	221.13
444.637	214.03
445.096	225.63
445.555	221.03
446.014	230.03
446.473	233.43
446.932	235.73
447.391	224.43
447.849	230.63
448.308	219.73
448.767	219.83
449.226	239.73
449.685	234.03
450.143	246.13
450.602	230.43
451.061	229.93
451.519	230.23
451.978	240.23
452.436	235.73
452.895	244.33
453.353	252.23
453.812	242.63
454.27	239.93
454.729	240.03
455.187	238.73
455.646	252.83
456.104	254.53
456.562	262.03
457.021	271.13
457.479	266.93
457.937	281.63
458.395	268.93
458.854	249.13
459.312	260.03
459.77	277.03
460.228	261.63
460.686	244.53
461.144	250.83
461.602	247.23
462.06	245.63
462.518	258.53
462.976	255.43
463.434	259.93
463.892	268.03
464.35	277.53
464.808	292.13
465.266	271.63
465.724	275.23
466.181	266.23
466.639	275.83
467.097	290.73
467.555	300.23
468.012	310.83
468.47	310.93
468.928	328.33
469.385	340.33
469.843	342.83
470.3	349.73
470.758	355.53
471.215	388.53
471.673	411.73
472.13	415.33
472.588	425.03
473.045	368.63
473.503	381.53
473.96	399.53
474.417	403.13
474.875	435.43
475.332	476.33
475.789	464.13
476.246	469.73
476.704	486.63
477.161	508.93
477.618	517.43
478.075	561.63
478.532	616.83
478.989	685.73
479.446	809.83
479.903	772.13
480.36	805.73
480.817	855.63
481.274	966.63
481.731	1060.53
482.188	1142.03
482.645	1276.63
483.102	1389.63
483.558	1516.23
484.015	1562.83
484.472	1550.73
484.929	1509.43
485.385	1452.03
485.842	1415.83
486.299	1344.93
486.755	1283.63
487.212	1092.23
487.668	925.33
488.125	843.63
488.582	772.53
489.038	743.23
489.494	706.93
489.951	680.23
490.407	661.03
490.864	645.73
491.32	646.43
491.776	650.33
492.233	647.73
492.689	615.13
493.145	606.03
493.602	601.83
494.058	613.13
494.514	617.03
494.97	640.03
495.426	658.13
495.882	624.13
496.338	618.53
496.794	617.73
497.251	616.43
497.707	626.83
498.163	641.53
498.618	636.63
499.074	637.73
499.53	675.93
499.986	672.93
500.442	654.63
500.898	636.43
501.354	621.83
501.809	633.23
502.265	650.13
502.721	660.03
503.177	664.93
503.632	663.83
504.088	680.93
504.543	702.83
504.999	706.93
505.455	654.73
505.91	632.93
506.366	622.13
506.821	618.03
507.277	623.23
507.732	619.23
508.187	617.63
508.643	633.63
509.098	634.53
509.553	651.53
510.009	665.03
510.464	664.83
510.919	688.43
511.375	692.53
511.83	706.33
512.285	717.93
512.74	753.03
513.195	769.13
513.65	758.93
514.105	761.03
514.56	760.33
515.015	781.43
515.47	794.73
515.925	782.83
516.38	782.03
516.835	790.23
517.29	783.63
517.745	777.33
518.2	751.53
518.655	743.83
519.109	737.13
519.564	734.33
520.019	731.13
520.474	708.93
520.928	723.63
521.383	713.23
521.838	714.93
522.292	712.53
522.747	700.73
523.201	692.33
523.656	691.13
524.11	694.73
524.565	695.53
525.019	694.73
525.474	695.93
525.928	693.73
526.382	691.23
526.837	683.83
527.291	699.93
527.745	696.33
528.2	694.33
528.654	680.33
529.108	689.53
529.562	683.63
530.016	684.43
530.47	686.13
530.925	695.53
531.379	689.43
531.833	715.73
532.287	698.03
532.741	692.93
533.195	689.53
533.649	701.43
534.103	712.43
534.556	694.03
535.01	702.43
535.464	695.73
535.918	716.43
536.372	716.63
536.826	710.93
537.279	702.53
537.733	703.73
538.187	715.53
538.64	701.73
539.094	717.53
539.548	726.13
540.001	710.93
540.455	719.53
540.908	730.13
541.362	732.03
541.815	730.43
542.269	746.73
542.722	756.53
543.175	774.03
543.629	763.13
544.082	789.03
544.536	786.93
544.989	768.73
545.442	787.23
545.895	785.53
546.349	791.03
546.802	787.13
547.255	793.43
547.708	805.83
548.161	809.93
548.614	824.23
549.067	824.53
549.52	813.73
549.973	801.93
550.426	808.93
550.879	789.03
551.332	798.53
551.785	803.93
552.238	802.33
552.691	811.63
553.144	820.63
553.596	842.33
554.049	861.33
554.502	889.53
554.955	906.33
555.407	899.93
555.86	895.93
556.313	883.83
556.765	876.83
557.218	872.13
557.67	864.63
558.123	860.93
558.576	854.33
559.028	864.43
559.48	881.83
559.933	872.83
560.385	836.33
560.838	797.93
561.29	781.93
561.742	782.33
562.195	757.03
562.647	760.23
563.099	766.73
563.551	770.23
564.004	784.63
564.456	774.63
564.908	757.93
565.36	749.33
565.812	730.63
566.264	721.63
566.716	720.33
567.168	711.43
567.62	723.93
568.072	694.83
568.524	688.83
568.976	681.43
569.428	673.83
569.88	666.63
570.332	689.53
570.784	682.83
571.235	680.83
571.687	701.53
572.139	694.63
572.59	701.23
573.042	714.23
573.494	706.73
573.945	701.13
574.397	670.83
574.849	697.13
575.3	683.23
575.752	672.63
576.203	667.53
576.655	684.03
577.106	668.73
577.557	670.83
578.009	666.93
578.46	663.03
578.912	659.63
579.363	665.33
579.814	672.03
580.265	663.83
580.717	662.23
581.168	677.93
581.619	680.83
582.07	681.93
582.521	670.73
582.972	664.23
583.423	675.43
583.875	686.43
584.326	707.83
584.777	748.33
585.227	832.53
585.678	918.43
586.129	1009.83
586.58	1087.83
587.031	1158.43
587.482	1299.53
587.933	1501.83
588.384	1308.03
588.834	977.23
589.285	808.33
589.736	786.63
590.186	779.23
590.637	771.93
591.088	744.03
591.538	738.23
591.989	733.23
592.439	726.53
592.89	721.63
593.34	714.63
593.791	709.73
594.241	699.93
594.692	711.33
595.142	707.13
595.593	704.03
596.043	709.13
596.493	706.83
596.943	719.73
597.394	723.83
597.844	721.93
598.294	734.13
598.744	758.13
599.195	776.23
599.645	813.13
600.095	855.43
600.545	919.63
600.995	967.03
601.445	1041.33
601.895	1091.83
602.345	1133.93
602.795	1115.23
603.245	1063.53
603.695	1009.73
604.145	958.33
604.594	904.13
605.044	857.23
605.494	796.83
605.944	749.43
606.393	740.43
606.843	722.93
607.293	724.63
607.743	732.33
608.192	744.33
608.642	755.13
609.091	766.93
609.541	775.73
609.99	788.13
610.44	776.73
610.889	728.53
611.339	708.93
611.788	687.43
612.238	705.73
612.687	720.43
613.136	729.63
613.586	741.83
614.035	745.23
614.484	756.43
614.933	756.53
615.383	757.23
615.832	741.93
616.281	726.93
616.73	694.63
617.179	674.73
617.628	655.33
618.077	635.03
618.526	631.03
618.975	623.33
619.424	626.13
619.873	609.93
620.322	626.73
620.771	609.53
621.22	610.13
621.669	600.63
622.118	598.53
622.567	586.53
623.015	581.13
623.464	569.03
623.913	561.93
624.361	553.93
624.81	542.03
625.259	558.13
625.707	554.83
626.156	561.73
626.604	567.23
627.053	566.63
627.501	567.53
627.95	571.63
628.398	583.63
628.847	575.23
629.295	570.33
629.744	578.33
630.192	572.03
630.64	564.73
631.089	577.93
631.537	578.83
631.985	588.23
632.433	604.13
632.881	618.03
633.33	676.13
633.778	650.83
634.226	561.03
634.674	577.13
635.122	583.03
635.57	603.13
636.018	640.73
636.466	589.33
636.914	550.33
637.362	577.13
637.81	584.63
638.258	582.63
638.705	582.93
639.153	609.53
639.601	621.23
640.049	638.43
640.497	680.33
640.944	690.23
641.392	646.33
641.84	619.63
642.287	593.03
642.735	570.93
643.182	573.43
643.63	581.23
644.078	571.73
644.525	587.23
644.973	590.93
645.42	606.43
645.867	634.13
646.315	643.73
646.762	669.03
647.21	697.73
647.657	721.73
648.104	754.33
648.551	777.13
648.999	843.23
649.446	930.13
649.893	1018.63
650.34	1172.83
650.787	1396.03
651.234	1735.83
651.682	2284.63
652.129	3138.83
652.576	4542.83
653.023	6666.13
653.47	9106.33
653.917	11248.93
654.363	12947.73
654.81	14170.83
655.257	13517.03
655.704	8850.93
656.151	5241.73
656.598	3400.83
657.044	2407.23
657.491	1855.43
657.938	1480.03
658.385	1246.03
658.831	1085.53
659.278	956.33
659.724	850.73
660.171	783.53
660.618	734.03
661.064	689.13
661.511	673.13
661.957	658.63
662.404	654.83
662.85	659.63
663.296	629.33
663.743	570.93
664.189	539.83
664.635	524.43
665.082	529.13
665.528	538.23
665.974	521.73
666.42	517.53
666.867	505.23
667.313	495.63
667.759	485.23
668.205	484.33
668.651	495.03
669.097	480.93
669.543	503.03
669.989	472.43
670.435	455.43
670.881	453.83
671.327	462.53
671.773	473.53
672.219	491.23
672.665	551.53
673.11	589.43
673.556	636.13
674.002	664.33
674.448	660.93
674.893	550.83
675.339	483.63
675.785	446.73
676.23	415.23
676.676	400.33
677.122	381.33
677.567	376.23
678.013	366.03
678.458	360.73
678.904	357.43
679.349	354.23
679.794	359.43
680.24	348.23
680.685	352.33
681.131	344.13
681.576	350.03
682.021	355.13
682.466	354.63
682.912	350.43
683.357	355.03
683.802	390.83
684.247	412.83
684.692	464.83
685.137	499.13
685.583	549.13
686.028	568.93
686.473	515.93
686.918	446.13
687.363	420.53
687.807	396.83
688.252	363.83
688.697	354.43
689.142	339.73
689.587	334.53
690.032	331.13
690.477	348.23
690.921	350.63
691.366	386.53
691.811	409.13
692.255	435.63
692.7	467.43
693.145	518.23
693.589	725.23
694.034	1165.43
694.478	1562.73
694.923	1730.03
695.367	2237.53
695.812	1180.43
696.256	497.43
696.701	370.53
697.145	344.43
697.59	333.13
698.034	322.03
698.478	333.83
698.922	328.03
699.367	328.43
699.811	353.23
700.255	364.53
700.699	398.43
701.143	443.33
701.588	485.13
702.032	521.73
702.476	513.23
702.92	492.23
703.364	497.93
703.808	655.93
704.252	1073.53
704.696	1469.83
705.14	1667.53
705.584	2113.73
706.027	1063.43
706.471	526.13
706.915	397.63
707.359	352.63
707.803	321.73
708.246	312.93
708.69	318.53
709.134	320.63
709.577	317.43
710.021	324.03
710.465	311.53
710.908	304.53
711.352	305.33
711.795	310.33
712.239	361.73
712.682	390.23
713.126	416.83
713.569	467.43
714.012	373.83
714.456	331.53
714.899	298.23
715.342	274.93
715.786	258.63
716.229	264.33
716.672	260.43
717.115	252.43
717.558	250.83
718.002	254.93
718.445	269.83
718.888	288.93
719.331	296.73
719.774	310.03
720.217	306.13
720.66	276.03
721.103	271.43
721.546	263.13
721.989	251.63
722.432	239.43
722.874	242.63
723.317	233.43
723.76	242.33
724.203	259.23
724.645	325.93
725.088	461.53
725.531	568.53
725.974	652.33
726.416	551.63
726.859	303.63
727.301	253.93
727.744	241.73
728.187	228.83
728.629	239.23
729.071	246.13
729.514	261.53
729.956	274.53
730.399	289.63
730.841	289.73
731.283	278.43
731.726	267.03
732.168	264.43
732.61	268.93
733.053	290.73
733.495	315.53
733.937	356.13
734.379	399.33
734.821	441.33
735.263	551.53
735.705	861.63
736.148	1655.83
736.59	2614.43
737.032	2991.53
737.474	2466.13
737.916	814.33
738.357	428.93
738.799	318.93
739.241	306.33
739.683	290.03
740.125	298.63
740.567	298.93
741.008	320.73
741.45	318.53
741.892	322.33
742.334	351.43
742.775	359.53
743.217	335.23
743.658	270.93
744.1	256.93
744.542	271.03
744.983	308.73
745.425	342.83
745.866	346.93
746.307	292.53
746.749	285.83
747.19	332.83
747.632	473.63
748.073	918.73
748.514	1929.03
748.956	2849.53
749.397	3592.83
749.838	2979.83
750.279	2921.13
750.72	1487.53
751.162	554.83
751.603	324.33
752.044	257.53
752.485	220.93
752.926	215.43
753.367	207.23
753.808	199.93
754.249	194.03
754.69	192.83
755.131	190.93
755.572	183.33
756.013	182.13
756.453	186.33
756.894	188.13
757.335	196.63
757.776	207.03
758.216	192.13
758.657	198.73
759.098	210.63
759.538	230.53
759.979	280.53
760.42	385.63
760.86	730.23
761.301	1919.93
761.741	4503.43
762.182	6317.03
762.622	4432.83
