Data from 20171114-ORNL-Ar_H_NY_Subt18_08-07-42-081.txt Node
Date: Tue Nov 14 08:07:42 EST 2017
User: Ender
Spectrometer: HR+D1039
Trigger mode: 0
Integration Time (sec): 2.730000E-2
Scans to average: 10
Electric dark correction enabled: true
Nonlinearity correction enabled: false
Boxcar width: 0
XAxis mode: Wavelengths
Number of Pixels in Spectrum: 2048
>>>>>Begin Spectral Data<<<<<
187.836	0.86
188.309	0.86
188.782	0.86
189.255	0.16
189.728	-4.24
190.201	5.46
190.674	2.36
191.147	1.66
191.619	-9.24
192.092	2.26
192.565	3.06
193.038	1.16
193.511	0.26
193.984	3.46
194.456	-5.44
194.929	1.26
195.402	-2.64
195.874	-0.34
196.347	-3.34
196.82	-4.34
197.292	6.06
197.765	-8.44
198.237	-8.54
198.71	3.76
199.182	-3.54
199.655	1.16
200.127	6.56
200.6	-6.94
201.072	-10.44
201.544	-1.74
202.017	-5.44
202.489	4.06
202.961	-3.34
203.433	1.66
203.906	-9.04
204.378	-8.44
204.85	-0.04
205.322	-10.44
205.794	-2.74
206.266	-0.84
206.739	-6.44
207.211	4.96
207.683	-7.34
208.155	-9.04
208.627	0.86
209.099	-4.34
209.57	-8.44
210.042	-6.64
210.514	-5.54
210.986	-5.34
211.458	-7.54
211.93	-5.34
212.402	0.56
212.873	-6.54
213.345	-4.74
213.817	-8.14
214.288	-5.84
214.76	-11.24
215.232	-7.74
215.703	-3.84
216.175	-1.14
216.646	-0.34
217.118	-6.44
217.589	-0.24
218.061	-4.74
218.532	-1.24
219.004	-0.14
219.475	2.06
219.946	-4.84
220.418	-5.74
220.889	0.46
221.36	-0.54
221.832	1.86
222.303	-9.14
222.774	-0.74
223.245	-7.24
223.717	-7.94
224.188	-2.24
224.659	-7.54
225.13	-4.44
225.601	-1.44
226.072	0.76
226.543	-6.44
227.014	5.56
227.485	-11.34
227.956	-7.74
228.427	-2.54
228.898	-0.74
229.369	4.16
229.839	-4.44
230.31	-4.74
230.781	-0.34
231.252	-0.74
231.722	-9.54
232.193	0.76
232.664	0.06
233.135	-1.24
233.605	1.86
234.076	-7.44
234.546	1.96
235.017	-0.84
235.487	0.86
235.958	-5.34
236.428	2.66
236.899	3.76
237.369	7.06
237.84	-1.54
238.31	12.16
238.78	0.76
239.251	-0.74
239.721	0.86
240.191	-0.44
240.662	0.66
241.132	1.86
241.602	2.26
242.072	-1.64
242.542	10.46
243.013	-2.14
243.483	4.96
243.953	3.86
244.423	1.76
244.893	-0.84
245.363	-0.34
245.833	2.76
246.303	-7.54
246.773	7.46
247.243	1.86
247.712	2.26
248.182	9.16
248.652	1.66
249.122	-4.74
249.592	11.66
250.061	20.46
250.531	32.26
251.001	14.56
251.471	17.46
251.94	13.96
252.41	5.66
252.879	-3.04
253.349	8.36
253.818	7.46
254.288	4.16
254.757	-0.24
255.227	2.26
255.696	0.66
256.166	-1.14
256.635	3.66
257.105	3.46
257.574	2.26
258.043	12.46
258.513	6.86
258.982	9.86
259.451	8.26
259.92	6.86
260.389	8.56
260.859	11.26
261.328	7.66
261.797	6.76
262.266	6.36
262.735	10.96
263.204	-0.74
263.673	10.46
264.142	4.86
264.611	-5.94
265.08	4.86
265.549	-4.84
266.018	10.16
266.487	-2.34
266.955	-7.94
267.424	-2.34
267.893	6.66
268.362	-2.54
268.83	-5.64
269.299	8.16
269.768	2.86
270.236	8.06
270.705	-4.44
271.174	8.86
271.642	10.26
272.111	6.56
272.579	18.16
273.048	16.66
273.516	23.66
273.985	22.16
274.453	24.96
274.922	13.56
275.39	12.46
275.858	-0.64
276.327	16.16
276.795	12.06
277.263	8.96
277.731	21.46
278.2	49.56
278.668	47.46
279.136	38.36
279.604	18.86
280.072	11.96
280.54	6.36
281.008	6.36
281.477	11.56
281.945	8.76
282.413	12.86
282.881	16.56
283.348	1.16
283.816	15.46
284.284	7.26
284.752	20.66
285.22	11.26
285.688	13.36
286.156	12.36
286.623	36.16
287.091	43.16
287.559	18.86
288.026	17.66
288.494	7.26
288.962	-3.74
289.429	6.16
289.897	15.06
290.364	12.76
290.832	10.16
291.3	12.96
291.767	11.96
292.234	18.46
292.702	11.86
293.169	12.66
293.637	19.06
294.104	18.96
294.571	10.86
295.039	8.46
295.506	9.26
295.973	12.96
296.44	17.86
296.908	12.86
297.375	15.66
297.842	16.56
298.309	14.16
298.776	6.46
299.243	13.76
299.71	12.46
300.177	17.26
300.644	13.86
301.111	12.06
301.578	26.26
302.045	17.96
302.512	24.86
302.979	22.36
303.446	20.46
303.913	15.16
304.379	16.16
304.846	24.46
305.313	22.56
305.78	22.96
306.246	19.76
306.713	22.46
307.18	21.86
307.646	22.06
308.113	21.26
308.579	15.16
309.046	20.26
309.512	20.06
309.979	17.66
310.445	23.66
310.912	24.46
311.378	27.96
311.845	25.56
312.311	29.16
312.777	31.36
313.244	26.16
313.71	27.06
314.176	25.46
314.642	25.06
315.109	28.96
315.575	33.96
316.041	32.16
316.507	30.16
316.973	29.96
317.439	29.46
317.905	27.96
318.371	31.96
318.837	30.86
319.303	31.06
319.769	26.76
320.235	31.56
320.701	30.76
321.167	35.26
321.633	34.66
322.099	34.76
322.564	43.66
323.03	33.76
323.496	36.76
323.962	36.46
324.427	28.56
324.893	38.56
325.359	29.76
325.824	30.06
326.29	29.96
326.755	28.56
327.221	33.66
327.686	31.96
328.152	29.46
328.617	30.06
329.083	44.06
329.548	43.16
330.014	42.46
330.479	33.86
330.944	38.96
331.41	33.36
331.875	34.06
332.34	38.36
332.805	37.56
333.271	40.16
333.736	38.86
334.201	49.86
334.666	53.96
335.131	45.86
335.596	44.56
336.061	45.66
336.526	32.16
336.991	39.76
337.456	49.26
337.921	46.86
338.386	36.46
338.851	35.36
339.316	45.56
339.781	37.96
340.246	42.76
340.711	41.66
341.175	42.96
341.64	33.86
342.105	45.06
342.569	45.06
343.034	45.86
343.499	49.06
343.963	46.56
344.428	57.76
344.893	61.16
345.357	56.06
345.822	53.06
346.286	61.96
346.751	62.76
347.215	61.76
347.679	68.06
348.144	80.66
348.608	72.66
349.073	57.96
349.537	64.46
350.001	74.16
350.465	76.36
350.93	74.66
351.394	73.76
351.858	65.26
352.322	80.66
352.786	74.46
353.25	94.16
353.715	99.06
354.179	80.76
354.643	105.76
355.107	115.16
355.571	95.06
356.035	91.76
356.498	106.96
356.962	109.36
357.426	115.76
357.89	107.26
358.354	79.76
358.818	75.66
359.281	69.96
359.745	71.16
360.209	68.86
360.673	69.76
361.136	78.36
361.6	79.86
362.064	77.86
362.527	79.26
362.991	83.26
363.454	70.06
363.918	69.46
364.381	64.96
364.845	72.86
365.308	78.76
365.772	75.66
366.235	82.96
366.698	80.76
367.162	85.06
367.625	75.56
368.088	78.46
368.552	78.56
369.015	81.46
369.478	98.56
369.941	91.86
370.404	86.16
370.867	97.96
371.331	93.26
371.794	111.86
372.257	105.26
372.72	110.96
373.183	99.56
373.646	103.96
374.109	92.86
374.572	99.16
375.035	93.56
375.497	100.06
375.96	100.86
376.423	99.16
376.886	105.76
377.349	100.96
377.811	96.16
378.274	96.06
378.737	95.06
379.199	99.16
379.662	108.06
380.125	112.96
380.587	113.06
381.05	110.06
381.512	117.26
381.975	125.46
382.437	124.46
382.9	120.96
383.362	126.66
383.825	129.06
384.287	136.66
384.75	127.86
385.212	125.96
385.674	127.76
386.136	130.26
386.599	116.56
387.061	114.06
387.523	122.76
387.985	130.86
388.447	133.56
388.91	126.26
389.372	151.26
389.834	144.86
390.296	138.56
390.758	142.76
391.22	160.26
391.682	200.16
392.144	284.16
392.606	209.16
393.068	164.26
393.529	160.06
393.991	139.36
394.453	133.26
394.915	140.36
395.377	186.66
395.838	203.86
396.3	148.96
396.762	127.46
397.224	126.56
397.685	118.16
398.147	116.86
398.608	123.56
399.07	120.16
399.531	129.16
399.993	135.56
400.454	141.26
400.916	138.66
401.377	142.56
401.839	147.36
402.3	141.46
402.762	154.96
403.223	161.96
403.684	155.86
404.145	146.66
404.607	149.76
405.068	150.16
405.529	164.66
405.99	173.26
406.451	163.16
406.913	167.96
407.374	153.66
407.835	155.16
408.296	159.86
408.757	169.26
409.218	168.66
409.679	175.36
410.14	157.46
410.601	165.96
411.062	172.26
411.522	187.06
411.983	179.86
412.444	163.56
412.905	167.76
413.366	162.86
413.826	180.46
414.287	204.96
414.748	249.56
415.208	236.26
415.669	199.76
416.13	196.46
416.59	188.36
417.051	194.96
417.511	209.96
417.972	224.46
418.432	239.86
418.893	282.66
419.353	236.66
419.814	184.46
420.274	171.46
420.734	174.46
421.195	192.66
421.655	187.26
422.115	185.16
422.576	185.86
423.036	186.16
423.496	201.96
423.956	207.86
424.416	223.86
424.876	244.26
425.336	246.76
425.797	241.56
426.257	244.46
426.717	218.76
427.177	215.86
427.637	206.76
428.097	216.76
428.556	235.66
429.016	257.16
429.476	257.06
429.936	265.06
430.396	270.76
430.856	274.46
431.315	307.36
431.775	336.56
432.235	359.26
432.694	335.26
433.154	345.26
433.614	378.76
434.073	318.46
434.533	275.26
434.993	255.66
435.452	272.46
435.912	285.26
436.371	273.16
436.83	273.56
437.29	253.56
437.749	234.26
438.209	237.26
438.668	267.26
439.127	274.66
439.587	247.66
440.046	236.96
440.505	249.26
440.964	262.86
441.424	302.26
441.883	298.56
442.342	242.86
442.801	210.26
443.26	212.56
443.719	217.96
444.178	207.26
444.637	196.56
445.096	209.56
445.555	211.86
446.014	213.56
446.473	218.06
446.932	224.16
447.391	218.46
447.849	220.86
448.308	209.26
448.767	213.16
449.226	225.26
449.685	226.66
450.143	234.26
450.602	231.96
451.061	217.76
451.519	218.46
451.978	220.56
452.436	228.16
452.895	226.16
453.353	247.46
453.812	235.16
454.27	228.66
454.729	223.96
455.187	234.66
455.646	237.36
456.104	243.56
456.562	243.56
457.021	262.86
457.479	251.96
457.937	255.76
458.395	253.66
458.854	234.26
459.312	240.56
459.77	255.16
460.228	244.76
460.686	227.66
461.144	231.36
461.602	232.46
462.06	234.26
462.518	246.56
462.976	233.36
463.434	246.86
463.892	251.46
464.35	272.66
464.808	277.06
465.266	254.56
465.724	259.46
466.181	257.56
466.639	262.96
467.097	273.26
467.555	287.06
468.012	287.06
468.47	292.46
468.928	319.86
469.385	324.46
469.843	333.96
470.3	335.66
470.758	348.06
471.215	369.86
471.673	388.56
472.13	390.56
472.588	400.36
473.045	362.06
473.503	363.16
473.96	374.16
474.417	392.06
474.875	418.66
475.332	463.96
475.789	450.26
476.246	448.26
476.704	471.76
477.161	490.76
477.618	500.46
478.075	544.66
478.532	588.46
478.989	662.36
479.446	779.16
479.903	744.86
480.36	774.46
480.817	828.96
481.274	927.46
481.731	1023.86
482.188	1108.66
482.645	1264.46
483.102	1344.16
483.558	1480.86
484.015	1541.06
484.472	1504.66
484.929	1470.96
485.385	1408.66
485.842	1379.26
486.299	1300.86
486.755	1239.96
487.212	1047.06
487.668	891.56
488.125	825.46
488.582	752.96
489.038	721.36
489.494	680.86
489.951	666.06
490.407	640.36
490.864	624.16
491.32	619.36
491.776	621.46
492.233	622.46
492.689	579.06
493.145	588.06
493.602	575.86
494.058	592.86
494.514	592.96
494.97	614.06
495.426	623.46
495.882	593.46
496.338	586.16
496.794	607.06
497.251	597.06
497.707	611.46
498.163	615.96
498.618	618.36
499.074	611.56
499.53	647.06
499.986	648.96
500.442	629.76
500.898	609.56
501.354	601.76
501.809	610.26
502.265	616.46
502.721	632.56
503.177	654.36
503.632	648.06
504.088	650.36
504.543	689.66
504.999	672.36
505.455	630.66
505.91	609.06
506.366	610.26
506.821	597.76
507.277	601.16
507.732	600.26
508.187	607.76
508.643	604.56
509.098	607.16
509.553	629.36
510.009	643.76
510.464	648.66
510.919	663.56
511.375	666.56
511.83	681.56
512.285	702.86
512.74	736.96
513.195	751.86
513.65	742.56
514.105	734.36
514.56	741.46
515.015	764.56
515.47	779.96
515.925	766.26
516.38	769.36
516.835	772.26
517.29	758.26
517.745	751.76
518.2	736.16
518.655	722.76
519.109	712.56
519.564	718.76
520.019	704.76
520.474	710.66
520.928	700.16
521.383	697.76
521.838	697.96
522.292	682.86
522.747	690.56
523.201	677.86
523.656	667.46
524.11	673.66
524.565	681.56
525.019	669.46
525.474	680.76
525.928	677.16
526.382	674.06
526.837	676.36
527.291	674.16
527.745	674.86
528.2	672.76
528.654	669.06
529.108	656.16
529.562	665.76
530.016	656.36
530.47	665.56
530.925	677.36
531.379	673.06
531.833	684.76
532.287	680.26
532.741	685.56
533.195	680.46
533.649	683.66
534.103	698.26
534.556	684.96
535.01	685.86
535.464	674.66
535.918	689.86
536.372	699.36
536.826	703.66
537.279	679.36
537.733	690.46
538.187	703.16
538.64	683.86
539.094	698.46
539.548	703.46
540.001	701.86
540.455	701.16
540.908	706.26
541.362	713.26
541.815	728.56
542.269	738.06
542.722	735.56
543.175	744.96
543.629	739.86
544.082	761.16
544.536	759.96
544.989	755.96
545.442	764.56
545.895	760.86
546.349	758.06
546.802	773.46
547.255	779.16
547.708	792.16
548.161	799.66
548.614	791.16
549.067	804.56
549.52	798.76
549.973	787.26
550.426	781.66
550.879	767.66
551.332	778.06
551.785	772.56
552.238	781.06
552.691	790.46
553.144	807.76
553.596	817.56
554.049	831.86
554.502	866.96
554.955	880.16
555.407	877.76
555.86	876.96
556.313	862.46
556.765	854.66
557.218	864.36
557.67	861.36
558.123	847.46
558.576	851.36
559.028	852.36
559.48	859.26
559.933	842.36
560.385	806.66
560.838	784.76
561.29	770.06
561.742	766.16
562.195	745.06
562.647	738.66
563.099	758.06
563.551	759.86
564.004	759.96
564.456	753.96
564.908	737.36
565.36	731.66
565.812	713.06
566.264	712.56
566.716	701.86
567.168	689.86
567.62	705.46
568.072	690.66
568.524	682.56
568.976	671.36
569.428	663.66
569.88	667.46
570.332	667.26
570.784	658.76
571.235	661.76
571.687	671.06
572.139	682.56
572.59	694.26
573.042	696.76
573.494	702.56
573.945	675.46
574.397	661.36
574.849	678.56
575.3	672.16
575.752	659.66
576.203	664.36
576.655	667.46
577.106	650.36
577.557	644.96
578.009	660.26
578.46	658.86
578.912	648.06
579.363	645.86
579.814	654.86
580.265	641.16
580.717	660.16
581.168	650.96
581.619	662.06
582.07	666.06
582.521	658.66
582.972	652.36
583.423	663.16
583.875	667.86
584.326	684.66
584.777	744.06
585.227	806.66
585.678	892.56
586.129	983.26
586.58	1063.26
587.031	1130.66
587.482	1282.06
587.933	1477.06
588.384	1286.76
588.834	945.46
589.285	789.56
589.736	766.86
590.186	749.06
590.637	746.46
591.088	719.46
591.538	721.66
591.989	712.56
592.439	704.36
592.89	700.76
593.34	692.76
593.791	698.36
594.241	686.86
594.692	699.36
595.142	686.26
595.593	671.76
596.043	685.96
596.493	703.16
596.943	698.26
597.394	712.96
597.844	697.76
598.294	713.26
598.744	730.06
599.195	755.66
599.645	799.86
600.095	847.36
600.545	891.76
600.995	949.16
601.445	1004.86
601.895	1064.96
602.345	1108.26
602.795	1088.76
603.245	1034.26
603.695	983.56
604.145	944.46
604.594	879.26
605.044	835.16
605.494	771.26
605.944	732.36
606.393	726.46
606.843	714.36
607.293	723.16
607.743	722.76
608.192	736.56
608.642	748.26
609.091	742.06
609.541	747.96
609.99	761.86
610.44	748.66
610.889	708.56
611.339	684.06
611.788	668.66
612.238	690.36
612.687	713.46
613.136	700.56
613.586	726.56
614.035	723.26
614.484	738.16
614.933	748.26
615.383	730.66
615.832	722.36
616.281	715.46
616.73	670.16
617.179	654.36
617.628	635.56
618.077	621.06
618.526	608.86
618.975	619.06
619.424	604.96
619.873	596.66
620.322	606.16
620.771	601.86
621.22	584.26
621.669	582.06
622.118	572.26
622.567	565.76
623.015	551.66
623.464	564.26
623.913	546.26
624.361	541.76
624.81	534.96
625.259	542.66
625.707	545.16
626.156	548.56
626.604	557.96
627.053	553.16
627.501	541.76
627.95	564.06
628.398	560.96
628.847	568.96
629.295	558.26
629.744	559.96
630.192	556.36
630.64	564.36
631.089	552.16
631.537	566.86
631.985	580.76
632.433	593.46
632.881	593.36
633.33	651.76
633.778	637.06
634.226	565.86
634.674	559.16
635.122	572.66
635.57	584.76
636.018	623.56
636.466	578.86
636.914	548.86
637.362	549.76
637.81	562.06
638.258	567.26
638.705	582.26
639.153	600.26
639.601	608.76
640.049	635.46
640.497	657.26
640.944	686.86
641.392	632.56
641.84	601.26
642.287	566.36
642.735	558.36
643.182	567.56
643.63	569.66
644.078	568.36
644.525	588.76
644.973	591.56
645.42	589.66
645.867	612.26
646.315	639.36
646.762	650.26
647.21	682.76
647.657	701.86
648.104	736.06
648.551	758.86
648.999	821.66
649.446	898.66
649.893	995.66
650.34	1141.66
650.787	1368.86
651.234	1715.56
651.682	2237.96
652.129	3069.26
652.576	4434.56
653.023	6549.76
653.47	8925.26
653.917	11114.06
654.363	12788.36
654.81	14072.76
655.257	13373.16
655.704	8752.96
656.151	5168.56
656.598	3354.86
657.044	2372.56
657.491	1830.16
657.938	1463.96
658.385	1223.86
658.831	1063.06
659.278	936.76
659.724	838.36
660.171	768.96
660.618	708.36
661.064	678.46
661.511	656.56
661.957	647.16
662.404	626.26
662.85	644.06
663.296	614.86
663.743	552.76
664.189	528.96
664.635	520.46
665.082	513.96
665.528	512.86
665.974	510.76
666.42	501.86
666.867	496.46
667.313	490.66
667.759	468.06
668.205	471.06
668.651	482.66
669.097	473.66
669.543	492.26
669.989	468.56
670.435	445.26
670.881	442.96
671.327	450.06
671.773	466.66
672.219	481.46
672.665	537.56
673.11	574.86
673.556	622.46
674.002	655.86
674.448	644.66
674.893	533.26
675.339	463.46
675.785	425.56
676.23	406.26
676.676	387.96
677.122	378.16
677.567	369.56
678.013	359.36
678.458	353.16
678.904	355.56
679.349	339.76
679.794	353.36
680.24	343.16
680.685	338.46
681.131	343.06
681.576	344.76
682.021	351.86
682.466	342.06
682.912	337.76
683.357	342.96
683.802	373.16
684.247	399.56
684.692	447.16
685.137	482.96
685.583	520.26
686.028	545.16
686.473	513.06
686.918	438.26
687.363	407.56
687.807	389.56
688.252	359.36
688.697	354.26
689.142	333.46
689.587	328.46
690.032	325.36
690.477	332.86
690.921	343.46
691.366	380.46
691.811	398.06
692.255	424.76
692.7	449.46
693.145	496.66
693.589	697.06
694.034	1125.26
694.478	1507.86
694.923	1691.36
695.367	2193.56
695.812	1170.56
696.256	488.56
696.701	370.76
697.145	343.96
697.59	326.96
698.034	319.26
698.478	318.46
698.922	329.16
699.367	329.96
699.811	337.86
700.255	357.76
700.699	388.16
701.143	429.36
701.588	475.06
702.032	508.56
702.476	503.76
702.92	484.36
703.364	484.16
703.808	637.36
704.252	1023.46
704.696	1424.96
705.14	1632.46
705.584	2075.46
706.027	1030.56
706.471	515.16
706.915	382.46
707.359	349.26
707.803	319.26
708.246	308.16
708.69	308.56
709.134	309.56
709.577	301.76
710.021	309.56
710.465	298.46
710.908	302.56
711.352	289.36
711.795	305.46
712.239	353.26
712.682	377.36
713.126	418.46
713.569	458.06
714.012	366.06
714.456	321.26
714.899	294.96
715.342	273.76
715.786	257.16
716.229	256.16
716.672	252.66
717.115	246.36
717.558	244.16
718.002	250.96
718.445	256.26
718.888	281.66
719.331	290.46
719.774	296.16
720.217	293.46
720.66	280.06
721.103	266.46
721.546	250.36
721.989	243.36
722.432	225.26
722.874	231.86
723.317	230.66
723.76	240.26
724.203	251.86
724.645	318.56
725.088	447.56
725.531	555.46
725.974	638.96
726.416	530.26
726.859	298.66
727.301	243.16
727.744	240.66
728.187	229.76
728.629	233.86
729.071	242.36
729.514	257.16
729.956	268.26
730.399	278.36
730.841	286.46
731.283	266.16
731.726	269.36
732.168	259.06
732.61	262.86
733.053	280.96
733.495	304.96
733.937	350.06
734.379	395.16
734.821	429.76
735.263	531.26
735.705	834.06
736.148	1570.66
736.59	2538.66
737.032	2956.66
737.474	2406.96
737.916	795.56
738.357	420.96
738.799	319.86
739.241	296.26
739.683	282.36
740.125	286.16
740.567	291.16
741.008	317.36
741.45	313.16
741.892	314.26
742.334	344.26
742.775	347.46
743.217	328.26
743.658	268.86
744.1	244.16
744.542	259.16
744.983	310.06
745.425	333.56
745.866	332.66
746.307	279.46
746.749	286.26
747.19	323.06
747.632	454.26
748.073	891.46
748.514	1853.66
748.956	2791.16
749.397	3517.66
749.838	2915.76
750.279	2867.16
750.72	1464.86
751.162	533.56
751.603	311.66
752.044	244.86
752.485	213.36
752.926	212.66
753.367	198.66
753.808	199.06
754.249	185.66
754.69	189.76
755.131	178.86
755.572	182.76
756.013	172.46
756.453	189.36
756.894	180.76
757.335	186.16
757.776	199.96
758.216	188.36
758.657	196.56
759.098	203.56
759.538	228.46
759.979	266.16
760.42	366.26
760.86	712.26
761.301	1835.46
761.741	4385.26
762.182	6217.16
762.622	4384.56
763.063	1279.56
