Data from 20171114-ORNL-Ar_H_NY_Subt18_08-07-43-992.txt Node
Date: Tue Nov 14 08:07:43 EST 2017
User: Ender
Spectrometer: HR+D1039
Trigger mode: 0
Integration Time (sec): 2.730000E-2
Scans to average: 10
Electric dark correction enabled: true
Nonlinearity correction enabled: false
Boxcar width: 0
XAxis mode: Wavelengths
Number of Pixels in Spectrum: 2048
>>>>>Begin Spectral Data<<<<<
187.836	-6.26
188.309	-6.26
188.782	-6.26
189.255	-0.06
189.728	-0.26
190.201	8.24
190.674	0.24
191.147	6.94
191.619	-6.96
192.092	2.84
192.565	4.44
193.038	1.84
193.511	-0.06
193.984	2.34
194.456	-4.56
194.929	-5.76
195.402	0.74
195.874	-3.66
196.347	2.84
196.82	-5.96
197.292	5.14
197.765	-3.66
198.237	-3.66
198.71	4.04
199.182	-3.86
199.655	6.74
200.127	1.64
200.6	-4.36
201.072	-3.96
201.544	1.04
202.017	1.54
202.489	4.84
202.961	0.54
203.433	-1.46
203.906	-6.56
204.378	-0.46
204.85	2.14
205.322	-6.86
205.794	1.04
206.266	-7.06
206.739	-9.86
207.211	1.34
207.683	-5.56
208.155	-1.96
208.627	-5.16
209.099	1.54
209.57	-9.56
210.042	-4.46
210.514	-0.86
210.986	1.14
211.458	-6.86
211.93	-3.46
212.402	1.44
212.873	-6.46
213.345	-9.86
213.817	-14.36
214.288	-2.26
214.76	-9.06
215.232	-1.26
215.703	-0.16
216.175	-0.66
216.646	-2.06
217.118	-6.86
217.589	-4.26
218.061	-0.06
218.532	-3.96
219.004	-2.36
219.475	-2.46
219.946	2.64
220.418	-5.96
220.889	2.14
221.36	-3.66
221.832	0.14
222.303	-2.66
222.774	4.94
223.245	-11.06
223.717	-5.46
224.188	-3.86
224.659	-8.36
225.13	-5.36
225.601	-2.26
226.072	-0.56
226.543	-1.46
227.014	2.74
227.485	-3.16
227.956	-5.56
228.427	1.74
228.898	0.44
229.369	3.24
229.839	-6.26
230.31	-3.46
230.781	0.34
231.252	-3.96
231.722	-6.86
232.193	-2.26
232.664	2.24
233.135	6.04
233.605	2.84
234.076	-6.36
234.546	6.14
235.017	-0.06
235.487	4.94
235.958	1.44
236.428	-2.16
236.899	3.24
237.369	2.74
237.84	-4.46
238.31	3.14
238.78	1.94
239.251	0.04
239.721	-4.16
240.191	1.94
240.662	7.04
241.132	-1.86
241.602	0.44
242.072	0.14
242.542	5.14
243.013	2.84
243.483	2.24
243.953	1.24
244.423	-1.86
244.893	-3.76
245.363	1.34
245.833	-0.96
246.303	2.04
246.773	9.34
247.243	3.24
247.712	10.54
248.182	11.04
248.652	0.34
249.122	-5.76
249.592	11.84
250.061	18.34
250.531	30.04
251.001	14.24
251.471	26.14
251.94	19.54
252.41	6.74
252.879	-0.36
253.349	13.84
253.818	6.04
254.288	5.34
254.757	4.14
255.227	2.64
255.696	9.84
256.166	2.94
256.635	14.34
257.105	4.34
257.574	4.44
258.043	6.84
258.513	11.14
258.982	17.54
259.451	9.34
259.92	14.94
260.389	9.04
260.859	20.24
261.328	9.74
261.797	18.94
262.266	9.74
262.735	9.34
263.204	6.34
263.673	-0.76
264.142	2.84
264.611	-8.66
265.08	-0.46
265.549	1.84
266.018	4.44
266.487	-0.06
266.955	2.64
267.424	7.14
267.893	7.84
268.362	-3.06
268.83	5.64
269.299	15.64
269.768	8.04
270.236	7.04
270.705	0.44
271.174	9.24
271.642	7.64
272.111	6.24
272.579	13.34
273.048	17.34
273.516	23.74
273.985	19.54
274.453	23.94
274.922	13.14
275.39	16.94
275.858	1.34
276.327	10.14
276.795	16.44
277.263	9.54
277.731	31.74
278.2	42.04
278.668	46.44
279.136	40.74
279.604	17.44
280.072	16.44
280.54	11.94
281.008	11.54
281.477	10.54
281.945	11.74
282.413	16.34
282.881	14.04
283.348	7.34
283.816	14.14
284.284	11.44
284.752	12.24
285.22	10.44
285.688	16.04
286.156	14.74
286.623	43.44
287.091	48.14
287.559	24.34
288.026	20.24
288.494	13.84
288.962	4.64
289.429	10.84
289.897	18.34
290.364	17.24
290.832	12.14
291.3	14.04
291.767	9.04
292.234	20.14
292.702	15.24
293.169	15.44
293.637	18.84
294.104	16.14
294.571	5.04
295.039	11.84
295.506	14.94
295.973	19.84
296.44	17.94
296.908	20.44
297.375	16.44
297.842	17.64
298.309	17.44
298.776	17.24
299.243	18.64
299.71	16.44
300.177	25.04
300.644	23.24
301.111	16.94
301.578	17.34
302.045	12.74
302.512	20.54
302.979	24.24
303.446	20.44
303.913	16.64
304.379	16.64
304.846	25.84
305.313	19.94
305.78	15.44
306.246	24.54
306.713	23.84
307.18	24.24
307.646	22.04
308.113	25.44
308.579	20.14
309.046	24.64
309.512	18.54
309.979	13.64
310.445	26.14
310.912	34.84
311.378	32.24
311.845	21.94
312.311	32.54
312.777	34.34
313.244	28.74
313.71	37.04
314.176	24.84
314.642	25.94
315.109	28.84
315.575	32.44
316.041	32.24
316.507	31.74
316.973	35.34
317.439	30.94
317.905	27.74
318.371	31.24
318.837	34.44
319.303	26.94
319.769	31.44
320.235	30.24
320.701	32.14
321.167	26.74
321.633	32.64
322.099	36.64
322.564	42.94
323.03	31.74
323.496	29.24
323.962	31.74
324.427	28.14
324.893	38.54
325.359	32.84
325.824	32.84
326.29	26.84
326.755	32.14
327.221	38.84
327.686	35.04
328.152	41.04
328.617	39.84
329.083	42.44
329.548	41.44
330.014	44.54
330.479	31.44
330.944	35.14
331.41	37.14
331.875	43.04
332.34	35.44
332.805	39.74
333.271	40.74
333.736	34.64
334.201	49.84
334.666	49.54
335.131	46.34
335.596	47.64
336.061	45.44
336.526	37.44
336.991	43.94
337.456	53.14
337.921	42.84
338.386	41.24
338.851	43.04
339.316	45.14
339.781	41.34
340.246	44.94
340.711	45.34
341.175	45.74
341.64	38.94
342.105	44.54
342.569	47.54
343.034	43.94
343.499	52.94
343.963	47.04
344.428	62.94
344.893	53.04
345.357	51.44
345.822	53.54
346.286	60.34
346.751	70.04
347.215	54.94
347.679	64.84
348.144	81.54
348.608	72.04
349.073	66.24
349.537	60.94
350.001	74.34
350.465	87.24
350.93	80.04
351.394	71.24
351.858	58.44
352.322	83.84
352.786	77.14
353.25	95.14
353.715	100.44
354.179	91.74
354.643	113.24
355.107	118.64
355.571	96.74
356.035	93.34
356.498	103.54
356.962	106.54
357.426	114.14
357.89	106.24
358.354	87.64
358.818	75.44
359.281	74.14
359.745	69.04
360.209	76.64
360.673	71.74
361.136	75.54
361.6	78.54
362.064	75.64
362.527	78.84
362.991	80.24
363.454	78.04
363.918	67.94
364.381	69.74
364.845	71.24
365.308	79.24
365.772	75.64
366.235	75.34
366.698	70.54
367.162	76.84
367.625	81.84
368.088	77.24
368.552	82.24
369.015	76.94
369.478	87.34
369.941	91.24
370.404	92.74
370.867	96.24
371.331	97.94
371.794	102.34
372.257	100.44
372.72	112.94
373.183	105.34
373.646	93.14
374.109	94.54
374.572	99.84
375.035	106.44
375.497	108.64
375.96	96.04
376.423	91.14
376.886	96.54
377.349	97.24
377.811	97.34
378.274	94.84
378.737	102.74
379.199	104.14
379.662	101.14
380.125	108.94
380.587	111.84
381.05	117.04
381.512	124.14
381.975	133.34
382.437	115.84
382.9	116.94
383.362	127.34
383.825	132.74
384.287	139.94
384.75	128.34
385.212	136.34
385.674	131.74
386.136	125.44
386.599	121.04
387.061	116.34
387.523	118.34
387.985	129.24
388.447	141.34
388.91	135.34
389.372	151.04
389.834	145.74
390.296	129.34
390.758	146.44
391.22	157.84
391.682	201.04
392.144	282.34
392.606	220.84
393.068	154.74
393.529	163.24
393.991	145.44
394.453	133.64
394.915	144.24
395.377	183.94
395.838	207.34
396.3	144.14
396.762	125.44
397.224	128.04
397.685	124.14
398.147	124.44
398.608	123.04
399.07	112.44
399.531	133.04
399.993	130.44
400.454	134.54
400.916	132.74
401.377	130.54
401.839	139.34
402.3	136.94
402.762	154.04
403.223	169.54
403.684	155.04
404.145	152.34
404.607	155.34
405.068	155.74
405.529	161.04
405.99	179.14
406.451	156.54
406.913	167.54
407.374	157.14
407.835	149.64
408.296	160.14
408.757	163.14
409.218	175.34
409.679	172.24
410.14	167.44
410.601	160.74
411.062	176.04
411.522	179.64
411.983	177.44
412.444	165.74
412.905	165.94
413.366	173.84
413.826	179.64
414.287	200.04
414.748	242.94
415.208	231.24
415.669	199.64
416.13	199.34
416.59	185.34
417.051	197.64
417.511	204.54
417.972	217.14
418.432	234.24
418.893	272.14
419.353	241.34
419.814	184.94
420.274	171.54
420.734	163.84
421.195	187.24
421.655	191.94
422.115	181.74
422.576	180.44
423.036	182.74
423.496	192.94
423.956	204.74
424.416	210.74
424.876	244.64
425.336	246.24
425.797	251.94
426.257	243.14
426.717	233.74
427.177	220.04
427.637	208.44
428.097	222.54
428.556	235.94
429.016	252.74
429.476	251.34
429.936	260.24
430.396	264.74
430.856	273.44
431.315	304.24
431.775	335.54
432.235	365.74
432.694	343.44
433.154	348.24
433.614	375.34
434.073	314.64
434.533	270.04
434.993	258.04
435.452	269.74
435.912	274.64
436.371	267.34
436.83	261.84
437.29	256.84
437.749	234.84
438.209	239.04
438.668	261.84
439.127	274.04
439.587	251.24
440.046	235.84
440.505	233.54
440.964	269.94
441.424	299.34
441.883	293.34
442.342	241.54
442.801	216.04
443.26	209.14
443.719	208.34
444.178	201.14
444.637	202.14
445.096	206.04
445.555	208.94
446.014	210.14
446.473	211.44
446.932	223.64
447.391	214.14
447.849	211.74
448.308	206.44
448.767	216.94
449.226	228.34
449.685	228.34
450.143	230.24
450.602	218.24
451.061	213.04
451.519	225.64
451.978	222.84
452.436	221.94
452.895	222.64
453.353	240.14
453.812	227.34
454.27	231.14
454.729	230.14
455.187	230.44
455.646	228.94
456.104	235.54
456.562	247.14
457.021	257.54
457.479	248.94
457.937	265.94
458.395	242.94
458.854	235.54
459.312	238.24
459.77	254.14
460.228	238.04
460.686	226.24
461.144	227.14
461.602	230.24
462.06	235.84
462.518	242.04
462.976	240.04
463.434	242.74
463.892	246.54
464.35	267.04
464.808	273.54
465.266	250.84
465.724	257.74
466.181	251.04
466.639	263.14
467.097	277.54
467.555	284.64
468.012	284.74
468.47	288.94
468.928	309.64
469.385	318.14
469.843	331.34
470.3	334.44
470.758	346.14
471.215	360.44
471.673	387.44
472.13	388.04
472.588	393.24
473.045	348.24
473.503	355.14
473.96	374.24
474.417	382.84
474.875	407.64
475.332	447.94
475.789	442.54
476.246	446.14
476.704	463.24
477.161	487.14
477.618	500.64
478.075	539.04
478.532	585.84
478.989	655.14
479.446	771.54
479.903	740.14
480.36	768.64
480.817	819.54
481.274	922.64
481.731	1025.64
482.188	1119.84
482.645	1255.64
483.102	1330.74
483.558	1470.24
484.015	1528.94
484.472	1509.04
484.929	1472.74
485.385	1410.64
485.842	1364.34
486.299	1309.44
486.755	1238.14
487.212	1046.84
487.668	874.94
488.125	810.14
488.582	742.14
489.038	712.04
489.494	682.34
489.951	654.34
490.407	632.74
490.864	610.74
491.32	614.54
491.776	611.04
492.233	604.64
492.689	586.54
493.145	575.34
493.602	566.94
494.058	576.44
494.514	584.34
494.97	609.24
495.426	624.34
495.882	594.64
496.338	588.14
496.794	592.44
497.251	581.14
497.707	603.64
498.163	604.34
498.618	616.34
499.074	623.44
499.53	648.44
499.986	639.14
500.442	624.94
500.898	594.14
501.354	599.14
501.809	612.94
502.265	614.44
502.721	637.24
503.177	639.94
503.632	628.64
504.088	653.34
504.543	676.14
504.999	667.34
505.455	627.34
505.91	598.54
506.366	600.14
506.821	596.44
507.277	590.64
507.732	595.24
508.187	585.74
508.643	599.24
509.098	602.04
509.553	622.74
510.009	644.64
510.464	634.24
510.919	647.64
511.375	660.44
511.83	674.14
512.285	685.24
512.74	724.34
513.195	747.94
513.65	739.54
514.105	735.44
514.56	742.24
515.015	756.34
515.47	769.74
515.925	754.34
516.38	746.84
516.835	756.24
517.29	748.24
517.745	738.24
518.2	722.94
518.655	707.74
519.109	707.04
519.564	707.64
520.019	702.04
520.474	688.74
520.928	687.24
521.383	682.44
521.838	676.94
522.292	683.34
522.747	680.94
523.201	664.74
523.656	667.14
524.11	662.94
524.565	656.64
525.019	660.84
525.474	666.74
525.928	672.84
526.382	657.94
526.837	658.44
527.291	668.44
527.745	665.94
528.2	666.74
528.654	653.44
529.108	655.64
529.562	655.34
530.016	668.14
530.47	662.64
530.925	664.84
531.379	660.24
531.833	675.84
532.287	675.64
532.741	676.64
533.195	662.94
533.649	677.34
534.103	692.24
534.556	680.44
535.01	678.94
535.464	674.94
535.918	690.34
536.372	689.54
536.826	685.04
537.279	679.74
537.733	679.44
538.187	683.74
538.64	689.14
539.094	691.94
539.548	696.04
540.001	691.94
540.455	698.04
540.908	695.04
541.362	702.34
541.815	713.94
542.269	724.64
542.722	718.64
543.175	735.34
543.629	732.24
544.082	760.14
544.536	754.24
544.989	754.34
545.442	756.24
545.895	760.04
546.349	766.74
546.802	751.84
547.255	762.04
547.708	766.94
548.161	785.74
548.614	791.34
549.067	800.44
549.52	791.24
549.973	771.24
550.426	772.54
550.879	761.04
551.332	772.94
551.785	765.64
552.238	776.64
552.691	795.54
553.144	796.14
553.596	806.34
554.049	820.74
554.502	861.34
554.955	876.44
555.407	879.44
555.86	861.34
556.313	845.14
556.765	844.34
557.218	842.94
557.67	855.44
558.123	832.94
558.576	837.94
559.028	830.94
559.48	841.84
559.933	823.14
560.385	803.44
560.838	772.54
561.29	754.04
561.742	750.34
562.195	740.04
562.647	735.54
563.099	742.54
563.551	747.14
564.004	752.84
564.456	745.04
564.908	731.64
565.36	722.34
565.812	707.14
566.264	688.94
566.716	704.34
567.168	689.54
567.62	699.74
568.072	682.04
568.524	672.74
568.976	664.64
569.428	660.94
569.88	656.84
570.332	661.24
570.784	654.64
571.235	648.94
571.687	670.14
572.139	674.44
572.59	689.44
573.042	678.44
573.494	676.34
573.945	677.34
574.397	660.24
574.849	670.54
575.3	662.24
575.752	657.64
576.203	646.64
576.655	660.04
577.106	648.14
577.557	643.24
578.009	645.04
578.46	634.54
578.912	633.44
579.363	647.04
579.814	647.04
580.265	636.64
580.717	646.84
581.168	652.54
581.619	650.94
582.07	658.64
582.521	644.14
582.972	652.54
583.423	654.34
583.875	660.84
584.326	674.54
584.777	728.44
585.227	801.04
585.678	894.44
586.129	983.74
586.58	1046.34
587.031	1145.74
587.482	1293.34
587.933	1475.34
588.384	1287.74
588.834	947.74
589.285	779.44
589.736	755.54
590.186	752.54
590.637	731.74
591.088	716.24
591.538	702.34
591.989	706.84
592.439	706.14
592.89	690.64
593.34	683.94
593.791	682.14
594.241	687.14
594.692	684.94
595.142	671.24
595.593	677.94
596.043	691.04
596.493	690.44
596.943	701.64
597.394	703.04
597.844	690.74
598.294	705.84
598.744	724.54
599.195	752.34
599.645	791.14
600.095	831.94
600.545	879.44
600.995	943.04
601.445	984.54
601.895	1046.94
602.345	1094.54
602.795	1069.64
603.245	1017.74
603.695	975.14
604.145	924.74
604.594	877.74
605.044	817.74
605.494	762.84
605.944	719.34
606.393	720.54
606.843	714.24
607.293	707.64
607.743	700.04
608.192	720.14
608.642	743.34
609.091	746.64
609.541	750.34
609.99	753.84
610.44	743.54
610.889	703.44
611.339	690.64
611.788	666.44
612.238	687.94
612.687	696.34
613.136	698.84
613.586	714.74
614.035	719.54
614.484	735.34
614.933	738.54
615.383	726.94
615.832	720.24
616.281	706.14
616.73	662.84
617.179	652.04
617.628	622.14
618.077	613.64
618.526	607.44
618.975	596.44
619.424	593.94
619.873	600.34
620.322	600.64
620.771	570.74
621.22	582.44
621.669	574.34
622.118	572.74
622.567	562.04
623.015	552.74
623.464	557.84
623.913	546.94
624.361	533.74
624.81	532.54
625.259	537.54
625.707	533.74
626.156	535.24
626.604	544.44
627.053	536.74
627.501	542.44
627.95	540.54
628.398	563.84
628.847	551.24
629.295	557.44
629.744	548.24
630.192	554.64
630.64	552.44
631.089	551.24
631.537	567.84
631.985	575.64
632.433	585.84
632.881	592.84
633.33	651.34
633.778	633.64
634.226	556.14
634.674	561.54
635.122	560.34
635.57	585.44
636.018	615.74
636.466	570.84
636.914	534.34
637.362	558.74
637.81	559.14
638.258	562.74
638.705	563.94
639.153	593.04
639.601	594.74
640.049	621.44
640.497	661.14
640.944	669.14
641.392	617.64
641.84	593.64
642.287	570.54
642.735	560.84
643.182	562.64
643.63	556.74
644.078	561.64
644.525	578.44
644.973	577.24
645.42	590.94
645.867	610.04
646.315	621.44
646.762	643.34
647.21	674.94
647.657	701.04
648.104	731.04
648.551	749.54
648.999	815.64
649.446	911.14
649.893	989.74
650.34	1139.64
650.787	1361.44
651.234	1713.44
651.682	2244.84
652.129	3075.54
652.576	4442.54
653.023	6564.54
653.47	8983.44
653.917	11193.54
654.363	12826.44
654.81	14175.14
655.257	13468.44
655.704	8785.44
656.151	5209.34
656.598	3346.44
657.044	2360.44
657.491	1821.74
657.938	1442.74
658.385	1222.04
658.831	1057.14
659.278	937.94
659.724	832.44
660.171	760.94
660.618	712.14
661.064	673.04
661.511	655.64
661.957	638.94
662.404	626.14
662.85	632.54
663.296	618.44
663.743	546.44
664.189	527.84
664.635	523.54
665.082	517.24
665.528	510.34
665.974	506.94
666.42	503.64
666.867	497.04
667.313	473.84
667.759	475.94
668.205	470.94
668.651	473.14
669.097	475.64
669.543	498.94
669.989	464.54
670.435	440.84
670.881	431.24
671.327	428.24
671.773	457.74
672.219	473.24
672.665	537.74
673.11	566.54
673.556	619.04
674.002	647.84
674.448	644.04
674.893	541.24
675.339	467.54
675.785	415.84
676.23	402.54
676.676	376.94
677.122	373.74
677.567	361.44
678.013	361.74
678.458	350.54
678.904	353.84
679.349	335.54
679.794	341.44
680.24	347.84
680.685	338.34
681.131	332.94
681.576	342.04
682.021	347.44
682.466	343.74
682.912	335.04
683.357	349.24
683.802	367.34
684.247	399.84
684.692	445.34
685.137	479.94
685.583	517.64
686.028	543.04
686.473	500.44
686.918	430.94
687.363	411.74
687.807	382.24
688.252	354.74
688.697	344.14
689.142	335.74
689.587	326.34
690.032	323.34
690.477	337.24
690.921	343.04
691.366	377.34
691.811	383.84
692.255	418.54
692.7	445.44
693.145	499.14
693.589	692.14
694.034	1107.64
694.478	1497.14
694.923	1664.74
695.367	2167.74
695.812	1145.44
696.256	484.74
696.701	353.24
697.145	338.34
697.59	327.64
698.034	315.84
698.478	319.44
698.922	314.04
699.367	323.54
699.811	329.34
700.255	351.64
700.699	378.44
701.143	411.94
701.588	470.94
702.032	504.44
702.476	499.44
702.92	479.84
703.364	483.64
703.808	621.44
704.252	1023.24
704.696	1419.24
705.14	1604.74
705.584	2059.04
706.027	1027.14
706.471	499.24
706.915	386.34
707.359	343.84
707.803	319.04
708.246	307.94
708.69	309.84
709.134	310.24
709.577	304.34
710.021	307.04
710.465	300.04
710.908	303.04
711.352	291.54
711.795	296.84
712.239	343.94
712.682	376.64
713.126	409.74
713.569	450.94
714.012	361.94
714.456	314.44
714.899	288.14
715.342	270.94
715.786	255.94
716.229	244.64
716.672	243.74
717.115	248.74
717.558	242.74
718.002	252.04
718.445	257.34
718.888	285.54
719.331	287.04
719.774	301.14
720.217	289.54
720.66	273.54
721.103	263.04
721.546	250.54
721.989	246.84
722.432	220.04
722.874	229.74
723.317	225.74
723.76	229.34
724.203	256.04
724.645	306.44
725.088	445.04
725.531	556.34
725.974	620.24
726.416	536.94
726.859	296.44
727.301	248.24
727.744	227.94
728.187	233.04
728.629	235.54
729.071	238.94
729.514	251.44
729.956	263.24
730.399	278.74
730.841	278.94
731.283	265.84
731.726	250.34
732.168	257.34
732.61	263.14
733.053	279.74
733.495	312.14
733.937	347.14
734.379	389.24
734.821	438.54
735.263	533.84
735.705	824.34
736.148	1554.24
736.59	2504.54
737.032	2917.94
737.474	2362.24
737.916	776.04
738.357	410.74
738.799	316.74
739.241	291.74
739.683	266.84
740.125	291.84
740.567	291.84
741.008	309.24
741.45	300.24
741.892	308.64
742.334	335.74
742.775	348.14
743.217	334.74
743.658	257.14
744.1	243.54
744.542	251.74
744.983	298.74
745.425	332.14
745.866	325.94
746.307	275.74
746.749	280.24
747.19	324.44
747.632	447.74
748.073	869.44
748.514	1830.64
748.956	2770.84
749.397	3477.94
749.838	2871.94
750.279	2830.14
750.72	1438.04
751.162	530.04
751.603	302.24
752.044	246.14
752.485	202.84
752.926	213.44
753.367	196.24
753.808	187.04
754.249	187.34
754.69	187.94
755.131	185.14
755.572	176.84
756.013	178.94
756.453	180.64
756.894	192.34
757.335	185.24
757.776	190.44
758.216	188.94
758.657	193.34
759.098	199.94
759.538	223.54
759.979	264.14
760.42	374.04
760.86	705.74
761.301	1812.24
761.741	4323.54
762.182	6134.74
762.622	4313.24
763.063	1263.54
