Data from 20171114-ORNL-Ar_H_NY_Subt18_08-05-01-298.txt Node
Date: Tue Nov 14 08:05:01 EST 2017
User: Ender
Spectrometer: HR+D1039
Trigger mode: 0
Integration Time (sec): 2.730000E-2
Scans to average: 10
Electric dark correction enabled: true
Nonlinearity correction enabled: false
Boxcar width: 0
XAxis mode: Wavelengths
Number of Pixels in Spectrum: 2048
>>>>>Begin Spectral Data<<<<<
187.836	-5.06
188.309	-5.06
188.782	-5.06
189.255	-5.96
189.728	1.64
190.201	8.34
190.674	5.94
191.147	0.64
191.619	-6.16
192.092	4.34
192.565	-1.46
193.038	-0.26
193.511	-2.46
193.984	-2.96
194.456	0.54
194.929	-1.46
195.402	2.24
195.874	2.04
196.347	1.54
196.82	-8.76
197.292	8.74
197.765	-7.06
198.237	-4.06
198.71	-0.46
199.182	-5.06
199.655	1.84
200.127	-0.86
200.6	-3.86
201.072	-3.16
201.544	-3.06
202.017	-0.56
202.489	-1.66
202.961	-4.26
203.433	-3.86
203.906	-7.96
204.378	-8.76
204.85	-5.66
205.322	-5.76
205.794	-0.16
206.266	-5.06
206.739	-5.46
207.211	0.44
207.683	-7.86
208.155	-3.16
208.627	-8.16
209.099	-2.16
209.57	-11.36
210.042	-1.66
210.514	-6.96
210.986	-2.66
211.458	-10.76
211.93	-0.56
212.402	-3.46
212.873	-4.26
213.345	-11.06
213.817	-12.86
214.288	-3.66
214.76	-16.06
215.232	1.24
215.703	-6.96
216.175	-5.26
216.646	-1.46
217.118	-9.26
217.589	-5.06
218.061	-0.36
218.532	-11.76
219.004	0.44
219.475	0.14
219.946	-5.06
220.418	-11.36
220.889	-0.26
221.36	-2.76
221.832	-5.36
222.303	-8.56
222.774	0.04
223.245	-8.66
223.717	-4.16
224.188	-4.56
224.659	-4.56
225.13	-6.76
225.601	-1.46
226.072	3.04
226.543	-6.76
227.014	2.94
227.485	-2.56
227.956	-8.06
228.427	-5.06
228.898	-0.36
229.369	-3.86
229.839	0.24
230.31	-7.36
230.781	-1.96
231.252	-1.86
231.722	-6.66
232.193	1.14
232.664	-1.66
233.135	0.44
233.605	2.54
234.076	-1.86
234.546	-1.96
235.017	1.54
235.487	4.74
235.958	0.24
236.428	-2.16
236.899	1.54
237.369	4.14
237.84	-2.06
238.31	4.24
238.78	2.54
239.251	-0.26
239.721	8.44
240.191	-3.56
240.662	-6.86
241.132	1.14
241.602	2.94
242.072	-6.06
242.542	4.14
243.013	-3.66
243.483	1.44
243.953	5.14
244.423	-1.56
244.893	-2.26
245.363	0.44
245.833	3.44
246.303	-1.96
246.773	7.14
247.243	-0.26
247.712	1.44
248.182	15.94
248.652	6.64
249.122	4.54
249.592	11.24
250.061	24.84
250.531	36.24
251.001	18.94
251.471	17.34
251.94	18.94
252.41	5.74
252.879	7.24
253.349	14.74
253.818	6.04
254.288	-0.56
254.757	8.04
255.227	-1.96
255.696	5.14
256.166	8.84
256.635	7.64
257.105	5.44
257.574	8.34
258.043	4.34
258.513	12.24
258.982	13.84
259.451	14.24
259.92	17.14
260.389	9.64
260.859	16.84
261.328	10.04
261.797	21.44
262.266	12.74
262.735	16.04
263.204	15.14
263.673	5.64
264.142	3.54
264.611	-0.76
265.08	3.64
265.549	0.44
266.018	6.14
266.487	-1.36
266.955	0.34
267.424	2.34
267.893	5.14
268.362	1.84
268.83	5.64
269.299	15.74
269.768	7.74
270.236	6.14
270.705	1.94
271.174	12.24
271.642	11.14
272.111	9.64
272.579	14.84
273.048	25.24
273.516	23.74
273.985	30.84
274.453	26.44
274.922	21.24
275.39	9.34
275.858	2.94
276.327	11.14
276.795	18.54
277.263	15.04
277.731	33.34
278.2	58.84
278.668	60.24
279.136	46.94
279.604	26.04
280.072	13.04
280.54	19.14
281.008	13.54
281.477	17.74
281.945	5.64
282.413	16.84
282.881	15.34
283.348	10.24
283.816	14.84
284.284	14.24
284.752	22.44
285.22	18.44
285.688	20.84
286.156	20.94
286.623	49.94
287.091	53.64
287.559	28.94
288.026	20.64
288.494	14.94
288.962	6.04
289.429	11.44
289.897	19.24
290.364	14.64
290.832	19.64
291.3	17.04
291.767	22.84
292.234	23.44
292.702	14.34
293.169	22.04
293.637	22.94
294.104	28.94
294.571	14.84
295.039	13.74
295.506	12.34
295.973	17.84
296.44	16.44
296.908	18.24
297.375	15.74
297.842	17.64
298.309	19.34
298.776	12.34
299.243	24.14
299.71	15.04
300.177	21.84
300.644	22.44
301.111	22.54
301.578	27.64
302.045	13.04
302.512	22.44
302.979	22.94
303.446	19.54
303.913	24.74
304.379	22.44
304.846	22.94
305.313	23.34
305.78	21.14
306.246	30.14
306.713	28.84
307.18	18.64
307.646	29.74
308.113	26.14
308.579	24.24
309.046	32.54
309.512	31.04
309.979	26.14
310.445	28.54
310.912	31.14
311.378	30.64
311.845	30.74
312.311	26.64
312.777	36.24
313.244	27.24
313.71	37.74
314.176	28.94
314.642	32.04
315.109	29.94
315.575	35.74
316.041	42.44
316.507	37.14
316.973	43.54
317.439	37.04
317.905	41.84
318.371	36.54
318.837	37.14
319.303	39.94
319.769	34.14
320.235	38.94
320.701	32.74
321.167	35.94
321.633	34.84
322.099	40.64
322.564	46.94
323.03	35.54
323.496	38.44
323.962	42.44
324.427	42.44
324.893	45.84
325.359	40.04
325.824	38.94
326.29	45.24
326.755	39.54
327.221	42.84
327.686	45.34
328.152	44.24
328.617	48.94
329.083	56.34
329.548	56.64
330.014	53.94
330.479	38.84
330.944	47.04
331.41	43.54
331.875	51.14
332.34	44.74
332.805	44.74
333.271	48.04
333.736	45.84
334.201	49.94
334.666	53.84
335.131	51.84
335.596	56.44
336.061	46.04
336.526	40.24
336.991	53.44
337.456	59.24
337.921	51.14
338.386	48.14
338.851	47.64
339.316	43.04
339.781	47.74
340.246	49.64
340.711	41.74
341.175	47.64
341.64	41.04
342.105	51.34
342.569	57.34
343.034	56.94
343.499	63.44
343.963	56.14
344.428	67.14
344.893	60.44
345.357	67.14
345.822	68.24
346.286	66.24
346.751	70.54
347.215	68.34
347.679	76.74
348.144	94.94
348.608	86.64
349.073	74.04
349.537	81.14
350.001	84.44
350.465	94.94
350.93	84.14
351.394	80.34
351.858	69.34
352.322	86.04
352.786	81.24
353.25	99.64
353.715	112.94
354.179	98.94
354.643	118.24
355.107	124.44
355.571	104.74
356.035	105.04
356.498	116.54
356.962	124.64
357.426	131.64
357.89	119.34
358.354	91.84
358.818	86.14
359.281	73.74
359.745	78.04
360.209	79.84
360.673	74.34
361.136	80.44
361.6	83.14
362.064	85.94
362.527	81.84
362.991	92.74
363.454	79.24
363.918	82.14
364.381	78.84
364.845	79.74
365.308	89.04
365.772	85.04
366.235	89.54
366.698	82.94
367.162	87.64
367.625	87.04
368.088	82.84
368.552	89.04
369.015	87.94
369.478	96.04
369.941	98.04
370.404	91.74
370.867	94.74
371.331	102.04
371.794	108.54
372.257	108.64
372.72	111.24
373.183	109.74
373.646	98.14
374.109	106.64
374.572	112.44
375.035	106.54
375.497	108.14
375.96	104.64
376.423	100.64
376.886	112.44
377.349	108.24
377.811	96.64
378.274	108.34
378.737	103.04
379.199	110.94
379.662	106.74
380.125	109.84
380.587	118.64
381.05	122.14
381.512	126.14
381.975	123.14
382.437	126.04
382.9	123.34
383.362	128.34
383.825	130.84
384.287	141.34
384.75	139.64
385.212	130.04
385.674	135.94
386.136	134.34
386.599	118.64
387.061	122.84
387.523	128.14
387.985	127.74
388.447	138.34
388.91	142.94
389.372	152.84
389.834	145.14
390.296	138.24
390.758	147.64
391.22	166.94
391.682	203.34
392.144	282.24
392.606	221.94
393.068	161.64
393.529	158.64
393.991	154.04
394.453	147.74
394.915	147.84
395.377	187.94
395.838	202.14
396.3	153.34
396.762	135.44
397.224	130.14
397.685	125.44
398.147	127.24
398.608	121.24
399.07	132.54
399.531	133.84
399.993	140.34
400.454	152.84
400.916	138.54
401.377	149.04
401.839	149.94
402.3	146.04
402.762	160.94
403.223	176.84
403.684	161.74
404.145	156.54
404.607	160.34
405.068	162.54
405.529	174.34
405.99	180.84
406.451	169.04
406.913	160.34
407.374	156.34
407.835	155.44
408.296	162.04
408.757	169.04
409.218	179.14
409.679	175.24
410.14	167.14
410.601	172.14
411.062	172.54
411.522	186.94
411.983	186.44
412.444	166.64
412.905	176.54
413.366	171.54
413.826	185.74
414.287	211.04
414.748	255.54
415.208	236.54
415.669	202.84
416.13	197.04
416.59	195.64
417.051	200.84
417.511	216.44
417.972	228.24
418.432	235.54
418.893	280.14
419.353	240.54
419.814	193.64
420.274	177.44
420.734	176.64
421.195	185.84
421.655	185.84
422.115	188.84
422.576	188.44
423.036	190.44
423.496	188.64
423.956	211.84
424.416	220.64
424.876	259.64
425.336	255.14
425.797	254.54
426.257	244.74
426.717	237.74
427.177	228.64
427.637	216.94
428.097	225.54
428.556	238.24
429.016	258.54
429.476	249.94
429.936	266.94
430.396	265.44
430.856	280.74
431.315	305.04
431.775	334.74
432.235	369.34
432.694	345.24
433.154	348.94
433.614	366.94
434.073	319.04
434.533	277.14
434.993	259.34
435.452	278.34
435.912	286.24
436.371	274.44
436.83	275.14
437.29	260.94
437.749	243.54
438.209	240.04
438.668	260.84
439.127	277.24
439.587	260.94
440.046	236.64
440.505	250.34
440.964	270.44
441.424	313.14
441.883	302.04
442.342	260.44
442.801	214.04
443.26	208.24
443.719	210.84
444.178	214.04
444.637	204.24
445.096	213.24
445.555	218.64
446.014	215.84
446.473	213.14
446.932	224.44
447.391	214.34
447.849	221.74
448.308	214.44
448.767	211.94
449.226	225.44
449.685	234.94
450.143	239.94
450.602	234.44
451.061	212.14
451.519	227.04
451.978	227.04
452.436	226.14
452.895	231.54
453.353	242.74
453.812	234.24
454.27	232.54
454.729	231.04
455.187	235.04
455.646	239.74
456.104	239.44
456.562	251.44
457.021	262.14
457.479	255.24
457.937	265.54
458.395	257.54
458.854	239.94
459.312	248.94
459.77	270.04
460.228	252.14
460.686	235.64
461.144	247.74
461.602	241.94
462.06	232.04
462.518	241.04
462.976	243.84
463.434	243.54
463.892	258.94
464.35	266.24
464.808	282.24
465.266	261.54
465.724	262.44
466.181	266.64
466.639	264.24
467.097	285.54
467.555	292.44
468.012	286.74
468.47	299.74
468.928	318.04
469.385	333.54
469.843	341.44
470.3	341.34
470.758	355.24
471.215	370.14
471.673	398.14
472.13	392.14
472.588	406.14
473.045	367.74
473.503	366.74
473.96	385.74
474.417	393.74
474.875	426.44
475.332	469.64
475.789	455.84
476.246	449.44
476.704	475.14
477.161	492.24
477.618	511.64
478.075	549.04
478.532	602.34
478.989	671.14
479.446	786.24
479.903	761.64
480.36	785.74
480.817	850.24
481.274	944.44
481.731	1057.34
482.188	1142.94
482.645	1274.54
483.102	1394.84
483.558	1500.34
484.015	1568.64
484.472	1535.34
484.929	1486.14
485.385	1443.94
485.842	1404.54
486.299	1335.54
486.755	1267.64
487.212	1065.44
487.668	889.84
488.125	826.24
488.582	764.14
489.038	734.04
489.494	686.94
489.951	674.14
490.407	665.44
490.864	640.44
491.32	641.84
491.776	632.94
492.233	627.34
492.689	592.34
493.145	585.14
493.602	574.54
494.058	603.44
494.514	604.14
494.97	633.24
495.426	637.44
495.882	614.74
496.338	606.54
496.794	612.54
497.251	612.34
497.707	625.14
498.163	625.74
498.618	641.44
499.074	628.44
499.53	665.74
499.986	673.44
500.442	639.64
500.898	627.84
501.354	607.84
501.809	620.54
502.265	623.04
502.721	650.14
503.177	651.94
503.632	649.34
504.088	669.14
504.543	693.14
504.999	696.24
505.455	642.14
505.91	620.74
506.366	625.94
506.821	617.64
507.277	608.44
507.732	613.24
508.187	605.54
508.643	619.84
509.098	626.84
509.553	640.24
510.009	651.94
510.464	655.14
510.919	670.74
511.375	679.04
511.83	695.54
512.285	705.04
512.74	745.54
513.195	769.24
513.65	758.34
514.105	757.24
514.56	755.54
515.015	778.74
515.47	797.34
515.925	781.74
516.38	785.94
516.835	785.64
517.29	768.74
517.745	771.84
518.2	744.64
518.655	740.94
519.109	722.94
519.564	722.74
520.019	718.54
520.474	718.44
520.928	712.94
521.383	704.74
521.838	703.24
522.292	700.74
522.747	699.14
523.201	694.64
523.656	676.54
524.11	674.44
524.565	671.44
525.019	668.84
525.474	684.44
525.928	687.84
526.382	682.74
526.837	679.54
527.291	689.24
527.745	689.14
528.2	682.94
528.654	685.64
529.108	682.14
529.562	671.34
530.016	666.94
530.47	674.84
530.925	687.94
531.379	680.74
531.833	694.94
532.287	680.14
532.741	693.64
533.195	696.94
533.649	695.84
534.103	703.74
534.556	691.64
535.01	696.04
535.464	685.94
535.918	698.94
536.372	707.04
536.826	705.94
537.279	686.64
537.733	695.24
538.187	701.74
538.64	697.14
539.094	705.64
539.548	717.04
540.001	708.04
540.455	697.24
540.908	703.04
541.362	719.24
541.815	726.14
542.269	736.24
542.722	733.64
543.175	748.94
543.629	753.64
544.082	768.64
544.536	766.64
544.989	760.44
545.442	770.54
545.895	776.34
546.349	760.34
546.802	763.84
547.255	770.64
547.708	783.64
548.161	797.14
548.614	798.64
549.067	806.44
549.52	790.24
549.973	788.34
550.426	778.24
550.879	772.84
551.332	778.54
551.785	786.84
552.238	773.84
552.691	797.34
553.144	799.84
553.596	817.64
554.049	840.64
554.502	862.94
554.955	891.04
555.407	891.84
555.86	885.24
556.313	865.14
556.765	858.94
557.218	856.84
557.67	866.34
558.123	848.34
558.576	849.54
559.028	863.74
559.48	855.34
559.933	840.24
560.385	810.84
560.838	777.54
561.29	758.34
561.742	752.64
562.195	738.04
562.647	737.54
563.099	747.14
563.551	736.04
564.004	755.04
564.456	744.04
564.908	742.94
565.36	722.54
565.812	712.04
566.264	694.14
566.716	703.94
567.168	691.04
567.62	700.24
568.072	680.44
568.524	665.74
568.976	668.24
569.428	646.34
569.88	643.54
570.332	651.84
570.784	655.24
571.235	659.64
571.687	672.74
572.139	684.14
572.59	684.34
573.042	689.94
573.494	681.94
573.945	675.44
574.397	659.04
574.849	667.54
575.3	667.44
575.752	658.44
576.203	646.44
576.655	656.14
577.106	648.44
577.557	645.44
578.009	636.54
578.46	639.14
578.912	631.54
579.363	639.44
579.814	642.74
580.265	634.54
580.717	643.64
581.168	649.94
581.619	656.34
582.07	654.04
582.521	656.54
582.972	638.24
583.423	644.84
583.875	647.94
584.326	670.74
584.777	707.54
585.227	781.54
585.678	857.74
586.129	944.04
586.58	1019.74
587.031	1075.24
587.482	1241.14
587.933	1403.44
588.384	1210.84
588.834	919.54
589.285	768.84
589.736	751.54
590.186	735.64
590.637	725.44
591.088	704.34
591.538	702.84
591.989	687.04
592.439	684.54
592.89	687.54
593.34	684.64
593.791	669.14
594.241	673.44
594.692	670.34
595.142	667.24
595.593	657.24
596.043	675.64
596.493	683.04
596.943	690.74
597.394	692.44
597.844	671.64
598.294	697.14
598.744	705.54
599.195	737.54
599.645	765.74
600.095	812.74
600.545	849.14
600.995	905.84
601.445	965.14
601.895	1032.24
602.345	1077.24
602.795	1058.54
603.245	1010.04
603.695	962.14
604.145	916.34
604.594	867.54
605.044	811.04
605.494	768.44
605.944	709.94
606.393	707.64
606.843	687.04
607.293	689.14
607.743	685.94
608.192	711.74
608.642	716.74
609.091	719.14
609.541	729.94
609.99	725.14
610.44	723.44
610.889	683.14
611.339	656.14
611.788	652.14
612.238	668.14
612.687	677.24
613.136	673.94
613.586	698.64
614.035	697.44
614.484	707.94
614.933	706.54
615.383	705.44
615.832	691.34
616.281	670.34
616.73	639.74
617.179	623.44
617.628	617.14
618.077	591.34
618.526	569.94
618.975	588.64
619.424	575.54
619.873	574.34
620.322	580.64
620.771	563.44
621.22	562.34
621.669	553.74
622.118	544.74
622.567	541.24
623.015	533.54
623.464	533.84
623.913	525.94
624.361	514.94
624.81	512.64
625.259	512.84
625.707	523.34
626.156	515.74
626.604	548.14
627.053	519.04
627.501	522.84
627.95	530.44
628.398	539.24
628.847	530.44
629.295	526.14
629.744	530.74
630.192	533.64
630.64	536.54
631.089	525.54
631.537	533.44
631.985	543.14
632.433	558.74
632.881	548.24
633.33	603.74
633.778	581.74
634.226	520.24
634.674	525.24
635.122	528.44
635.57	555.14
636.018	578.34
636.466	543.84
636.914	519.54
637.362	526.74
637.81	540.74
638.258	542.64
638.705	540.14
639.153	560.94
639.601	566.84
640.049	593.44
640.497	620.04
640.944	638.44
641.392	596.24
641.84	565.64
642.287	550.04
642.735	533.44
643.182	529.04
643.63	532.04
644.078	538.64
644.525	551.84
644.973	555.34
645.42	558.64
645.867	573.54
646.315	601.84
646.762	617.34
647.21	644.04
647.657	658.64
648.104	699.44
648.551	708.74
648.999	773.54
649.446	841.24
649.893	930.34
650.34	1079.54
650.787	1278.34
651.234	1574.34
651.682	2053.94
652.129	2793.34
652.576	4039.14
653.023	5937.84
653.47	8189.84
653.917	10312.84
654.363	12032.14
654.81	13450.54
655.257	12773.34
655.704	8325.44
656.151	4917.24
656.598	3198.14
657.044	2259.04
657.491	1748.64
657.938	1386.94
658.385	1151.94
658.831	1003.84
659.278	902.34
659.724	796.04
660.171	732.64
660.618	676.44
661.064	643.34
661.511	618.04
661.957	597.64
662.404	595.34
662.85	595.34
663.296	566.14
663.743	512.44
664.189	491.74
664.635	501.14
665.082	483.54
665.528	486.74
665.974	480.64
666.42	471.54
666.867	475.74
667.313	454.14
667.759	438.84
668.205	429.64
668.651	448.24
669.097	449.14
669.543	455.64
669.989	434.04
670.435	410.84
670.881	408.94
671.327	416.24
671.773	431.34
672.219	454.04
672.665	499.34
673.11	533.64
673.556	569.94
674.002	612.84
674.448	596.44
674.893	507.74
675.339	442.24
675.785	402.04
676.23	385.44
676.676	359.24
677.122	348.74
677.567	337.84
678.013	334.74
678.458	325.44
678.904	328.54
679.349	320.84
679.794	332.94
680.24	321.14
680.685	317.84
681.131	317.14
681.576	316.34
682.021	328.84
682.466	322.74
682.912	313.64
683.357	324.64
683.802	349.04
684.247	375.14
684.692	416.54
685.137	449.64
685.583	489.74
686.028	509.64
686.473	472.94
686.918	403.64
687.363	379.14
687.807	355.84
688.252	330.04
688.697	320.34
689.142	303.44
689.587	305.04
690.032	287.24
690.477	309.74
690.921	313.34
691.366	346.64
691.811	363.44
692.255	388.94
692.7	419.44
693.145	457.34
693.589	622.74
694.034	1017.54
694.478	1386.74
694.923	1588.14
695.367	2100.14
695.812	1089.74
696.256	454.64
696.701	335.84
697.145	308.64
697.59	303.24
698.034	296.54
698.478	301.84
698.922	304.54
699.367	297.24
699.811	302.24
700.255	316.54
700.699	351.44
701.143	377.34
701.588	434.04
702.032	468.24
702.476	461.24
702.92	449.44
703.364	445.04
703.808	566.34
704.252	913.74
704.696	1304.84
705.14	1540.24
705.584	1981.64
706.027	969.14
706.471	474.94
706.915	356.04
707.359	317.34
707.803	289.94
708.246	274.74
708.69	278.74
709.134	281.34
709.577	278.94
710.021	285.84
710.465	281.64
710.908	276.64
711.352	273.74
711.795	287.14
712.239	319.84
712.682	342.34
713.126	384.54
713.569	424.14
714.012	341.14
714.456	289.44
714.899	268.84
715.342	243.24
715.786	236.04
716.229	230.04
716.672	234.44
717.115	225.64
717.558	231.04
718.002	227.94
718.445	237.24
718.888	258.14
719.331	263.94
719.774	280.84
720.217	273.74
720.66	253.84
721.103	241.84
721.546	230.74
721.989	223.24
722.432	214.44
722.874	216.84
723.317	210.14
723.76	219.24
724.203	232.04
724.645	291.24
725.088	395.74
725.531	512.94
725.974	592.94
726.416	496.94
726.859	271.14
727.301	218.54
727.744	209.64
728.187	203.84
728.629	220.14
729.071	221.24
729.514	233.44
729.956	251.24
730.399	249.64
730.841	263.14
731.283	256.14
731.726	236.64
732.168	232.44
732.61	243.34
733.053	261.54
733.495	283.74
733.937	316.94
734.379	354.24
734.821	391.44
735.263	479.84
735.705	739.54
736.148	1390.44
736.59	2323.44
737.032	2832.44
737.474	2286.64
737.916	727.64
738.357	384.14
738.799	298.54
739.241	274.74
739.683	258.64
740.125	251.64
740.567	272.74
741.008	285.74
741.45	274.84
741.892	298.74
742.334	310.64
742.775	320.84
743.217	309.04
743.658	248.44
744.1	227.04
744.542	234.64
744.983	285.84
745.425	313.34
745.866	322.94
746.307	255.04
746.749	260.44
747.19	288.94
747.632	406.44
748.073	769.74
748.514	1637.24
748.956	2575.34
749.397	3236.84
749.838	2684.04
750.279	2741.44
750.72	1373.54
751.162	496.04
751.603	293.44
752.044	222.74
752.485	193.74
752.926	190.24
753.367	181.04
753.808	179.34
754.249	177.34
754.69	170.44
755.131	164.24
755.572	168.64
756.013	162.94
756.453	167.14
756.894	170.24
757.335	170.04
757.776	178.94
758.216	176.84
758.657	176.64
759.098	181.64
759.538	204.24
759.979	240.74
760.42	330.74
760.86	617.44
761.301	1579.64
761.741	3944.04
762.182	5980.04
