Data from 20171114-ORNL-Ar_H_NY_Subt18_08-05-34-055.txt Node
Date: Tue Nov 14 08:05:34 EST 2017
User: Ender
Spectrometer: HR+D1039
Trigger mode: 0
Integration Time (sec): 2.730000E-2
Scans to average: 10
Electric dark correction enabled: true
Nonlinearity correction enabled: false
Boxcar width: 0
XAxis mode: Wavelengths
Number of Pixels in Spectrum: 2048
>>>>>Begin Spectral Data<<<<<
187.836	-2.96
188.309	-2.96
188.782	-2.96
189.255	4.74
189.728	1.14
190.201	3.04
190.674	5.24
191.147	1.84
191.619	-6.16
192.092	1.74
192.565	3.64
193.038	3.14
193.511	-4.46
193.984	1.64
194.456	-4.76
194.929	-2.76
195.402	-5.36
195.874	0.24
196.347	-5.06
196.82	-9.76
197.292	2.04
197.765	-4.16
198.237	-8.36
198.71	-0.86
199.182	-0.26
199.655	-0.76
200.127	-0.36
200.6	0.94
201.072	-1.86
201.544	-7.26
202.017	-1.36
202.489	3.34
202.961	-1.66
203.433	-4.36
203.906	-9.76
204.378	-8.46
204.85	-5.36
205.322	-7.36
205.794	-2.46
206.266	-11.56
206.739	-6.06
207.211	0.34
207.683	-10.56
208.155	-4.06
208.627	-1.56
209.099	-8.06
209.57	-5.86
210.042	0.74
210.514	-5.46
210.986	-6.16
211.458	-6.06
211.93	-4.16
212.402	0.34
212.873	-7.66
213.345	-11.56
213.817	-10.76
214.288	-2.56
214.76	-6.66
215.232	0.54
215.703	-3.46
216.175	-7.76
216.646	-4.56
217.118	-6.96
217.589	-1.86
218.061	0.74
218.532	-2.16
219.004	3.04
219.475	-3.06
219.946	-8.66
220.418	-8.06
220.889	1.74
221.36	2.84
221.832	0.14
222.303	-6.96
222.774	-1.36
223.245	-4.96
223.717	-5.26
224.188	-10.56
224.659	-7.76
225.13	-10.96
225.601	-3.66
226.072	-1.86
226.543	-3.96
227.014	-1.86
227.485	-0.46
227.956	-6.66
228.427	-5.16
228.898	-1.46
229.369	5.64
229.839	-3.16
230.31	-8.66
230.781	-1.86
231.252	-0.36
231.722	-5.46
232.193	4.54
232.664	-3.06
233.135	-0.36
233.605	-0.66
234.076	-8.56
234.546	0.44
235.017	3.64
235.487	-4.46
235.958	-7.36
236.428	-0.16
236.899	5.84
237.369	7.84
237.84	-0.26
238.31	9.74
238.78	6.04
239.251	3.64
239.721	5.94
240.191	0.64
240.662	-4.66
241.132	2.34
241.602	-6.26
242.072	1.64
242.542	8.64
243.013	0.54
243.483	7.84
243.953	2.64
244.423	-5.16
244.893	-7.56
245.363	4.24
245.833	5.74
246.303	-2.56
246.773	8.84
247.243	2.84
247.712	0.74
248.182	6.14
248.652	6.94
249.122	-0.36
249.592	10.14
250.061	14.24
250.531	32.74
251.001	15.24
251.471	19.74
251.94	16.84
252.41	2.54
252.879	0.14
253.349	18.24
253.818	9.94
254.288	3.54
254.757	3.34
255.227	-1.36
255.696	-0.26
256.166	5.34
256.635	4.64
257.105	11.54
257.574	14.54
258.043	13.14
258.513	17.14
258.982	18.24
259.451	11.54
259.92	14.14
260.389	11.34
260.859	19.24
261.328	17.64
261.797	20.94
262.266	8.94
262.735	10.34
263.204	8.44
263.673	3.24
264.142	7.04
264.611	2.54
265.08	4.44
265.549	-0.66
266.018	8.54
266.487	-2.26
266.955	0.04
267.424	4.24
267.893	11.04
268.362	0.24
268.83	-0.16
269.299	12.74
269.768	9.44
270.236	10.94
270.705	1.24
271.174	6.84
271.642	9.74
272.111	8.24
272.579	14.74
273.048	25.94
273.516	27.84
273.985	28.34
274.453	25.54
274.922	16.14
275.39	15.14
275.858	7.44
276.327	10.34
276.795	13.84
277.263	13.14
277.731	29.94
278.2	60.94
278.668	71.04
279.136	53.54
279.604	22.54
280.072	11.84
280.54	14.94
281.008	15.84
281.477	17.34
281.945	9.24
282.413	12.84
282.881	12.84
283.348	13.64
283.816	14.34
284.284	14.04
284.752	24.14
285.22	13.74
285.688	18.74
286.156	14.34
286.623	48.24
287.091	54.14
287.559	31.44
288.026	17.74
288.494	13.34
288.962	8.74
289.429	11.34
289.897	20.04
290.364	15.14
290.832	17.04
291.3	20.04
291.767	19.04
292.234	21.44
292.702	16.84
293.169	21.14
293.637	25.14
294.104	18.24
294.571	13.64
295.039	16.14
295.506	14.44
295.973	21.14
296.44	16.24
296.908	14.64
297.375	17.34
297.842	20.94
298.309	18.04
298.776	16.14
299.243	20.54
299.71	13.14
300.177	19.64
300.644	24.14
301.111	19.84
301.578	27.24
302.045	19.34
302.512	23.34
302.979	31.14
303.446	25.34
303.913	23.44
304.379	21.94
304.846	30.34
305.313	25.54
305.78	25.74
306.246	29.94
306.713	29.24
307.18	27.14
307.646	28.34
308.113	37.24
308.579	22.54
309.046	25.34
309.512	28.64
309.979	22.44
310.445	29.04
310.912	36.34
311.378	26.04
311.845	29.04
312.311	31.14
312.777	28.04
313.244	30.64
313.71	37.44
314.176	30.84
314.642	34.14
315.109	35.44
315.575	38.84
316.041	36.64
316.507	33.34
316.973	48.14
317.439	33.84
317.905	41.24
318.371	28.24
318.837	32.94
319.303	36.54
319.769	38.54
320.235	36.54
320.701	34.64
321.167	43.24
321.633	34.24
322.099	42.04
322.564	46.24
323.03	43.54
323.496	39.64
323.962	43.14
324.427	36.24
324.893	43.24
325.359	39.74
325.824	39.64
326.29	38.04
326.755	44.24
327.221	44.54
327.686	39.14
328.152	48.54
328.617	46.84
329.083	46.84
329.548	53.64
330.014	45.84
330.479	38.84
330.944	41.24
331.41	42.64
331.875	41.84
332.34	49.04
332.805	54.24
333.271	41.64
333.736	45.14
334.201	55.44
334.666	55.14
335.131	56.14
335.596	57.24
336.061	58.84
336.526	43.34
336.991	48.44
337.456	55.34
337.921	53.44
338.386	46.04
338.851	46.14
339.316	50.14
339.781	54.14
340.246	52.94
340.711	43.94
341.175	55.74
341.64	48.84
342.105	55.54
342.569	59.24
343.034	63.14
343.499	55.44
343.963	56.84
344.428	68.74
344.893	56.44
345.357	66.44
345.822	68.14
346.286	74.54
346.751	69.44
347.215	67.34
347.679	79.64
348.144	96.94
348.608	81.84
349.073	70.34
349.537	67.94
350.001	76.14
350.465	99.54
350.93	76.54
351.394	79.14
351.858	73.54
352.322	91.84
352.786	83.44
353.25	103.24
353.715	112.64
354.179	103.64
354.643	128.44
355.107	133.74
355.571	115.34
356.035	103.04
356.498	118.24
356.962	123.24
357.426	134.04
357.89	119.44
358.354	93.24
358.818	80.34
359.281	78.14
359.745	82.54
360.209	78.34
360.673	81.54
361.136	71.54
361.6	89.74
362.064	90.44
362.527	84.44
362.991	85.44
363.454	82.34
363.918	79.64
364.381	79.44
364.845	84.34
365.308	83.04
365.772	86.04
366.235	81.24
366.698	78.24
367.162	85.14
367.625	87.24
368.088	85.24
368.552	87.74
369.015	96.04
369.478	100.84
369.941	103.24
370.404	100.54
370.867	102.64
371.331	104.34
371.794	115.74
372.257	112.04
372.72	119.34
373.183	112.94
373.646	105.64
374.109	108.04
374.572	107.24
375.035	105.84
375.497	113.04
375.96	109.64
376.423	106.14
376.886	113.24
377.349	109.74
377.811	100.84
378.274	106.44
378.737	103.74
379.199	107.84
379.662	109.04
380.125	119.04
380.587	112.04
381.05	124.24
381.512	130.44
381.975	131.54
382.437	132.44
382.9	124.04
383.362	129.14
383.825	140.64
384.287	148.54
384.75	138.44
385.212	134.24
385.674	142.64
386.136	141.14
386.599	130.24
387.061	127.14
387.523	131.64
387.985	131.34
388.447	151.14
388.91	144.44
389.372	156.94
389.834	148.74
390.296	149.84
390.758	153.44
391.22	170.04
391.682	210.64
392.144	294.04
392.606	226.34
393.068	168.34
393.529	170.04
393.991	158.04
394.453	144.04
394.915	153.44
395.377	187.74
395.838	215.34
396.3	158.94
396.762	143.04
397.224	134.14
397.685	133.64
398.147	129.84
398.608	123.74
399.07	134.04
399.531	138.64
399.993	140.44
400.454	152.84
400.916	143.34
401.377	148.34
401.839	154.14
402.3	147.04
402.762	162.74
403.223	179.04
403.684	174.04
404.145	160.44
404.607	165.34
405.068	168.24
405.529	169.64
405.99	186.54
406.451	169.84
406.913	173.74
407.374	163.84
407.835	162.84
408.296	166.34
408.757	175.34
409.218	183.84
409.679	181.64
410.14	179.24
410.601	175.44
411.062	185.54
411.522	190.84
411.983	184.94
412.444	178.54
412.905	176.34
413.366	174.94
413.826	191.54
414.287	214.44
414.748	258.84
415.208	242.44
415.669	212.54
416.13	206.44
416.59	200.74
417.051	214.24
417.511	217.34
417.972	233.44
418.432	243.74
418.893	287.44
419.353	246.64
419.814	202.24
420.274	176.74
420.734	178.94
421.195	195.54
421.655	196.94
422.115	199.54
422.576	197.54
423.036	200.44
423.496	206.84
423.956	215.04
424.416	234.14
424.876	267.34
425.336	259.54
425.797	262.44
426.257	254.04
426.717	240.14
427.177	234.04
427.637	225.44
428.097	231.54
428.556	235.04
429.016	266.24
429.476	259.34
429.936	271.14
430.396	270.04
430.856	288.54
431.315	311.24
431.775	349.24
432.235	381.74
432.694	348.64
433.154	365.84
433.614	390.14
434.073	337.04
434.533	280.54
434.993	274.84
435.452	281.14
435.912	291.54
436.371	298.64
436.83	282.54
437.29	268.54
437.749	250.94
438.209	250.94
438.668	270.54
439.127	291.74
439.587	265.44
440.046	246.74
440.505	261.54
440.964	275.14
441.424	327.44
441.883	305.84
442.342	261.64
442.801	226.04
443.26	219.64
443.719	225.64
444.178	220.24
444.637	207.04
445.096	221.64
445.555	219.14
446.014	218.14
446.473	226.64
446.932	233.74
447.391	233.74
447.849	231.64
448.308	223.04
448.767	224.34
449.226	230.84
449.685	235.64
450.143	247.84
450.602	241.94
451.061	231.44
451.519	231.14
451.978	228.04
452.436	237.24
452.895	240.34
453.353	248.14
453.812	236.44
454.27	235.04
454.729	233.54
455.187	237.54
455.646	251.24
456.104	242.34
456.562	256.74
457.021	266.04
457.479	265.34
457.937	273.94
458.395	269.14
458.854	252.64
459.312	254.04
459.77	275.94
460.228	247.44
460.686	240.94
461.144	243.54
461.602	243.74
462.06	248.04
462.518	244.94
462.976	252.24
463.434	260.34
463.892	263.64
464.35	287.44
464.808	300.94
465.266	262.94
465.724	271.54
466.181	277.44
466.639	271.54
467.097	287.64
467.555	303.74
468.012	304.84
468.47	312.84
468.928	326.34
469.385	345.84
469.843	359.04
470.3	351.24
470.758	367.64
471.215	388.74
471.673	409.64
472.13	403.64
472.588	423.64
473.045	372.54
473.503	371.44
473.96	398.84
474.417	403.64
474.875	431.64
475.332	473.74
475.789	463.94
476.246	471.84
476.704	483.14
477.161	504.04
477.618	525.34
478.075	564.24
478.532	621.94
478.989	692.64
479.446	809.04
479.903	770.54
480.36	814.24
480.817	862.64
481.274	970.24
481.731	1062.54
482.188	1164.94
482.645	1298.94
483.102	1417.44
483.558	1549.24
484.015	1590.24
484.472	1568.84
484.929	1508.64
485.385	1481.74
485.842	1436.34
486.299	1370.94
486.755	1303.74
487.212	1102.34
487.668	931.74
488.125	855.84
488.582	797.44
489.038	750.54
489.494	715.74
489.951	700.54
490.407	678.04
490.864	645.44
491.32	643.04
491.776	647.74
492.233	642.34
492.689	613.04
493.145	605.44
493.602	600.14
494.058	612.74
494.514	621.34
494.97	641.64
495.426	652.24
495.882	623.34
496.338	620.64
496.794	629.34
497.251	617.34
497.707	637.64
498.163	636.84
498.618	646.94
499.074	657.64
499.53	681.84
499.986	682.34
500.442	653.54
500.898	629.54
501.354	626.64
501.809	638.24
502.265	642.44
502.721	660.34
503.177	677.44
503.632	662.94
504.088	685.04
504.543	712.94
504.999	708.94
505.455	659.44
505.91	631.14
506.366	637.74
506.821	624.54
507.277	629.34
507.732	623.64
508.187	614.14
508.643	628.54
509.098	642.64
509.553	657.54
510.009	664.44
510.464	677.04
510.919	693.64
511.375	685.84
511.83	705.74
512.285	725.14
512.74	771.24
513.195	774.74
513.65	790.24
514.105	780.24
514.56	766.74
515.015	789.54
515.47	813.84
515.925	804.04
516.38	795.94
516.835	803.44
517.29	789.44
517.745	778.74
518.2	768.74
518.655	749.94
519.109	748.04
519.564	746.14
520.019	737.74
520.474	727.04
520.928	729.74
521.383	724.74
521.838	705.84
522.292	720.24
522.747	714.14
523.201	697.64
523.656	695.64
524.11	691.14
524.565	687.64
525.019	694.34
525.474	698.44
525.928	698.54
526.382	689.74
526.837	684.74
527.291	697.04
527.745	690.04
528.2	695.44
528.654	689.24
529.108	682.24
529.562	681.34
530.016	692.24
530.47	695.14
530.925	687.24
531.379	695.44
531.833	710.34
532.287	701.34
532.741	706.04
533.195	715.84
533.649	722.74
534.103	715.84
534.556	714.24
535.01	704.24
535.464	714.64
535.918	720.74
536.372	724.74
536.826	721.04
537.279	716.64
537.733	717.84
538.187	719.94
538.64	716.14
539.094	723.74
539.548	728.34
540.001	721.14
540.455	729.14
540.908	735.44
541.362	733.64
541.815	745.94
542.269	759.14
542.722	753.94
543.175	769.14
543.629	765.14
544.082	787.94
544.536	787.94
544.989	786.04
545.442	784.04
545.895	786.94
546.349	779.84
546.802	782.14
547.255	795.74
547.708	794.44
548.161	812.04
548.614	822.34
549.067	827.64
549.52	814.84
549.973	809.64
550.426	803.04
550.879	786.44
551.332	792.44
551.785	810.94
552.238	796.94
552.691	816.24
553.144	834.94
553.596	843.94
554.049	854.04
554.502	898.14
554.955	912.54
555.407	918.24
555.86	900.24
556.313	878.04
556.765	881.44
557.218	878.74
557.67	880.64
558.123	878.74
558.576	874.44
559.028	876.14
559.48	876.64
559.933	872.74
560.385	837.44
560.838	811.94
561.29	774.14
561.742	786.24
562.195	771.84
562.647	762.54
563.099	769.44
563.551	762.34
564.004	781.84
564.456	770.94
564.908	756.74
565.36	734.74
565.812	739.14
566.264	722.44
566.716	726.04
567.168	707.24
567.62	711.34
568.072	699.24
568.524	698.34
568.976	690.84
569.428	677.64
569.88	669.54
570.332	681.14
570.784	684.34
571.235	683.04
571.687	686.54
572.139	701.34
572.59	713.24
573.042	709.44
573.494	698.84
573.945	697.34
574.397	676.44
574.849	686.24
575.3	686.74
575.752	678.14
576.203	664.44
576.655	679.94
577.106	667.94
577.557	656.54
578.009	657.14
578.46	654.54
578.912	655.44
579.363	657.34
579.814	659.74
580.265	643.34
580.717	658.64
581.168	665.24
581.619	671.34
582.07	677.04
582.521	669.04
582.972	656.74
583.423	672.24
583.875	672.64
584.326	681.24
584.777	728.14
585.227	816.64
585.678	889.94
586.129	979.54
586.58	1043.04
587.031	1134.54
587.482	1270.94
587.933	1451.34
588.384	1263.94
588.834	954.94
589.285	792.94
589.736	769.64
590.186	763.44
590.637	749.64
591.088	728.04
591.538	727.74
591.989	715.04
592.439	726.34
592.89	712.44
593.34	696.44
593.791	697.44
594.241	689.94
594.692	690.34
595.142	682.44
595.593	695.84
596.043	702.14
596.493	703.34
596.943	709.44
597.394	706.94
597.844	706.54
598.294	718.34
598.744	734.44
599.195	766.14
599.645	802.14
600.095	838.14
600.545	889.34
600.995	953.54
601.445	1005.04
601.895	1061.04
602.345	1115.74
602.795	1095.64
603.245	1047.24
603.695	996.34
604.145	941.14
604.594	904.24
605.044	842.84
605.494	775.54
605.944	739.74
606.393	732.74
606.843	712.34
607.293	717.24
607.743	717.04
608.192	733.14
608.642	743.04
609.091	747.14
609.541	749.84
609.99	753.74
610.44	750.24
610.889	710.64
611.339	682.34
611.788	675.14
612.238	683.24
612.687	700.04
613.136	708.84
613.586	718.74
614.035	717.04
614.484	736.64
614.933	741.54
615.383	736.24
615.832	722.34
616.281	714.24
616.73	666.84
617.179	639.84
617.628	632.54
618.077	620.74
618.526	604.94
618.975	602.14
619.424	601.14
619.873	597.74
620.322	607.84
620.771	587.94
621.22	586.34
621.669	586.34
622.118	572.34
622.567	571.94
623.015	565.94
623.464	552.34
623.913	547.74
624.361	533.94
624.81	538.34
625.259	533.74
625.707	539.84
626.156	542.54
626.604	558.04
627.053	541.54
627.501	545.44
627.95	551.54
628.398	558.64
628.847	552.44
629.295	562.24
629.744	546.84
630.192	546.54
630.64	557.24
631.089	547.44
631.537	559.14
631.985	571.84
632.433	579.34
632.881	577.44
633.33	628.44
633.778	618.24
634.226	545.94
634.674	555.74
635.122	565.34
635.57	576.24
636.018	603.54
636.466	563.14
636.914	536.64
637.362	562.24
637.81	560.84
638.258	557.94
638.705	553.34
639.153	583.34
639.601	590.04
640.049	619.94
640.497	651.74
640.944	668.44
641.392	626.74
641.84	593.04
642.287	570.94
642.735	549.34
643.182	551.64
643.63	553.24
644.078	560.74
644.525	574.94
644.973	584.14
645.42	578.24
645.867	596.14
646.315	619.84
646.762	632.44
647.21	673.14
647.657	688.34
648.104	723.44
648.551	744.84
648.999	806.24
649.446	880.14
649.893	967.64
650.34	1111.44
650.787	1341.44
651.234	1664.24
651.682	2150.84
652.129	2967.04
652.576	4232.74
653.023	6275.34
653.47	8591.84
653.917	10806.54
654.363	12500.54
654.81	13932.94
655.257	13243.84
655.704	8653.94
656.151	5121.14
656.598	3321.64
657.044	2351.74
657.491	1801.64
657.938	1440.44
658.385	1194.84
658.831	1048.24
659.278	931.64
659.724	821.14
660.171	760.64
660.618	706.94
661.064	661.64
661.511	653.24
661.957	623.94
662.404	615.54
662.85	626.64
663.296	600.14
663.743	540.34
664.189	520.24
664.635	517.74
665.082	510.24
665.528	508.64
665.974	494.44
666.42	494.04
666.867	497.84
667.313	473.84
667.759	464.34
668.205	459.24
668.651	455.24
669.097	452.74
669.543	489.84
669.989	450.74
670.435	428.04
670.881	427.04
671.327	432.34
671.773	445.14
672.219	468.24
672.665	512.84
673.11	552.64
673.556	586.14
674.002	636.44
674.448	626.14
674.893	520.74
675.339	447.14
675.785	417.74
676.23	397.14
676.676	370.74
677.122	365.04
677.567	352.54
678.013	354.34
678.458	346.44
678.904	346.04
679.349	335.04
679.794	337.24
680.24	330.24
680.685	330.94
681.131	334.94
681.576	328.84
682.021	340.04
682.466	340.04
682.912	331.84
683.357	340.34
683.802	356.24
684.247	384.54
684.692	432.34
685.137	476.14
685.583	509.64
686.028	531.14
686.473	497.34
686.918	426.14
687.363	394.74
687.807	382.84
688.252	353.74
688.697	345.14
689.142	322.34
689.587	317.34
690.032	313.84
690.477	324.14
690.921	331.04
691.366	360.44
691.811	378.64
692.255	410.14
692.7	439.94
693.145	478.64
693.589	660.24
694.034	1055.24
694.478	1457.84
694.923	1662.04
695.367	2160.14
695.812	1148.34
696.256	472.64
696.701	351.54
697.145	325.04
697.59	321.04
698.034	304.24
698.478	320.24
698.922	310.44
699.367	315.34
699.811	322.24
700.255	335.04
700.699	369.14
701.143	399.14
701.588	454.94
702.032	489.34
702.476	490.94
702.92	457.74
703.364	466.94
703.808	592.04
704.252	966.54
704.696	1369.44
705.14	1599.24
705.584	2031.14
706.027	1008.34
706.471	499.74
706.915	375.84
707.359	331.94
707.803	303.74
708.246	296.14
708.69	300.04
709.134	293.94
709.577	296.54
710.021	304.44
710.465	292.54
710.908	282.24
711.352	286.64
711.795	292.34
712.239	335.54
712.682	367.04
713.126	403.34
713.569	443.04
714.012	347.24
714.456	310.24
714.899	279.44
715.342	271.34
715.786	239.84
716.229	236.94
716.672	243.24
717.115	242.64
717.558	241.14
718.002	233.44
718.445	249.14
718.888	273.24
719.331	276.44
719.774	294.54
720.217	287.34
720.66	270.64
721.103	253.64
721.546	238.84
721.989	229.24
722.432	225.74
722.874	230.64
723.317	219.94
723.76	225.24
724.203	242.64
724.645	301.34
725.088	415.54
725.531	538.64
725.974	615.44
726.416	523.44
726.859	281.54
727.301	242.94
727.744	227.94
728.187	223.84
728.629	224.64
729.071	229.74
729.514	242.64
729.956	257.24
730.399	270.64
730.841	276.54
731.283	255.54
731.726	248.04
732.168	239.74
732.61	254.94
733.053	273.04
733.495	296.94
733.937	332.44
734.379	376.44
734.821	412.54
735.263	507.04
735.705	780.64
736.148	1463.14
736.59	2412.04
737.032	2916.54
737.474	2372.44
737.916	763.04
738.357	406.84
738.799	312.24
739.241	281.74
739.683	265.84
740.125	271.24
740.567	282.64
741.008	296.34
741.45	298.94
741.892	292.44
742.334	327.54
742.775	346.54
743.217	326.14
743.658	256.54
744.1	240.84
744.542	249.04
744.983	293.94
745.425	330.84
745.866	326.24
746.307	271.64
746.749	268.24
747.19	301.94
747.632	418.54
748.073	804.04
748.514	1726.64
748.956	2672.64
749.397	3355.44
749.838	2773.14
750.279	2840.14
750.72	1425.14
751.162	526.64
751.603	307.94
752.044	239.34
752.485	201.04
752.926	200.84
753.367	189.04
753.808	181.14
754.249	178.54
754.69	177.74
755.131	177.74
755.572	174.14
756.013	172.14
756.453	173.44
756.894	185.04
757.335	183.64
757.776	188.54
758.216	187.94
758.657	184.74
759.098	188.14
759.538	212.04
759.979	253.94
760.42	345.34
760.86	648.34
761.301	1656.74
761.741	4129.64
762.182	6173.54
