Data from 20171114-ORNL-Ar_H_NY_Subt18_08-07-30-889.txt Node
Date: Tue Nov 14 08:07:30 EST 2017
User: Ender
Spectrometer: HR+D1039
Trigger mode: 0
Integration Time (sec): 2.730000E-2
Scans to average: 10
Electric dark correction enabled: true
Nonlinearity correction enabled: false
Boxcar width: 0
XAxis mode: Wavelengths
Number of Pixels in Spectrum: 2048
>>>>>Begin Spectral Data<<<<<
187.836	-6.36
188.309	-6.36
188.782	-6.36
189.255	-3.76
189.728	-5.96
190.201	7.44
190.674	7.34
191.147	5.04
191.619	-11.96
192.092	2.74
192.565	3.74
193.038	-2.96
193.511	3.74
193.984	2.74
194.456	-5.06
194.929	5.14
195.402	-1.06
195.874	-0.76
196.347	1.54
196.82	-6.16
197.292	3.94
197.765	2.44
198.237	-5.86
198.71	1.54
199.182	-1.66
199.655	5.34
200.127	1.34
200.6	-6.96
201.072	1.24
201.544	-3.86
202.017	-1.66
202.489	7.54
202.961	5.64
203.433	-1.86
203.906	-5.56
204.378	-8.26
204.85	-2.66
205.322	-9.26
205.794	-0.96
206.266	-2.56
206.739	-6.06
207.211	1.44
207.683	-13.86
208.155	-4.56
208.627	-7.26
209.099	-0.16
209.57	-6.86
210.042	-3.66
210.514	-1.16
210.986	-3.66
211.458	-7.56
211.93	-4.66
212.402	0.74
212.873	-4.26
213.345	-4.06
213.817	-11.56
214.288	-6.76
214.76	-8.86
215.232	-5.36
215.703	-0.66
216.175	-3.86
216.646	-3.06
217.118	-4.16
217.589	-2.66
218.061	-1.26
218.532	-6.16
219.004	1.14
219.475	-2.16
219.946	-2.66
220.418	-7.46
220.889	4.74
221.36	-0.76
221.832	-1.66
222.303	-6.76
222.774	0.74
223.245	-5.56
223.717	-4.86
224.188	-5.16
224.659	-11.26
225.13	-7.66
225.601	-2.96
226.072	2.94
226.543	0.54
227.014	-3.96
227.485	-0.56
227.956	-6.26
228.427	2.34
228.898	-0.86
229.369	4.84
229.839	-1.16
230.31	-3.16
230.781	-1.06
231.252	-2.46
231.722	-3.96
232.193	-2.16
232.664	0.84
233.135	2.74
233.605	0.44
234.076	-2.06
234.546	7.04
235.017	1.34
235.487	-2.36
235.958	-3.96
236.428	-5.66
236.899	-4.46
237.369	2.94
237.84	-0.86
238.31	2.64
238.78	2.94
239.251	-0.86
239.721	0.64
240.191	2.84
240.662	-5.96
241.132	0.54
241.602	1.34
242.072	2.44
242.542	2.24
243.013	1.84
243.483	4.04
243.953	0.74
244.423	-0.86
244.893	-2.46
245.363	2.24
245.833	-3.06
246.303	-0.76
246.773	7.64
247.243	11.84
247.712	0.04
248.182	9.44
248.652	-0.96
249.122	-3.66
249.592	7.44
250.061	13.74
250.531	26.84
251.001	5.54
251.471	16.74
251.94	13.74
252.41	3.24
252.879	-0.96
253.349	12.54
253.818	6.84
254.288	-0.66
254.757	1.44
255.227	-4.76
255.696	1.04
256.166	3.74
256.635	0.44
257.105	7.14
257.574	3.44
258.043	0.04
258.513	4.84
258.982	16.94
259.451	6.04
259.92	8.74
260.389	5.14
260.859	13.74
261.328	11.44
261.797	18.84
262.266	4.64
262.735	2.44
263.204	5.34
263.673	-2.86
264.142	3.74
264.611	-6.66
265.08	5.34
265.549	-0.96
266.018	4.84
266.487	-6.76
266.955	-3.46
267.424	1.64
267.893	4.34
268.362	0.24
268.83	-4.96
269.299	7.34
269.768	2.04
270.236	1.64
270.705	-7.26
271.174	5.84
271.642	2.64
272.111	2.34
272.579	11.34
273.048	11.14
273.516	20.24
273.985	14.44
274.453	18.34
274.922	19.04
275.39	7.44
275.858	-1.06
276.327	5.64
276.795	11.04
277.263	2.84
277.731	24.24
278.2	40.24
278.668	39.24
279.136	37.74
279.604	11.94
280.072	13.74
280.54	5.84
281.008	3.44
281.477	7.24
281.945	6.44
282.413	8.04
282.881	8.44
283.348	1.74
283.816	7.34
284.284	7.94
284.752	8.84
285.22	9.54
285.688	8.74
286.156	17.94
286.623	33.04
287.091	38.14
287.559	19.54
288.026	13.04
288.494	10.24
288.962	-0.76
289.429	3.74
289.897	10.84
290.364	9.84
290.832	8.74
291.3	9.24
291.767	10.24
292.234	11.24
292.702	12.44
293.169	11.04
293.637	18.84
294.104	13.54
294.571	8.84
295.039	5.04
295.506	6.84
295.973	9.74
296.44	5.44
296.908	15.74
297.375	9.74
297.842	12.94
298.309	11.84
298.776	11.44
299.243	15.24
299.71	8.94
300.177	11.84
300.644	16.64
301.111	10.54
301.578	11.24
302.045	13.14
302.512	14.64
302.979	18.64
303.446	14.94
303.913	9.54
304.379	11.94
304.846	16.44
305.313	17.14
305.78	17.04
306.246	26.44
306.713	21.14
307.18	12.14
307.646	15.24
308.113	21.64
308.579	12.14
309.046	16.54
309.512	18.94
309.979	11.74
310.445	28.74
310.912	24.14
311.378	27.84
311.845	19.04
312.311	27.24
312.777	23.34
313.244	22.54
313.71	23.24
314.176	19.34
314.642	21.54
315.109	17.64
315.575	27.54
316.041	27.84
316.507	22.24
316.973	27.34
317.439	22.04
317.905	28.34
318.371	22.74
318.837	24.64
319.303	20.24
319.769	26.64
320.235	24.44
320.701	28.64
321.167	24.44
321.633	29.54
322.099	24.54
322.564	31.84
323.03	31.84
323.496	30.74
323.962	31.94
324.427	24.64
324.893	28.54
325.359	23.94
325.824	27.94
326.29	26.14
326.755	31.94
327.221	30.74
327.686	31.64
328.152	41.44
328.617	33.94
329.083	37.84
329.548	35.24
330.014	37.74
330.479	27.54
330.944	36.34
331.41	30.14
331.875	35.14
332.34	31.84
332.805	32.74
333.271	36.64
333.736	35.04
334.201	42.24
334.666	40.94
335.131	41.44
335.596	36.94
336.061	39.34
336.526	32.74
336.991	37.04
337.456	51.34
337.921	38.34
338.386	36.34
338.851	36.34
339.316	34.94
339.781	43.44
340.246	42.64
340.711	35.54
341.175	41.14
341.64	30.14
342.105	42.74
342.569	48.24
343.034	46.04
343.499	44.64
343.963	44.74
344.428	46.54
344.893	47.54
345.357	51.74
345.822	54.24
346.286	54.64
346.751	58.64
347.215	49.24
347.679	55.84
348.144	78.94
348.608	61.24
349.073	61.14
349.537	53.54
350.001	63.54
350.465	60.14
350.93	59.34
351.394	65.14
351.858	57.24
352.322	69.14
352.786	60.14
353.25	83.44
353.715	83.94
354.179	82.44
354.643	99.74
355.107	99.94
355.571	82.54
356.035	80.44
356.498	88.74
356.962	92.94
357.426	99.14
357.89	95.64
358.354	72.84
358.818	68.54
359.281	62.24
359.745	68.24
360.209	54.44
360.673	60.94
361.136	65.84
361.6	64.94
362.064	64.84
362.527	67.44
362.991	76.44
363.454	69.04
363.918	60.14
364.381	68.74
364.845	67.84
365.308	73.24
365.772	79.64
366.235	68.24
366.698	65.34
367.162	65.44
367.625	74.64
368.088	79.04
368.552	75.64
369.015	77.04
369.478	87.54
369.941	82.04
370.404	75.74
370.867	87.94
371.331	88.44
371.794	97.34
372.257	97.64
372.72	102.44
373.183	94.74
373.646	94.44
374.109	87.94
374.572	96.54
375.035	94.14
375.497	98.94
375.96	94.84
376.423	87.94
376.886	96.94
377.349	98.34
377.811	87.64
378.274	84.04
378.737	98.44
379.199	100.74
379.662	89.14
380.125	104.14
380.587	97.34
381.05	106.64
381.512	112.04
381.975	119.94
382.437	108.94
382.9	113.64
383.362	118.04
383.825	121.14
384.287	128.64
384.75	128.04
385.212	121.14
385.674	121.74
386.136	122.44
386.599	110.44
387.061	118.04
387.523	115.04
387.985	117.14
388.447	133.84
388.91	127.54
389.372	145.64
389.834	136.84
390.296	128.64
390.758	132.94
391.22	146.34
391.682	187.24
392.144	266.84
392.606	207.34
393.068	142.94
393.529	145.24
393.991	131.44
394.453	130.04
394.915	144.74
395.377	169.34
395.838	184.44
396.3	132.64
396.762	128.94
397.224	116.74
397.685	116.24
398.147	112.64
398.608	111.44
399.07	107.34
399.531	123.04
399.993	125.44
400.454	133.34
400.916	131.34
401.377	129.74
401.839	129.94
402.3	130.24
402.762	148.04
403.223	151.74
403.684	154.34
404.145	137.84
404.607	137.44
405.068	150.14
405.529	155.64
405.99	159.14
406.451	156.44
406.913	158.54
407.374	152.44
407.835	137.74
408.296	146.34
408.757	151.14
409.218	168.64
409.679	160.04
410.14	161.74
410.601	162.84
411.062	168.14
411.522	178.34
411.983	181.24
412.444	160.44
412.905	161.24
413.366	168.34
413.826	175.84
414.287	191.74
414.748	228.94
415.208	219.44
415.669	186.44
416.13	181.64
416.59	178.24
417.051	192.44
417.511	195.84
417.972	211.54
418.432	227.04
418.893	256.94
419.353	224.04
419.814	177.84
420.274	164.64
420.734	162.04
421.195	184.24
421.655	186.34
422.115	177.14
422.576	174.64
423.036	172.84
423.496	188.84
423.956	194.94
424.416	208.14
424.876	238.94
425.336	232.84
425.797	235.44
426.257	232.94
426.717	209.84
427.177	204.04
427.637	209.04
428.097	216.74
428.556	223.94
429.016	245.34
429.476	238.94
429.936	261.94
430.396	255.94
430.856	269.04
431.315	286.44
431.775	319.84
432.235	345.84
432.694	313.74
433.154	327.74
433.614	358.64
434.073	312.94
434.533	253.14
434.993	245.04
435.452	255.64
435.912	269.34
436.371	265.04
436.83	258.54
437.29	246.74
437.749	226.54
438.209	221.24
438.668	252.64
439.127	268.44
439.587	243.24
440.046	226.34
440.505	236.44
440.964	248.94
441.424	292.04
441.883	280.54
442.342	238.94
442.801	203.04
443.26	198.24
443.719	202.84
444.178	199.74
444.637	192.54
445.096	200.64
445.555	204.54
446.014	205.54
446.473	210.74
446.932	212.84
447.391	212.94
447.849	210.44
448.308	201.14
448.767	207.04
449.226	217.94
449.685	213.74
450.143	227.74
450.602	215.64
451.061	213.74
451.519	215.84
451.978	211.64
452.436	212.94
452.895	215.44
453.353	231.34
453.812	217.24
454.27	218.94
454.729	219.64
455.187	218.64
455.646	226.24
456.104	223.74
456.562	241.44
457.021	240.04
457.479	242.64
457.937	250.04
458.395	235.54
458.854	234.14
459.312	242.64
459.77	247.34
460.228	237.64
460.686	224.04
461.144	233.64
461.602	229.64
462.06	227.24
462.518	239.24
462.976	228.74
463.434	238.34
463.892	239.34
464.35	258.64
464.808	273.24
465.266	257.44
465.724	248.34
466.181	249.34
466.639	247.14
467.097	265.34
467.555	275.24
468.012	279.54
468.47	294.14
468.928	304.94
469.385	313.34
469.843	326.54
470.3	312.54
470.758	337.04
471.215	357.34
471.673	375.84
472.13	370.34
472.588	392.24
473.045	352.94
473.503	344.04
473.96	365.34
474.417	361.64
474.875	402.74
475.332	447.64
475.789	435.54
476.246	430.34
476.704	448.74
477.161	476.84
477.618	478.84
478.075	517.94
478.532	578.04
478.989	646.14
479.446	747.94
479.903	727.24
480.36	756.44
480.817	810.84
481.274	911.34
481.731	1006.44
482.188	1087.54
482.645	1213.34
483.102	1314.94
483.558	1449.94
484.015	1484.44
484.472	1459.34
484.929	1413.34
485.385	1380.44
485.842	1331.74
486.299	1260.54
486.755	1206.34
487.212	1017.94
487.668	864.14
488.125	786.64
488.582	728.44
489.038	691.94
489.494	660.84
489.951	631.94
490.407	617.94
490.864	593.64
491.32	593.04
491.776	589.64
492.233	596.64
492.689	570.84
493.145	562.94
493.602	555.84
494.058	559.74
494.514	568.94
494.97	584.24
495.426	600.24
495.882	576.54
496.338	563.44
496.794	579.74
497.251	571.04
497.707	586.84
498.163	592.94
498.618	597.24
499.074	593.24
499.53	630.34
499.986	628.24
500.442	607.64
500.898	585.04
501.354	582.44
501.809	594.84
502.265	597.64
502.721	619.84
503.177	636.04
503.632	625.64
504.088	627.94
504.543	667.24
504.999	658.84
505.455	610.44
505.91	586.24
506.366	585.84
506.821	579.54
507.277	580.04
507.732	579.84
508.187	575.34
508.643	578.84
509.098	596.84
509.553	607.54
510.009	623.44
510.464	621.34
510.919	639.74
511.375	654.84
511.83	663.94
512.285	676.14
512.74	714.04
513.195	727.74
513.65	716.74
514.105	718.64
514.56	720.84
515.015	737.84
515.47	750.74
515.925	740.34
516.38	735.84
516.835	742.94
517.29	723.24
517.745	725.04
518.2	715.24
518.655	705.54
519.109	689.24
519.564	693.54
520.019	680.54
520.474	670.04
520.928	685.14
521.383	665.64
521.838	653.64
522.292	658.94
522.747	656.94
523.201	659.14
523.656	649.34
524.11	649.84
524.565	637.74
525.019	656.84
525.474	661.64
525.928	658.84
526.382	644.14
526.837	657.14
527.291	652.44
527.745	651.54
528.2	646.44
528.654	654.34
529.108	636.14
529.562	637.54
530.016	650.54
530.47	646.74
530.925	650.04
531.379	653.64
531.833	654.34
532.287	658.64
532.741	665.24
533.195	656.54
533.649	661.04
534.103	674.74
534.556	668.84
535.01	671.14
535.464	656.14
535.918	662.54
536.372	680.24
536.826	671.74
537.279	654.84
537.733	669.34
538.187	673.54
538.64	673.34
539.094	673.84
539.548	680.04
540.001	682.74
540.455	683.84
540.908	691.84
541.362	691.44
541.815	704.64
542.269	711.24
542.722	706.14
543.175	730.74
543.629	736.54
544.082	735.54
544.536	740.74
544.989	739.34
545.442	741.34
545.895	740.84
546.349	739.54
546.802	744.94
547.255	753.94
547.708	761.64
548.161	770.04
548.614	778.74
549.067	773.74
549.52	775.84
549.973	765.04
550.426	748.54
550.879	747.14
551.332	744.44
551.785	758.94
552.238	757.64
552.691	775.44
553.144	790.14
553.596	807.74
554.049	801.34
554.502	843.14
554.955	862.14
555.407	851.84
555.86	855.94
556.313	838.44
556.765	824.14
557.218	827.54
557.67	831.84
558.123	825.84
558.576	818.24
559.028	812.64
559.48	834.84
559.933	815.04
560.385	797.44
560.838	765.24
561.29	734.04
561.742	741.74
562.195	710.64
562.647	725.84
563.099	742.44
563.551	729.14
564.004	743.84
564.456	734.84
564.908	721.14
565.36	706.34
565.812	702.14
566.264	684.64
566.716	688.24
567.168	679.84
567.62	687.74
568.072	676.24
568.524	655.74
568.976	650.34
569.428	640.04
569.88	637.34
570.332	639.34
570.784	641.24
571.235	644.44
571.687	661.14
572.139	667.74
572.59	669.44
573.042	675.54
573.494	669.54
573.945	670.34
574.397	644.04
574.849	655.34
575.3	645.84
575.752	640.34
576.203	651.94
576.655	657.84
577.106	634.94
577.557	628.04
578.009	629.84
578.46	633.14
578.912	630.34
579.363	629.44
579.814	632.94
580.265	625.64
580.717	630.84
581.168	627.54
581.619	643.94
582.07	643.04
582.521	637.04
582.972	640.34
583.423	641.94
583.875	646.04
584.326	661.14
584.777	718.34
585.227	788.64
585.678	877.54
586.129	964.04
586.58	1030.64
587.031	1119.54
587.482	1274.64
587.933	1441.44
588.384	1252.24
588.834	940.64
589.285	767.24
589.736	743.54
590.186	739.64
590.637	734.64
591.088	704.34
591.538	696.64
591.989	699.74
592.439	693.54
592.89	679.34
593.34	671.24
593.791	678.14
594.241	671.24
594.692	666.24
595.142	672.24
595.593	663.74
596.043	673.24
596.493	679.84
596.943	678.24
597.394	675.94
597.844	678.04
598.294	702.04
598.744	710.34
599.195	734.34
599.645	779.04
600.095	822.54
600.545	876.64
600.995	924.54
601.445	973.64
601.895	1033.84
602.345	1080.84
602.795	1063.44
603.245	1013.74
603.695	961.54
604.145	903.14
604.594	860.84
605.044	816.14
605.494	755.84
605.944	716.24
606.393	712.74
606.843	692.54
607.293	705.04
607.743	698.74
608.192	701.34
608.642	723.74
609.091	733.44
609.541	735.84
609.99	739.94
610.44	740.94
610.889	695.24
611.339	663.24
611.788	652.14
612.238	673.24
612.687	693.24
613.136	686.84
613.586	707.44
614.035	701.74
614.484	730.04
614.933	726.64
615.383	725.54
615.832	709.74
616.281	703.14
616.73	654.04
617.179	628.84
617.628	626.14
618.077	609.44
618.526	600.04
618.975	589.94
619.424	585.54
619.873	581.74
620.322	587.34
620.771	577.54
621.22	582.74
621.669	571.74
622.118	549.74
622.567	545.34
623.015	545.94
623.464	550.04
623.913	541.14
624.361	525.44
624.81	529.14
625.259	529.84
625.707	525.34
626.156	528.64
626.604	549.14
627.053	530.14
627.501	530.64
627.95	538.14
628.398	556.74
628.847	537.54
629.295	545.64
629.744	538.34
630.192	540.44
630.64	544.04
631.089	542.24
631.537	556.84
631.985	554.14
632.433	574.74
632.881	579.64
633.33	633.74
633.778	614.84
634.226	540.64
634.674	548.24
635.122	551.94
635.57	569.94
636.018	596.94
636.466	556.04
636.914	536.74
637.362	549.74
637.81	546.64
638.258	558.34
638.705	551.54
639.153	581.44
639.601	590.74
640.049	609.04
640.497	640.74
640.944	664.64
641.392	617.64
641.84	584.84
642.287	561.64
642.735	533.74
643.182	548.24
643.63	554.24
644.078	553.44
644.525	573.04
644.973	577.44
645.42	588.44
645.867	599.34
646.315	616.84
646.762	637.44
647.21	662.34
647.657	677.44
648.104	719.34
648.551	734.74
648.999	806.14
649.446	890.64
649.893	969.24
650.34	1129.34
650.787	1346.74
651.234	1675.04
651.682	2197.94
652.129	3028.74
652.576	4354.14
653.023	6452.94
653.47	8807.34
653.917	10942.24
654.363	12635.74
654.81	13933.84
655.257	13252.54
655.704	8593.64
656.151	5097.64
656.598	3281.74
657.044	2319.04
657.491	1787.74
657.938	1433.14
658.385	1201.54
658.831	1031.34
659.278	917.54
659.724	821.64
660.171	758.74
660.618	685.54
661.064	664.24
661.511	641.24
661.957	632.34
662.404	611.34
662.85	631.34
663.296	598.14
663.743	532.34
664.189	525.24
664.635	518.64
665.082	508.74
665.528	503.14
665.974	495.14
666.42	489.04
666.867	479.74
667.313	472.84
667.759	460.84
668.205	467.34
668.651	469.84
669.097	462.54
669.543	484.54
669.989	454.04
670.435	434.04
670.881	428.94
671.327	431.44
671.773	447.44
672.219	469.74
672.665	522.84
673.11	561.54
673.556	610.24
674.002	633.74
674.448	620.24
674.893	515.04
675.339	447.34
675.785	413.54
676.23	402.64
676.676	374.94
677.122	371.34
677.567	360.64
678.013	347.44
678.458	342.54
678.904	340.94
679.349	335.14
679.794	345.64
680.24	338.64
680.685	330.24
681.131	337.14
681.576	335.44
682.021	339.74
682.466	325.74
682.912	332.14
683.357	346.14
683.802	366.24
684.247	393.24
684.692	442.14
685.137	476.64
685.583	503.74
686.028	535.04
686.473	498.44
686.918	427.64
687.363	396.94
687.807	372.34
688.252	345.04
688.697	336.54
689.142	315.04
689.587	316.74
690.032	310.84
690.477	326.64
690.921	341.14
691.366	368.04
691.811	381.74
692.255	410.84
692.7	440.14
693.145	488.04
693.589	672.34
694.034	1084.24
694.478	1458.84
694.923	1653.74
695.367	2136.64
695.812	1134.24
696.256	478.64
696.701	353.54
697.145	330.94
697.59	318.14
698.034	307.54
698.478	308.64
698.922	307.14
699.367	313.34
699.811	321.64
700.255	334.14
700.699	365.44
701.143	409.04
701.588	462.24
702.032	501.24
702.476	492.24
702.92	474.74
703.364	474.34
703.808	613.94
704.252	1009.14
704.696	1403.34
705.14	1575.74
705.584	2021.34
706.027	1006.04
706.471	499.24
706.915	377.74
707.359	334.24
707.803	314.94
708.246	301.74
708.69	303.54
709.134	303.44
709.577	298.34
710.021	303.84
710.465	287.24
710.908	285.14
711.352	283.34
711.795	296.84
712.239	338.94
712.682	369.44
713.126	395.64
713.569	451.34
714.012	354.14
714.456	308.14
714.899	283.64
715.342	264.14
715.786	250.74
716.229	248.24
716.672	245.54
717.115	239.54
717.558	244.74
718.002	242.44
718.445	255.64
718.888	276.24
719.331	287.24
719.774	298.14
720.217	292.14
720.66	276.64
721.103	254.54
721.546	248.34
721.989	238.54
722.432	227.54
722.874	230.04
723.317	218.74
723.76	237.94
724.203	246.74
724.645	308.14
725.088	427.74
725.531	542.54
725.974	615.14
726.416	520.24
726.859	294.94
727.301	237.54
727.744	228.24
728.187	220.04
728.629	228.54
729.071	235.54
729.514	245.54
729.956	259.94
730.399	270.24
730.841	279.34
731.283	259.54
731.726	248.44
732.168	247.74
732.61	252.54
733.053	265.94
733.495	299.64
733.937	338.44
734.379	386.74
734.821	415.74
735.263	514.64
735.705	815.64
736.148	1529.74
736.59	2466.64
737.032	2903.84
737.474	2335.04
737.916	775.14
738.357	402.74
738.799	310.94
739.241	280.84
739.683	264.84
740.125	281.24
740.567	287.04
741.008	300.84
741.45	303.24
741.892	305.04
742.334	332.94
742.775	331.54
743.217	320.44
743.658	258.54
744.1	241.14
744.542	249.54
744.983	302.94
745.425	320.44
745.866	324.64
746.307	272.74
746.749	272.64
747.19	309.64
747.632	438.94
748.073	853.74
748.514	1799.74
748.956	2721.34
749.397	3416.24
749.838	2835.14
750.279	2814.84
750.72	1418.94
751.162	514.04
751.603	307.54
752.044	243.74
752.485	202.74
752.926	195.44
753.367	199.14
753.808	189.44
754.249	179.94
754.69	181.64
755.131	168.84
755.572	173.74
756.013	173.44
756.453	179.64
756.894	182.44
757.335	183.14
757.776	184.94
758.216	192.24
758.657	187.24
759.098	192.14
759.538	215.64
759.979	259.44
760.42	358.34
760.86	679.64
761.301	1781.54
761.741	4258.44
762.182	6049.64
762.622	4271.24
763.063	1252.04
763.503	524.54
763.943	333.14
