Data from 20171114-ORNL-Ar_H_NY_Subt18_08-09-16-590.txt Node
Date: Tue Nov 14 08:09:16 EST 2017
User: Ender
Spectrometer: HR+D1039
Trigger mode: 0
Integration Time (sec): 2.730000E-2
Scans to average: 10
Electric dark correction enabled: true
Nonlinearity correction enabled: false
Boxcar width: 0
XAxis mode: Wavelengths
Number of Pixels in Spectrum: 2048
>>>>>Begin Spectral Data<<<<<
187.836	-9.74
188.309	-9.74
188.782	-9.74
189.255	3.16
189.728	-0.04
190.201	6.66
190.674	0.96
191.147	-0.34
191.619	-10.14
192.092	-4.24
192.565	4.66
193.038	0.76
193.511	1.36
193.984	4.66
194.456	1.46
194.929	5.36
195.402	-5.44
195.874	0.96
196.347	0.56
196.82	-7.64
197.292	3.16
197.765	-2.34
198.237	-11.04
198.71	7.76
199.182	-0.84
199.655	4.16
200.127	9.66
200.6	-2.14
201.072	0.16
201.544	-6.64
202.017	-2.54
202.489	3.76
202.961	1.06
203.433	-3.54
203.906	-7.04
204.378	-4.64
204.85	-3.64
205.322	-10.64
205.794	-2.94
206.266	-5.44
206.739	-5.44
207.211	0.66
207.683	-4.44
208.155	-4.94
208.627	-2.14
209.099	1.86
209.57	-4.84
210.042	-3.54
210.514	-8.14
210.986	-8.04
211.458	-7.44
211.93	3.16
212.402	4.16
212.873	-8.94
213.345	-8.84
213.817	-14.24
214.288	-6.54
214.76	-12.34
215.232	-1.04
215.703	-0.74
216.175	-9.64
216.646	0.16
217.118	-9.24
217.589	-7.04
218.061	-2.94
218.532	-3.84
219.004	-1.64
219.475	-11.14
219.946	-5.04
220.418	-5.04
220.889	1.06
221.36	0.66
221.832	1.36
222.303	-4.44
222.774	-2.94
223.245	-6.94
223.717	-3.34
224.188	0.36
224.659	-7.24
225.13	-12.84
225.601	-6.94
226.072	2.06
226.543	1.46
227.014	1.26
227.485	-3.44
227.956	-7.14
228.427	-3.84
228.898	-1.24
229.369	2.66
229.839	-5.04
230.31	-7.24
230.781	-1.14
231.252	-5.84
231.722	-10.04
232.193	-8.64
232.664	-7.64
233.135	-4.94
233.605	-3.74
234.076	-2.64
234.546	-3.44
235.017	2.76
235.487	-2.44
235.958	-1.44
236.428	-12.44
236.899	-2.34
237.369	2.36
237.84	-10.54
238.31	-10.14
238.78	-1.84
239.251	-8.34
239.721	-0.04
240.191	-1.14
240.662	-3.44
241.132	-4.74
241.602	-6.24
242.072	2.16
242.542	2.66
243.013	-2.94
243.483	5.56
243.953	0.56
244.423	1.16
244.893	-8.14
245.363	-0.24
245.833	4.26
246.303	-2.14
246.773	4.56
247.243	3.06
247.712	-2.44
248.182	-2.54
248.652	-4.04
249.122	-10.34
249.592	-5.04
250.061	-4.34
250.531	8.26
251.001	-6.14
251.471	-0.14
251.94	7.26
252.41	1.86
252.879	-4.34
253.349	8.26
253.818	1.86
254.288	2.36
254.757	4.36
255.227	-3.24
255.696	-6.24
256.166	-2.04
256.635	-0.54
257.105	3.36
257.574	0.76
258.043	-1.34
258.513	-2.14
258.982	-3.14
259.451	-6.34
259.92	-0.84
260.389	-2.54
260.859	7.66
261.328	-1.24
261.797	2.76
262.266	-2.74
262.735	5.36
263.204	-2.64
263.673	-4.04
264.142	1.56
264.611	-2.54
265.08	-4.24
265.549	-7.74
266.018	-1.34
266.487	-5.14
266.955	-5.04
267.424	-3.44
267.893	3.66
268.362	-0.74
268.83	2.16
269.299	6.86
269.768	2.76
270.236	-2.14
270.705	-8.14
271.174	-2.04
271.642	-1.44
272.111	-2.64
272.579	2.06
273.048	4.66
273.516	1.66
273.985	2.96
274.453	9.56
274.922	8.76
275.39	1.16
275.858	-5.54
276.327	2.76
276.795	5.06
277.263	1.06
277.731	10.16
278.2	6.16
278.668	0.76
279.136	5.06
279.604	1.86
280.072	-1.64
280.54	3.96
281.008	1.76
281.477	6.46
281.945	0.66
282.413	3.36
282.881	10.56
283.348	0.56
283.816	14.96
284.284	8.16
284.752	12.66
285.22	7.66
285.688	8.56
286.156	4.26
286.623	14.16
287.091	4.56
287.559	11.56
288.026	5.76
288.494	9.66
288.962	1.26
289.429	1.96
289.897	9.46
290.364	4.56
290.832	9.46
291.3	9.06
291.767	9.36
292.234	11.96
292.702	4.66
293.169	4.66
293.637	17.96
294.104	10.66
294.571	8.36
295.039	5.86
295.506	4.46
295.973	13.36
296.44	4.06
296.908	8.76
297.375	6.86
297.842	7.06
298.309	8.56
298.776	2.86
299.243	8.46
299.71	1.96
300.177	7.86
300.644	9.46
301.111	13.66
301.578	16.56
302.045	4.46
302.512	13.06
302.979	12.46
303.446	10.86
303.913	11.06
304.379	5.86
304.846	21.36
305.313	15.46
305.78	11.16
306.246	14.86
306.713	18.56
307.18	16.36
307.646	17.16
308.113	13.56
308.579	15.66
309.046	12.26
309.512	12.26
309.979	8.46
310.445	16.86
310.912	17.86
311.378	18.06
311.845	19.46
312.311	19.76
312.777	19.26
313.244	21.46
313.71	27.06
314.176	19.26
314.642	16.26
315.109	22.26
315.575	20.46
316.041	19.66
316.507	13.26
316.973	17.26
317.439	15.16
317.905	26.46
318.371	26.06
318.837	25.46
319.303	23.96
319.769	19.66
320.235	23.16
320.701	22.86
321.167	25.66
321.633	22.96
322.099	22.76
322.564	30.16
323.03	27.86
323.496	24.56
323.962	31.46
324.427	24.66
324.893	25.46
325.359	22.46
325.824	27.06
326.29	28.86
326.755	27.16
327.221	22.66
327.686	31.06
328.152	35.66
328.617	28.46
329.083	30.76
329.548	36.96
330.014	35.66
330.479	27.36
330.944	30.36
331.41	34.46
331.875	35.36
332.34	33.36
332.805	27.86
333.271	26.66
333.736	26.26
334.201	41.36
334.666	37.16
335.131	41.86
335.596	38.66
336.061	38.16
336.526	24.26
336.991	43.56
337.456	40.96
337.921	32.46
338.386	32.36
338.851	37.26
339.316	37.06
339.781	27.56
340.246	37.66
340.711	33.76
341.175	40.56
341.64	33.56
342.105	37.06
342.569	45.16
343.034	47.16
343.499	41.06
343.963	37.16
344.428	49.76
344.893	48.36
345.357	42.16
345.822	45.66
346.286	56.66
346.751	48.66
347.215	48.06
347.679	51.66
348.144	69.86
348.608	53.96
349.073	49.56
349.537	49.86
350.001	55.26
350.465	67.86
350.93	59.66
351.394	60.06
351.858	55.16
352.322	67.86
352.786	67.36
353.25	71.16
353.715	77.96
354.179	74.66
354.643	91.96
355.107	90.46
355.571	78.16
356.035	73.96
356.498	91.56
356.962	86.06
357.426	91.76
357.89	78.56
358.354	68.66
358.818	64.26
359.281	61.96
359.745	60.16
360.209	55.46
360.673	59.36
361.136	62.96
361.6	69.36
362.064	68.26
362.527	69.66
362.991	69.86
363.454	64.36
363.918	59.66
364.381	62.56
364.845	69.36
365.308	72.96
365.772	73.36
366.235	65.86
366.698	59.56
367.162	69.26
367.625	64.16
368.088	64.46
368.552	72.86
369.015	75.06
369.478	79.26
369.941	79.26
370.404	69.76
370.867	87.76
371.331	81.46
371.794	84.86
372.257	74.96
372.72	82.86
373.183	91.76
373.646	69.66
374.109	80.16
374.572	81.36
375.035	89.26
375.497	88.26
375.96	88.96
376.423	85.76
376.886	93.86
377.349	90.36
377.811	87.46
378.274	94.76
378.737	87.96
379.199	102.16
379.662	96.66
380.125	92.26
380.587	88.66
381.05	90.06
381.512	99.76
381.975	110.96
382.437	101.16
382.9	94.56
383.362	98.36
383.825	109.86
384.287	106.06
384.75	99.76
385.212	106.06
385.674	113.46
386.136	116.56
386.599	105.76
387.061	111.06
387.523	109.66
387.985	112.76
388.447	113.76
388.91	105.36
389.372	107.86
389.834	116.56
390.296	110.16
390.758	119.36
391.22	117.46
391.682	119.06
392.144	134.26
392.606	129.46
393.068	124.86
393.529	127.76
393.991	124.66
394.453	119.46
394.915	118.56
395.377	119.96
395.838	125.46
396.3	123.16
396.762	123.36
397.224	122.16
397.685	113.56
398.147	116.66
398.608	120.76
399.07	113.06
399.531	124.76
399.993	130.76
400.454	143.06
400.916	132.96
401.377	127.86
401.839	139.66
402.3	132.76
402.762	150.96
403.223	162.46
403.684	150.26
404.145	148.86
404.607	149.96
405.068	145.16
405.529	152.26
405.99	169.76
406.451	157.46
406.913	162.46
407.374	148.26
407.835	141.66
408.296	151.76
408.757	159.06
409.218	166.46
409.679	164.76
410.14	168.76
410.601	158.46
411.062	172.46
411.522	166.66
411.983	166.36
412.444	167.36
412.905	166.36
413.366	170.96
413.826	182.16
414.287	207.76
414.748	251.16
415.208	233.56
415.669	201.36
416.13	193.86
416.59	196.96
417.051	197.36
417.511	211.36
417.972	217.66
418.432	233.56
418.893	270.56
419.353	235.56
419.814	190.26
420.274	171.56
420.734	164.66
421.195	188.66
421.655	185.06
422.115	193.06
422.576	189.26
423.036	190.16
423.496	201.56
423.956	208.76
424.416	223.86
424.876	257.36
425.336	244.66
425.797	253.46
426.257	238.76
426.717	221.96
427.177	222.86
427.637	211.26
428.097	224.86
428.556	232.26
429.016	257.86
429.476	246.06
429.936	253.46
430.396	260.46
430.856	266.66
431.315	286.26
431.775	316.76
432.235	347.96
432.694	316.26
433.154	333.16
433.614	358.56
434.073	306.86
434.533	270.46
434.993	251.16
435.452	258.96
435.912	273.46
436.371	266.76
436.83	263.16
437.29	249.26
437.749	233.96
438.209	232.16
438.668	257.76
439.127	270.06
439.587	247.16
440.046	231.76
440.505	238.96
440.964	257.86
441.424	302.36
441.883	288.16
442.342	247.86
442.801	220.76
443.26	215.86
443.719	213.96
444.178	222.16
444.637	206.56
445.096	214.46
445.555	224.66
446.014	214.96
446.473	227.56
446.932	222.46
447.391	223.56
447.849	224.26
448.308	218.86
448.767	221.56
449.226	232.46
449.685	231.86
450.143	245.76
450.602	235.96
451.061	230.16
451.519	230.66
451.978	223.86
452.436	224.96
452.895	229.86
453.353	255.26
453.812	236.76
454.27	242.36
454.729	235.86
455.187	230.06
455.646	238.66
456.104	244.56
456.562	254.76
457.021	259.46
457.479	262.76
457.937	264.16
458.395	262.06
458.854	248.46
459.312	244.06
459.77	264.86
460.228	252.16
460.686	235.76
461.144	244.96
461.602	253.16
462.06	232.06
462.518	250.86
462.976	253.56
463.434	259.86
463.892	258.66
464.35	267.06
464.808	284.56
465.266	270.96
465.724	271.96
466.181	267.76
466.639	267.96
467.097	291.26
467.555	301.46
468.012	294.56
468.47	306.26
468.928	321.96
469.385	332.86
469.843	336.06
470.3	340.56
470.758	357.36
471.215	370.06
471.673	390.96
472.13	389.76
472.588	416.06
473.045	360.26
473.503	374.56
473.96	385.56
474.417	400.76
474.875	421.76
475.332	466.36
475.789	449.96
476.246	455.76
476.704	475.06
477.161	494.16
477.618	505.96
478.075	547.66
478.532	586.76
478.989	660.46
479.446	766.86
479.903	729.06
480.36	767.56
480.817	812.26
481.274	890.56
481.731	971.36
482.188	1048.16
482.645	1159.36
483.102	1247.06
483.558	1369.46
484.015	1400.96
484.472	1365.96
484.929	1322.76
485.385	1299.46
485.842	1262.86
486.299	1223.66
486.755	1176.96
487.212	1008.06
487.668	872.56
488.125	798.36
488.582	733.26
489.038	715.06
489.494	676.86
489.951	658.86
490.407	637.86
490.864	634.06
491.32	623.06
491.776	620.86
492.233	639.56
492.689	597.26
493.145	591.76
493.602	585.46
494.058	596.96
494.514	608.26
494.97	629.66
495.426	637.36
495.882	612.06
496.338	601.36
496.794	610.86
497.251	606.36
497.707	614.26
498.163	609.46
498.618	625.46
499.074	622.76
499.53	650.66
499.986	649.06
500.442	633.06
500.898	614.16
501.354	598.56
501.809	614.86
502.265	627.66
502.721	628.86
503.177	625.36
503.632	630.36
504.088	633.26
504.543	659.26
504.999	678.46
505.455	635.86
505.91	631.16
506.366	641.06
506.821	626.66
507.277	618.36
507.732	630.16
508.187	625.96
508.643	629.46
509.098	645.66
509.553	658.96
510.009	663.06
510.464	675.66
510.919	690.66
511.375	689.96
511.83	711.86
512.285	715.96
512.74	751.06
513.195	775.36
513.65	764.56
514.105	763.16
514.56	760.96
515.015	781.16
515.47	790.56
515.925	765.56
516.38	777.36
516.835	787.36
517.29	766.06
517.745	775.76
518.2	749.26
518.655	746.36
519.109	739.06
519.564	744.36
520.019	725.66
520.474	723.96
520.928	728.76
521.383	704.66
521.838	698.96
522.292	709.66
522.747	709.26
523.201	705.96
523.656	701.46
524.11	693.36
524.565	705.66
525.019	684.56
525.474	695.86
525.928	703.16
526.382	692.26
526.837	697.16
527.291	696.86
527.745	700.86
528.2	691.96
528.654	685.36
529.108	679.06
529.562	693.46
530.016	687.16
530.47	688.86
530.925	690.66
531.379	679.86
531.833	700.56
532.287	702.36
532.741	690.96
533.195	691.86
533.649	707.36
534.103	709.36
534.556	705.56
535.01	707.96
535.464	708.46
535.918	715.86
536.372	713.26
536.826	715.46
537.279	704.86
537.733	700.66
538.187	714.46
538.64	711.06
539.094	714.76
539.548	718.76
540.001	722.16
540.455	725.76
540.908	730.46
541.362	745.06
541.815	744.46
542.269	755.66
542.722	761.76
543.175	766.26
543.629	770.16
544.082	785.56
544.536	792.56
544.989	790.16
545.442	805.46
545.895	792.96
546.349	804.36
546.802	801.76
547.255	806.66
547.708	807.06
548.161	818.06
548.614	834.66
549.067	827.36
549.52	822.26
549.973	813.76
550.426	812.56
550.879	808.56
551.332	803.56
551.785	807.96
552.238	812.26
552.691	831.96
553.144	846.16
553.596	853.36
554.049	871.06
554.502	894.96
554.955	914.46
555.407	911.36
555.86	905.66
556.313	890.56
556.765	878.36
557.218	888.06
557.67	883.96
558.123	877.96
558.576	869.16
559.028	874.66
559.48	895.46
559.933	883.26
560.385	851.66
560.838	812.46
561.29	791.06
561.742	788.16
562.195	766.76
562.647	777.56
563.099	785.26
563.551	781.76
564.004	790.76
564.456	768.96
564.908	756.86
565.36	745.56
565.812	733.76
566.264	725.56
566.716	722.66
567.168	715.36
567.62	718.16
568.072	710.86
568.524	695.86
568.976	693.16
569.428	688.96
569.88	688.76
570.332	684.46
570.784	688.36
571.235	691.26
571.687	710.36
572.139	715.76
572.59	729.06
573.042	727.46
573.494	718.46
573.945	706.66
574.397	692.36
574.849	700.36
575.3	687.16
575.752	690.16
576.203	687.36
576.655	687.86
577.106	683.46
577.557	665.76
578.009	675.16
578.46	674.96
578.912	670.46
579.363	679.16
579.814	675.76
580.265	672.06
580.717	673.56
581.168	680.86
581.619	676.36
582.07	683.76
582.521	683.66
582.972	677.36
583.423	686.06
583.875	678.86
584.326	691.56
584.777	707.06
585.227	724.66
585.678	734.06
586.129	747.56
586.58	756.16
587.031	782.76
587.482	816.76
587.933	840.46
588.384	816.16
588.834	795.96
589.285	780.96
589.736	786.66
590.186	789.86
590.637	781.76
591.088	758.96
591.538	744.06
591.989	743.26
592.439	735.06
592.89	722.46
593.34	714.26
593.791	717.16
594.241	703.86
594.692	704.66
595.142	703.36
595.593	705.96
596.043	716.56
596.493	706.76
596.943	717.26
597.394	728.56
597.844	730.76
598.294	744.76
598.744	765.86
599.195	792.16
599.645	836.16
600.095	880.16
600.545	933.16
600.995	998.46
601.445	1045.56
601.895	1104.86
602.345	1156.76
602.795	1129.36
603.245	1095.76
603.695	1021.36
604.145	980.56
604.594	931.66
605.044	875.66
605.494	824.66
605.944	774.36
606.393	753.76
606.843	732.46
607.293	749.66
607.743	741.06
608.192	754.26
608.642	769.76
609.091	760.56
609.541	773.26
609.99	769.66
610.44	784.66
610.889	729.06
611.339	707.96
611.788	690.46
612.238	705.66
612.687	710.66
613.136	715.26
613.586	713.16
614.035	711.36
614.484	719.46
614.933	726.86
615.383	716.26
615.832	714.96
616.281	712.96
616.73	677.86
617.179	665.16
617.628	653.46
618.077	631.96
618.526	630.16
618.975	625.76
619.424	625.36
619.873	618.36
620.322	623.96
620.771	615.76
621.22	616.16
621.669	603.06
622.118	599.66
622.567	589.66
623.015	580.26
623.464	580.66
623.913	567.86
624.361	564.46
624.81	561.86
625.259	562.86
625.707	564.06
626.156	556.36
626.604	589.56
627.053	572.16
627.501	578.96
627.95	575.86
628.398	596.66
628.847	586.26
629.295	576.96
629.744	584.76
630.192	575.96
630.64	568.66
631.089	556.16
631.537	542.76
631.985	534.46
632.433	537.06
632.881	535.76
633.33	538.46
633.778	526.46
634.226	533.36
634.674	543.66
635.122	554.06
635.57	566.26
636.018	571.46
636.466	580.56
636.914	564.56
637.362	580.76
637.81	580.56
638.258	592.66
638.705	597.26
639.153	625.56
639.601	643.16
640.049	660.26
640.497	692.36
640.944	714.16
641.392	648.86
641.84	613.06
642.287	592.36
642.735	570.16
643.182	574.36
643.63	566.86
644.078	570.36
644.525	576.36
644.973	583.86
645.42	595.36
645.867	620.06
646.315	642.36
646.762	671.06
647.21	693.16
647.657	714.76
648.104	741.56
648.551	766.96
648.999	814.36
649.446	897.46
649.893	979.16
650.34	1124.16
650.787	1345.66
651.234	1658.56
651.682	2120.56
652.129	2881.76
652.576	4107.96
653.023	6010.26
653.47	8071.56
653.917	9939.76
654.363	11378.86
654.81	12451.96
655.257	11841.66
655.704	7853.16
656.151	4696.26
656.598	3111.76
657.044	2244.86
657.491	1737.96
657.938	1402.66
658.385	1173.26
658.831	1030.16
659.278	932.86
659.724	829.76
660.171	776.26
660.618	711.26
661.064	676.76
661.511	667.16
661.957	651.06
662.404	638.36
662.85	645.86
663.296	627.96
663.743	569.06
664.189	543.06
664.635	524.36
665.082	537.56
665.528	537.06
665.974	521.66
666.42	520.36
666.867	514.46
667.313	500.66
667.759	480.06
668.205	468.16
668.651	463.86
669.097	454.36
669.543	453.66
669.989	451.16
670.435	463.76
670.881	459.96
671.327	472.76
671.773	490.96
672.219	511.86
672.665	563.96
673.11	593.46
673.556	656.96
674.002	691.16
674.448	679.46
674.893	568.36
675.339	492.76
675.785	462.06
676.23	428.66
676.676	403.46
677.122	395.36
677.567	386.96
678.013	378.96
678.458	375.36
678.904	376.56
679.349	366.26
679.794	368.86
680.24	365.66
680.685	368.76
681.131	360.96
681.576	359.56
682.021	367.56
682.466	359.76
682.912	354.86
683.357	365.86
683.802	394.76
684.247	430.06
684.692	477.76
685.137	520.26
685.583	556.36
686.028	581.86
686.473	535.96
686.918	456.86
687.363	425.86
687.807	397.86
688.252	377.86
688.697	358.56
689.142	346.46
689.587	341.26
690.032	335.86
690.477	355.36
690.921	360.76
691.366	395.16
691.811	419.46
692.255	449.96
692.7	485.76
693.145	535.96
693.589	769.96
694.034	1223.06
694.478	1638.36
694.923	1801.26
695.367	2316.76
695.812	1247.66
696.256	519.06
696.701	385.66
697.145	346.56
697.59	344.46
698.034	335.46
698.478	334.26
698.922	337.76
699.367	331.26
699.811	347.36
700.255	365.66
700.699	395.36
701.143	444.76
701.588	494.76
702.032	533.96
702.476	541.56
702.92	515.96
703.364	523.26
703.808	694.46
704.252	1113.16
704.696	1548.36
705.14	1732.96
705.584	2198.26
706.027	1120.46
706.471	549.86
706.915	424.26
707.359	363.46
707.803	329.76
708.246	320.06
708.69	320.56
709.134	326.26
709.577	324.26
710.021	328.36
710.465	314.86
710.908	322.26
711.352	314.56
711.795	325.76
712.239	367.76
712.682	400.76
713.126	431.46
713.569	469.66
714.012	368.76
714.456	313.46
714.899	299.16
715.342	280.26
715.786	275.66
716.229	271.66
716.672	264.56
717.115	261.86
717.558	255.86
718.002	257.56
718.445	273.66
718.888	296.76
719.331	306.16
719.774	320.86
720.217	313.16
720.66	299.96
721.103	274.26
721.546	266.96
721.989	255.76
722.432	236.66
722.874	249.16
723.317	241.96
723.76	245.06
724.203	270.36
724.645	340.16
725.088	463.66
725.531	598.56
725.974	662.56
726.416	569.36
726.859	322.86
727.301	255.76
727.744	251.66
728.187	241.56
728.629	253.06
729.071	251.46
729.514	267.76
729.956	292.26
730.399	306.66
730.841	303.06
731.283	290.26
731.726	278.56
732.168	279.86
732.61	280.26
733.053	294.76
733.495	342.16
733.937	376.36
734.379	423.86
734.821	463.06
735.263	589.86
735.705	927.36
736.148	1736.66
736.59	2772.56
737.032	3160.96
737.474	2589.96
737.916	867.76
738.357	455.36
738.799	350.16
739.241	299.66
739.683	297.46
740.125	301.36
740.567	311.66
741.008	328.46
741.45	332.86
741.892	328.26
742.334	365.96
742.775	380.76
743.217	357.16
743.658	275.66
744.1	271.66
744.542	287.26
744.983	325.06
745.425	359.36
745.866	355.76
746.307	300.26
746.749	296.16
747.19	341.36
747.632	497.46
748.073	989.66
748.514	2056.16
748.956	3024.76
749.397	3815.06
749.838	3149.66
750.279	3054.16
750.72	1571.96
751.162	589.66
751.603	344.46
752.044	265.96
752.485	227.16
752.926	224.26
753.367	211.76
753.808	205.36
754.249	204.66
754.69	193.96
755.131	192.26
755.572	193.46
756.013	188.56
756.453	195.36
756.894	190.26
757.335	201.46
757.776	203.16
758.216	210.76
758.657	210.16
759.098	213.86
759.538	240.26
759.979	282.06
760.42	405.56
760.86	795.06
761.301	2074.46
761.741	4847.56
762.182	6632.66
762.622	4693.96
763.063	1398.76
763.503	569.56
763.943	345.36
