Data from 20171114-ORNL-Ar_H_NY_Subt18_08-08-19-752.txt Node
Date: Tue Nov 14 08:08:19 EST 2017
User: Ender
Spectrometer: HR+D1039
Trigger mode: 0
Integration Time (sec): 2.730000E-2
Scans to average: 10
Electric dark correction enabled: true
Nonlinearity correction enabled: false
Boxcar width: 0
XAxis mode: Wavelengths
Number of Pixels in Spectrum: 2048
>>>>>Begin Spectral Data<<<<<
187.836	-5.46
188.309	-5.46
188.782	-5.46
189.255	-1.06
189.728	-6.26
190.201	0.14
190.674	-1.16
191.147	4.74
191.619	-6.66
192.092	2.04
192.565	4.44
193.038	3.74
193.511	5.34
193.984	2.54
194.456	-5.26
194.929	2.74
195.402	1.04
195.874	-0.86
196.347	0.44
196.82	-8.36
197.292	11.14
197.765	-8.36
198.237	-3.56
198.71	-4.66
199.182	-3.36
199.655	0.54
200.127	0.54
200.6	-2.36
201.072	-3.96
201.544	-0.26
202.017	2.64
202.489	-3.66
202.961	-1.66
203.433	-5.86
203.906	-8.76
204.378	-7.76
204.85	-1.36
205.322	-7.26
205.794	-0.06
206.266	-10.46
206.739	-12.96
207.211	2.04
207.683	-7.46
208.155	-7.16
208.627	-9.56
209.099	-1.76
209.57	-7.66
210.042	-9.36
210.514	1.14
210.986	3.14
211.458	-7.96
211.93	-4.36
212.402	3.24
212.873	-4.26
213.345	-6.36
213.817	-14.46
214.288	-0.26
214.76	-5.16
215.232	-0.16
215.703	-0.16
216.175	-4.16
216.646	-8.36
217.118	-8.76
217.589	-3.96
218.061	-6.36
218.532	0.94
219.004	-4.96
219.475	-3.16
219.946	-3.36
220.418	-5.36
220.889	2.64
221.36	2.64
221.832	-1.76
222.303	-3.96
222.774	-2.46
223.245	-9.96
223.717	-10.76
224.188	-7.86
224.659	-8.16
225.13	-6.36
225.601	-4.16
226.072	3.24
226.543	-1.86
227.014	1.84
227.485	-0.26
227.956	-11.66
228.427	-5.96
228.898	-1.16
229.369	3.14
229.839	-0.86
230.31	-4.86
230.781	-2.16
231.252	-0.66
231.722	-10.96
232.193	-0.76
232.664	-6.26
233.135	-0.06
233.605	1.64
234.076	-7.36
234.546	0.64
235.017	0.14
235.487	7.24
235.958	-2.76
236.428	-6.16
236.899	0.14
237.369	4.24
237.84	-5.96
238.31	11.14
238.78	1.64
239.251	-0.76
239.721	3.74
240.191	-2.26
240.662	0.24
241.132	0.34
241.602	-6.56
242.072	1.64
242.542	9.44
243.013	1.04
243.483	2.24
243.953	-0.46
244.423	1.34
244.893	-2.76
245.363	4.04
245.833	6.04
246.303	-1.36
246.773	7.54
247.243	1.34
247.712	-1.16
248.182	5.64
248.652	-1.36
249.122	-3.86
249.592	7.14
250.061	19.14
250.531	27.84
251.001	17.04
251.471	19.44
251.94	16.94
252.41	5.24
252.879	-0.76
253.349	14.74
253.818	9.84
254.288	3.14
254.757	4.04
255.227	0.14
255.696	-2.16
256.166	3.14
256.635	7.24
257.105	5.94
257.574	4.74
258.043	4.74
258.513	2.84
258.982	9.64
259.451	7.94
259.92	11.94
260.389	10.84
260.859	15.94
261.328	13.54
261.797	16.04
262.266	4.94
262.735	9.84
263.204	5.44
263.673	4.04
264.142	0.04
264.611	1.84
265.08	2.74
265.549	-5.46
266.018	4.44
266.487	-5.76
266.955	-2.06
267.424	-4.76
267.893	2.64
268.362	4.94
268.83	7.04
269.299	10.74
269.768	1.64
270.236	10.34
270.705	2.94
271.174	6.64
271.642	5.74
272.111	8.54
272.579	14.54
273.048	18.14
273.516	21.94
273.985	23.94
274.453	25.44
274.922	20.54
275.39	7.14
275.858	7.44
276.327	7.84
276.795	14.94
277.263	11.44
277.731	19.24
278.2	49.34
278.668	54.94
279.136	42.34
279.604	11.14
280.072	14.94
280.54	14.14
281.008	9.84
281.477	12.64
281.945	12.64
282.413	13.64
282.881	11.64
283.348	9.94
283.816	13.24
284.284	12.44
284.752	20.04
285.22	10.54
285.688	13.64
286.156	16.04
286.623	44.24
287.091	50.84
287.559	28.14
288.026	10.94
288.494	17.44
288.962	3.14
289.429	8.44
289.897	21.94
290.364	13.24
290.832	13.54
291.3	10.84
291.767	15.14
292.234	16.94
292.702	12.54
293.169	21.54
293.637	18.14
294.104	19.94
294.571	9.34
295.039	13.94
295.506	17.24
295.973	15.44
296.44	16.24
296.908	15.84
297.375	19.64
297.842	18.44
298.309	14.64
298.776	18.24
299.243	21.64
299.71	14.04
300.177	20.74
300.644	21.04
301.111	18.14
301.578	23.94
302.045	16.64
302.512	21.34
302.979	25.24
303.446	17.14
303.913	17.24
304.379	17.14
304.846	22.74
305.313	22.64
305.78	23.74
306.246	21.74
306.713	28.84
307.18	23.74
307.646	23.54
308.113	29.94
308.579	26.94
309.046	31.84
309.512	22.44
309.979	15.24
310.445	21.14
310.912	31.84
311.378	31.64
311.845	28.44
312.311	28.84
312.777	27.34
313.244	29.64
313.71	36.04
314.176	32.04
314.642	30.54
315.109	39.54
315.575	32.24
316.041	38.34
316.507	34.94
316.973	43.04
317.439	34.14
317.905	34.34
318.371	30.54
318.837	31.74
319.303	34.44
319.769	31.14
320.235	32.04
320.701	35.54
321.167	32.74
321.633	34.74
322.099	42.44
322.564	39.74
323.03	39.74
323.496	34.34
323.962	34.84
324.427	40.84
324.893	37.44
325.359	36.64
325.824	38.24
326.29	39.24
326.755	35.94
327.221	44.14
327.686	32.84
328.152	42.44
328.617	45.04
329.083	42.04
329.548	49.74
330.014	50.54
330.479	40.34
330.944	46.94
331.41	38.94
331.875	44.34
332.34	39.94
332.805	46.84
333.271	51.64
333.736	44.84
334.201	53.74
334.666	47.24
335.131	53.34
335.596	42.54
336.061	52.94
336.526	42.84
336.991	49.14
337.456	58.64
337.921	49.04
338.386	47.74
338.851	48.64
339.316	51.34
339.781	49.24
340.246	55.84
340.711	43.64
341.175	51.24
341.64	47.84
342.105	50.74
342.569	56.34
343.034	59.04
343.499	56.64
343.963	45.14
344.428	67.44
344.893	59.14
345.357	60.64
345.822	64.74
346.286	65.44
346.751	70.74
347.215	65.64
347.679	77.14
348.144	94.74
348.608	78.64
349.073	65.64
349.537	73.04
350.001	82.34
350.465	84.24
350.93	82.24
351.394	75.44
351.858	71.84
352.322	89.64
352.786	85.04
353.25	104.24
353.715	113.94
354.179	102.24
354.643	122.34
355.107	126.34
355.571	113.54
356.035	102.44
356.498	119.04
356.962	123.24
357.426	130.44
357.89	113.94
358.354	90.14
358.818	87.94
359.281	81.64
359.745	72.04
360.209	75.64
360.673	76.24
361.136	83.34
361.6	88.54
362.064	85.94
362.527	85.34
362.991	90.14
363.454	84.94
363.918	76.24
364.381	82.64
364.845	75.94
365.308	85.14
365.772	84.74
366.235	89.14
366.698	80.44
367.162	86.84
367.625	87.54
368.088	85.84
368.552	84.04
369.015	88.94
369.478	100.74
369.941	103.34
370.404	99.24
370.867	105.44
371.331	113.34
371.794	109.54
372.257	117.34
372.72	119.84
373.183	106.94
373.646	102.94
374.109	103.44
374.572	105.84
375.035	104.04
375.497	112.04
375.96	109.54
376.423	96.54
376.886	115.34
377.349	110.84
377.811	108.94
378.274	110.54
378.737	110.94
379.199	111.44
379.662	116.34
380.125	120.14
380.587	116.24
381.05	123.44
381.512	134.74
381.975	139.54
382.437	132.34
382.9	129.84
383.362	139.04
383.825	151.44
384.287	158.34
384.75	139.24
385.212	144.54
385.674	136.44
386.136	135.14
386.599	123.94
387.061	128.44
387.523	131.34
387.985	137.24
388.447	151.54
388.91	147.74
389.372	157.94
389.834	156.84
390.296	149.54
390.758	156.44
391.22	177.54
391.682	209.14
392.144	311.04
392.606	230.64
393.068	173.64
393.529	169.84
393.991	156.84
394.453	148.34
394.915	159.04
395.377	194.14
395.838	215.34
396.3	153.44
396.762	142.34
397.224	135.54
397.685	136.14
398.147	134.24
398.608	132.24
399.07	131.14
399.531	139.04
399.993	144.34
400.454	157.14
400.916	154.24
401.377	147.54
401.839	150.04
402.3	156.64
402.762	174.74
403.223	180.84
403.684	176.34
404.145	160.44
404.607	161.24
405.068	168.04
405.529	173.74
405.99	192.34
406.451	178.74
406.913	179.54
407.374	164.04
407.835	164.24
408.296	165.74
408.757	177.94
409.218	192.54
409.679	183.64
410.14	174.84
410.601	182.94
411.062	188.14
411.522	192.74
411.983	194.74
412.444	182.04
412.905	182.24
413.366	180.04
413.826	193.84
414.287	220.64
414.748	257.74
415.208	255.14
415.669	219.04
416.13	205.84
416.59	205.44
417.051	219.74
417.511	224.04
417.972	238.94
418.432	254.84
418.893	290.34
419.353	249.24
419.814	205.54
420.274	185.14
420.734	185.44
421.195	206.84
421.655	200.64
422.115	192.74
422.576	196.54
423.036	206.64
423.496	210.34
423.956	210.64
424.416	233.64
424.876	269.14
425.336	269.84
425.797	262.04
426.257	259.94
426.717	239.54
427.177	238.74
427.637	229.94
428.097	234.04
428.556	250.44
429.016	276.24
429.476	271.84
429.936	283.84
430.396	284.14
430.856	297.14
431.315	318.14
431.775	366.24
432.235	388.24
432.694	366.14
433.154	382.34
433.614	402.34
434.073	346.84
434.533	294.44
434.993	271.14
435.452	291.24
435.912	310.24
436.371	296.04
436.83	285.64
437.29	278.44
437.749	263.54
438.209	252.74
438.668	283.54
439.127	301.04
439.587	266.54
440.046	255.64
440.505	259.94
440.964	285.74
441.424	327.84
441.883	316.34
442.342	272.24
442.801	226.84
443.26	223.84
443.719	231.14
444.178	224.74
444.637	207.54
445.096	228.04
445.555	224.34
446.014	227.44
446.473	227.04
446.932	238.94
447.391	231.34
447.849	227.44
448.308	224.04
448.767	224.74
449.226	231.94
449.685	232.24
450.143	256.74
450.602	241.74
451.061	226.24
451.519	240.34
451.978	237.34
452.436	238.04
452.895	235.34
453.353	261.54
453.812	243.44
454.27	241.54
454.729	237.24
455.187	247.84
455.646	253.44
456.104	258.54
456.562	261.44
457.021	272.24
457.479	272.04
457.937	274.54
458.395	269.54
458.854	249.94
459.312	261.34
459.77	282.24
460.228	261.84
460.686	251.24
461.144	257.64
461.602	250.04
462.06	244.14
462.518	259.54
462.976	256.94
463.434	267.34
463.892	261.24
464.35	280.54
464.808	288.84
465.266	264.84
465.724	267.54
466.181	275.14
466.639	274.94
467.097	285.34
467.555	305.24
468.012	309.64
468.47	308.04
468.928	335.74
469.385	340.94
469.843	350.94
470.3	349.04
470.758	372.24
471.215	388.24
471.673	418.04
472.13	421.54
472.588	432.34
473.045	380.64
473.503	378.14
473.96	405.64
474.417	403.74
474.875	439.04
475.332	484.04
475.789	471.24
476.246	475.94
476.704	497.74
477.161	524.44
477.618	535.54
478.075	569.94
478.532	618.94
478.989	703.74
479.446	820.94
479.903	778.14
480.36	831.34
480.817	874.54
481.274	974.74
481.731	1073.34
482.188	1169.44
482.645	1310.84
483.102	1415.54
483.558	1552.44
484.015	1600.94
484.472	1574.74
484.929	1531.74
485.385	1481.24
485.842	1431.24
486.299	1374.34
486.755	1310.84
487.212	1099.74
487.668	934.34
488.125	862.74
488.582	780.24
489.038	744.84
489.494	712.24
489.951	683.44
490.407	680.14
490.864	652.14
491.32	650.74
491.776	653.74
492.233	655.24
492.689	622.94
493.145	611.44
493.602	600.54
494.058	626.94
494.514	620.84
494.97	638.94
495.426	652.44
495.882	625.74
496.338	618.54
496.794	625.54
497.251	626.84
497.707	638.24
498.163	634.54
498.618	638.64
499.074	649.64
499.53	681.04
499.986	679.94
500.442	662.94
500.898	636.04
501.354	621.94
501.809	650.34
502.265	651.04
502.721	664.94
503.177	673.44
503.632	668.74
504.088	684.94
504.543	726.84
504.999	713.24
505.455	659.34
505.91	627.44
506.366	632.64
506.821	637.64
507.277	618.34
507.732	631.84
508.187	623.24
508.643	639.54
509.098	648.74
509.553	662.24
510.009	677.04
510.464	676.94
510.919	692.84
511.375	696.74
511.83	708.64
512.285	721.94
512.74	759.34
513.195	792.64
513.65	773.54
514.105	774.74
514.56	786.14
515.015	801.34
515.47	813.64
515.925	793.14
516.38	777.94
516.835	794.84
517.29	783.54
517.745	780.44
518.2	766.54
518.655	750.24
519.109	753.24
519.564	748.04
520.019	721.14
520.474	722.34
520.928	728.54
521.383	725.24
521.838	718.74
522.292	719.04
522.747	709.44
523.201	710.34
523.656	694.24
524.11	703.04
524.565	701.74
525.019	697.44
525.474	706.54
525.928	708.94
526.382	704.64
526.837	707.04
527.291	710.64
527.745	695.74
528.2	687.54
528.654	699.64
529.108	693.44
529.562	693.54
530.016	686.64
530.47	685.44
530.925	702.64
531.379	700.74
531.833	703.74
532.287	705.24
532.741	708.84
533.195	706.74
533.649	717.54
534.103	718.74
534.556	703.64
535.01	715.94
535.464	707.64
535.918	726.14
536.372	722.34
536.826	719.14
537.279	706.04
537.733	709.04
538.187	718.24
538.64	720.44
539.094	728.34
539.548	726.84
540.001	733.14
540.455	725.24
540.908	731.74
541.362	734.94
541.815	744.54
542.269	761.64
542.722	769.54
543.175	786.14
543.629	785.34
544.082	789.14
544.536	786.04
544.989	785.14
545.442	798.44
545.895	796.34
546.349	801.04
546.802	803.74
547.255	799.84
547.708	815.54
548.161	827.84
548.614	826.34
549.067	842.94
549.52	827.44
549.973	814.34
550.426	813.14
550.879	804.94
551.332	800.84
551.785	805.94
552.238	819.74
552.691	820.24
553.144	842.44
553.596	850.14
554.049	867.74
554.502	902.24
554.955	919.84
555.407	912.94
555.86	916.44
556.313	902.74
556.765	889.54
557.218	895.14
557.67	889.44
558.123	880.44
558.576	872.84
559.028	878.44
559.48	883.54
559.933	880.94
560.385	839.34
560.838	807.64
561.29	786.24
561.742	786.54
562.195	762.74
562.647	774.94
563.099	778.14
563.551	781.44
564.004	786.74
564.456	777.94
564.908	752.14
565.36	754.24
565.812	740.34
566.264	733.94
566.716	742.34
567.168	717.14
567.62	734.54
568.072	717.54
568.524	697.84
568.976	692.64
569.428	687.84
569.88	680.14
570.332	696.24
570.784	694.74
571.235	693.64
571.687	700.94
572.139	705.34
572.59	724.34
573.042	708.64
573.494	715.84
573.945	719.44
574.397	686.74
574.849	702.74
575.3	696.34
575.752	688.74
576.203	683.14
576.655	696.24
577.106	679.44
577.557	673.14
578.009	675.54
578.46	669.04
578.912	668.24
579.363	667.04
579.814	686.14
580.265	668.64
580.717	675.34
581.168	669.54
581.619	678.74
582.07	688.04
582.521	685.54
582.972	679.64
583.423	685.64
583.875	691.74
584.326	710.14
584.777	761.24
585.227	850.54
585.678	950.04
586.129	1024.24
586.58	1116.74
587.031	1199.94
587.482	1346.84
587.933	1533.64
588.384	1317.04
588.834	987.34
589.285	806.44
589.736	795.04
590.186	783.24
590.637	777.04
591.088	759.04
591.538	747.14
591.989	749.84
592.439	734.14
592.89	733.14
593.34	718.64
593.791	724.34
594.241	717.64
594.692	716.44
595.142	703.24
595.593	709.14
596.043	717.24
596.493	724.24
596.943	719.14
597.394	726.94
597.844	733.84
598.294	731.54
598.744	754.84
599.195	784.44
599.645	815.84
600.095	876.34
600.545	929.84
600.995	987.74
601.445	1035.84
601.895	1100.94
602.345	1149.44
602.795	1131.84
603.245	1072.94
603.695	1024.04
604.145	963.64
604.594	925.34
605.044	868.24
605.494	806.54
605.944	764.14
606.393	754.14
606.843	733.94
607.293	738.04
607.743	737.44
608.192	756.04
608.642	767.84
609.091	778.14
609.541	796.14
609.99	781.34
610.44	773.94
610.889	740.84
611.339	711.74
611.788	697.94
612.238	721.84
612.687	729.64
613.136	735.54
613.586	748.54
614.035	746.94
614.484	765.94
614.933	763.14
615.383	765.64
615.832	755.34
616.281	738.94
616.73	693.24
617.179	673.54
617.628	663.14
618.077	645.14
618.526	642.34
618.975	634.44
619.424	628.74
619.873	630.04
620.322	636.74
620.771	620.74
621.22	621.84
621.669	598.44
622.118	598.34
622.567	592.64
623.015	588.44
623.464	584.34
623.913	567.74
624.361	568.24
624.81	556.54
625.259	561.14
625.707	562.64
626.156	565.94
626.604	568.74
627.053	568.64
627.501	567.44
627.95	578.84
628.398	586.84
628.847	572.64
629.295	582.74
629.744	588.74
630.192	574.94
630.64	582.34
631.089	579.34
631.537	589.84
631.985	604.64
632.433	613.64
632.881	622.54
633.33	682.24
633.778	658.54
634.226	589.54
634.674	590.44
635.122	590.34
635.57	609.24
636.018	653.64
636.466	590.94
636.914	570.94
637.362	576.94
637.81	587.04
638.258	597.54
638.705	598.24
639.153	616.44
639.601	638.24
640.049	653.64
640.497	682.04
640.944	706.64
641.392	665.24
641.84	624.94
642.287	595.14
642.735	575.04
643.182	582.54
643.63	582.34
644.078	590.14
644.525	602.14
644.973	602.04
645.42	616.74
645.867	631.24
646.315	655.34
646.762	670.24
647.21	700.44
647.657	725.74
648.104	763.24
648.551	787.14
648.999	856.64
649.446	929.84
649.893	1024.54
650.34	1180.44
650.787	1430.54
651.234	1777.34
651.682	2336.74
652.129	3201.24
652.576	4652.64
653.023	6833.64
653.47	9289.84
653.917	11528.44
654.363	13199.14
654.81	14482.14
655.257	13798.24
655.704	9047.74
656.151	5338.24
656.598	3465.24
657.044	2452.54
657.491	1876.44
657.938	1502.24
658.385	1261.44
658.831	1096.04
659.278	981.14
659.724	871.24
660.171	806.34
660.618	741.64
661.064	707.14
661.511	677.34
661.957	661.24
662.404	652.24
662.85	667.14
663.296	634.74
663.743	570.94
664.189	547.84
664.635	540.44
665.082	536.64
665.528	540.74
665.974	536.24
666.42	518.64
666.867	515.64
667.313	501.54
667.759	498.14
668.205	494.94
668.651	496.34
669.097	495.74
669.543	513.74
669.989	486.14
670.435	458.24
670.881	450.64
671.327	457.24
671.773	476.94
672.219	497.24
672.665	557.04
673.11	596.74
673.556	642.44
674.002	682.84
674.448	665.04
674.893	550.64
675.339	485.24
675.785	441.64
676.23	430.54
676.676	400.54
677.122	395.04
677.567	382.04
678.013	375.74
678.458	368.74
678.904	370.04
679.349	354.14
679.794	351.64
680.24	360.04
680.685	353.24
681.131	354.64
681.576	353.54
682.021	366.44
682.466	353.84
682.912	350.94
683.357	359.84
683.802	393.54
684.247	423.74
684.692	471.54
685.137	505.44
685.583	543.74
686.028	558.84
686.473	526.14
686.918	452.34
687.363	420.74
687.807	397.44
688.252	373.94
688.697	361.34
689.142	335.34
689.587	346.44
690.032	337.94
690.477	352.64
690.921	359.34
691.366	390.34
691.811	410.54
692.255	440.34
692.7	460.74
693.145	525.54
693.589	718.64
694.034	1166.64
694.478	1579.34
694.923	1753.34
695.367	2271.54
695.812	1214.84
696.256	501.44
696.701	373.84
697.145	351.44
697.59	331.74
698.034	330.24
698.478	345.04
698.922	329.74
699.367	338.44
699.811	341.24
700.255	364.74
700.699	398.84
701.143	433.94
701.588	480.04
702.032	519.84
702.476	523.94
702.92	505.84
703.364	504.44
703.808	660.34
704.252	1079.34
704.696	1495.14
705.14	1671.44
705.584	2136.64
706.027	1068.14
706.471	531.94
706.915	399.04
707.359	355.24
707.803	328.44
708.246	316.94
708.69	316.84
709.134	322.44
709.577	314.84
710.021	320.44
710.465	312.74
710.908	311.54
711.352	309.44
711.795	321.34
712.239	363.04
712.682	397.64
713.126	421.74
713.569	474.34
714.012	381.54
714.456	331.84
714.899	307.44
715.342	282.24
715.786	271.94
716.229	261.64
716.672	265.04
717.115	255.44
717.558	252.14
718.002	260.14
718.445	270.64
718.888	295.64
719.331	304.64
719.774	319.14
720.217	313.44
720.66	278.64
721.103	273.84
721.546	256.14
721.989	255.04
722.432	243.84
722.874	239.94
723.317	230.84
723.76	241.94
724.203	266.84
724.645	331.14
725.088	460.94
725.531	590.54
725.974	648.24
726.416	549.44
726.859	318.24
727.301	255.44
727.744	245.94
728.187	234.74
728.629	240.54
729.071	252.24
729.514	269.44
729.956	273.44
730.399	295.64
730.841	292.04
731.283	277.44
731.726	271.84
732.168	272.34
732.61	266.64
733.053	294.44
733.495	321.94
733.937	359.04
734.379	407.24
734.821	446.44
735.263	560.74
735.705	873.34
736.148	1656.74
736.59	2647.54
737.032	3049.64
737.474	2484.44
737.916	820.34
738.357	434.94
738.799	333.14
739.241	311.54
739.683	292.54
740.125	296.34
740.567	310.54
741.008	316.34
741.45	318.34
741.892	321.84
742.334	353.44
742.775	358.64
743.217	345.24
743.658	269.04
744.1	258.34
744.542	259.74
744.983	318.14
745.425	334.04
745.866	346.74
746.307	282.84
746.749	286.04
747.19	339.54
747.632	479.14
748.073	929.44
748.514	1936.14
748.956	2899.44
749.397	3638.94
749.838	3017.84
750.279	2944.14
750.72	1499.74
751.162	556.34
751.603	330.24
752.044	258.14
752.485	219.24
752.926	212.94
753.367	203.24
753.808	196.14
754.249	200.24
754.69	187.74
755.131	189.84
755.572	191.84
756.013	185.54
756.453	187.94
756.894	189.74
757.335	195.54
757.776	196.74
758.216	198.64
758.657	196.74
759.098	206.54
759.538	229.64
759.979	276.34
760.42	385.14
760.86	743.24
761.301	1943.34
761.741	4592.24
762.182	6396.94
