Data from 20171114-ORNL-Ar_H_NY_Subt18_08-07-39-351.txt Node
Date: Tue Nov 14 08:07:39 EST 2017
User: Ender
Spectrometer: HR+D1039
Trigger mode: 0
Integration Time (sec): 2.730000E-2
Scans to average: 10
Electric dark correction enabled: true
Nonlinearity correction enabled: false
Boxcar width: 0
XAxis mode: Wavelengths
Number of Pixels in Spectrum: 2048
>>>>>Begin Spectral Data<<<<<
187.836	-1.69
188.309	-1.69
188.782	-1.69
189.255	-3.99
189.728	-0.49
190.201	2.21
190.674	0.21
191.147	2.31
191.619	-8.29
192.092	1.11
192.565	2.51
193.038	4.71
193.511	0.51
193.984	1.11
194.456	-0.29
194.929	-0.69
195.402	-1.59
195.874	2.41
196.347	-8.39
196.82	-4.39
197.292	9.21
197.765	-3.89
198.237	-7.59
198.71	3.51
199.182	-1.89
199.655	1.01
200.127	1.31
200.6	0.11
201.072	-0.99
201.544	-7.19
202.017	-0.99
202.489	1.81
202.961	0.61
203.433	-4.89
203.906	-5.39
204.378	-5.69
204.85	-5.39
205.322	-10.29
205.794	-0.59
206.266	-0.99
206.739	-3.19
207.211	4.51
207.683	-6.49
208.155	-6.39
208.627	-12.79
209.099	-2.89
209.57	-7.69
210.042	-7.79
210.514	-6.69
210.986	-4.59
211.458	-7.89
211.93	0.81
212.402	5.21
212.873	-3.79
213.345	-13.19
213.817	-15.89
214.288	-5.09
214.76	-11.49
215.232	-5.19
215.703	-0.89
216.175	-0.89
216.646	-4.89
217.118	-6.19
217.589	-7.89
218.061	-3.99
218.532	-2.59
219.004	-1.29
219.475	-4.79
219.946	-5.59
220.418	-6.99
220.889	5.01
221.36	-1.09
221.832	-12.29
222.303	-8.79
222.774	-3.79
223.245	-5.69
223.717	-9.39
224.188	-4.69
224.659	-9.19
225.13	-13.39
225.601	-5.09
226.072	-5.59
226.543	-2.69
227.014	-2.69
227.485	-4.09
227.956	-7.59
228.427	-2.69
228.898	-4.29
229.369	-1.99
229.839	0.71
230.31	-6.19
230.781	6.51
231.252	-5.99
231.722	-7.19
232.193	-3.29
232.664	-4.79
233.135	-5.59
233.605	-1.09
234.076	-6.39
234.546	0.41
235.017	4.11
235.487	-0.69
235.958	-3.79
236.428	-6.09
236.899	2.21
237.369	2.41
237.84	-5.19
238.31	0.91
238.78	2.91
239.251	2.51
239.721	-2.29
240.191	1.51
240.662	-1.39
241.132	2.81
241.602	-3.59
242.072	3.11
242.542	2.81
243.013	-3.99
243.483	-1.79
243.953	0.61
244.423	0.71
244.893	-5.49
245.363	2.91
245.833	2.41
246.303	1.11
246.773	2.11
247.243	-1.79
247.712	2.41
248.182	9.51
248.652	5.51
249.122	-5.29
249.592	4.91
250.061	20.51
250.531	23.51
251.001	9.21
251.471	13.91
251.94	19.51
252.41	0.51
252.879	0.71
253.349	16.51
253.818	11.31
254.288	2.81
254.757	-0.09
255.227	-9.49
255.696	0.51
256.166	0.71
256.635	5.91
257.105	2.11
257.574	5.51
258.043	5.61
258.513	8.21
258.982	9.61
259.451	2.01
259.92	11.01
260.389	7.71
260.859	12.71
261.328	9.11
261.797	14.91
262.266	7.51
262.735	6.81
263.204	-1.29
263.673	-3.69
264.142	5.61
264.611	-1.19
265.08	-9.09
265.549	-4.69
266.018	1.81
266.487	-1.79
266.955	-5.49
267.424	-2.59
267.893	10.11
268.362	-2.59
268.83	-1.99
269.299	7.51
269.768	5.91
270.236	5.31
270.705	-0.99
271.174	-1.09
271.642	5.51
272.111	5.91
272.579	16.11
273.048	17.61
273.516	17.91
273.985	22.61
274.453	17.71
274.922	12.11
275.39	7.31
275.858	2.11
276.327	8.41
276.795	9.41
277.263	6.61
277.731	21.91
278.2	43.91
278.668	49.91
279.136	44.21
279.604	12.21
280.072	7.81
280.54	9.21
281.008	4.61
281.477	10.51
281.945	7.41
282.413	13.01
282.881	12.21
283.348	7.71
283.816	8.91
284.284	9.61
284.752	15.11
285.22	10.71
285.688	11.91
286.156	19.01
286.623	42.31
287.091	39.11
287.559	20.51
288.026	14.81
288.494	10.21
288.962	5.41
289.429	7.41
289.897	9.31
290.364	5.71
290.832	16.41
291.3	11.61
291.767	15.11
292.234	15.71
292.702	14.61
293.169	16.61
293.637	20.71
294.104	12.01
294.571	2.11
295.039	6.71
295.506	9.21
295.973	14.81
296.44	7.21
296.908	13.31
297.375	15.51
297.842	16.01
298.309	15.41
298.776	9.11
299.243	11.21
299.71	13.51
300.177	18.01
300.644	15.31
301.111	11.31
301.578	21.91
302.045	14.61
302.512	18.21
302.979	15.81
303.446	14.51
303.913	8.81
304.379	10.01
304.846	20.61
305.313	19.71
305.78	19.31
306.246	21.61
306.713	26.31
307.18	20.31
307.646	20.01
308.113	18.91
308.579	20.21
309.046	23.31
309.512	22.41
309.979	9.51
310.445	20.71
310.912	16.81
311.378	23.41
311.845	18.41
312.311	22.51
312.777	26.91
313.244	26.81
313.71	30.31
314.176	23.01
314.642	28.81
315.109	25.61
315.575	31.41
316.041	31.91
316.507	26.81
316.973	36.71
317.439	28.41
317.905	31.11
318.371	32.01
318.837	28.31
319.303	26.61
319.769	27.61
320.235	26.51
320.701	26.61
321.167	27.91
321.633	25.21
322.099	28.71
322.564	34.21
323.03	26.81
323.496	31.31
323.962	35.11
324.427	33.21
324.893	33.81
325.359	30.41
325.824	32.61
326.29	30.21
326.755	33.21
327.221	35.81
327.686	36.41
328.152	39.91
328.617	32.71
329.083	39.01
329.548	48.61
330.014	36.91
330.479	28.31
330.944	39.31
331.41	41.11
331.875	37.51
332.34	32.91
332.805	38.01
333.271	36.71
333.736	36.21
334.201	40.61
334.666	47.11
335.131	48.01
335.596	41.21
336.061	39.61
336.526	33.21
336.991	43.51
337.456	45.91
337.921	40.51
338.386	38.31
338.851	36.71
339.316	36.11
339.781	36.61
340.246	47.11
340.711	40.71
341.175	42.81
341.64	37.21
342.105	43.01
342.569	48.71
343.034	49.81
343.499	46.01
343.963	38.81
344.428	52.81
344.893	56.11
345.357	55.41
345.822	52.71
346.286	56.61
346.751	66.71
347.215	59.11
347.679	60.31
348.144	78.81
348.608	66.31
349.073	58.91
349.537	64.21
350.001	70.61
350.465	74.41
350.93	61.71
351.394	68.01
351.858	65.71
352.322	74.01
352.786	68.41
353.25	87.91
353.715	91.91
354.179	85.61
354.643	100.81
355.107	109.11
355.571	93.31
356.035	88.41
356.498	98.71
356.962	102.61
357.426	114.51
357.89	102.11
358.354	73.51
358.818	71.11
359.281	65.71
359.745	64.71
360.209	62.41
360.673	65.91
361.136	72.81
361.6	72.51
362.064	75.41
362.527	74.61
362.991	77.21
363.454	69.91
363.918	65.21
364.381	64.91
364.845	75.91
365.308	68.81
365.772	72.51
366.235	70.41
366.698	73.11
367.162	80.01
367.625	74.61
368.088	76.31
368.552	76.21
369.015	79.21
369.478	85.31
369.941	91.01
370.404	78.21
370.867	92.51
371.331	93.11
371.794	99.51
372.257	95.31
372.72	98.51
373.183	96.31
373.646	85.81
374.109	91.51
374.572	83.41
375.035	93.11
375.497	92.11
375.96	91.31
376.423	86.81
376.886	98.61
377.349	99.11
377.811	88.71
378.274	96.21
378.737	95.91
379.199	99.31
379.662	99.91
380.125	107.41
380.587	101.31
381.05	110.81
381.512	116.31
381.975	117.31
382.437	120.21
382.9	114.51
383.362	122.71
383.825	120.91
384.287	129.71
384.75	130.71
385.212	120.41
385.674	129.01
386.136	122.01
386.599	111.21
387.061	112.61
387.523	117.01
387.985	119.51
388.447	124.91
388.91	124.61
389.372	140.21
389.834	143.51
390.296	129.81
390.758	147.41
391.22	152.81
391.682	195.61
392.144	280.71
392.606	215.01
393.068	156.31
393.529	155.71
393.991	139.61
394.453	132.51
394.915	141.71
395.377	171.91
395.838	196.91
396.3	142.21
396.762	130.41
397.224	122.21
397.685	116.31
398.147	123.01
398.608	113.41
399.07	118.81
399.531	126.01
399.993	123.81
400.454	143.31
400.916	131.71
401.377	127.31
401.839	130.81
402.3	137.41
402.762	151.71
403.223	165.51
403.684	154.71
404.145	146.71
404.607	148.41
405.068	155.61
405.529	155.11
405.99	165.71
406.451	166.21
406.913	158.61
407.374	150.11
407.835	143.91
408.296	149.91
408.757	154.81
409.218	170.91
409.679	162.31
410.14	162.31
410.601	164.71
411.062	163.81
411.522	179.81
411.983	174.31
412.444	159.71
412.905	171.31
413.366	166.21
413.826	179.91
414.287	202.31
414.748	243.21
415.208	227.11
415.669	201.31
416.13	190.61
416.59	185.21
417.051	191.91
417.511	195.11
417.972	218.81
418.432	229.51
418.893	261.21
419.353	227.61
419.814	180.41
420.274	167.01
420.734	163.81
421.195	185.91
421.655	187.91
422.115	183.31
422.576	176.11
423.036	180.31
423.496	199.61
423.956	192.81
424.416	208.91
424.876	247.51
425.336	237.41
425.797	240.31
426.257	240.81
426.717	218.71
427.177	217.41
427.637	197.91
428.097	217.31
428.556	229.61
429.016	257.81
429.476	235.91
429.936	249.41
430.396	258.21
430.856	274.01
431.315	303.11
431.775	327.11
432.235	348.91
432.694	327.91
433.154	346.91
433.614	371.51
434.073	315.91
434.533	267.81
434.993	250.21
435.452	263.61
435.912	277.01
436.371	272.41
436.83	263.91
437.29	252.51
437.749	238.21
438.209	239.61
438.668	255.31
439.127	266.01
439.587	242.71
440.046	226.11
440.505	245.01
440.964	255.51
441.424	304.21
441.883	292.91
442.342	244.31
442.801	211.11
443.26	204.41
443.719	200.91
444.178	205.91
444.637	195.11
445.096	203.61
445.555	209.81
446.014	206.91
446.473	209.71
446.932	214.81
447.391	208.91
447.849	209.51
448.308	209.01
448.767	195.81
449.226	216.71
449.685	221.61
450.143	232.91
450.602	220.81
451.061	211.61
451.519	221.01
451.978	219.61
452.436	218.81
452.895	223.11
453.353	239.51
453.812	229.01
454.27	223.01
454.729	225.51
455.187	223.01
455.646	232.91
456.104	234.21
456.562	238.31
457.021	249.31
457.479	241.71
457.937	250.01
458.395	244.61
458.854	231.91
459.312	246.51
459.77	259.11
460.228	235.91
460.686	221.91
461.144	239.51
461.602	232.41
462.06	224.01
462.518	237.41
462.976	243.01
463.434	235.81
463.892	246.51
464.35	253.21
464.808	275.21
465.266	245.11
465.724	249.41
466.181	253.11
466.639	251.11
467.097	273.01
467.555	284.91
468.012	282.51
468.47	289.01
468.928	305.71
469.385	318.81
469.843	322.41
470.3	327.21
470.758	334.51
471.215	364.01
471.673	382.01
472.13	384.61
472.588	390.41
473.045	342.61
473.503	353.71
473.96	368.31
474.417	380.81
474.875	408.01
475.332	453.31
475.789	432.21
476.246	437.91
476.704	455.21
477.161	477.81
477.618	492.51
478.075	528.51
478.532	582.81
478.989	658.21
479.446	769.81
479.903	727.41
480.36	759.81
480.817	811.41
481.274	913.31
481.731	1011.11
482.188	1096.21
482.645	1217.51
483.102	1319.21
483.558	1448.31
484.015	1493.71
484.472	1474.31
484.929	1429.51
485.385	1382.31
485.842	1331.41
486.299	1276.01
486.755	1220.51
487.212	1022.91
487.668	870.01
488.125	793.61
488.582	727.01
489.038	699.41
489.494	670.11
489.951	636.21
490.407	629.21
490.864	609.91
491.32	612.11
491.776	603.51
492.233	611.21
492.689	581.01
493.145	570.01
493.602	563.41
494.058	575.51
494.514	584.11
494.97	600.51
495.426	607.11
495.882	585.91
496.338	568.01
496.794	590.01
497.251	580.71
497.707	593.51
498.163	604.01
498.618	604.11
499.074	606.01
499.53	646.31
499.986	645.11
500.442	615.71
500.898	593.41
501.354	584.01
501.809	600.31
502.265	605.71
502.721	629.81
503.177	629.51
503.632	632.31
504.088	651.41
504.543	674.01
504.999	672.21
505.455	619.61
505.91	589.61
506.366	594.01
506.821	590.41
507.277	582.51
507.732	592.11
508.187	579.81
508.643	589.61
509.098	597.01
509.553	624.21
510.009	631.61
510.464	630.11
510.919	642.91
511.375	646.91
511.83	666.61
512.285	686.61
512.74	713.91
513.195	736.21
513.65	721.11
514.105	731.21
514.56	725.71
515.015	750.81
515.47	767.91
515.925	753.31
516.38	744.81
516.835	747.51
517.29	741.51
517.745	728.61
518.2	711.81
518.655	705.51
519.109	705.21
519.564	700.31
520.019	687.61
520.474	690.81
520.928	689.81
521.383	679.51
521.838	670.11
522.292	675.11
522.747	668.61
523.201	668.31
523.656	665.11
524.11	658.71
524.565	639.31
525.019	645.61
525.474	663.41
525.928	667.91
526.382	657.71
526.837	658.71
527.291	665.31
527.745	655.31
528.2	666.11
528.654	654.81
529.108	648.21
529.562	659.21
530.016	659.01
530.47	652.61
530.925	661.91
531.379	662.41
531.833	665.91
532.287	669.41
532.741	661.41
533.195	665.81
533.649	668.31
534.103	675.71
534.556	685.51
535.01	679.31
535.464	656.61
535.918	685.01
536.372	679.71
536.826	684.51
537.279	678.81
537.733	678.51
538.187	687.51
538.64	680.31
539.094	688.61
539.548	687.61
540.001	685.71
540.455	678.51
540.908	694.71
541.362	695.81
541.815	715.41
542.269	719.31
542.722	718.31
543.175	728.91
543.629	733.31
544.082	748.41
544.536	737.61
544.989	740.21
545.442	749.61
545.895	752.81
546.349	752.51
546.802	757.21
547.255	761.71
547.708	768.41
548.161	778.61
548.614	785.01
549.067	786.91
549.52	773.11
549.973	775.91
550.426	765.81
550.879	750.21
551.332	758.11
551.785	769.41
552.238	770.31
552.691	786.91
553.144	782.41
553.596	795.21
554.049	820.61
554.502	847.41
554.955	869.61
555.407	858.81
555.86	855.71
556.313	846.51
556.765	839.61
557.218	827.91
557.67	838.01
558.123	836.91
558.576	828.41
559.028	837.31
559.48	833.51
559.933	825.01
560.385	797.91
560.838	770.81
561.29	744.81
561.742	751.31
562.195	734.01
562.647	739.91
563.099	734.21
563.551	735.61
564.004	741.21
564.456	735.41
564.908	728.21
565.36	715.11
565.812	708.31
566.264	694.01
566.716	683.71
567.168	678.71
567.62	687.91
568.072	673.71
568.524	661.81
568.976	656.01
569.428	646.31
569.88	644.01
570.332	654.81
570.784	651.31
571.235	654.81
571.687	662.01
572.139	675.41
572.59	680.41
573.042	685.01
573.494	670.91
573.945	675.01
574.397	654.31
574.849	660.31
575.3	662.21
575.752	652.11
576.203	647.51
576.655	649.61
577.106	636.81
577.557	634.01
578.009	638.21
578.46	636.31
578.912	622.91
579.363	639.21
579.814	632.71
580.265	633.91
580.717	640.71
581.168	646.21
581.619	646.61
582.07	648.01
582.521	645.01
582.972	640.01
583.423	648.51
583.875	653.51
584.326	671.61
584.777	723.21
585.227	801.21
585.678	885.31
586.129	976.21
586.58	1032.51
587.031	1122.31
587.482	1273.21
587.933	1447.91
588.384	1254.71
588.834	930.21
589.285	777.21
589.736	751.41
590.186	741.91
590.637	734.11
591.088	719.71
591.538	700.61
591.989	701.01
592.439	692.51
592.89	688.21
593.34	694.11
593.791	682.91
594.241	673.91
594.692	686.91
595.142	674.21
595.593	665.51
596.043	681.51
596.493	692.91
596.943	689.51
597.394	690.11
597.844	686.01
598.294	708.61
598.744	734.71
599.195	750.31
599.645	782.21
600.095	820.81
600.545	878.61
600.995	935.11
601.445	997.31
601.895	1042.01
602.345	1095.01
602.795	1071.41
603.245	1027.91
603.695	970.91
604.145	911.21
604.594	879.31
605.044	822.01
605.494	765.11
605.944	717.91
606.393	714.41
606.843	696.91
607.293	708.21
607.743	697.31
608.192	718.41
608.642	728.21
609.091	751.51
609.541	743.41
609.99	743.41
610.44	740.51
610.889	691.61
611.339	678.01
611.788	656.01
612.238	667.51
612.687	696.31
613.136	693.71
613.586	709.51
614.035	701.61
614.484	721.51
614.933	729.61
615.383	718.41
615.832	705.11
616.281	691.61
616.73	666.51
617.179	640.21
617.628	622.61
618.077	605.01
618.526	604.21
618.975	590.31
619.424	596.21
619.873	592.71
620.322	596.71
620.771	583.21
621.22	575.51
621.669	568.61
622.118	556.91
622.567	559.11
623.015	556.01
623.464	545.71
623.913	538.81
624.361	528.51
624.81	530.11
625.259	526.81
625.707	530.91
626.156	526.31
626.604	540.31
627.053	545.91
627.501	537.51
627.95	536.21
628.398	553.91
628.847	544.31
629.295	550.81
629.744	549.61
630.192	542.21
630.64	554.41
631.089	546.41
631.537	559.11
631.985	568.81
632.433	577.41
632.881	584.81
633.33	645.11
633.778	618.51
634.226	545.01
634.674	555.91
635.122	560.61
635.57	576.91
636.018	607.21
636.466	562.01
636.914	534.41
637.362	555.11
637.81	553.61
638.258	559.11
638.705	559.31
639.153	578.71
639.601	602.61
640.049	613.41
640.497	644.01
640.944	675.71
641.392	616.41
641.84	579.91
642.287	565.61
642.735	544.51
643.182	554.21
643.63	553.41
644.078	552.91
644.525	575.81
644.973	571.51
645.42	575.31
645.867	598.11
646.315	618.41
646.762	638.31
647.21	665.91
647.657	682.11
648.104	726.41
648.551	744.01
648.999	809.41
649.446	881.51
649.893	971.61
650.34	1121.31
650.787	1339.61
651.234	1659.11
651.682	2200.01
652.129	3026.21
652.576	4338.91
653.023	6426.21
653.47	8752.41
653.917	10907.11
654.363	12531.31
654.81	13832.51
655.257	13117.61
655.704	8577.61
656.151	5045.21
656.598	3289.11
657.044	2337.21
657.491	1786.01
657.938	1434.51
658.385	1192.81
658.831	1045.71
659.278	918.01
659.724	817.11
660.171	755.61
660.618	687.31
661.064	673.81
661.511	648.61
661.957	627.11
662.404	611.41
662.85	636.11
663.296	600.41
663.743	544.51
664.189	521.41
664.635	516.31
665.082	502.11
665.528	505.01
665.974	507.21
666.42	501.31
666.867	486.71
667.313	469.21
667.759	468.91
668.205	455.81
668.651	466.61
669.097	475.61
669.543	478.51
669.989	452.31
670.435	437.21
670.881	430.71
671.327	425.91
671.773	452.61
672.219	478.01
672.665	527.31
673.11	560.21
673.556	603.01
674.002	642.21
674.448	629.71
674.893	525.31
675.339	460.71
675.785	425.61
676.23	399.31
676.676	381.81
677.122	365.81
677.567	356.11
678.013	348.51
678.458	341.31
678.904	349.21
679.349	330.41
679.794	339.81
680.24	340.91
680.685	333.11
681.131	325.61
681.576	333.21
682.021	335.61
682.466	339.81
682.912	331.71
683.357	334.21
683.802	367.61
684.247	397.61
684.692	439.01
685.137	475.71
685.583	511.51
686.028	536.31
686.473	495.01
686.918	436.71
687.363	398.81
687.807	379.31
688.252	360.31
688.697	340.61
689.142	329.51
689.587	325.41
690.032	318.61
690.477	332.11
690.921	340.31
691.366	376.11
691.811	388.81
692.255	412.51
692.7	445.61
693.145	480.71
693.589	671.81
694.034	1091.21
694.478	1483.81
694.923	1667.01
695.367	2159.21
695.812	1138.61
696.256	481.31
696.701	350.11
697.145	335.41
697.59	319.61
698.034	311.61
698.478	320.51
698.922	315.11
699.367	319.91
699.811	330.41
700.255	350.51
700.699	365.31
701.143	410.11
701.588	459.41
702.032	495.31
702.476	496.81
702.92	469.81
703.364	472.21
703.808	614.31
704.252	1004.71
704.696	1405.31
705.14	1590.61
705.584	2031.41
706.027	1032.31
706.471	506.61
706.915	386.41
707.359	341.91
707.803	308.41
708.246	297.01
708.69	302.51
709.134	305.01
709.577	294.81
710.021	310.01
710.465	304.31
710.908	287.61
711.352	288.51
711.795	298.31
712.239	333.31
712.682	374.31
713.126	401.11
713.569	442.91
714.012	353.51
714.456	308.91
714.899	282.21
715.342	266.51
715.786	251.31
716.229	241.81
716.672	240.81
717.115	238.11
717.558	242.61
718.002	240.71
718.445	253.41
718.888	282.61
719.331	279.51
719.774	302.11
720.217	294.51
720.66	272.31
721.103	261.31
721.546	250.31
721.989	236.21
722.432	224.61
722.874	231.91
723.317	221.31
723.76	226.01
724.203	243.71
724.645	315.61
725.088	428.61
725.531	552.11
725.974	610.01
726.416	528.01
726.859	295.51
727.301	242.51
727.744	234.51
728.187	223.21
728.629	234.31
729.071	231.81
729.514	251.61
729.956	263.41
730.399	278.01
730.841	273.71
731.283	263.41
731.726	254.31
732.168	243.61
732.61	259.61
733.053	274.01
733.495	295.61
733.937	342.11
734.379	386.51
734.821	414.21
735.263	524.11
735.705	823.01
736.148	1549.51
736.59	2491.41
737.032	2916.31
737.474	2368.11
737.916	777.91
738.357	415.31
738.799	316.71
739.241	283.51
739.683	271.81
740.125	285.51
740.567	295.71
741.008	302.11
741.45	306.11
741.892	309.01
742.334	324.31
742.775	342.11
743.217	335.51
743.658	265.81
744.1	244.01
744.542	260.61
744.983	298.21
745.425	329.31
745.866	332.51
746.307	268.61
746.749	276.21
747.19	315.21
747.632	442.81
748.073	864.91
748.514	1823.51
748.956	2729.11
749.397	3441.61
749.838	2844.71
750.279	2836.91
750.72	1432.21
751.162	533.51
751.603	323.61
752.044	247.21
752.485	212.31
752.926	203.11
753.367	198.71
753.808	191.11
754.249	188.51
754.69	179.71
755.131	182.71
755.572	177.01
756.013	173.01
756.453	177.71
756.894	179.71
757.335	180.11
757.776	189.61
758.216	187.51
758.657	194.41
759.098	201.11
759.538	214.71
759.979	257.31
760.42	364.41
760.86	692.91
761.301	1806.61
761.741	4288.51
762.182	6086.51
762.622	4309.61
763.063	1261.61
763.503	531.71
