Data from 20171114-ORNL-Ar_H_NY_Subt18_08-09-27-236.txt Node
Date: Tue Nov 14 08:09:27 EST 2017
User: Ender
Spectrometer: HR+D1039
Trigger mode: 0
Integration Time (sec): 2.730000E-2
Scans to average: 10
Electric dark correction enabled: true
Nonlinearity correction enabled: false
Boxcar width: 0
XAxis mode: Wavelengths
Number of Pixels in Spectrum: 2048
>>>>>Begin Spectral Data<<<<<
187.836	-5.03
188.309	-5.03
188.782	-5.03
189.255	0.17
189.728	2.77
190.201	8.57
190.674	-0.03
191.147	0.47
191.619	-10.93
192.092	-4.12
192.565	5.27
193.038	3.77
193.511	0.07
193.984	2.97
194.456	1.07
194.929	0.67
195.402	-3.43
195.874	-2.33
196.347	-7.13
196.82	-8.62
197.292	2.07
197.765	-2.42
198.237	-6.83
198.71	4.37
199.182	0.47
199.655	5.47
200.127	2.27
200.6	-7.73
201.072	1.37
201.544	-8.23
202.017	-4.62
202.489	0.17
202.961	-5.92
203.433	-3.03
203.906	-8.33
204.378	-7.92
204.85	-3.03
205.322	-10.83
205.794	-3.53
206.266	-5.43
206.739	-7.93
207.211	-1.83
207.683	-3.02
208.155	-9.63
208.627	-11.03
209.099	-2.03
209.57	-7.02
210.042	-4.53
210.514	-0.92
210.986	-0.93
211.458	-5.83
211.93	-8.83
212.402	2.67
212.873	-2.13
213.345	-3.52
213.817	-12.03
214.288	-6.43
214.76	-10.83
215.232	-0.92
215.703	-7.62
216.175	-1.33
216.646	-7.33
217.118	-7.03
217.589	-3.92
218.061	0.07
218.532	-4.02
219.004	-0.12
219.475	-5.02
219.946	-0.53
220.418	-2.42
220.889	-1.23
221.36	-1.52
221.832	-6.83
222.303	-7.23
222.774	-2.93
223.245	-7.02
223.717	-0.63
224.188	-6.23
224.659	-7.73
225.13	-4.73
225.601	-3.03
226.072	-5.33
226.543	-0.63
227.014	-1.83
227.485	-3.43
227.956	-7.12
228.427	-4.23
228.898	-3.33
229.369	2.17
229.839	-4.43
230.31	-10.63
230.781	1.17
231.252	-11.12
231.722	-5.93
232.193	-6.83
232.664	-4.93
233.135	-2.93
233.605	-6.42
234.076	-12.43
234.546	-6.43
235.017	3.17
235.487	3.57
235.958	-3.73
236.428	-9.43
236.899	-3.62
237.369	-2.73
237.84	-10.83
238.31	2.27
238.78	-4.62
239.251	-9.02
239.721	-0.23
240.191	-9.83
240.662	-3.33
241.132	-2.43
241.602	-7.43
242.072	-6.53
242.542	2.67
243.013	-9.63
243.483	1.38
243.953	0.17
244.423	-4.42
244.893	-9.43
245.363	-0.23
245.833	0.27
246.303	-8.73
246.773	-3.73
247.243	-3.53
247.712	-3.93
248.182	-8.73
248.652	2.37
249.122	-8.63
249.592	-5.53
250.061	-3.53
250.531	6.58
251.001	-5.42
251.471	2.67
251.94	2.17
252.41	0.67
252.879	-7.33
253.349	4.97
253.818	4.17
254.288	-4.73
254.757	-5.52
255.227	-6.52
255.696	-6.13
256.166	2.48
256.635	0.88
257.105	0.58
257.574	-4.83
258.043	-0.62
258.513	-4.63
258.982	-0.12
259.451	-10.73
259.92	-3.43
260.389	-3.23
260.859	4.27
261.328	-3.12
261.797	-2.12
262.266	-1.53
262.735	-0.33
263.204	-6.53
263.673	-1.93
264.142	3.77
264.611	-5.03
265.08	-2.53
265.549	-7.23
266.018	-2.23
266.487	-7.23
266.955	-7.62
267.424	-7.23
267.893	-2.12
268.362	-1.33
268.83	-0.23
269.299	-0.12
269.768	-0.33
270.236	-1.62
270.705	-3.03
271.174	5.27
271.642	1.97
272.111	0.48
272.579	-2.23
273.048	-6.93
273.516	-0.02
273.985	-3.62
274.453	-2.83
274.922	-1.03
275.39	0.67
275.858	-5.43
276.327	0.97
276.795	10.77
277.263	5.27
277.731	7.07
278.2	1.57
278.668	4.88
279.136	6.57
279.604	1.07
280.072	1.17
280.54	4.77
281.008	1.07
281.477	11.37
281.945	3.17
282.413	1.77
282.881	6.48
283.348	1.77
283.816	2.47
284.284	7.77
284.752	11.97
285.22	1.88
285.688	9.67
286.156	-0.83
286.623	8.67
287.091	0.27
287.559	3.67
288.026	4.67
288.494	6.38
288.962	-6.62
289.429	2.07
289.897	6.48
290.364	0.37
290.832	9.08
291.3	7.27
291.767	1.67
292.234	9.27
292.702	-2.02
293.169	0.67
293.637	7.07
294.104	10.07
294.571	1.97
295.039	0.87
295.506	1.57
295.973	1.77
296.44	1.17
296.908	8.67
297.375	3.77
297.842	8.57
298.309	7.67
298.776	5.17
299.243	10.17
299.71	3.37
300.177	13.17
300.644	12.48
301.111	12.98
301.578	9.07
302.045	10.67
302.512	14.07
302.979	16.67
303.446	10.97
303.913	7.67
304.379	7.27
304.846	15.17
305.313	15.57
305.78	6.37
306.246	16.57
306.713	13.17
307.18	18.58
307.646	15.27
308.113	17.07
308.579	13.07
309.046	13.88
309.512	14.17
309.979	4.57
310.445	13.57
310.912	14.87
311.378	19.27
311.845	17.08
312.311	21.27
312.777	21.67
313.244	14.48
313.71	24.67
314.176	19.98
314.642	19.88
315.109	18.07
315.575	27.07
316.041	26.77
316.507	18.57
316.973	25.57
317.439	21.67
317.905	23.67
318.371	22.67
318.837	22.27
319.303	20.97
319.769	21.38
320.235	22.77
320.701	22.97
321.167	18.57
321.633	19.77
322.099	29.77
322.564	27.67
323.03	30.87
323.496	18.67
323.962	27.17
324.427	29.17
324.893	26.97
325.359	25.67
325.824	23.27
326.29	23.07
326.755	25.77
327.221	24.67
327.686	30.17
328.152	34.98
328.617	28.38
329.083	31.97
329.548	38.17
330.014	29.98
330.479	22.07
330.944	25.47
331.41	37.77
331.875	37.77
332.34	29.48
332.805	26.17
333.271	31.47
333.736	29.67
334.201	37.27
334.666	35.27
335.131	33.07
335.596	29.37
336.061	33.47
336.526	25.17
336.991	39.77
337.456	40.98
337.921	36.17
338.386	33.97
338.851	35.97
339.316	34.57
339.781	34.17
340.246	42.38
340.711	37.67
341.175	34.57
341.64	33.67
342.105	35.77
342.569	39.67
343.034	45.37
343.499	40.27
343.963	38.77
344.428	52.98
344.893	47.37
345.357	47.17
345.822	46.97
346.286	53.27
346.751	53.38
347.215	43.77
347.679	52.57
348.144	63.47
348.608	67.88
349.073	54.27
349.537	63.07
350.001	58.57
350.465	65.07
350.93	59.97
351.394	63.07
351.858	58.98
352.322	70.08
352.786	61.77
353.25	66.67
353.715	89.98
354.179	70.67
354.643	87.58
355.107	94.17
355.571	77.38
356.035	74.77
356.498	83.77
356.962	82.17
357.426	98.37
357.89	88.27
358.354	69.47
358.818	67.07
359.281	63.27
359.745	62.08
360.209	57.38
360.673	62.88
361.136	63.17
361.6	67.97
362.064	71.27
362.527	67.97
362.991	73.88
363.454	64.17
363.918	60.47
364.381	61.87
364.845	65.57
365.308	65.37
365.772	66.57
366.235	71.38
366.698	63.27
367.162	68.57
367.625	69.67
368.088	73.47
368.552	74.07
369.015	80.57
369.478	77.38
369.941	85.27
370.404	77.17
370.867	73.77
371.331	85.07
371.794	88.77
372.257	80.17
372.72	87.87
373.183	84.77
373.646	79.38
374.109	82.27
374.572	89.97
375.035	84.27
375.497	82.47
375.96	89.88
376.423	86.97
376.886	94.77
377.349	94.37
377.811	91.77
378.274	92.27
378.737	88.17
379.199	92.77
379.662	94.57
380.125	99.77
380.587	96.38
381.05	90.17
381.512	97.27
381.975	111.57
382.437	102.17
382.9	102.87
383.362	108.07
383.825	114.67
384.287	107.97
384.75	99.17
385.212	109.67
385.674	118.77
386.136	119.48
386.599	107.97
387.061	111.77
387.523	112.07
387.985	115.37
388.447	119.07
388.91	107.98
389.372	120.17
389.834	119.07
390.296	107.57
390.758	118.27
391.22	117.38
391.682	128.27
392.144	134.27
392.606	122.37
393.068	123.17
393.529	139.27
393.991	123.17
394.453	114.77
394.915	117.47
395.377	113.57
395.838	123.77
396.3	121.27
396.762	127.48
397.224	119.87
397.685	118.17
398.147	126.38
398.608	118.88
399.07	115.77
399.531	123.57
399.993	125.98
400.454	145.67
400.916	136.87
401.377	129.58
401.839	140.97
402.3	136.67
402.762	152.97
403.223	165.87
403.684	146.47
404.145	149.67
404.607	149.57
405.068	153.67
405.529	154.88
405.99	168.07
406.451	163.67
406.913	163.87
407.374	159.67
407.835	153.17
408.296	157.48
408.757	160.17
409.218	173.67
409.679	170.38
410.14	158.98
410.601	165.17
411.062	166.67
411.522	167.38
411.983	161.57
412.444	163.88
412.905	171.77
413.366	173.57
413.826	194.47
414.287	196.88
414.748	255.18
415.208	243.57
415.669	206.97
416.13	200.87
416.59	194.77
417.051	210.88
417.511	214.57
417.972	230.78
418.432	240.07
418.893	280.87
419.353	249.28
419.814	194.17
420.274	178.47
420.734	173.27
421.195	191.27
421.655	179.08
422.115	191.27
422.576	189.67
423.036	193.47
423.496	204.77
423.956	207.67
424.416	225.07
424.876	256.88
425.336	253.47
425.797	251.58
426.257	242.27
426.717	226.08
427.177	219.77
427.637	216.17
428.097	222.88
428.556	238.57
429.016	258.17
429.476	248.58
429.936	262.67
430.396	262.67
430.856	267.67
431.315	297.97
431.775	328.88
432.235	364.48
432.694	335.47
433.154	345.48
433.614	366.17
434.073	310.88
434.533	267.38
434.993	256.48
435.452	263.57
435.912	274.67
436.371	271.58
436.83	269.88
437.29	251.88
437.749	233.57
438.209	240.17
438.668	258.87
439.127	270.18
439.587	257.38
440.046	242.27
440.505	253.97
440.964	266.57
441.424	302.97
441.883	294.58
442.342	247.17
442.801	228.48
443.26	225.07
443.719	229.27
444.178	221.07
444.637	214.17
445.096	223.67
445.555	226.48
446.014	222.77
446.473	228.18
446.932	231.08
447.391	229.98
447.849	233.17
448.308	218.98
448.767	224.47
449.226	237.38
449.685	234.07
450.143	249.48
450.602	238.17
451.061	231.48
451.519	235.78
451.978	232.98
452.436	230.98
452.895	235.88
453.353	249.38
453.812	231.08
454.27	240.37
454.729	236.67
455.187	236.27
455.646	236.38
456.104	246.48
456.562	262.97
457.021	267.77
457.479	259.07
457.937	263.67
458.395	266.67
458.854	248.18
459.312	253.37
459.77	271.77
460.228	253.97
460.686	246.57
461.144	257.48
461.602	239.67
462.06	241.47
462.518	256.88
462.976	262.88
463.434	262.27
463.892	266.57
464.35	273.97
464.808	278.48
465.266	257.77
465.724	275.97
466.181	272.18
466.639	275.37
467.097	290.87
467.555	307.07
468.012	305.87
468.47	315.57
468.928	322.88
469.385	334.78
469.843	355.07
470.3	351.97
470.758	362.27
471.215	388.48
471.673	398.17
472.13	407.58
472.588	412.68
473.045	374.17
473.503	378.97
473.96	395.37
474.417	409.27
474.875	424.77
475.332	479.07
475.789	458.27
476.246	471.57
476.704	486.88
477.161	502.57
477.618	523.98
478.075	558.88
478.532	605.18
478.989	669.77
479.446	765.47
479.903	753.38
480.36	773.17
480.817	818.47
481.274	901.87
481.731	993.58
482.188	1072.47
482.645	1181.57
483.102	1267.67
483.558	1386.48
484.015	1437.77
484.472	1397.27
484.929	1357.77
485.385	1313.28
485.842	1300.88
486.299	1240.38
486.755	1203.67
487.212	1026.27
487.668	887.38
488.125	816.98
488.582	750.47
489.038	725.37
489.494	688.08
489.951	673.87
490.407	654.97
490.864	641.17
491.32	634.37
491.776	625.48
492.233	643.38
492.689	614.87
493.145	606.97
493.602	602.48
494.058	616.48
494.514	617.08
494.97	641.38
495.426	643.68
495.882	618.77
496.338	610.48
496.794	618.57
497.251	611.98
497.707	618.47
498.163	619.48
498.618	637.67
499.074	637.87
499.53	661.58
499.986	655.97
500.442	646.38
500.898	611.58
501.354	619.17
501.809	623.27
502.265	630.87
502.721	628.27
503.177	635.78
503.632	643.27
504.088	652.67
504.543	672.17
504.999	687.18
505.455	654.07
505.91	648.77
506.366	641.48
506.821	636.38
507.277	641.47
507.732	638.88
508.187	637.87
508.643	646.18
509.098	647.98
509.553	666.07
510.009	676.38
510.464	688.37
510.919	702.48
511.375	706.88
511.83	708.67
512.285	727.17
512.74	758.98
513.195	789.68
513.65	775.58
514.105	767.47
514.56	766.47
515.015	795.97
515.47	793.37
515.925	790.67
516.38	792.07
516.835	788.98
517.29	787.67
517.745	782.28
518.2	776.07
518.655	764.57
519.109	746.17
519.564	749.67
520.019	732.67
520.474	733.17
520.928	731.17
521.383	730.77
521.838	713.27
522.292	719.27
522.747	722.18
523.201	705.27
523.656	706.57
524.11	708.58
524.565	704.18
525.019	699.27
525.474	705.57
525.928	709.08
526.382	704.57
526.837	707.18
527.291	716.27
527.745	702.38
528.2	713.77
528.654	704.87
529.108	706.27
529.562	696.77
530.016	697.17
530.47	690.17
530.925	699.57
531.379	697.68
531.833	706.47
532.287	695.38
532.741	712.97
533.195	709.27
533.649	715.48
534.103	721.87
534.556	700.17
535.01	721.88
535.464	702.48
535.918	720.08
536.372	727.08
536.826	719.47
537.279	712.58
537.733	710.57
538.187	724.57
538.64	721.07
539.094	731.27
539.548	734.88
540.001	734.17
540.455	727.57
540.908	742.87
541.362	748.77
541.815	762.48
542.269	770.67
542.722	770.57
543.175	784.87
543.629	781.77
544.082	798.67
544.536	802.27
544.989	798.47
545.442	811.37
545.895	810.57
546.349	808.78
546.802	813.27
547.255	815.67
547.708	820.07
548.161	836.77
548.614	829.27
549.067	830.68
549.52	826.77
549.973	823.17
550.426	812.97
550.879	819.37
551.332	815.88
551.785	825.07
552.238	819.27
552.691	836.97
553.144	861.67
553.596	863.58
554.049	886.27
554.502	918.37
554.955	928.57
555.407	924.27
555.86	909.67
556.313	911.87
556.765	897.08
557.218	901.17
557.67	895.07
558.123	900.27
558.576	891.57
559.028	890.08
559.48	890.38
559.933	886.57
560.385	863.07
560.838	835.57
561.29	794.98
561.742	802.08
562.195	787.07
562.647	791.67
563.099	788.38
563.551	793.77
564.004	800.77
564.456	786.17
564.908	768.47
565.36	753.48
565.812	734.47
566.264	729.97
566.716	731.47
567.168	722.88
567.62	726.67
568.072	712.87
568.524	698.88
568.976	697.77
569.428	688.37
569.88	691.17
570.332	698.28
570.784	702.88
571.235	706.77
571.687	719.98
572.139	712.17
572.59	722.77
573.042	734.47
573.494	725.47
573.945	715.07
574.397	692.27
574.849	701.87
575.3	702.18
575.752	697.27
576.203	698.07
576.655	695.17
577.106	693.98
577.557	677.47
578.009	683.58
578.46	681.27
578.912	674.47
579.363	687.07
579.814	678.27
580.265	681.88
580.717	685.67
581.168	690.98
581.619	693.47
582.07	700.78
582.521	681.47
582.972	683.88
583.423	680.97
583.875	689.48
584.326	703.27
584.777	712.47
585.227	735.48
585.678	746.98
586.129	754.27
586.58	782.58
587.031	788.27
587.482	830.47
587.933	850.87
588.384	834.08
588.834	804.77
589.285	800.27
589.736	800.67
590.186	791.57
590.637	793.67
591.088	753.97
591.538	760.37
591.989	750.98
592.439	738.38
592.89	732.47
593.34	722.17
593.791	727.07
594.241	718.08
594.692	720.77
595.142	715.48
595.593	709.07
596.043	722.08
596.493	716.77
596.943	727.78
597.394	730.77
597.844	743.48
598.294	762.28
598.744	786.17
599.195	803.07
599.645	837.57
600.095	884.67
600.545	955.67
600.995	1001.17
601.445	1051.97
601.895	1119.78
602.345	1161.97
602.795	1144.78
603.245	1091.47
603.695	1034.27
604.145	982.48
604.594	944.78
605.044	882.07
605.494	820.97
605.944	779.17
606.393	769.17
606.843	750.57
607.293	755.88
607.743	739.48
608.192	764.67
608.642	779.27
609.091	778.28
609.541	780.17
609.99	785.78
610.44	765.28
610.889	735.58
611.339	716.17
611.788	689.47
612.238	705.88
612.687	722.07
613.136	722.27
613.586	724.27
614.035	722.58
614.484	723.77
614.933	713.57
615.383	723.48
615.832	721.08
616.281	718.47
616.73	698.68
617.179	684.08
617.628	660.27
618.077	649.37
618.526	632.67
618.975	626.47
619.424	627.07
619.873	633.67
620.322	644.17
620.771	623.18
621.22	625.97
621.669	609.47
622.118	602.27
622.567	590.67
623.015	583.07
623.464	589.77
623.913	570.88
624.361	574.07
624.81	566.48
625.259	568.38
625.707	569.47
626.156	573.17
626.604	580.57
627.053	572.47
627.501	593.77
627.95	592.38
628.398	606.77
628.847	572.47
629.295	591.18
629.744	588.17
630.192	580.88
630.64	581.57
631.089	559.27
631.537	560.27
631.985	534.87
632.433	545.48
632.881	538.38
633.33	543.38
633.778	534.98
634.226	540.08
634.674	551.97
635.122	560.77
635.57	565.38
636.018	564.57
636.466	577.68
636.914	568.18
637.362	584.08
637.81	590.58
638.258	597.97
638.705	600.07
639.153	631.37
639.601	646.77
640.049	667.07
640.497	691.47
640.944	712.47
641.392	668.07
641.84	621.97
642.287	597.68
642.735	582.17
643.182	581.38
643.63	582.48
644.078	568.88
644.525	586.07
644.973	588.48
645.42	617.38
645.867	629.07
646.315	652.08
646.762	667.38
647.21	706.08
647.657	718.17
648.104	747.48
648.551	766.57
648.999	825.37
649.446	900.27
649.893	983.67
650.34	1127.97
650.787	1344.38
651.234	1667.97
651.682	2148.57
652.129	2932.97
652.576	4170.88
653.023	6079.27
653.47	8193.58
653.917	10033.98
654.363	11503.88
654.81	12543.28
655.257	11925.88
655.704	7904.38
656.151	4770.07
656.598	3136.48
657.044	2230.88
657.491	1748.97
657.938	1409.67
658.385	1198.67
658.831	1041.28
659.278	934.67
659.724	839.08
660.171	782.07
660.618	721.17
661.064	692.17
661.511	669.68
661.957	655.27
662.404	638.67
662.85	653.38
663.296	629.48
663.743	570.17
664.189	539.17
664.635	533.48
665.082	551.77
665.528	534.77
665.974	528.67
666.42	520.47
666.867	514.48
667.313	493.68
667.759	474.17
668.205	462.58
668.651	468.67
669.097	456.67
669.543	449.07
669.989	460.07
670.435	457.17
670.881	458.58
671.327	467.48
671.773	478.67
672.219	516.27
672.665	567.47
673.11	613.88
673.556	651.17
674.002	694.07
674.448	687.57
674.893	571.77
675.339	496.38
675.785	459.07
676.23	436.77
676.676	402.57
677.122	399.08
677.567	392.67
678.013	383.07
678.458	375.07
678.904	371.88
679.349	364.77
679.794	376.98
680.24	364.08
680.685	361.37
681.131	357.48
681.576	363.47
682.021	366.18
682.466	361.97
682.912	360.67
683.357	370.98
683.802	391.97
684.247	432.07
684.692	478.58
685.137	521.07
685.583	561.98
686.028	588.07
686.473	539.38
686.918	470.77
687.363	437.58
687.807	408.27
688.252	377.38
688.697	370.67
689.142	352.17
689.587	350.27
690.032	336.67
690.477	356.67
690.921	362.47
691.366	402.77
691.811	419.58
692.255	448.68
692.7	483.98
693.145	540.38
693.589	776.88
694.034	1255.88
694.478	1661.07
694.923	1806.88
695.367	2359.07
695.812	1268.77
696.256	523.88
696.701	388.38
697.145	359.48
697.59	340.47
698.034	331.88
698.478	344.28
698.922	339.58
699.367	347.98
699.811	347.87
700.255	367.97
700.699	403.98
701.143	444.78
701.588	498.88
702.032	540.77
702.476	535.47
702.92	519.67
703.364	530.47
703.808	696.07
704.252	1137.47
704.696	1568.18
705.14	1753.28
705.584	2220.57
706.027	1117.27
706.471	544.97
706.915	423.38
707.359	369.87
707.803	344.38
708.246	328.58
708.69	327.77
709.134	330.27
709.577	323.77
710.021	328.88
710.465	314.58
710.908	309.98
711.352	317.27
711.795	330.88
712.239	376.68
712.682	408.07
713.126	431.67
713.569	475.37
714.012	373.87
714.456	316.28
714.899	303.68
715.342	279.97
715.786	268.57
716.229	268.97
716.672	263.98
717.115	261.87
717.558	259.38
718.002	257.67
718.445	278.68
718.888	298.08
719.331	300.17
719.774	326.07
720.217	317.07
720.66	293.27
721.103	280.27
721.546	271.88
721.989	257.67
722.432	243.27
722.874	247.27
723.317	246.98
723.76	254.57
724.203	273.97
724.645	340.07
725.088	479.07
725.531	604.58
725.974	667.17
726.416	567.67
726.859	322.08
727.301	251.07
727.744	242.67
728.187	242.38
728.629	250.88
729.071	264.18
729.514	274.17
729.956	286.27
730.399	298.17
730.841	303.77
731.283	294.28
731.726	284.78
732.168	278.37
732.61	283.67
733.053	299.58
733.495	335.67
733.937	378.78
734.379	425.47
734.821	467.18
735.263	594.58
735.705	930.27
736.148	1761.97
736.59	2778.07
737.032	3184.47
737.474	2606.57
737.916	871.48
738.357	460.77
738.799	353.67
739.241	313.37
739.683	292.88
740.125	307.67
740.567	316.37
741.008	330.08
741.45	326.98
741.892	341.18
742.334	369.17
742.775	367.17
743.217	361.47
743.658	291.58
744.1	260.08
744.542	284.57
744.983	341.48
745.425	357.08
745.866	364.17
746.307	296.87
746.749	290.77
747.19	348.78
747.632	503.97
748.073	995.27
748.514	2083.18
748.956	3049.67
749.397	3838.17
749.838	3168.78
750.279	3104.47
750.72	1587.47
751.162	592.98
751.603	347.17
752.044	269.77
752.485	226.77
752.926	221.17
753.367	211.57
753.808	203.77
754.249	198.57
754.69	191.98
755.131	197.48
755.572	192.38
756.013	187.67
756.453	193.27
756.894	198.77
757.335	204.78
757.776	201.17
758.216	205.47
758.657	209.58
759.098	213.77
759.538	241.57
759.979	290.07
760.42	417.57
760.86	808.27
761.301	2102.57
761.741	4925.77
762.182	6691.48
762.622	4735.38
763.063	1407.77
763.503	572.97
