Data from 20171114-ORNL-Ar_H_NY_Subt18_08-07-15-056.txt Node
Date: Tue Nov 14 08:07:15 EST 2017
User: Ender
Spectrometer: HR+D1039
Trigger mode: 0
Integration Time (sec): 2.730000E-2
Scans to average: 10
Electric dark correction enabled: true
Nonlinearity correction enabled: false
Boxcar width: 0
XAxis mode: Wavelengths
Number of Pixels in Spectrum: 2048
>>>>>Begin Spectral Data<<<<<
187.836	-1.8
188.309	-1.8
188.782	-1.8
189.255	1.5
189.728	-0
190.201	1.3
190.674	2.9
191.147	4.4
191.619	-11.1
192.092	7.9
192.565	4.1
193.038	-4.1
193.511	0.5
193.984	-2.1
194.456	-1.1
194.929	-0
195.402	-1.6
195.874	-0.8
196.347	-3.1
196.82	-6
197.292	8.6
197.765	-1.8
198.237	-8.8
198.71	2.7
199.182	-5.9
199.655	-1.6
200.127	1.6
200.6	-4.3
201.072	-2.4
201.544	-8.4
202.017	2.2
202.489	3.8
202.961	-2.4
203.433	-6.8
203.906	-10.6
204.378	-10.3
204.85	-3.5
205.322	-11.2
205.794	-4.7
206.266	-0.8
206.739	-9.9
207.211	2.1
207.683	-7.1
208.155	0.5
208.627	-1.6
209.099	-4.5
209.57	3.3
210.042	-4.8
210.514	-1.3
210.986	-5.5
211.458	-4.2
211.93	-0.5
212.402	2.8
212.873	-9.2
213.345	-8.8
213.817	-8.2
214.288	-10.8
214.76	-9.1
215.232	-4.3
215.703	-7.5
216.175	-1.4
216.646	-4.1
217.118	-14.3
217.589	-0.4
218.061	-1.2
218.532	-7.1
219.004	-1.7
219.475	-13.5
219.946	-2
220.418	-6.8
220.889	2.1
221.36	-1.7
221.832	-4.9
222.303	-10
222.774	-4.9
223.245	-7.8
223.717	-11.6
224.188	-4.8
224.659	-7.4
225.13	-8.3
225.601	-1.5
226.072	2.6
226.543	2.4
227.014	0.5
227.485	-6.6
227.956	-8.2
228.427	-7.2
228.898	-1.4
229.369	3.4
229.839	-2.8
230.31	-8
230.781	1.6
231.252	-2.3
231.722	-2.7
232.193	-5.4
232.664	1.8
233.135	-4.1
233.605	-5.8
234.076	-13.3
234.546	-9.5
235.017	3.2
235.487	-2.6
235.958	-2.5
236.428	-7.5
236.899	-8.2
237.369	-7.1
237.84	-4.4
238.31	0.3
238.78	-4.1
239.251	-6.4
239.721	-4.5
240.191	0.9
240.662	-4.7
241.132	-3.7
241.602	-8.8
242.072	-1.5
242.542	0.2
243.013	1.3
243.483	5.1
243.953	0.5
244.423	-14.5
244.893	-8.7
245.363	-0.7
245.833	-2.9
246.303	-4.9
246.773	1.8
247.243	-0.5
247.712	-2.1
248.182	2.7
248.652	4.3
249.122	-10.8
249.592	3
250.061	-0.8
250.531	-0.1
251.001	-5.8
251.471	7.6
251.94	5.3
252.41	-4.1
252.879	-3.9
253.349	2.9
253.818	3.2
254.288	0.4
254.757	-1.5
255.227	-1.3
255.696	-4.9
256.166	-0.2
256.635	0.9
257.105	1
257.574	-2.3
258.043	-2.1
258.513	-13.2
258.982	3.1
259.451	-7.4
259.92	-2.6
260.389	2.1
260.859	9.1
261.328	0.2
261.797	0.6
262.266	-1.6
262.735	1.2
263.204	2.3
263.673	-2.1
264.142	0.3
264.611	-4.5
265.08	0.9
265.549	1
266.018	1.9
266.487	-3
266.955	-7.1
267.424	-2.2
267.893	-2.9
268.362	-9
268.83	-1.2
269.299	2.3
269.768	-1.9
270.236	-2
270.705	-0
271.174	-0.4
271.642	0.9
272.111	3.3
272.579	2.6
273.048	-0.8
273.516	0.7
273.985	3.8
274.453	3.1
274.922	8.5
275.39	1.4
275.858	-1.1
276.327	6.4
276.795	13.6
277.263	-3.2
277.731	5.6
278.2	5.1
278.668	9.8
279.136	5.6
279.604	1.9
280.072	5.7
280.54	2.8
281.008	6.9
281.477	9.1
281.945	7.9
282.413	8.6
282.881	8.2
283.348	-4.1
283.816	4.5
284.284	3.3
284.752	10.1
285.22	7.1
285.688	9.5
286.156	9.3
286.623	17.2
287.091	3.2
287.559	9.1
288.026	11
288.494	5.2
288.962	-0.8
289.429	7.6
289.897	11.9
290.364	13.1
290.832	7.2
291.3	13.4
291.767	7.4
292.234	8.9
292.702	10.2
293.169	12.7
293.637	16.4
294.104	8.8
294.571	2.4
295.039	4.3
295.506	5.4
295.973	13.7
296.44	6.5
296.908	7
297.375	9.2
297.842	13.6
298.309	9.2
298.776	3
299.243	12.3
299.71	5.9
300.177	17
300.644	14.3
301.111	16.8
301.578	15.5
302.045	8.8
302.512	17.8
302.979	17.8
303.446	8.9
303.913	13.7
304.379	10.6
304.846	16.7
305.313	18.4
305.78	14.1
306.246	19.8
306.713	19.6
307.18	23.2
307.646	15.4
308.113	20.8
308.579	13.8
309.046	15.4
309.512	20.3
309.979	13
310.445	23.7
310.912	19.8
311.378	28.7
311.845	23.4
312.311	24.5
312.777	26.3
313.244	25.7
313.71	31.1
314.176	19.6
314.642	15.9
315.109	22
315.575	25.1
316.041	31.1
316.507	23.4
316.973	26.4
317.439	26.6
317.905	27.3
318.371	27.1
318.837	23.4
319.303	21.9
319.769	23.2
320.235	24.8
320.701	29.4
321.167	31.2
321.633	23.7
322.099	18.5
322.564	36.3
323.03	28.7
323.496	27.1
323.962	29.5
324.427	27.6
324.893	36.5
325.359	31.5
325.824	29.7
326.29	28.4
326.755	28.1
327.221	30.5
327.686	28.4
328.152	34.8
328.617	29.6
329.083	35
329.548	42.6
330.014	40.4
330.479	34
330.944	28.1
331.41	39.1
331.875	32.5
332.34	33.4
332.805	32.6
333.271	39.8
333.736	20.4
334.201	40.1
334.666	38.7
335.131	41.1
335.596	45.2
336.061	43.3
336.526	36.6
336.991	42.3
337.456	47.6
337.921	33.8
338.386	41.2
338.851	40.7
339.316	37.7
339.781	31.5
340.246	34.7
340.711	40
341.175	38.2
341.64	36.7
342.105	39.7
342.569	42.7
343.034	41.9
343.499	46.6
343.963	40.9
344.428	50.1
344.893	48
345.357	41
345.822	51
346.286	49.4
346.751	57.4
347.215	55.8
347.679	52.2
348.144	71.4
348.608	67.7
349.073	55.8
349.537	52
350.001	65.4
350.465	69.9
350.93	67.3
351.394	66.4
351.858	58.5
352.322	72.8
352.786	69.1
353.25	76.9
353.715	90.7
354.179	80.4
354.643	92.6
355.107	96.4
355.571	78.8
356.035	76.7
356.498	93.1
356.962	93.4
357.426	102.6
357.89	89.9
358.354	76.1
358.818	65.9
359.281	65.9
359.745	58.5
360.209	62.7
360.673	57.7
361.136	66
361.6	70.4
362.064	67.5
362.527	71.5
362.991	79.2
363.454	72.3
363.918	71.1
364.381	63.6
364.845	73.6
365.308	70.9
365.772	72.6
366.235	73
366.698	79
367.162	70.5
367.625	68.1
368.088	73.8
368.552	76.9
369.015	74.8
369.478	82.4
369.941	88.5
370.404	76.2
370.867	81.4
371.331	86
371.794	88.6
372.257	77.4
372.72	90.6
373.183	88.1
373.646	76.1
374.109	83
374.572	87.9
375.035	88.2
375.497	92.4
375.96	91.5
376.423	91.8
376.886	103.4
377.349	98.5
377.811	92.5
378.274	90.8
378.737	92.8
379.199	97.1
379.662	89.6
380.125	102.2
380.587	98.3
381.05	104.1
381.512	99.1
381.975	106.7
382.437	108.2
382.9	104.3
383.362	111.9
383.825	114.1
384.287	111.5
384.75	100.1
385.212	111.6
385.674	113.4
386.136	119
386.599	117.4
387.061	107.7
387.523	113.5
387.985	112.9
388.447	125.3
388.91	109.9
389.372	112.1
389.834	123.7
390.296	117.2
390.758	116
391.22	118.9
391.682	132.9
392.144	141.8
392.606	135.4
393.068	128.1
393.529	147
393.991	124.3
394.453	123.5
394.915	120.5
395.377	127.8
395.838	127.8
396.3	122.5
396.762	130.3
397.224	125
397.685	120.8
398.147	120.8
398.608	120.7
399.07	126.9
399.531	124.5
399.993	132.8
400.454	140.4
400.916	142.7
401.377	135
401.839	138.6
402.3	135.9
402.762	150.3
403.223	163.3
403.684	158.2
404.145	156.5
404.607	153.7
405.068	151.2
405.529	155
405.99	169.4
406.451	156.1
406.913	162
407.374	152.6
407.835	160.9
408.296	151.6
408.757	165.5
409.218	174
409.679	166.5
410.14	162
410.601	163.7
411.062	171
411.522	178
411.983	166.6
412.444	167.9
412.905	170.2
413.366	170.6
413.826	184.8
414.287	214.3
414.748	260.8
415.208	237.7
415.669	200.3
416.13	201.5
416.59	201.9
417.051	217.7
417.511	214.7
417.972	239
418.432	245.3
418.893	286
419.353	247.8
419.814	192.2
420.274	181.2
420.734	176.7
421.195	187.1
421.655	176.2
422.115	186.9
422.576	190
423.036	188.8
423.496	201
423.956	218.9
424.416	225.4
424.876	258.7
425.336	254.3
425.797	256.3
426.257	249.9
426.717	234.4
427.177	222
427.637	221.4
428.097	225.2
428.556	244.6
429.016	262.8
429.476	256.7
429.936	257.5
430.396	266.2
430.856	274.8
431.315	294.5
431.775	335
432.235	361.1
432.694	332.2
433.154	338.5
433.614	368.7
434.073	317.8
434.533	278.1
434.993	250.1
435.452	268.9
435.912	280.2
436.371	278.5
436.83	270.8
437.29	254.7
437.749	238.2
438.209	238.4
438.668	262.3
439.127	278.6
439.587	255.3
440.046	243.3
440.505	255.7
440.964	269.3
441.424	309.1
441.883	301.1
442.342	253.4
442.801	229.1
443.26	224.4
443.719	229.3
444.178	220.9
444.637	209.6
445.096	225.2
445.555	223.5
446.014	220.4
446.473	222.3
446.932	232.4
447.391	230.3
447.849	228.9
448.308	220.4
448.767	218.6
449.226	241.4
449.685	235.1
450.143	249.4
450.602	235.8
451.061	226.2
451.519	233
451.978	233.5
452.436	233.9
452.895	243.5
453.353	252.5
453.812	240.5
454.27	239.8
454.729	243.4
455.187	245.6
455.646	245.8
456.104	247.7
456.562	264.1
457.021	267.6
457.479	259.4
457.937	277.7
458.395	266.7
458.854	249.2
459.312	256.2
459.77	272.2
460.228	255.1
460.686	247.6
461.144	256.6
461.602	244.7
462.06	250.4
462.518	253.2
462.976	256.5
463.434	263
463.892	267.8
464.35	274.7
464.808	298
465.266	270.6
465.724	274.4
466.181	272.3
466.639	277.1
467.097	295
467.555	311.7
468.012	310.1
468.47	323.1
468.928	336.8
469.385	339.3
469.843	350.1
470.3	353
470.758	366.8
471.215	378.8
471.673	401.8
472.13	405.7
472.588	414.1
473.045	382.6
473.503	382.4
473.96	403.8
474.417	404
474.875	438.9
475.332	476.3
475.789	466
476.246	464
476.704	488.6
477.161	511.3
477.618	520.9
478.075	553.5
478.532	609.1
478.989	677.6
479.446	791.4
479.903	749.4
480.36	782.5
480.817	820.7
481.274	913.8
481.731	1005.9
482.188	1085.1
482.645	1201.3
483.102	1290.2
483.558	1404.6
484.015	1444.7
484.472	1419.5
484.929	1388.1
485.385	1349.9
485.842	1314.4
486.299	1268.5
486.755	1215.2
487.212	1046.6
487.668	897.5
488.125	825.4
488.582	765.5
489.038	735
489.494	706.3
489.951	685.6
490.407	667.8
490.864	643.1
491.32	643.3
491.776	637.3
492.233	650.4
492.689	614.3
493.145	611.1
493.602	606.5
494.058	619.6
494.514	620.1
494.97	645.1
495.426	655
495.882	629.9
496.338	619.1
496.794	634.4
497.251	621.1
497.707	639.3
498.163	633.9
498.618	643.7
499.074	654.3
499.53	675.8
499.986	676.1
500.442	655.8
500.898	633.2
501.354	616.5
501.809	633.7
502.265	640
502.721	642.3
503.177	641.2
503.632	652
504.088	654.8
504.543	675.3
504.999	709.1
505.455	669.9
505.91	645.6
506.366	651.6
506.821	645.5
507.277	634.3
507.732	646
508.187	639.8
508.643	652.6
509.098	648.7
509.553	673.9
510.009	692.7
510.464	691.2
510.919	714.6
511.375	719.9
511.83	725.4
512.285	734.5
512.74	771.3
513.195	795.7
513.65	785.4
514.105	774.6
514.56	782.5
515.015	795.5
515.47	808.2
515.925	788.4
516.38	800.3
516.835	804.3
517.29	792.7
517.745	789.6
518.2	777.4
518.655	770.1
519.109	754
519.564	752.1
520.019	745.3
520.474	736.6
520.928	744.1
521.383	731.9
521.838	724.4
522.292	727.1
522.747	733.6
523.201	727.3
523.656	713.8
524.11	715.7
524.565	700.8
525.019	708
525.474	707.3
525.928	709.8
526.382	710.2
526.837	716
527.291	713.2
527.745	718.1
528.2	716.7
528.654	707
529.108	702.6
529.562	704.8
530.016	708.2
530.47	710
530.925	708.6
531.379	718.5
531.833	713
532.287	714.8
532.741	711.7
533.195	719.1
533.649	727.1
534.103	723.7
534.556	721.5
535.01	726.3
535.464	714.9
535.918	731.5
536.372	728.8
536.826	731.6
537.279	725
537.733	727.5
538.187	721.9
538.64	732.6
539.094	744.2
539.548	750.7
540.001	738.3
540.455	735
540.908	744.2
541.362	748.8
541.815	761.8
542.269	774.6
542.722	773.8
543.175	789.1
543.629	784.2
544.082	811.6
544.536	800.8
544.989	809.6
545.442	805.6
545.895	819
546.349	812.2
546.802	814.3
547.255	817.1
547.708	837.7
548.161	834.3
548.614	833.1
549.067	852.4
549.52	844.6
549.973	835.3
550.426	829.9
550.879	824.8
551.332	816.8
551.785	837.8
552.238	824.3
552.691	843.1
553.144	856.2
553.596	877.9
554.049	889.9
554.502	908.3
554.955	926.1
555.407	932.4
555.86	913.8
556.313	914.5
556.765	903.1
557.218	903
557.67	907.8
558.123	902.6
558.576	894.7
559.028	907.3
559.48	915.7
559.933	901
560.385	863.8
560.838	827.4
561.29	812.9
561.742	796.8
562.195	787.8
562.647	780.6
563.099	800.6
563.551	795
564.004	811.4
564.456	798.3
564.908	773
565.36	767.4
565.812	748.1
566.264	741.7
566.716	729.9
567.168	716.8
567.62	723.7
568.072	712.4
568.524	707.3
568.976	704.5
569.428	694
569.88	701.7
570.332	705.6
570.784	702.4
571.235	706.7
571.687	706.7
572.139	718.3
572.59	731.7
573.042	737.4
573.494	724.7
573.945	719.7
574.397	690.2
574.849	713.2
575.3	703.1
575.752	703.8
576.203	692.1
576.655	696.7
577.106	683.1
577.557	685.6
578.009	690.3
578.46	686.1
578.912	684.9
579.363	681.8
579.814	689.2
580.265	686.7
580.717	686.7
581.168	686.2
581.619	695.7
582.07	695.7
582.521	684.5
582.972	695.1
583.423	682.4
583.875	685.8
584.326	698.5
584.777	714.1
585.227	734.4
585.678	740.5
586.129	756.1
586.58	776
587.031	791.8
587.482	824.3
587.933	839.2
588.384	837.8
588.834	801.3
589.285	785
589.736	782.6
590.186	775.1
590.637	777.8
591.088	765.2
591.538	749.5
591.989	739.7
592.439	736.4
592.89	737.5
593.34	714.4
593.791	723.8
594.241	722.6
594.692	703
595.142	707.8
595.593	708.5
596.043	711
596.493	726.3
596.943	722.1
597.394	737.9
597.844	729
598.294	739.2
598.744	762.2
599.195	789.9
599.645	833.1
600.095	873
600.545	943.9
600.995	985.3
601.445	1041.7
601.895	1107.2
602.345	1148.7
602.795	1141.3
603.245	1095
603.695	1038
604.145	982.8
604.594	939
605.044	886.1
605.494	826.4
605.944	780.9
606.393	764.7
606.843	743.9
607.293	749.8
607.743	740.8
608.192	758.6
608.642	756.2
609.091	766.4
609.541	773.4
609.99	780.3
610.44	768.3
610.889	729
611.339	713.6
611.788	686.2
612.238	699.6
612.687	705.7
613.136	706.2
613.586	714
614.035	710
614.484	717.6
614.933	711
615.383	715.6
615.832	714.8
616.281	713.7
616.73	676.7
617.179	658.8
617.628	654.8
618.077	642.6
618.526	630.5
618.975	629.4
619.424	615.6
619.873	610.4
620.322	623
620.771	614.3
621.22	610.3
621.669	598.2
622.118	592.3
622.567	588.3
623.015	574.7
623.464	574.9
623.913	567.1
624.361	565
624.81	556.5
625.259	556.7
625.707	561
626.156	558.8
626.604	578
627.053	566.5
627.501	575.2
627.95	581.1
628.398	586.8
628.847	575.9
629.295	573.3
629.744	580.6
630.192	576.1
630.64	569.3
631.089	548.8
631.537	538.9
631.985	541.8
632.433	537.7
632.881	520.7
633.33	542.6
633.778	529
634.226	531.8
634.674	552.4
635.122	544.2
635.57	559
636.018	568.7
636.466	571.4
636.914	559.8
637.362	574.3
637.81	579.3
638.258	594.1
638.705	594.1
639.153	623.8
639.601	627.8
640.049	648.5
640.497	688.6
640.944	702.6
641.392	653.5
641.84	614.6
642.287	589.7
642.735	567.3
643.182	563.8
643.63	567.8
644.078	557.3
644.525	577.9
644.973	585.7
645.42	599.7
645.867	620.2
646.315	641.8
646.762	661.7
647.21	685.3
647.657	710.3
648.104	739.3
648.551	756.2
648.999	821.1
649.446	889.6
649.893	968
650.34	1099.6
650.787	1308.3
651.234	1608
651.682	2088.4
652.129	2815.1
652.576	4024.4
653.023	5866.6
653.47	7939.5
653.917	9800
654.363	11315.3
654.81	12519.2
655.257	11848.8
655.704	7821.3
656.151	4714.9
656.598	3089.4
657.044	2235.7
657.491	1734.9
657.938	1388.4
658.385	1175.3
658.831	1036.7
659.278	924
659.724	827.1
660.171	765.8
660.618	707.1
661.064	678.8
661.511	657.4
661.957	647.3
662.404	637.8
662.85	642.3
663.296	621.4
663.743	557.7
664.189	539.6
664.635	542.2
665.082	529
665.528	529.9
665.974	522.7
666.42	518.9
666.867	498.9
667.313	485
667.759	463.8
668.205	452.3
668.651	446.8
669.097	444.5
669.543	446.1
669.989	437.6
670.435	458.1
670.881	444.8
671.327	460.5
671.773	480.4
672.219	501.2
672.665	561.6
673.11	600.3
673.556	634.4
674.002	683
674.448	675.7
674.893	561.8
675.339	485.3
675.785	443.9
676.23	431.8
676.676	399.6
677.122	396.6
677.567	375
678.013	380.3
678.458	369.2
678.904	362.2
679.349	364.9
679.794	360.6
680.24	361.8
680.685	359.3
681.131	348.4
681.576	350.8
682.021	365.9
682.466	355.7
682.912	357.2
683.357	359.9
683.802	392.3
684.247	415.8
684.692	468.9
685.137	516.8
685.583	550.3
686.028	562.5
686.473	537.4
686.918	451.6
687.363	427.7
687.807	399.7
688.252	379
688.697	363.6
689.142	341.3
689.587	337.1
690.032	327.4
690.477	353.6
690.921	357.4
691.366	390.8
691.811	408.2
692.255	432.7
692.7	463.7
693.145	514.5
693.589	711.3
694.034	1166.5
694.478	1581.8
694.923	1776.3
695.367	2309.1
695.812	1224.2
696.256	508.3
696.701	380.9
697.145	351.8
697.59	336.3
698.034	317.5
698.478	331.3
698.922	324.3
699.367	329
699.811	342.3
700.255	357.1
700.699	390.2
701.143	425.3
701.588	482.3
702.032	524.1
702.476	519.5
702.92	500.8
703.364	507
703.808	664.6
704.252	1073
704.696	1495
705.14	1720.6
705.584	2182.1
706.027	1094
706.471	533.8
706.915	404.4
707.359	368.2
707.803	328.7
708.246	318.7
708.69	322.3
709.134	318.8
709.577	323.1
710.021	326.9
710.465	314.8
710.908	306.9
711.352	301.8
711.795	320.5
712.239	354.7
712.682	390.2
713.126	420.6
713.569	465.7
714.012	364.2
714.456	314.1
714.899	287.2
715.342	275.8
715.786	259.3
716.229	267.2
716.672	258.4
717.115	248.7
717.558	254
718.002	258.3
718.445	258.3
718.888	288.3
719.331	291
719.774	317.1
720.217	313.6
720.66	291.9
721.103	268.5
721.546	254.4
721.989	249.8
722.432	236.4
722.874	242.8
723.317	244.8
723.76	239.4
724.203	265.1
724.645	327.3
725.088	453.9
725.531	578.6
725.974	653.1
726.416	570.9
726.859	315.4
727.301	255.9
727.744	239.3
728.187	235.3
728.629	248.8
729.071	251.8
729.514	267.8
729.956	279
730.399	281.3
730.841	294.9
731.283	279.8
731.726	271.7
732.168	271.4
732.61	273.2
733.053	294.5
733.495	317.2
733.937	357.9
734.379	415
734.821	454.2
735.263	557.4
735.705	861
736.148	1637.4
736.59	2683.1
737.032	3144.6
737.474	2578.6
737.916	846.4
738.357	442
738.799	335.6
739.241	306.9
739.683	289.9
740.125	296.9
740.567	312.5
741.008	321.2
741.45	322.8
741.892	325.3
742.334	355.3
742.775	367.6
743.217	352.6
743.658	269.5
744.1	258.1
744.542	268.4
744.983	324.9
745.425	356.8
745.866	352.4
746.307	285.5
746.749	286.5
747.19	325.2
747.632	470.4
748.073	919
748.514	1951.4
748.956	2944.5
749.397	3684.9
749.838	3075.7
750.279	3043.4
750.72	1552.9
751.162	564.5
751.603	337
752.044	260.8
752.485	222.2
752.926	212.5
753.367	201.9
753.808	200.2
754.249	194.5
754.69	191.8
755.131	186.7
755.572	184.6
756.013	181.1
756.453	190.3
756.894	193.3
757.335	188.6
757.776	196.8
758.216	195
758.657	202.3
759.098	205.5
759.538	234.7
759.979	276
760.42	384.4
760.86	737.9
761.301	1907.5
761.741	4608.4
762.182	6615.9
762.622	4632.8
763.063	1357.8
763.503	558.9
763.943	341.1
764.384	280.2
764.824	244.5
765.264	230.3
765.705	205.5
766.145	187.6
766.585	179.1
767.025	172.1
767.465	163
767.906	180.1
768.346	189.4
768.786	197.7
769.226	218.9
769.666	311.9
770.106	639
770.546	1622.4
770.986	2724.5
771.426	2430.7
771.866	815.1
772.306	338.4
772.745	207.8
773.185	171.5
773.625	166.3
774.065	149.6
774.505	158.8
774.944	202.2
775.384	359.7
775.824	597.4
776.263	570.5
776.703	276.5
777.142	156.5
777.582	142.4
778.021	127.2
778.461	131.9
778.9	128.9
779.34	126.9
779.779	117.4
780.219	111.8
780.658	114.7
781.097	112.9
781.537	107.1
781.976	106.5
782.415	106.3
782.855	107.8
783.294	102.8
783.733	106.1
784.172	104.9
784.611	105.8
785.05	106
785.489	108
785.928	116.9
786.367	123.6
786.806	115.4
787.245	126.7
787.684	136.1
788.123	145.4
788.562	136.4
789.001	133.6
789.44	128.4
789.879	117.8
790.317	117.9
790.756	128.5
791.195	131.8
791.634	146.1
792.072	211.4
792.511	379.8
792.95	1037.1
793.388	2191
793.827	1967.3
794.265	684.7
794.704	285
795.142	185.6
795.581	157.3
796.019	138
796.458	130.4
796.896	123.7
797.334	133.2
797.773	157.1
798.211	221.3
798.649	450.5
799.087	1050.2
799.526	1662.9
799.964	2083.7
800.402	2064
800.84	775.6
801.278	319.7
801.716	190.8
802.154	161.6
802.592	153.5
803.03	138.8
803.468	143.6
803.906	148.9
804.344	152.2
804.782	140.7
805.22	135.9
805.658	138.7
806.096	152.9
806.533	158.9
806.971	173.2
807.409	226.6
807.847	327
