Data from 20171114-ORNL-Ar_H_NY_Subt18_08-08-18-933.txt Node
Date: Tue Nov 14 08:08:18 EST 2017
User: Ender
Spectrometer: HR+D1039
Trigger mode: 0
Integration Time (sec): 2.730000E-2
Scans to average: 10
Electric dark correction enabled: true
Nonlinearity correction enabled: false
Boxcar width: 0
XAxis mode: Wavelengths
Number of Pixels in Spectrum: 2048
>>>>>Begin Spectral Data<<<<<
187.836	-7.16
188.309	-7.16
188.782	-7.16
189.255	1.64
189.728	0.64
190.201	6.44
190.674	-1.46
191.147	2.64
191.619	-6.06
192.092	0.84
192.565	7.14
193.038	-2.16
193.511	-1.16
193.984	0.44
194.456	3.84
194.929	-3.96
195.402	-7.06
195.874	5.34
196.347	-3.46
196.82	-5.46
197.292	6.84
197.765	-0.76
198.237	-8.26
198.71	4.84
199.182	-6.26
199.655	1.44
200.127	7.14
200.6	-3.96
201.072	-0.16
201.544	-10.26
202.017	-5.86
202.489	2.04
202.961	-1.86
203.433	-0.16
203.906	1.24
204.378	-4.16
204.85	-3.86
205.322	-8.06
205.794	-4.26
206.266	-0.36
206.739	-4.26
207.211	2.04
207.683	-4.26
208.155	-3.36
208.627	-9.76
209.099	-5.86
209.57	-5.26
210.042	-4.06
210.514	2.84
210.986	-6.06
211.458	-9.06
211.93	-4.76
212.402	-3.46
212.873	-10.86
213.345	-11.26
213.817	-14.56
214.288	-7.76
214.76	-10.36
215.232	-5.86
215.703	-4.66
216.175	-1.46
216.646	-6.16
217.118	-5.16
217.589	-5.96
218.061	-0.06
218.532	-7.76
219.004	-2.26
219.475	-4.76
219.946	-3.96
220.418	-8.56
220.889	-0.26
221.36	-1.16
221.832	-0.56
222.303	-3.66
222.774	-2.06
223.245	-8.56
223.717	-7.66
224.188	-6.56
224.659	-7.56
225.13	-9.06
225.601	-2.66
226.072	-0.26
226.543	-0.26
227.014	-4.26
227.485	-0.96
227.956	-11.66
228.427	1.24
228.898	6.94
229.369	4.14
229.839	-3.06
230.31	-5.66
230.781	0.64
231.252	1.54
231.722	-7.76
232.193	-2.96
232.664	-3.06
233.135	0.74
233.605	-3.56
234.076	-8.66
234.546	-2.26
235.017	3.34
235.487	-4.96
235.958	-0.86
236.428	-5.26
236.899	6.04
237.369	-2.46
237.84	0.74
238.31	4.84
238.78	5.54
239.251	1.84
239.721	-2.26
240.191	2.54
240.662	-2.16
241.132	0.04
241.602	2.74
242.072	-2.26
242.542	4.64
243.013	-4.06
243.483	5.34
243.953	2.94
244.423	1.24
244.893	-5.56
245.363	-2.06
245.833	1.34
246.303	0.04
246.773	3.44
247.243	-1.06
247.712	2.94
248.182	11.24
248.652	6.24
249.122	-4.56
249.592	6.84
250.061	21.44
250.531	33.94
251.001	9.74
251.471	14.74
251.94	16.24
252.41	3.14
252.879	-1.96
253.349	10.64
253.818	7.04
254.288	5.24
254.757	1.94
255.227	0.94
255.696	9.64
256.166	4.74
256.635	3.64
257.105	13.04
257.574	3.74
258.043	7.24
258.513	7.54
258.982	12.54
259.451	6.44
259.92	15.14
260.389	11.64
260.859	13.24
261.328	14.34
261.797	12.74
262.266	4.64
262.735	3.94
263.204	8.54
263.673	5.54
264.142	0.74
264.611	-2.66
265.08	-0.56
265.549	-1.86
266.018	3.04
266.487	-8.56
266.955	-1.96
267.424	1.84
267.893	6.04
268.362	0.74
268.83	6.24
269.299	10.44
269.768	-0.66
270.236	5.64
270.705	2.54
271.174	7.84
271.642	8.04
272.111	7.84
272.579	13.54
273.048	17.94
273.516	29.54
273.985	25.64
274.453	20.44
274.922	17.34
275.39	8.84
275.858	-0.56
276.327	13.04
276.795	17.04
277.263	5.84
277.731	28.94
278.2	54.64
278.668	58.74
279.136	45.64
279.604	19.64
280.072	13.44
280.54	15.94
281.008	10.74
281.477	8.74
281.945	7.14
282.413	11.24
282.881	14.84
283.348	10.34
283.816	8.94
284.284	14.34
284.752	16.04
285.22	12.74
285.688	13.64
286.156	14.04
286.623	41.94
287.091	47.64
287.559	28.54
288.026	12.74
288.494	14.94
288.962	6.64
289.429	11.64
289.897	16.44
290.364	12.84
290.832	13.54
291.3	11.34
291.767	20.04
292.234	16.04
292.702	12.14
293.169	15.94
293.637	23.84
294.104	17.74
294.571	7.14
295.039	11.14
295.506	13.14
295.973	19.24
296.44	9.34
296.908	10.34
297.375	15.94
297.842	24.44
298.309	16.34
298.776	12.94
299.243	18.54
299.71	10.64
300.177	20.24
300.644	23.84
301.111	18.94
301.578	22.04
302.045	12.94
302.512	23.64
302.979	19.04
303.446	24.04
303.913	14.14
304.379	14.24
304.846	25.94
305.313	25.24
305.78	21.14
306.246	29.24
306.713	29.74
307.18	31.04
307.646	20.24
308.113	26.54
308.579	21.84
309.046	17.84
309.512	25.04
309.979	17.14
310.445	28.14
310.912	22.94
311.378	23.94
311.845	26.64
312.311	26.44
312.777	32.54
313.244	31.24
313.71	42.54
314.176	28.34
314.642	34.54
315.109	39.74
315.575	32.64
316.041	40.24
316.507	32.74
316.973	40.64
317.439	30.74
317.905	35.74
318.371	34.14
318.837	33.04
319.303	28.04
319.769	32.74
320.235	35.64
320.701	36.24
321.167	38.64
321.633	34.84
322.099	38.84
322.564	44.44
323.03	37.24
323.496	35.54
323.962	38.34
324.427	30.94
324.893	37.24
325.359	32.44
325.824	28.44
326.29	36.24
326.755	32.54
327.221	39.74
327.686	39.54
328.152	35.64
328.617	38.24
329.083	44.84
329.548	50.94
330.014	46.94
330.479	41.94
330.944	38.84
331.41	39.34
331.875	42.84
332.34	40.64
332.805	44.94
333.271	44.94
333.736	40.74
334.201	48.74
334.666	52.34
335.131	49.54
335.596	51.64
336.061	47.64
336.526	41.74
336.991	50.44
337.456	54.04
337.921	46.54
338.386	43.94
338.851	49.44
339.316	46.94
339.781	48.44
340.246	49.54
340.711	47.74
341.175	50.44
341.64	37.24
342.105	53.14
342.569	51.24
343.034	54.14
343.499	53.74
343.963	54.34
344.428	60.44
344.893	55.44
345.357	62.84
345.822	66.94
346.286	63.64
346.751	76.14
347.215	74.04
347.679	69.64
348.144	98.64
348.608	86.64
349.073	73.14
349.537	70.44
350.001	81.44
350.465	89.34
350.93	80.74
351.394	80.74
351.858	66.14
352.322	91.44
352.786	77.84
353.25	102.04
353.715	111.24
354.179	94.14
354.643	125.14
355.107	124.94
355.571	109.34
356.035	105.54
356.498	120.54
356.962	125.24
357.426	133.54
357.89	117.84
358.354	94.54
358.818	78.14
359.281	77.54
359.745	78.14
360.209	78.04
360.673	73.84
361.136	79.14
361.6	85.14
362.064	75.64
362.527	83.84
362.991	87.54
363.454	81.34
363.918	77.44
364.381	77.14
364.845	84.64
365.308	84.04
365.772	87.74
366.235	79.04
366.698	80.84
367.162	82.14
367.625	87.54
368.088	91.24
368.552	92.34
369.015	96.84
369.478	93.04
369.941	94.94
370.404	101.24
370.867	103.74
371.331	104.74
371.794	109.44
372.257	110.34
372.72	107.94
373.183	107.94
373.646	90.74
374.109	102.94
374.572	108.04
375.035	114.64
375.497	109.94
375.96	108.24
376.423	105.84
376.886	117.04
377.349	110.94
377.811	105.04
378.274	104.04
378.737	113.14
379.199	113.34
379.662	114.04
380.125	121.24
380.587	126.94
381.05	126.64
381.512	131.64
381.975	138.74
382.437	131.44
382.9	128.14
383.362	139.84
383.825	140.64
384.287	154.64
384.75	145.44
385.212	137.14
385.674	139.04
386.136	129.14
386.599	125.04
387.061	128.94
387.523	135.24
387.985	137.14
388.447	141.54
388.91	147.84
389.372	161.64
389.834	154.74
390.296	153.34
390.758	155.24
391.22	175.54
391.682	216.24
392.144	306.44
392.606	234.84
393.068	170.14
393.529	169.54
393.991	155.24
394.453	147.94
394.915	162.34
395.377	194.54
395.838	220.24
396.3	157.84
396.762	143.84
397.224	139.54
397.685	131.24
398.147	133.34
398.608	130.64
399.07	124.54
399.531	136.34
399.993	146.44
400.454	154.94
400.916	151.54
401.377	143.04
401.839	147.34
402.3	152.24
402.762	169.24
403.223	188.14
403.684	174.04
404.145	166.44
404.607	167.44
405.068	163.74
405.529	173.84
405.99	189.84
406.451	180.94
406.913	175.24
407.374	168.14
407.835	168.54
408.296	170.94
408.757	170.24
409.218	183.54
409.679	182.24
410.14	172.14
410.601	179.74
411.062	190.74
411.522	203.64
411.983	196.44
412.444	179.64
412.905	179.84
413.366	184.04
413.826	194.04
414.287	224.34
414.748	267.94
415.208	246.34
415.669	216.64
416.13	210.04
416.59	205.74
417.051	221.94
417.511	221.94
417.972	235.14
418.432	250.44
418.893	295.94
419.353	246.84
419.814	200.44
420.274	185.14
420.734	181.24
421.195	205.54
421.655	203.74
422.115	193.64
422.576	200.04
423.036	196.94
423.496	218.04
423.956	223.84
424.416	233.64
424.876	267.04
425.336	259.54
425.797	269.24
426.257	256.84
426.717	247.24
427.177	240.64
427.637	227.24
428.097	241.84
428.556	247.44
429.016	276.74
429.476	270.74
429.936	278.74
430.396	282.94
430.856	299.94
431.315	318.54
431.775	358.64
432.235	384.94
432.694	357.84
433.154	373.54
433.614	398.14
434.073	339.04
434.533	288.84
434.993	277.34
435.452	287.94
435.912	303.54
436.371	298.04
436.83	286.24
437.29	270.44
437.749	255.44
438.209	255.94
438.668	279.94
439.127	293.34
439.587	274.74
440.046	250.04
440.505	268.04
440.964	278.74
441.424	323.94
441.883	316.74
442.342	257.84
442.801	231.84
443.26	225.34
443.719	228.14
444.178	218.64
444.637	225.74
445.096	220.44
445.555	228.64
446.014	223.54
446.473	222.64
446.932	238.04
447.391	230.34
447.849	237.64
448.308	221.24
448.767	226.94
449.226	233.24
449.685	240.14
450.143	245.24
450.602	239.54
451.061	226.64
451.519	234.84
451.978	242.94
452.436	234.24
452.895	245.14
453.353	255.64
453.812	241.84
454.27	241.64
454.729	241.94
455.187	250.44
455.646	251.94
456.104	255.24
456.562	260.44
457.021	277.74
457.479	260.44
457.937	280.64
458.395	272.24
458.854	253.94
459.312	258.84
459.77	281.04
460.228	253.54
460.686	240.94
461.144	253.24
461.602	244.14
462.06	245.74
462.518	257.54
462.976	260.94
463.434	257.04
463.892	269.24
464.35	273.44
464.808	288.34
465.266	270.94
465.724	268.14
466.181	268.04
466.639	275.94
467.097	300.84
467.555	302.14
468.012	299.54
468.47	312.64
468.928	329.94
469.385	350.14
469.843	351.14
470.3	355.14
470.758	371.84
471.215	394.74
471.673	412.04
472.13	407.94
472.588	423.14
473.045	381.14
473.503	384.54
473.96	392.54
474.417	405.54
474.875	434.64
475.332	477.84
475.789	468.74
476.246	471.14
476.704	486.44
477.161	517.54
477.618	536.24
478.075	567.44
478.532	627.64
478.989	700.54
479.446	812.74
479.903	774.34
480.36	816.74
480.817	868.14
481.274	981.14
481.731	1077.24
482.188	1162.04
482.645	1299.94
483.102	1408.24
483.558	1551.84
484.015	1585.74
484.472	1571.84
484.929	1512.04
485.385	1476.44
485.842	1423.54
486.299	1361.44
486.755	1317.04
487.212	1107.94
487.668	928.94
488.125	853.74
488.582	783.84
489.038	758.94
489.494	715.04
489.951	688.54
490.407	666.34
490.864	645.64
491.32	642.94
491.776	639.24
492.233	654.14
492.689	619.14
493.145	605.74
493.602	601.84
494.058	609.64
494.514	623.94
494.97	644.74
495.426	652.94
495.882	624.64
496.338	614.94
496.794	632.94
497.251	618.74
497.707	632.54
498.163	636.84
498.618	649.94
499.074	646.94
499.53	675.54
499.986	676.74
500.442	652.64
500.898	641.14
501.354	637.64
501.809	640.34
502.265	636.54
502.721	663.44
503.177	680.74
503.632	673.44
504.088	691.54
504.543	721.54
504.999	716.34
505.455	658.54
505.91	634.84
506.366	640.44
506.821	638.64
507.277	628.34
507.732	634.34
508.187	623.64
508.643	635.74
509.098	630.94
509.553	651.84
510.009	662.14
510.464	676.64
510.919	694.14
511.375	692.54
511.83	707.74
512.285	729.44
512.74	758.24
513.195	790.64
513.65	781.34
514.105	770.54
514.56	773.74
515.015	790.64
515.47	815.04
515.925	786.94
516.38	790.74
516.835	791.94
517.29	782.44
517.745	775.24
518.2	772.24
518.655	749.74
519.109	740.44
519.564	739.84
520.019	732.24
520.474	725.44
520.928	725.34
521.383	735.94
521.838	705.74
522.292	712.14
522.747	713.74
523.201	704.64
523.656	703.44
524.11	701.64
524.565	695.54
525.019	688.14
525.474	703.74
525.928	709.94
526.382	695.94
526.837	696.44
527.291	708.84
527.745	695.54
528.2	707.84
528.654	690.14
529.108	686.24
529.562	684.54
530.016	690.44
530.47	695.94
530.925	703.84
531.379	700.04
531.833	701.84
532.287	704.04
532.741	705.54
533.195	707.04
533.649	711.04
534.103	716.74
534.556	706.34
535.01	706.64
535.464	707.64
535.918	726.74
536.372	719.84
536.826	721.14
537.279	710.44
537.733	720.74
538.187	719.74
538.64	725.04
539.094	720.84
539.548	731.14
540.001	730.34
540.455	730.44
540.908	739.84
541.362	745.34
541.815	748.94
542.269	757.94
542.722	761.34
543.175	774.14
543.629	783.04
544.082	788.84
544.536	790.64
544.989	794.04
545.442	798.84
545.895	791.54
546.349	794.44
546.802	797.44
547.255	802.44
547.708	810.54
548.161	822.74
548.614	831.54
549.067	833.34
549.52	815.84
549.973	812.54
550.426	810.04
550.879	805.94
551.332	807.44
551.785	801.74
552.238	809.84
552.691	831.34
553.144	845.84
553.596	846.54
554.049	865.54
554.502	891.84
554.955	915.44
555.407	915.94
555.86	899.74
556.313	892.14
556.765	886.44
557.218	873.44
557.67	889.14
558.123	872.84
558.576	873.84
559.028	895.14
559.48	892.04
559.933	880.04
560.385	854.34
560.838	806.74
561.29	790.24
561.742	790.14
562.195	769.14
562.647	782.34
563.099	784.64
563.551	771.14
564.004	791.54
564.456	778.54
564.908	765.14
565.36	761.54
565.812	736.84
566.264	733.54
566.716	728.74
567.168	727.34
567.62	732.54
568.072	705.04
568.524	703.84
568.976	689.54
569.428	678.24
569.88	676.54
570.332	684.34
570.784	683.04
571.235	697.04
571.687	695.84
572.139	708.14
572.59	715.64
573.042	712.34
573.494	712.64
573.945	710.44
574.397	689.54
574.849	689.14
575.3	694.94
575.752	691.34
576.203	685.94
576.655	690.94
577.106	680.44
577.557	677.44
578.009	673.84
578.46	675.44
578.912	665.44
579.363	677.14
579.814	678.94
580.265	672.14
580.717	674.74
581.168	676.04
581.619	691.84
582.07	686.04
582.521	679.54
582.972	683.64
583.423	692.14
583.875	696.04
584.326	713.24
584.777	756.04
585.227	835.14
585.678	935.54
586.129	1017.94
586.58	1087.84
587.031	1170.64
587.482	1309.94
587.933	1495.74
588.384	1302.14
588.834	987.64
589.285	821.54
589.736	805.14
590.186	777.34
590.637	775.34
591.088	750.24
591.538	751.14
591.989	740.14
592.439	741.14
592.89	726.64
593.34	723.24
593.791	714.94
594.241	711.44
594.692	707.44
595.142	706.14
595.593	712.84
596.043	713.24
596.493	730.54
596.943	723.94
597.394	731.94
597.844	718.54
598.294	731.94
598.744	769.14
599.195	788.04
599.645	838.84
600.095	868.24
600.545	925.74
600.995	978.54
601.445	1033.24
601.895	1092.54
602.345	1137.64
602.795	1128.14
603.245	1062.84
603.695	1025.24
604.145	966.24
604.594	913.54
605.044	876.54
605.494	805.14
605.944	762.14
606.393	753.74
606.843	741.04
607.293	743.04
607.743	743.34
608.192	762.54
608.642	771.24
609.091	781.64
609.541	787.44
609.99	779.54
610.44	772.64
610.889	724.74
611.339	709.14
611.788	694.64
612.238	715.74
612.687	734.74
613.136	727.14
613.586	742.84
614.035	748.24
614.484	767.94
614.933	766.14
615.383	760.44
615.832	744.04
616.281	744.44
616.73	705.54
617.179	665.54
617.628	670.24
618.077	647.34
618.526	621.94
618.975	627.14
619.424	624.74
619.873	621.44
620.322	622.34
620.771	617.44
621.22	623.34
621.669	606.14
622.118	595.14
622.567	597.24
623.015	579.64
623.464	580.54
623.913	574.94
624.361	555.74
624.81	559.04
625.259	562.54
625.707	565.04
626.156	573.14
626.604	575.94
627.053	574.94
627.501	574.34
627.95	576.54
628.398	580.84
628.847	580.04
629.295	576.34
629.744	583.74
630.192	577.04
630.64	575.64
631.089	575.84
631.537	590.74
631.985	597.04
632.433	608.14
632.881	622.24
633.33	677.84
633.778	652.84
634.226	573.34
634.674	587.04
635.122	582.54
635.57	605.94
636.018	642.74
636.466	597.64
636.914	577.04
637.362	574.04
637.81	583.14
638.258	591.54
638.705	587.44
639.153	616.84
639.601	621.54
640.049	653.14
640.497	685.64
640.944	705.64
641.392	653.44
641.84	616.14
642.287	583.64
642.735	590.14
643.182	587.24
643.63	587.24
644.078	587.64
644.525	603.34
644.973	608.34
645.42	614.14
645.867	633.54
646.315	659.14
646.762	668.44
647.21	706.14
647.657	734.34
648.104	763.24
648.551	786.04
648.999	853.24
649.446	924.84
649.893	1033.94
650.34	1178.94
650.787	1423.84
651.234	1772.44
651.682	2319.64
652.129	3199.04
652.576	4595.54
653.023	6779.54
653.47	9238.74
653.917	11464.44
654.363	13120.84
654.81	14397.94
655.257	13674.54
655.704	8973.64
656.151	5314.94
656.598	3452.54
657.044	2437.54
657.491	1877.64
657.938	1500.64
658.385	1259.54
658.831	1096.04
659.278	975.84
659.724	863.74
660.171	794.44
660.618	741.54
661.064	692.94
661.511	676.64
661.957	666.24
662.404	647.84
662.85	662.14
663.296	640.94
663.743	569.74
664.189	545.94
664.635	542.44
665.082	544.04
665.528	537.54
665.974	532.14
666.42	520.94
666.867	514.94
667.313	510.14
667.759	490.14
668.205	483.04
668.651	498.64
669.097	501.04
669.543	512.24
669.989	480.44
670.435	451.44
670.881	451.04
671.327	454.34
671.773	479.74
672.219	501.94
672.665	552.94
673.11	595.04
673.556	641.84
674.002	671.64
674.448	664.94
674.893	563.54
675.339	481.24
675.785	447.24
676.23	424.34
676.676	401.84
677.122	382.54
677.567	375.14
678.013	381.74
678.458	367.14
678.904	364.84
679.349	354.64
679.794	361.44
680.24	357.94
680.685	358.44
681.131	357.54
681.576	360.44
682.021	357.94
682.466	356.54
682.912	352.34
683.357	353.14
683.802	384.14
684.247	413.84
684.692	463.84
685.137	507.74
685.583	543.74
686.028	565.64
686.473	521.54
686.918	458.64
687.363	421.64
687.807	396.84
688.252	375.44
688.697	359.34
689.142	344.24
689.587	328.04
690.032	336.84
690.477	348.24
690.921	360.84
691.366	393.14
691.811	413.84
692.255	433.44
692.7	472.04
693.145	518.54
693.589	717.04
694.034	1177.24
694.478	1570.14
694.923	1756.74
695.367	2268.54
695.812	1208.24
696.256	501.04
696.701	373.34
697.145	349.04
697.59	327.34
698.034	321.24
698.478	334.44
698.922	333.64
699.367	339.34
699.811	337.64
700.255	369.44
700.699	393.74
701.143	434.04
701.588	484.64
702.032	526.64
702.476	518.74
702.92	503.54
703.364	502.54
703.808	659.14
704.252	1083.84
704.696	1508.24
705.14	1683.84
705.584	2137.64
706.027	1073.64
706.471	532.64
706.915	403.24
707.359	359.44
707.803	329.74
708.246	312.84
708.69	313.24
709.134	316.84
709.577	313.94
710.021	331.54
710.465	314.94
710.908	309.84
711.352	306.44
711.795	320.24
712.239	358.44
712.682	396.24
713.126	420.44
713.569	471.74
714.012	383.44
714.456	330.24
714.899	299.84
715.342	274.54
715.786	272.54
716.229	267.54
716.672	259.54
717.115	253.04
717.558	251.94
718.002	257.34
718.445	264.74
718.888	290.94
719.331	303.14
719.774	317.44
720.217	308.04
720.66	281.44
721.103	271.04
721.546	266.24
721.989	255.84
722.432	231.34
722.874	244.34
723.317	233.74
723.76	234.34
724.203	262.64
724.645	333.44
725.088	461.44
725.531	578.64
725.974	653.84
726.416	553.74
726.859	315.14
727.301	252.54
727.744	244.14
728.187	243.24
728.629	251.24
729.071	248.24
729.514	270.34
729.956	275.64
730.399	280.04
730.841	293.04
731.283	273.14
731.726	276.24
732.168	265.64
732.61	267.84
733.053	293.54
733.495	324.64
733.937	360.44
734.379	402.04
734.821	443.44
735.263	562.84
735.705	878.24
736.148	1654.04
736.59	2637.24
737.032	3057.54
737.474	2479.64
737.916	820.24
738.357	438.74
738.799	328.94
739.241	303.44
739.683	293.74
740.125	302.44
740.567	309.44
741.008	325.04
741.45	320.14
741.892	327.94
742.334	359.24
742.775	364.14
743.217	346.14
743.658	271.44
744.1	261.94
744.542	272.14
744.983	315.54
745.425	341.54
745.866	350.94
746.307	287.14
746.749	293.24
747.19	333.24
747.632	466.04
748.073	936.64
748.514	1941.64
748.956	2888.74
749.397	3645.74
749.838	3017.64
750.279	2963.54
750.72	1503.34
751.162	554.14
751.603	324.44
752.044	253.74
752.485	213.94
752.926	209.84
753.367	203.14
753.808	196.44
754.249	189.64
754.69	184.44
755.131	183.74
755.572	188.34
756.013	188.14
756.453	192.94
756.894	191.64
757.335	193.74
757.776	197.14
758.216	203.74
758.657	199.54
759.098	204.34
759.538	231.04
759.979	272.04
760.42	384.64
760.86	748.14
761.301	1929.04
761.741	4573.84
762.182	6405.24
