Data from 20171114-ORNL-Ar_H_NY_Subt18_08-05-43-609.txt Node
Date: Tue Nov 14 08:05:43 EST 2017
User: Ender
Spectrometer: HR+D1039
Trigger mode: 0
Integration Time (sec): 2.730000E-2
Scans to average: 10
Electric dark correction enabled: true
Nonlinearity correction enabled: false
Boxcar width: 0
XAxis mode: Wavelengths
Number of Pixels in Spectrum: 2048
>>>>>Begin Spectral Data<<<<<
187.836	-4.66
188.309	-4.66
188.782	-4.66
189.255	2.14
189.728	0.54
190.201	5.94
190.674	-0.76
191.147	9.04
191.619	-7.06
192.092	2.74
192.565	4.24
193.038	-1.56
193.511	0.74
193.984	-2.06
194.456	-3.26
194.929	1.54
195.402	-2.46
195.874	-5.16
196.347	-0.46
196.82	-6.16
197.292	2.04
197.765	-1.96
198.237	-8.76
198.71	2.44
199.182	-2.46
199.655	0.14
200.127	4.34
200.6	-2.96
201.072	-2.76
201.544	-4.56
202.017	-4.86
202.489	-0.06
202.961	-5.56
203.433	-4.76
203.906	-4.86
204.378	-4.66
204.85	-3.66
205.322	-12.16
205.794	-0.96
206.266	-1.96
206.739	-7.96
207.211	2.94
207.683	-13.06
208.155	-3.96
208.627	-9.36
209.099	-3.36
209.57	-7.36
210.042	0.64
210.514	-1.46
210.986	-4.76
211.458	-5.36
211.93	-4.56
212.402	5.94
212.873	-4.06
213.345	-8.56
213.817	-5.66
214.288	-4.96
214.76	-7.56
215.232	-0.36
215.703	-3.16
216.175	1.24
216.646	-2.56
217.118	-4.46
217.589	-4.46
218.061	-5.26
218.532	-3.46
219.004	-3.76
219.475	-2.66
219.946	1.04
220.418	-4.16
220.889	-1.56
221.36	0.74
221.832	-4.66
222.303	-9.76
222.774	3.04
223.245	-9.56
223.717	-7.76
224.188	-4.36
224.659	-6.46
225.13	-2.46
225.601	-1.86
226.072	3.84
226.543	3.34
227.014	0.74
227.485	-1.26
227.956	-5.76
228.427	-6.46
228.898	1.14
229.369	4.14
229.839	-6.66
230.31	-6.96
230.781	-0.16
231.252	3.54
231.722	3.54
232.193	0.64
232.664	-1.26
233.135	-1.36
233.605	-4.36
234.076	0.04
234.546	6.24
235.017	3.64
235.487	-0.96
235.958	-1.36
236.428	0.54
236.899	6.44
237.369	1.24
237.84	4.54
238.31	5.34
238.78	4.94
239.251	6.04
239.721	7.74
240.191	1.44
240.662	-3.86
241.132	6.24
241.602	-2.76
242.072	-0.26
242.542	8.74
243.013	2.54
243.483	7.04
243.953	-0.36
244.423	-4.46
244.893	-1.46
245.363	7.84
245.833	0.74
246.303	-2.76
246.773	10.04
247.243	5.84
247.712	3.64
248.182	7.44
248.652	4.34
249.122	-0.26
249.592	9.14
250.061	16.24
250.531	30.14
251.001	7.34
251.471	29.04
251.94	23.54
252.41	11.24
252.879	7.64
253.349	10.34
253.818	10.24
254.288	8.54
254.757	3.04
255.227	-5.16
255.696	1.44
256.166	5.84
256.635	6.64
257.105	6.04
257.574	9.14
258.043	11.04
258.513	3.94
258.982	17.64
259.451	4.54
259.92	11.34
260.389	13.24
260.859	15.64
261.328	14.64
261.797	17.94
262.266	8.14
262.735	11.54
263.204	5.84
263.673	-7.16
264.142	5.74
264.611	-5.06
265.08	-0.26
265.549	2.04
266.018	6.44
266.487	-1.26
266.955	4.74
267.424	1.24
267.893	9.24
268.362	5.44
268.83	4.84
269.299	12.04
269.768	10.24
270.236	6.34
270.705	-2.26
271.174	2.64
271.642	6.14
272.111	13.94
272.579	22.94
273.048	31.04
273.516	25.64
273.985	25.04
274.453	21.94
274.922	23.44
275.39	13.34
275.858	6.84
276.327	14.64
276.795	18.44
277.263	11.54
277.731	31.94
278.2	58.24
278.668	63.74
279.136	54.04
279.604	21.34
280.072	22.24
280.54	12.54
281.008	13.04
281.477	11.94
281.945	18.04
282.413	12.54
282.881	14.94
283.348	15.64
283.816	18.44
284.284	15.84
284.752	22.44
285.22	15.74
285.688	13.44
286.156	18.54
286.623	39.24
287.091	54.24
287.559	31.14
288.026	16.24
288.494	18.64
288.962	12.74
289.429	13.14
289.897	19.54
290.364	14.24
290.832	9.34
291.3	16.34
291.767	23.84
292.234	17.34
292.702	20.74
293.169	26.74
293.637	26.64
294.104	22.94
294.571	16.64
295.039	16.44
295.506	20.34
295.973	21.94
296.44	18.54
296.908	22.64
297.375	21.94
297.842	23.74
298.309	21.64
298.776	16.64
299.243	19.94
299.71	16.64
300.177	23.44
300.644	23.04
301.111	19.44
301.578	27.24
302.045	27.14
302.512	19.84
302.979	27.24
303.446	27.44
303.913	22.04
304.379	21.04
304.846	28.84
305.313	26.14
305.78	28.54
306.246	28.44
306.713	28.54
307.18	30.84
307.646	27.84
308.113	32.54
308.579	29.54
309.046	24.84
309.512	31.94
309.979	18.14
310.445	29.84
310.912	35.14
311.378	38.64
311.845	35.94
312.311	31.54
312.777	35.54
313.244	29.24
313.71	45.74
314.176	35.14
314.642	36.04
315.109	33.34
315.575	41.54
316.041	42.44
316.507	37.84
316.973	45.34
317.439	36.74
317.905	39.14
318.371	39.54
318.837	39.84
319.303	38.24
319.769	39.54
320.235	41.74
320.701	40.74
321.167	41.64
321.633	37.14
322.099	40.64
322.564	50.54
323.03	44.64
323.496	43.94
323.962	43.24
324.427	37.64
324.893	50.64
325.359	46.74
325.824	39.94
326.29	36.34
326.755	45.04
327.221	43.54
327.686	38.84
328.152	47.34
328.617	50.94
329.083	50.04
329.548	56.54
330.014	51.54
330.479	34.74
330.944	44.94
331.41	45.54
331.875	47.94
332.34	41.74
332.805	49.44
333.271	49.44
333.736	47.84
334.201	57.04
334.666	53.94
335.131	57.24
335.596	53.54
336.061	56.24
336.526	46.14
336.991	50.04
337.456	57.24
337.921	49.44
338.386	52.44
338.851	41.64
339.316	53.44
339.781	53.24
340.246	54.04
340.711	50.14
341.175	53.24
341.64	48.64
342.105	57.64
342.569	53.54
343.034	61.14
343.499	57.84
343.963	58.24
344.428	66.04
344.893	62.54
345.357	68.54
345.822	66.14
346.286	65.84
346.751	77.44
347.215	74.34
347.679	82.24
348.144	98.84
348.608	79.84
349.073	80.34
349.537	83.04
350.001	81.94
350.465	97.84
350.93	83.64
351.394	88.24
351.858	78.84
352.322	94.14
352.786	85.64
353.25	97.24
353.715	111.14
354.179	104.24
354.643	125.14
355.107	132.04
355.571	110.54
356.035	107.34
356.498	122.14
356.962	130.14
357.426	128.24
357.89	109.84
358.354	90.14
358.818	92.24
359.281	86.44
359.745	79.94
360.209	80.94
360.673	75.44
361.136	87.44
361.6	84.64
362.064	95.34
362.527	92.84
362.991	86.84
363.454	85.44
363.918	85.04
364.381	83.34
364.845	85.74
365.308	85.54
365.772	92.84
366.235	94.94
366.698	81.84
367.162	87.54
367.625	94.54
368.088	83.34
368.552	94.34
369.015	93.54
369.478	100.54
369.941	99.14
370.404	95.64
370.867	106.04
371.331	108.44
371.794	122.74
372.257	110.84
372.72	116.04
373.183	115.34
373.646	105.64
374.109	104.34
374.572	113.24
375.035	117.94
375.497	110.24
375.96	100.84
376.423	102.04
376.886	114.74
377.349	115.04
377.811	101.24
378.274	106.94
378.737	107.64
379.199	114.74
379.662	112.14
380.125	119.94
380.587	120.64
381.05	127.34
381.512	133.54
381.975	136.64
382.437	128.84
382.9	127.34
383.362	132.64
383.825	144.24
384.287	149.94
384.75	138.84
385.212	144.84
385.674	141.14
386.136	132.14
386.599	125.84
387.061	131.74
387.523	131.94
387.985	136.04
388.447	139.14
388.91	144.64
389.372	156.74
389.834	145.94
390.296	149.24
390.758	154.04
391.22	172.74
391.682	208.44
392.144	288.54
392.606	222.64
393.068	171.34
393.529	173.74
393.991	156.74
394.453	147.04
394.915	162.94
395.377	194.54
395.838	211.94
396.3	154.74
396.762	144.14
397.224	137.54
397.685	138.94
398.147	132.54
398.608	138.24
399.07	135.54
399.531	137.64
399.993	149.34
400.454	151.84
400.916	144.64
401.377	140.54
401.839	155.84
402.3	155.64
402.762	167.24
403.223	177.64
403.684	172.64
404.145	164.54
404.607	161.64
405.068	165.64
405.529	168.24
405.99	199.14
406.451	174.34
406.913	177.54
407.374	161.54
407.835	167.04
408.296	168.74
408.757	173.64
409.218	187.84
409.679	180.84
410.14	179.34
410.601	177.34
411.062	189.94
411.522	190.74
411.983	201.24
412.444	177.94
412.905	179.24
413.366	189.14
413.826	198.24
414.287	223.64
414.748	263.94
415.208	250.74
415.669	216.04
416.13	209.34
416.59	204.54
417.051	219.84
417.511	224.24
417.972	240.04
418.432	256.14
418.893	290.64
419.353	258.94
419.814	198.64
420.274	188.84
420.734	184.24
421.195	207.84
421.655	202.34
422.115	200.24
422.576	200.34
423.036	198.94
423.496	212.54
423.956	217.54
424.416	236.44
424.876	261.64
425.336	265.54
425.797	264.14
426.257	265.64
426.717	239.84
427.177	237.84
427.637	229.94
428.097	242.14
428.556	249.64
429.016	277.74
429.476	267.64
429.936	277.94
430.396	283.64
430.856	297.74
431.315	321.14
431.775	358.24
432.235	386.14
432.694	361.04
433.154	372.24
433.614	398.24
434.073	333.54
434.533	295.34
434.993	279.54
435.452	291.24
435.912	297.94
436.371	294.14
436.83	289.14
437.29	269.84
437.749	246.14
438.209	255.24
438.668	277.54
439.127	296.04
439.587	272.84
440.046	256.84
440.505	272.34
440.964	289.24
441.424	327.24
441.883	323.74
442.342	262.84
442.801	237.54
443.26	228.44
443.719	222.44
444.178	220.34
444.637	222.54
445.096	223.24
445.555	221.84
446.014	224.64
446.473	231.74
446.932	236.04
447.391	231.34
447.849	242.04
448.308	224.84
448.767	222.64
449.226	243.54
449.685	238.44
450.143	251.84
450.602	238.94
451.061	229.04
451.519	239.64
451.978	241.24
452.436	233.14
452.895	242.94
453.353	253.64
453.812	246.14
454.27	249.64
454.729	243.94
455.187	255.54
455.646	246.84
456.104	257.54
456.562	267.94
457.021	279.04
457.479	268.24
457.937	280.64
458.395	275.34
458.854	257.34
459.312	263.14
459.77	282.84
460.228	262.34
460.686	251.94
461.144	250.44
461.602	255.14
462.06	243.14
462.518	263.24
462.976	260.54
463.434	271.14
463.892	269.54
464.35	288.44
464.808	301.54
465.266	276.64
465.724	273.04
466.181	272.74
466.639	270.44
467.097	290.44
467.555	313.64
468.012	316.94
468.47	320.64
468.928	342.94
469.385	356.64
469.843	356.04
470.3	352.64
470.758	373.04
471.215	394.34
471.673	423.44
472.13	414.74
472.588	441.04
473.045	379.54
473.503	392.04
473.96	398.34
474.417	410.54
474.875	437.54
475.332	488.94
475.789	468.74
476.246	475.44
476.704	496.14
477.161	517.94
477.618	532.64
478.075	573.34
478.532	636.14
478.989	707.54
479.446	822.34
479.903	788.34
480.36	831.94
480.817	884.74
481.274	988.94
481.731	1108.74
482.188	1189.94
482.645	1332.84
483.102	1448.24
483.558	1566.54
484.015	1643.24
484.472	1607.74
484.929	1550.34
485.385	1504.44
485.842	1463.24
486.299	1403.24
486.755	1330.34
487.212	1120.04
487.668	945.74
488.125	872.54
488.582	799.04
489.038	775.54
489.494	727.24
489.951	712.84
490.407	679.14
490.864	658.84
491.32	657.34
491.776	655.54
492.233	668.14
492.689	636.14
493.145	628.84
493.602	617.74
494.058	626.64
494.514	636.24
494.97	661.64
495.426	661.44
495.882	634.54
496.338	639.54
496.794	643.74
497.251	639.24
497.707	655.34
498.163	655.54
498.618	664.14
499.074	666.34
499.53	699.64
499.986	698.54
500.442	674.64
500.898	647.34
501.354	641.54
501.809	647.24
502.265	657.24
502.721	674.84
503.177	685.74
503.632	679.34
504.088	677.64
504.543	716.04
504.999	727.64
505.455	667.64
505.91	642.34
506.366	649.64
506.821	646.84
507.277	641.64
507.732	646.74
508.187	641.44
508.643	653.24
509.098	644.24
509.553	669.54
510.009	678.04
510.464	688.04
510.919	715.84
511.375	719.84
511.83	729.74
512.285	748.74
512.74	789.04
513.195	809.04
513.65	800.44
514.105	786.94
514.56	794.44
515.015	818.34
515.47	836.94
515.925	814.94
516.38	809.44
516.835	814.94
517.29	807.74
517.745	808.54
518.2	784.64
518.655	771.44
519.109	771.94
519.564	762.74
520.019	754.04
520.474	733.44
520.928	736.04
521.383	735.54
521.838	730.44
522.292	730.54
522.747	725.34
523.201	725.54
523.656	711.34
524.11	708.04
524.565	705.04
525.019	712.44
525.474	718.84
525.928	713.84
526.382	717.94
526.837	716.24
527.291	717.34
527.745	711.84
528.2	716.74
528.654	714.74
529.108	694.14
529.562	713.14
530.016	721.94
530.47	705.44
530.925	712.44
531.379	712.44
531.833	719.94
532.287	721.74
532.741	711.74
533.195	723.84
533.649	730.64
534.103	742.64
534.556	723.84
535.01	734.84
535.464	722.14
535.918	745.64
536.372	744.64
536.826	724.54
537.279	720.14
537.733	734.64
538.187	735.34
538.64	734.34
539.094	741.64
539.548	755.64
540.001	737.14
540.455	746.34
540.908	746.34
541.362	753.74
541.815	756.64
542.269	779.34
542.722	774.34
543.175	791.64
543.629	779.94
544.082	800.94
544.536	810.74
544.989	813.54
545.442	814.64
545.895	806.74
546.349	808.44
546.802	802.44
547.255	823.54
547.708	823.84
548.161	837.04
548.614	841.84
549.067	840.34
549.52	854.94
549.973	829.04
550.426	830.54
550.879	807.54
551.332	822.24
551.785	820.44
552.238	817.84
552.691	826.44
553.144	853.94
553.596	872.44
554.049	882.74
554.502	911.14
554.955	932.34
555.407	943.24
555.86	922.84
556.313	911.54
556.765	907.34
557.218	908.24
557.67	899.04
558.123	895.14
558.576	892.04
559.028	894.34
559.48	905.94
559.933	893.34
560.385	860.54
560.838	827.94
561.29	794.14
561.742	803.24
562.195	779.14
562.647	782.84
563.099	790.44
563.551	788.64
564.004	792.74
564.456	794.04
564.908	777.44
565.36	762.84
565.812	746.84
566.264	735.74
566.716	729.74
567.168	730.04
567.62	735.04
568.072	722.14
568.524	707.94
568.976	705.14
569.428	683.74
569.88	688.24
570.332	690.94
570.784	690.34
571.235	697.94
571.687	705.54
572.139	707.64
572.59	728.54
573.042	725.54
573.494	725.04
573.945	720.44
574.397	692.24
574.849	703.84
575.3	709.34
575.752	707.44
576.203	693.74
576.655	694.74
577.106	679.74
577.557	683.74
578.009	686.64
578.46	670.84
578.912	675.14
579.363	673.74
579.814	680.44
580.265	675.74
580.717	687.54
581.168	681.94
581.619	695.54
582.07	697.74
582.521	687.54
582.972	683.44
583.423	693.74
583.875	698.04
584.326	704.04
584.777	757.54
585.227	817.54
585.678	908.64
586.129	989.64
586.58	1059.74
587.031	1143.94
587.482	1286.64
587.933	1466.14
588.384	1274.24
588.834	973.04
589.285	803.34
589.736	789.54
590.186	785.24
590.637	778.34
591.088	758.04
591.538	739.84
591.989	743.04
592.439	741.84
592.89	736.04
593.34	720.24
593.791	732.94
594.241	709.44
594.692	716.54
595.142	713.94
595.593	714.14
596.043	718.54
596.493	723.84
596.943	720.84
597.394	732.24
597.844	724.04
598.294	729.74
598.744	766.04
599.195	783.94
599.645	823.24
600.095	868.34
600.545	933.94
600.995	974.54
601.445	1044.34
601.895	1091.64
602.345	1145.14
602.795	1134.64
603.245	1086.74
603.695	1020.94
604.145	974.64
604.594	921.94
605.044	861.84
605.494	812.74
605.944	765.84
606.393	749.14
606.843	737.44
607.293	746.24
607.743	744.64
608.192	744.94
608.642	763.94
609.091	772.34
609.541	773.04
609.99	778.64
610.44	781.04
610.889	732.14
611.339	706.24
611.788	688.44
612.238	704.64
612.687	717.04
613.136	724.84
613.586	746.54
614.035	738.44
614.484	760.24
614.933	772.54
615.383	746.04
615.832	745.84
616.281	720.94
616.73	687.64
617.179	663.94
617.628	653.54
618.077	643.94
618.526	622.34
618.975	625.94
619.424	618.54
619.873	618.24
620.322	620.54
620.771	617.54
621.22	607.04
621.669	590.94
622.118	591.44
622.567	582.24
623.015	575.74
623.464	572.94
623.913	560.14
624.361	558.04
624.81	550.24
625.259	561.04
625.707	563.44
626.156	566.64
626.604	570.84
627.053	561.44
627.501	557.34
627.95	575.54
628.398	579.24
628.847	573.24
629.295	572.94
629.744	579.94
630.192	570.54
630.64	564.64
631.089	565.14
631.537	561.64
631.985	581.14
632.433	600.24
632.881	600.94
633.33	652.14
633.778	632.74
634.226	556.74
634.674	572.74
635.122	574.74
635.57	590.34
636.018	617.84
636.466	583.14
636.914	558.54
637.362	569.84
637.81	569.94
638.258	580.94
638.705	578.24
639.153	605.84
639.601	618.04
640.049	635.34
640.497	667.54
640.944	700.14
641.392	643.14
641.84	617.24
642.287	581.54
642.735	564.74
643.182	570.44
643.63	575.34
644.078	575.34
644.525	586.94
644.973	604.54
645.42	606.14
645.867	621.74
646.315	648.04
646.762	668.04
647.21	687.44
647.657	708.74
648.104	743.84
648.551	762.24
648.999	836.44
649.446	904.64
649.893	997.24
650.34	1158.44
650.787	1376.24
651.234	1703.74
651.682	2213.64
652.129	3032.14
652.576	4381.84
653.023	6442.34
653.47	8884.74
653.917	11086.64
654.363	12855.04
654.81	14248.04
655.257	13563.54
655.704	8902.94
656.151	5278.34
656.598	3420.34
657.044	2419.64
657.491	1861.14
657.938	1480.04
658.385	1243.14
658.831	1083.04
659.278	958.84
659.724	859.04
660.171	788.44
660.618	718.74
661.064	687.84
661.511	672.04
661.957	649.64
662.404	645.54
662.85	648.64
663.296	623.74
663.743	556.04
664.189	532.74
664.635	520.94
665.082	524.74
665.528	531.74
665.974	515.34
666.42	509.84
666.867	506.24
667.313	492.24
667.759	469.74
668.205	470.44
668.651	469.24
669.097	486.84
669.543	504.74
669.989	461.54
670.435	443.94
670.881	436.64
671.327	444.14
671.773	463.94
672.219	484.94
672.665	536.44
673.11	579.64
673.556	616.94
674.002	669.14
674.448	642.34
674.893	540.44
675.339	468.34
675.785	434.74
676.23	414.54
676.676	391.04
677.122	375.64
677.567	375.34
678.013	364.54
678.458	347.04
678.904	353.54
679.349	338.24
679.794	355.14
680.24	348.54
680.685	338.74
681.131	344.74
681.576	344.34
682.021	356.24
682.466	341.54
682.912	344.54
683.357	349.34
683.802	376.34
684.247	409.64
684.692	447.24
685.137	483.74
685.583	534.94
686.028	559.74
686.473	507.64
686.918	443.94
687.363	406.74
687.807	386.04
688.252	359.64
688.697	352.54
689.142	340.04
689.587	335.04
690.032	319.24
690.477	338.64
690.921	342.64
691.366	368.94
691.811	394.94
692.255	423.44
692.7	459.04
693.145	504.54
693.589	675.04
694.034	1098.74
694.478	1497.64
694.923	1729.64
695.367	2262.14
695.812	1178.34
696.256	487.74
696.701	364.14
697.145	340.64
697.59	328.54
698.034	321.64
698.478	324.24
698.922	317.24
699.367	321.54
699.811	336.84
700.255	342.04
700.699	377.64
701.143	415.84
701.588	457.74
702.032	505.34
702.476	504.24
702.92	480.24
703.364	485.54
703.808	625.14
704.252	997.24
704.696	1414.74
705.14	1642.04
705.584	2094.74
706.027	1039.84
706.471	508.54
706.915	393.54
707.359	347.04
707.803	308.54
708.246	304.04
708.69	307.64
709.134	308.74
709.577	309.74
710.021	310.34
710.465	302.94
710.908	295.64
711.352	295.14
711.795	294.84
712.239	343.94
712.682	383.74
713.126	413.04
713.569	464.04
714.012	366.44
714.456	322.14
714.899	296.54
715.342	267.64
715.786	252.04
716.229	253.94
716.672	248.34
717.115	241.64
717.558	255.04
718.002	252.04
718.445	254.24
718.888	278.14
719.331	282.84
719.774	304.94
720.217	293.74
720.66	283.04
721.103	268.34
721.546	245.84
721.989	244.24
722.432	223.64
722.874	237.14
723.317	218.74
723.76	224.04
724.203	250.74
724.645	300.34
725.088	429.14
725.531	561.44
725.974	631.54
726.416	541.84
726.859	307.14
727.301	241.24
727.744	238.14
728.187	233.74
728.629	234.24
729.071	239.24
729.514	253.84
729.956	263.64
730.399	275.94
730.841	287.54
731.283	267.94
731.726	262.04
732.168	248.44
732.61	255.74
733.053	286.14
733.495	310.74
733.937	345.54
734.379	384.44
734.821	432.24
735.263	521.94
735.705	791.24
736.148	1511.44
736.59	2517.34
737.032	3023.34
737.474	2445.24
737.916	796.54
738.357	417.54
738.799	329.14
739.241	289.44
739.683	283.64
740.125	283.14
740.567	287.14
741.008	299.74
741.45	303.74
741.892	312.54
742.334	337.04
742.775	352.24
743.217	330.54
743.658	266.84
744.1	244.74
744.542	254.94
744.983	306.64
745.425	344.14
745.866	338.34
746.307	278.74
746.749	270.74
747.19	314.24
747.632	449.54
748.073	845.64
748.514	1794.24
748.956	2774.74
749.397	3469.54
749.838	2897.94
750.279	2927.34
750.72	1482.14
751.162	539.94
751.603	310.54
752.044	243.84
752.485	219.84
752.926	210.94
753.367	196.64
753.808	193.64
754.249	183.94
754.69	188.34
755.131	184.24
755.572	185.04
756.013	176.14
756.453	178.14
756.894	189.64
757.335	187.64
757.776	190.84
758.216	195.94
758.657	192.24
759.098	196.94
759.538	219.14
759.979	259.94
760.42	365.14
760.86	663.04
761.301	1729.74
761.741	4270.64
762.182	6326.74
