Data from 20171114-ORNL-Ar_H_NY_Subt18_08-08-38-041.txt Node
Date: Tue Nov 14 08:08:38 EST 2017
User: Ender
Spectrometer: HR+D1039
Trigger mode: 0
Integration Time (sec): 2.730000E-2
Scans to average: 10
Electric dark correction enabled: true
Nonlinearity correction enabled: false
Boxcar width: 0
XAxis mode: Wavelengths
Number of Pixels in Spectrum: 2048
>>>>>Begin Spectral Data<<<<<
187.836	-7.05
188.309	-7.05
188.782	-7.05
189.255	-2.75
189.728	2.85
190.201	4.35
190.674	1.55
191.147	4.55
191.619	-8.45
192.092	2.15
192.565	2.35
193.038	-0.45
193.511	4.65
193.984	2.25
194.456	0.65
194.929	-2.55
195.402	-0.95
195.874	-3.15
196.347	-0.45
196.82	-9.05
197.292	4.45
197.765	-3.55
198.237	-6.85
198.71	1.05
199.182	-2.55
199.655	1.65
200.127	6.05
200.6	0.75
201.072	-1.35
201.544	-3.25
202.017	-3.05
202.489	-2.95
202.961	1.45
203.433	-5.65
203.906	-2.85
204.378	-3.35
204.85	4.35
205.322	-6.45
205.794	0.25
206.266	-4.55
206.739	-9.25
207.211	1.15
207.683	-6.25
208.155	0.95
208.627	-7.55
209.099	-8.45
209.57	-13.45
210.042	-5.65
210.514	-1.25
210.986	-0.65
211.458	-7.15
211.93	-4.85
212.402	2.05
212.873	-7.35
213.345	-9.95
213.817	-8.15
214.288	-8.15
214.76	-8.75
215.232	-4.15
215.703	-5.85
216.175	1.55
216.646	-4.05
217.118	-4.45
217.589	-3.35
218.061	0.05
218.532	-2.05
219.004	2.45
219.475	-1.25
219.946	-1.25
220.418	-7.25
220.889	0.85
221.36	-2.85
221.832	-8.75
222.303	-11.45
222.774	3.05
223.245	-4.05
223.717	-5.85
224.188	-7.15
224.659	-5.35
225.13	-7.95
225.601	-1.85
226.072	1.85
226.543	-2.95
227.014	-0.55
227.485	1.95
227.956	-3.35
228.427	2.95
228.898	0.55
229.369	-2.85
229.839	-10.25
230.31	-11.55
230.781	-1.55
231.252	0.35
231.722	-3.45
232.193	-4.25
232.664	-9.05
233.135	-4.35
233.605	-3.45
234.076	-9.25
234.546	-0.05
235.017	-3.25
235.487	-3.75
235.958	-2.45
236.428	-4.85
236.899	-0.05
237.369	2.65
237.84	-5.35
238.31	2.65
238.78	-8.95
239.251	-7.55
239.721	-0.25
240.191	-4.55
240.662	-3.85
241.132	-4.85
241.602	-0.55
242.072	-0.15
242.542	1.55
243.013	-0.35
243.483	1.55
243.953	-1.55
244.423	-3.05
244.893	-3.35
245.363	0.45
245.833	0.35
246.303	-11.55
246.773	0.45
247.243	-2.15
247.712	-2.15
248.182	4.15
248.652	3.35
249.122	-11.95
249.592	-1.55
250.061	1.85
250.531	10.25
251.001	3.05
251.471	5.15
251.94	11.85
252.41	0.25
252.879	-8.85
253.349	2.15
253.818	3.75
254.288	-1.15
254.757	4.45
255.227	1.75
255.696	0.85
256.166	1.85
256.635	10.45
257.105	3.85
257.574	-0.35
258.043	1.15
258.513	-1.75
258.982	8.85
259.451	-1.55
259.92	3.35
260.389	1.45
260.859	8.35
261.328	3.25
261.797	6.65
262.266	-2.85
262.735	6.65
263.204	3.55
263.673	-1.95
264.142	4.25
264.611	-5.55
265.08	-1.05
265.549	-5.45
266.018	-0.85
266.487	-2.15
266.955	-0.05
267.424	-2.55
267.893	7.25
268.362	0.15
268.83	-1.85
269.299	7.95
269.768	0.85
270.236	2.25
270.705	-3.75
271.174	-4.15
271.642	-1.35
272.111	2.75
272.579	2.15
273.048	2.25
273.516	5.45
273.985	7.55
274.453	7.85
274.922	8.35
275.39	6.35
275.858	-0.75
276.327	7.55
276.795	16.05
277.263	1.95
277.731	12.15
278.2	11.85
278.668	12.05
279.136	16.85
279.604	6.05
280.072	13.45
280.54	12.45
281.008	4.05
281.477	3.95
281.945	7.35
282.413	6.45
282.881	2.45
283.348	3.45
283.816	10.65
284.284	9.35
284.752	15.15
285.22	13.85
285.688	5.75
286.156	17.55
286.623	12.25
287.091	14.05
287.559	8.65
288.026	13.65
288.494	8.95
288.962	4.75
289.429	9.95
289.897	18.75
290.364	11.75
290.832	11.45
291.3	9.35
291.767	13.25
292.234	14.95
292.702	8.25
293.169	11.05
293.637	12.45
294.104	19.05
294.571	4.95
295.039	12.05
295.506	11.75
295.973	19.45
296.44	7.85
296.908	13.95
297.375	17.55
297.842	18.55
298.309	10.65
298.776	7.25
299.243	20.45
299.71	9.75
300.177	11.45
300.644	16.35
301.111	10.25
301.578	22.05
302.045	16.05
302.512	20.05
302.979	15.65
303.446	16.25
303.913	14.45
304.379	8.45
304.846	23.55
305.313	16.55
305.78	17.55
306.246	15.25
306.713	21.35
307.18	18.45
307.646	16.35
308.113	23.65
308.579	20.95
309.046	17.45
309.512	17.55
309.979	13.95
310.445	22.65
310.912	25.45
311.378	29.25
311.845	25.35
312.311	26.85
312.777	28.75
313.244	24.15
313.71	23.55
314.176	26.15
314.642	19.55
315.109	22.05
315.575	28.85
316.041	28.95
316.507	23.95
316.973	27.65
317.439	26.15
317.905	27.75
318.371	33.05
318.837	26.15
319.303	29.15
319.769	27.95
320.235	22.65
320.701	28.65
321.167	29.75
321.633	32.15
322.099	31.45
322.564	29.65
323.03	40.85
323.496	30.15
323.962	33.75
324.427	27.85
324.893	35.85
325.359	30.85
325.824	34.85
326.29	26.55
326.755	35.85
327.221	33.45
327.686	33.25
328.152	35.35
328.617	30.45
329.083	42.05
329.548	47.15
330.014	43.25
330.479	33.35
330.944	40.15
331.41	37.25
331.875	41.75
332.34	38.35
332.805	33.85
333.271	36.65
333.736	34.65
334.201	42.15
334.666	45.75
335.131	47.15
335.596	41.05
336.061	39.05
336.526	40.85
336.991	43.45
337.456	48.85
337.921	40.85
338.386	43.55
338.851	39.55
339.316	36.85
339.781	45.75
340.246	51.65
340.711	43.25
341.175	44.85
341.64	40.55
342.105	44.85
342.569	45.15
343.034	48.35
343.499	46.45
343.963	50.45
344.428	52.15
344.893	58.15
345.357	54.35
345.822	58.65
346.286	59.55
346.751	66.05
347.215	62.35
347.679	68.85
348.144	88.05
348.608	73.65
349.073	64.45
349.537	66.15
350.001	71.85
350.465	77.05
350.93	74.75
351.394	74.65
351.858	63.15
352.322	79.25
352.786	80.05
353.25	91.35
353.715	98.15
354.179	94.75
354.643	105.55
355.107	108.95
355.571	100.15
356.035	87.75
356.498	105.75
356.962	111.45
357.426	118.05
357.89	105.25
358.354	77.15
358.818	76.85
359.281	68.65
359.745	66.05
360.209	65.45
360.673	67.25
361.136	82.45
361.6	82.05
362.064	76.75
362.527	79.05
362.991	88.45
363.454	80.65
363.918	71.05
364.381	77.85
364.845	80.55
365.308	84.45
365.772	81.15
366.235	81.25
366.698	77.05
367.162	75.95
367.625	83.55
368.088	81.85
368.552	83.95
369.015	85.45
369.478	88.85
369.941	93.15
370.404	90.85
370.867	93.15
371.331	100.25
371.794	102.75
372.257	86.15
372.72	102.05
373.183	100.25
373.646	86.75
374.109	92.85
374.572	98.75
375.035	96.35
375.497	101.55
375.96	91.85
376.423	94.35
376.886	103.55
377.349	103.05
377.811	94.15
378.274	98.55
378.737	98.45
379.199	103.95
379.662	103.85
380.125	103.75
380.587	103.65
381.05	106.75
381.512	104.85
381.975	125.35
382.437	118.65
382.9	118.05
383.362	119.35
383.825	124.35
384.287	122.35
384.75	118.15
385.212	127.25
385.674	129.25
386.136	131.55
386.599	119.15
387.061	113.75
387.523	119.65
387.985	127.85
388.447	125.05
388.91	121.25
389.372	127.25
389.834	131.25
390.296	123.95
390.758	128.15
391.22	138.65
391.682	146.75
392.144	166.35
392.606	141.65
393.068	137.35
393.529	152.15
393.991	138.45
394.453	122.55
394.915	130.05
395.377	135.35
395.838	141.95
396.3	134.45
396.762	138.85
397.224	131.45
397.685	129.75
398.147	127.05
398.608	129.55
399.07	123.45
399.531	130.85
399.993	139.25
400.454	153.05
400.916	147.05
401.377	142.15
401.839	154.45
402.3	149.65
402.762	160.85
403.223	174.45
403.684	170.35
404.145	165.75
404.607	155.45
405.068	165.55
405.529	162.05
405.99	190.05
406.451	172.15
406.913	172.95
407.374	160.95
407.835	165.65
408.296	167.05
408.757	176.05
409.218	184.55
409.679	177.95
410.14	173.95
410.601	172.75
411.062	181.25
411.522	181.15
411.983	179.95
412.444	176.95
412.905	184.55
413.366	189.15
413.826	199.15
414.287	215.95
414.748	268.95
415.208	253.15
415.669	219.55
416.13	208.85
416.59	206.85
417.051	217.85
417.511	228.35
417.972	247.15
418.432	250.95
418.893	301.25
419.353	258.45
419.814	196.55
420.274	188.95
420.734	181.65
421.195	198.55
421.655	196.65
422.115	198.05
422.576	199.15
423.036	201.25
423.496	216.65
423.956	222.15
424.416	237.25
424.876	275.25
425.336	271.35
425.797	263.75
426.257	257.35
426.717	251.85
427.177	238.15
427.637	221.45
428.097	237.75
428.556	248.65
429.016	267.25
429.476	264.45
429.936	279.55
430.396	279.75
430.856	288.65
431.315	308.45
431.775	349.45
432.235	378.55
432.694	345.25
433.154	358.45
433.614	390.15
434.073	330.35
434.533	281.55
434.993	267.55
435.452	285.05
435.912	288.35
436.371	281.15
436.83	280.35
437.29	272.15
437.749	249.25
438.209	248.45
438.668	282.95
439.127	289.25
439.587	270.95
440.046	260.75
440.505	262.45
440.964	281.15
441.424	326.95
441.883	321.15
442.342	267.65
442.801	233.65
443.26	233.85
443.719	231.35
444.178	225.05
444.637	218.35
445.096	235.45
445.555	237.65
446.014	236.45
446.473	236.35
446.932	245.65
447.391	237.05
447.849	243.45
448.308	230.65
448.767	234.05
449.226	248.75
449.685	245.65
450.143	266.65
450.602	252.15
451.061	227.85
451.519	238.35
451.978	240.15
452.436	245.15
452.895	245.05
453.353	258.55
453.812	250.95
454.27	245.55
454.729	250.95
455.187	246.65
455.646	256.65
456.104	260.25
456.562	270.75
457.021	279.05
457.479	268.25
457.937	280.85
458.395	273.85
458.854	256.05
459.312	268.55
459.77	283.25
460.228	270.65
460.686	253.15
461.144	259.15
461.602	262.05
462.06	253.95
462.518	263.25
462.976	266.75
463.434	269.25
463.892	273.55
464.35	289.45
464.808	302.05
465.266	274.35
465.724	276.45
466.181	284.95
466.639	281.35
467.097	299.45
467.555	319.85
468.012	310.05
468.47	316.65
468.928	333.95
469.385	347.85
469.843	356.55
470.3	367.35
470.758	371.35
471.215	387.45
471.673	425.05
472.13	419.95
472.588	431.95
473.045	397.75
473.503	406.85
473.96	415.85
474.417	423.05
474.875	449.25
475.332	497.55
475.789	476.15
476.246	477.85
476.704	496.15
477.161	525.95
477.618	537.75
478.075	570.45
478.532	625.45
478.989	693.05
479.446	807.65
479.903	770.55
480.36	797.05
480.817	854.85
481.274	943.65
481.731	1028.65
482.188	1110.25
482.645	1228.95
483.102	1319.45
483.558	1454.05
484.015	1486.85
484.472	1450.75
484.929	1418.25
485.385	1383.85
485.842	1333.35
486.299	1292.75
486.755	1253.65
487.212	1069.15
487.668	912.65
488.125	841.45
488.582	777.25
489.038	751.25
489.494	718.05
489.951	691.25
490.407	678.35
490.864	656.55
491.32	655.95
491.776	651.45
492.233	663.75
492.689	632.95
493.145	625.55
493.602	614.85
494.058	631.95
494.514	633.95
494.97	656.05
495.426	664.45
495.882	641.85
496.338	624.65
496.794	640.85
497.251	628.85
497.707	651.75
498.163	650.45
498.618	652.45
499.074	663.35
499.53	689.05
499.986	688.65
500.442	657.95
500.898	644.25
501.354	633.45
501.809	635.05
502.265	637.45
502.721	637.55
503.177	671.75
503.632	658.85
504.088	672.45
504.543	682.95
504.999	716.15
505.455	668.75
505.91	661.95
506.366	657.15
506.821	655.15
507.277	655.55
507.732	644.75
508.187	653.15
508.643	659.55
509.098	653.55
509.553	677.95
510.009	688.85
510.464	693.65
510.919	715.75
511.375	724.25
511.83	731.95
512.285	743.75
512.74	779.65
513.195	803.95
513.65	802.75
514.105	787.25
514.56	788.75
515.015	811.15
515.47	818.45
515.925	807.15
516.38	803.95
516.835	817.35
517.29	811.15
517.745	803.35
518.2	790.05
518.655	773.95
519.109	779.25
519.564	761.55
520.019	760.85
520.474	754.25
520.928	750.45
521.383	745.45
521.838	732.85
522.292	738.05
522.747	732.25
523.201	735.85
523.656	731.25
524.11	710.65
524.565	718.45
525.019	721.15
525.474	724.15
525.928	726.15
526.382	717.25
526.837	726.85
527.291	728.65
527.745	715.35
528.2	723.95
528.654	716.85
529.108	711.25
529.562	721.15
530.016	709.35
530.47	714.35
530.925	720.35
531.379	722.05
531.833	715.55
532.287	715.75
532.741	722.95
533.195	719.25
533.649	729.55
534.103	741.05
534.556	728.45
535.01	734.45
535.464	740.95
535.918	739.75
536.372	741.25
536.826	727.15
537.279	728.05
537.733	731.15
538.187	741.35
538.64	739.15
539.094	750.35
539.548	755.45
540.001	746.55
540.455	756.35
540.908	756.75
541.362	753.95
541.815	763.35
542.269	779.05
542.722	778.15
543.175	784.75
543.629	807.65
544.082	815.25
544.536	808.25
544.989	818.85
545.442	832.55
545.895	824.65
546.349	823.05
546.802	825.45
547.255	829.45
547.708	844.95
548.161	837.55
548.614	852.65
549.067	860.65
549.52	856.25
549.973	838.55
550.426	834.15
550.879	820.85
551.332	838.25
551.785	851.65
552.238	840.55
552.691	852.05
553.144	869.05
553.596	886.35
554.049	907.15
554.502	926.95
554.955	943.75
555.407	938.75
555.86	933.75
556.313	925.55
556.765	912.35
557.218	918.55
557.67	919.05
558.123	910.25
558.576	901.25
559.028	913.05
559.48	915.95
559.933	908.25
560.385	875.35
560.838	848.25
561.29	818.05
561.742	815.85
562.195	811.05
562.647	797.75
563.099	808.45
563.551	805.15
564.004	819.75
564.456	800.25
564.908	783.65
565.36	764.85
565.812	756.35
566.264	755.95
566.716	752.45
567.168	740.35
567.62	742.25
568.072	729.45
568.524	717.35
568.976	719.15
569.428	695.85
569.88	704.85
570.332	715.85
570.784	715.15
571.235	710.65
571.687	725.55
572.139	729.05
572.59	749.55
573.042	739.75
573.494	745.85
573.945	741.45
574.397	716.85
574.849	716.35
575.3	716.95
575.752	709.05
576.203	704.05
576.655	714.75
577.106	701.25
577.557	698.95
578.009	696.75
578.46	696.85
578.912	691.95
579.363	706.25
579.814	700.45
580.265	689.05
580.717	687.95
581.168	707.75
581.619	706.35
582.07	704.65
582.521	696.95
582.972	701.25
583.423	700.45
583.875	700.05
584.326	711.25
584.777	731.45
585.227	761.35
585.678	776.05
586.129	803.85
586.58	819.55
587.031	851.55
587.482	890.15
587.933	933.55
588.384	915.05
588.834	833.95
589.285	806.25
589.736	809.85
590.186	797.35
590.637	806.45
591.088	768.85
591.538	767.15
591.989	761.45
592.439	748.65
592.89	751.85
593.34	750.25
593.791	723.65
594.241	722.65
594.692	734.15
595.142	718.05
595.593	719.75
596.043	719.15
596.493	730.95
596.943	738.15
597.394	757.05
597.844	746.85
598.294	768.65
598.744	792.75
599.195	821.75
599.645	863.15
600.095	904.45
600.545	959.95
600.995	996.05
601.445	1062.25
601.895	1134.15
602.345	1171.85
602.795	1159.95
603.245	1113.75
603.695	1059.35
604.145	1002.25
604.594	952.65
605.044	893.65
605.494	835.35
605.944	795.75
606.393	770.45
606.843	752.95
607.293	755.35
607.743	762.05
608.192	775.25
608.642	780.15
609.091	795.75
609.541	794.55
609.99	789.45
610.44	787.85
610.889	746.85
611.339	732.25
611.788	705.85
612.238	720.35
612.687	733.25
613.136	722.35
613.586	740.85
614.035	734.25
614.484	747.45
614.933	740.65
615.383	741.75
615.832	728.85
616.281	734.85
616.73	701.15
617.179	677.95
617.628	678.05
618.077	653.85
618.526	647.25
618.975	644.65
619.424	641.85
619.873	642.55
620.322	638.95
620.771	632.95
621.22	625.75
621.669	614.75
622.118	610.15
622.567	603.85
623.015	591.55
623.464	589.05
623.913	579.95
624.361	577.95
624.81	563.35
625.259	575.95
625.707	591.85
626.156	577.75
626.604	591.35
627.053	590.15
627.501	595.55
627.95	589.25
628.398	611.25
628.847	591.65
629.295	595.45
629.744	599.65
630.192	594.85
630.64	585.75
631.089	571.35
631.537	565.05
631.985	561.75
632.433	554.45
632.881	547.95
633.33	561.05
633.778	558.65
634.226	548.35
634.674	563.95
635.122	565.25
635.57	594.05
636.018	589.15
636.466	593.55
636.914	589.45
637.362	601.05
637.81	596.65
638.258	602.55
638.705	599.35
639.153	639.15
639.601	647.45
640.049	667.05
640.497	701.05
640.944	719.05
641.392	674.05
641.84	644.05
642.287	607.45
642.735	595.65
643.182	584.15
643.63	580.75
644.078	584.05
644.525	599.05
644.973	603.45
645.42	616.05
645.867	641.55
646.315	652.45
646.762	684.35
647.21	713.65
647.657	728.95
648.104	760.05
648.551	771.05
648.999	846.75
649.446	919.05
649.893	1009.55
650.34	1151.55
650.787	1368.15
651.234	1686.35
651.682	2179.05
652.129	2972.85
652.576	4239.05
653.023	6161.45
653.47	8284.55
653.917	10220.55
654.363	11724.35
654.81	12833.05
655.257	12183.35
655.704	8073.65
656.151	4854.85
656.598	3204.85
657.044	2308.85
657.491	1792.05
657.938	1454.45
658.385	1226.15
658.831	1072.25
659.278	959.35
659.724	856.45
660.171	789.85
660.618	732.35
661.064	700.55
661.511	679.35
661.957	666.15
662.404	662.75
662.85	671.25
663.296	636.55
663.743	581.75
664.189	565.15
664.635	561.15
665.082	543.15
665.528	551.55
665.974	533.05
666.42	529.35
666.867	525.95
667.313	496.05
667.759	493.75
668.205	469.75
668.651	472.95
669.097	471.45
669.543	466.65
669.989	465.95
670.435	459.85
670.881	469.55
671.327	472.05
671.773	499.15
672.219	518.35
672.665	575.25
673.11	615.75
673.556	659.55
674.002	695.35
674.448	693.55
674.893	581.15
675.339	497.75
675.785	460.85
676.23	438.05
676.676	424.15
677.122	406.65
677.567	390.15
678.013	381.95
678.458	384.35
678.904	384.75
679.349	366.85
679.794	375.85
680.24	366.65
680.685	376.95
681.131	371.85
681.576	380.45
682.021	376.05
682.466	373.75
682.912	369.85
683.357	379.95
683.802	402.85
684.247	427.75
684.692	482.55
685.137	524.65
685.583	562.15
686.028	588.25
686.473	555.55
686.918	472.25
687.363	433.35
687.807	418.65
688.252	384.95
688.697	376.45
689.142	356.55
689.587	349.55
690.032	342.75
690.477	359.65
690.921	374.35
691.366	409.85
691.811	422.05
692.255	449.55
692.7	500.75
693.145	530.95
693.589	760.05
694.034	1229.65
694.478	1627.95
694.923	1810.85
695.367	2342.65
695.812	1265.65
696.256	523.45
696.701	385.25
697.145	366.35
697.59	343.25
698.034	333.95
698.478	341.35
698.922	338.55
699.367	340.75
699.811	360.85
700.255	368.05
700.699	405.85
701.143	447.55
701.588	493.55
702.032	542.25
702.476	540.85
702.92	522.15
703.364	524.75
703.808	694.85
704.252	1128.95
704.696	1561.75
705.14	1765.05
705.584	2221.05
706.027	1126.95
706.471	560.35
706.915	421.75
707.359	373.65
707.803	344.35
708.246	340.25
708.69	336.85
709.134	332.65
709.577	324.15
710.021	333.75
710.465	322.25
710.908	315.35
711.352	316.25
711.795	334.05
712.239	383.25
712.682	407.95
713.126	433.65
713.569	475.65
714.012	376.15
714.456	330.25
714.899	302.35
715.342	291.85
715.786	275.95
716.229	271.85
716.672	271.65
717.115	262.45
717.558	267.55
718.002	264.65
718.445	274.05
718.888	296.65
719.331	305.65
719.774	328.05
720.217	310.35
720.66	301.25
721.103	278.15
721.546	264.05
721.989	268.25
722.432	249.25
722.874	248.55
723.317	243.75
723.76	249.55
724.203	275.25
724.645	343.35
725.088	480.55
725.531	607.25
725.974	674.35
726.416	566.75
726.859	321.85
727.301	259.35
727.744	246.25
728.187	238.25
728.629	250.85
729.071	255.05
729.514	271.85
729.956	286.45
730.399	299.15
730.841	309.35
731.283	293.15
731.726	282.65
732.168	272.95
732.61	290.05
733.053	306.95
733.495	345.35
733.937	372.95
734.379	424.05
734.821	463.95
735.263	586.05
735.705	921.05
736.148	1725.85
736.59	2785.15
737.032	3178.45
737.474	2611.75
737.916	855.85
738.357	461.25
738.799	353.65
739.241	313.15
739.683	302.45
740.125	312.15
740.567	318.35
741.008	325.75
741.45	336.25
741.892	343.55
742.334	375.45
742.775	388.85
743.217	360.75
743.658	292.65
744.1	279.95
744.542	282.55
744.983	339.35
745.425	368.45
745.866	361.25
746.307	293.35
746.749	291.65
747.19	350.75
747.632	497.85
748.073	972.75
748.514	2040.45
748.956	3022.45
749.397	3843.05
749.838	3179.55
750.279	3099.15
750.72	1592.05
751.162	580.15
751.603	341.45
752.044	263.45
752.485	226.35
752.926	217.55
753.367	221.75
753.808	209.15
754.249	202.75
754.69	191.65
755.131	189.75
755.572	195.55
756.013	195.75
756.453	202.65
756.894	193.55
757.335	201.55
757.776	209.05
758.216	206.45
758.657	211.45
759.098	213.55
759.538	240.95
759.979	291.05
760.42	408.65
760.86	781.25
761.301	2053.25
761.741	4819.75
762.182	6685.75
762.622	4743.95
763.063	1414.05
