Data from 20171114-ORNL-Ar_H_NY_Subt18_08-06-39-296.txt Node
Date: Tue Nov 14 08:06:39 EST 2017
User: Ender
Spectrometer: HR+D1039
Trigger mode: 0
Integration Time (sec): 2.730000E-2
Scans to average: 10
Electric dark correction enabled: true
Nonlinearity correction enabled: false
Boxcar width: 0
XAxis mode: Wavelengths
Number of Pixels in Spectrum: 2048
>>>>>Begin Spectral Data<<<<<
187.836	-1.79
188.309	-1.79
188.782	-1.79
189.255	2.31
189.728	-4.19
190.201	4.81
190.674	-1.09
191.147	1.01
191.619	-7.59
192.092	1.91
192.565	2.21
193.038	0.91
193.511	-2.09
193.984	4.31
194.456	-3.09
194.929	3.41
195.402	2.31
195.874	-3.39
196.347	0.71
196.82	-11.29
197.292	5.11
197.765	-0.79
198.237	-7.19
198.71	-0.29
199.182	1.51
199.655	0.31
200.127	3.01
200.6	-3.39
201.072	-2.49
201.544	-0.49
202.017	2.01
202.489	5.21
202.961	-2.99
203.433	-0.09
203.906	-3.89
204.378	-8.69
204.85	-0.09
205.322	-11.49
205.794	-4.89
206.266	0.01
206.739	-7.89
207.211	2.41
207.683	-6.99
208.155	-0.09
208.627	-7.49
209.099	-7.29
209.57	-6.29
210.042	-4.79
210.514	-4.09
210.986	-5.29
211.458	-8.39
211.93	-5.89
212.402	2.71
212.873	-4.39
213.345	-10.79
213.817	-11.79
214.288	-6.29
214.76	-10.49
215.232	-0.89
215.703	-1.69
216.175	-4.49
216.646	-2.79
217.118	-7.19
217.589	-1.69
218.061	-3.09
218.532	-8.79
219.004	-0.29
219.475	-2.09
219.946	-7.19
220.418	-5.59
220.889	8.71
221.36	-0.49
221.832	-4.19
222.303	-6.39
222.774	-0.59
223.245	-8.39
223.717	-8.89
224.188	-5.59
224.659	-2.89
225.13	-5.19
225.601	-2.99
226.072	-1.59
226.543	-7.19
227.014	-5.19
227.485	-6.39
227.956	-4.19
228.427	-1.89
228.898	0.31
229.369	0.21
229.839	-1.69
230.31	-5.79
230.781	-0.59
231.252	-5.19
231.722	-4.29
232.193	3.71
232.664	0.41
233.135	-4.79
233.605	-2.09
234.076	-5.79
234.546	-0.69
235.017	3.01
235.487	2.31
235.958	-5.19
236.428	-9.09
236.899	-4.19
237.369	1.81
237.84	-4.89
238.31	2.81
238.78	-4.19
239.251	-4.89
239.721	-3.59
240.191	-7.59
240.662	-1.59
241.132	-3.29
241.602	-11.69
242.072	-1.99
242.542	1.81
243.013	3.41
243.483	-3.69
243.953	-2.19
244.423	-3.19
244.893	-6.19
245.363	-4.19
245.833	-0.49
246.303	-5.79
246.773	7.41
247.243	4.11
247.712	-4.09
248.182	2.81
248.652	7.71
249.122	-3.09
249.592	0.91
250.061	5.21
250.531	11.51
251.001	1.81
251.471	9.31
251.94	11.11
252.41	6.81
252.879	-5.89
253.349	10.31
253.818	6.51
254.288	2.11
254.757	-8.29
255.227	-6.69
255.696	-0.59
256.166	7.81
256.635	8.91
257.105	9.41
257.574	-3.89
258.043	2.11
258.513	-4.59
258.982	6.21
259.451	-4.09
259.92	-1.49
260.389	6.11
260.859	16.71
261.328	4.61
261.797	4.71
262.266	-2.29
262.735	9.71
263.204	2.31
263.673	4.11
264.142	6.31
264.611	-4.79
265.08	0.61
265.549	-6.59
266.018	0.21
266.487	4.21
266.955	0.31
267.424	0.91
267.893	5.91
268.362	6.91
268.83	4.81
269.299	8.71
269.768	5.11
270.236	1.81
270.705	4.01
271.174	1.21
271.642	1.81
272.111	3.71
272.579	9.81
273.048	2.61
273.516	10.91
273.985	10.41
274.453	14.21
274.922	14.71
275.39	8.41
275.858	5.21
276.327	8.41
276.795	8.11
277.263	1.61
277.731	8.41
278.2	17.11
278.668	11.11
279.136	12.61
279.604	4.11
280.072	12.31
280.54	12.11
281.008	9.81
281.477	11.51
281.945	9.61
282.413	13.01
282.881	12.31
283.348	9.51
283.816	11.61
284.284	13.61
284.752	17.71
285.22	17.61
285.688	12.91
286.156	9.71
286.623	21.31
287.091	11.41
287.559	15.11
288.026	12.41
288.494	14.71
288.962	4.91
289.429	6.41
289.897	18.51
290.364	13.51
290.832	13.01
291.3	13.41
291.767	20.61
292.234	15.81
292.702	17.61
293.169	16.91
293.637	22.11
294.104	20.21
294.571	4.81
295.039	10.81
295.506	13.01
295.973	16.91
296.44	17.01
296.908	17.81
297.375	16.21
297.842	17.81
298.309	16.81
298.776	12.91
299.243	21.81
299.71	12.91
300.177	20.11
300.644	13.51
301.111	21.81
301.578	25.61
302.045	16.11
302.512	23.91
302.979	27.41
303.446	23.01
303.913	23.61
304.379	20.01
304.846	28.71
305.313	22.91
305.78	16.11
306.246	24.51
306.713	27.21
307.18	24.91
307.646	25.91
308.113	28.41
308.579	22.81
309.046	24.01
309.512	23.51
309.979	19.41
310.445	24.61
310.912	24.31
311.378	30.41
311.845	33.91
312.311	36.21
312.777	36.01
313.244	31.71
313.71	35.51
314.176	31.81
314.642	35.81
315.109	31.01
315.575	37.81
316.041	39.01
316.507	30.61
316.973	41.41
317.439	37.01
317.905	34.81
318.371	36.51
318.837	36.41
319.303	39.61
319.769	33.91
320.235	32.91
320.701	39.11
321.167	37.81
321.633	38.21
322.099	36.91
322.564	41.51
323.03	35.41
323.496	37.21
323.962	46.01
324.427	39.31
324.893	48.81
325.359	41.91
325.824	37.91
326.29	37.31
326.755	41.91
327.221	37.11
327.686	41.11
328.152	46.31
328.617	44.41
329.083	45.31
329.548	56.11
330.014	52.81
330.479	45.11
330.944	46.21
331.41	39.41
331.875	48.11
332.34	45.81
332.805	49.81
333.271	46.81
333.736	43.11
334.201	52.21
334.666	53.11
335.131	51.01
335.596	53.31
336.061	56.41
336.526	38.71
336.991	53.61
337.456	61.31
337.921	45.91
338.386	45.21
338.851	49.41
339.316	47.11
339.781	48.21
340.246	52.11
340.711	52.61
341.175	55.51
341.64	48.61
342.105	61.71
342.569	57.81
343.034	58.21
343.499	57.21
343.963	60.31
344.428	69.81
344.893	62.91
345.357	69.91
345.822	67.81
346.286	64.71
346.751	80.61
347.215	67.61
347.679	73.61
348.144	98.91
348.608	91.61
349.073	74.81
349.537	77.11
350.001	80.01
350.465	95.61
350.93	84.61
351.394	87.91
351.858	79.41
352.322	89.21
352.786	90.41
353.25	107.91
353.715	115.01
354.179	101.71
354.643	124.91
355.107	127.91
355.571	102.41
356.035	102.51
356.498	128.41
356.962	119.31
357.426	127.11
357.89	118.81
358.354	100.41
358.818	89.31
359.281	81.61
359.745	77.31
360.209	76.41
360.673	78.41
361.136	87.71
361.6	92.21
362.064	86.81
362.527	90.31
362.991	94.61
363.454	86.21
363.918	81.21
364.381	95.11
364.845	95.11
365.308	95.81
365.772	93.91
366.235	93.21
366.698	89.61
367.162	91.21
367.625	91.61
368.088	90.91
368.552	96.61
369.015	93.51
369.478	102.01
369.941	103.81
370.404	95.81
370.867	109.01
371.331	108.01
371.794	114.11
372.257	102.71
372.72	109.01
373.183	103.31
373.646	99.01
374.109	100.11
374.572	101.21
375.035	104.61
375.497	108.31
375.96	112.11
376.423	111.31
376.886	125.01
377.349	115.01
377.811	104.11
378.274	106.41
378.737	114.91
379.199	115.81
379.662	113.91
380.125	112.01
380.587	124.71
381.05	113.31
381.512	118.51
381.975	130.51
382.437	133.61
382.9	120.31
383.362	133.71
383.825	137.51
384.287	139.01
384.75	125.81
385.212	136.61
385.674	144.11
386.136	143.41
386.599	126.01
387.061	132.81
387.523	129.91
387.985	133.01
388.447	143.11
388.91	124.91
389.372	135.71
389.834	137.71
390.296	131.41
390.758	142.41
391.22	144.71
391.682	156.31
392.144	165.91
392.606	160.71
393.068	153.11
393.529	159.91
393.991	155.11
394.453	143.01
394.915	138.71
395.377	141.51
395.838	141.41
396.3	146.51
396.762	152.41
397.224	140.31
397.685	140.91
398.147	147.31
398.608	149.11
399.07	146.11
399.531	151.01
399.993	158.21
400.454	168.81
400.916	158.21
401.377	151.81
401.839	157.71
402.3	164.41
402.762	182.01
403.223	186.71
403.684	181.01
404.145	171.01
404.607	174.81
405.068	176.51
405.529	178.21
405.99	199.31
406.451	189.91
406.913	187.01
407.374	177.61
407.835	180.31
408.296	178.31
408.757	184.91
409.218	202.51
409.679	188.91
410.14	197.11
410.601	190.11
411.062	187.91
411.522	191.41
411.983	189.11
412.444	193.51
412.905	192.71
413.366	201.31
413.826	216.71
414.287	237.51
414.748	282.61
415.208	276.51
415.669	233.51
416.13	230.51
416.59	223.31
417.051	232.81
417.511	235.81
417.972	265.11
418.432	275.71
418.893	310.51
419.353	272.31
419.814	220.71
420.274	198.11
420.734	198.51
421.195	215.01
421.655	213.41
422.115	214.51
422.576	214.11
423.036	218.11
423.496	227.91
423.956	234.71
424.416	254.61
424.876	294.11
425.336	287.61
425.797	281.51
426.257	284.71
426.717	265.51
427.177	251.31
427.637	240.71
428.097	256.91
428.556	260.51
429.016	288.31
429.476	284.01
429.936	291.21
430.396	299.51
430.856	306.61
431.315	333.71
431.775	365.71
432.235	399.51
432.694	371.71
433.154	387.71
433.614	415.51
434.073	357.11
434.533	306.21
434.993	296.81
435.452	297.51
435.912	313.21
436.371	309.11
436.83	302.41
437.29	285.21
437.749	268.61
438.209	266.81
438.668	302.01
439.127	306.21
439.587	285.21
440.046	265.21
440.505	284.21
440.964	299.01
441.424	351.21
441.883	332.41
442.342	289.31
442.801	252.31
443.26	241.21
443.719	248.01
444.178	243.61
444.637	231.01
445.096	243.31
445.555	246.71
446.014	249.71
446.473	248.01
446.932	261.51
447.391	245.81
447.849	247.61
448.308	241.11
448.767	246.71
449.226	269.71
449.685	264.21
450.143	271.11
450.602	261.21
451.061	248.51
451.519	257.11
451.978	247.81
452.436	260.41
452.895	260.71
453.353	281.11
453.812	272.71
454.27	266.41
454.729	263.31
455.187	269.61
455.646	262.81
456.104	280.81
456.562	289.51
457.021	294.81
457.479	288.61
457.937	306.11
458.395	290.01
458.854	277.81
459.312	282.31
459.77	295.71
460.228	279.61
460.686	267.61
461.144	282.21
461.602	275.81
462.06	276.11
462.518	280.71
462.976	285.51
463.434	287.91
463.892	293.81
464.35	305.61
464.808	329.01
465.266	299.11
465.724	298.21
466.181	301.81
466.639	305.21
467.097	319.01
467.555	341.21
468.012	338.01
468.47	343.81
468.928	360.51
469.385	377.51
469.843	386.01
470.3	386.11
470.758	410.21
471.215	423.71
471.673	447.91
472.13	445.91
472.588	463.01
473.045	409.11
473.503	410.51
473.96	445.81
474.417	446.21
474.875	485.51
475.332	523.11
475.789	508.91
476.246	506.51
476.704	541.01
477.161	563.21
477.618	568.21
478.075	605.41
478.532	668.91
478.989	738.11
479.446	862.11
479.903	820.31
480.36	853.11
480.817	910.81
481.274	999.51
481.731	1097.61
482.188	1183.91
482.645	1309.91
483.102	1406.41
483.558	1535.31
484.015	1560.71
484.472	1548.61
484.929	1494.01
485.385	1446.61
485.842	1425.61
486.299	1387.41
486.755	1333.71
487.212	1136.81
487.668	971.01
488.125	908.91
488.582	832.71
489.038	799.61
489.494	765.81
489.951	740.91
490.407	719.61
490.864	697.31
491.32	699.61
491.776	701.41
492.233	701.91
492.689	675.91
493.145	664.91
493.602	651.81
494.058	668.51
494.514	667.81
494.97	696.41
495.426	703.71
495.882	685.21
496.338	670.21
496.794	682.21
497.251	682.91
497.707	690.81
498.163	688.61
498.618	704.01
499.074	697.61
499.53	736.51
499.986	741.01
500.442	703.51
500.898	681.31
501.354	669.61
501.809	679.91
502.265	681.01
502.721	687.91
503.177	703.81
503.632	701.01
504.088	706.51
504.543	729.11
504.999	753.21
505.455	717.61
505.91	685.81
506.366	700.41
506.821	688.21
507.277	683.01
507.732	697.01
508.187	690.81
508.643	706.51
509.098	700.01
509.553	723.01
510.009	730.61
510.464	745.01
510.919	753.41
511.375	765.81
511.83	776.11
512.285	801.51
512.74	830.01
513.195	856.51
513.65	840.91
514.105	842.31
514.56	846.51
515.015	860.31
515.47	886.51
515.925	849.41
516.38	867.11
516.835	863.51
517.29	867.71
517.745	858.51
518.2	838.91
518.655	826.11
519.109	816.31
519.564	809.71
520.019	801.81
520.474	795.71
520.928	788.81
521.383	787.01
521.838	771.71
522.292	780.81
522.747	774.41
523.201	773.41
523.656	761.81
524.11	760.21
524.565	764.11
525.019	756.01
525.474	772.61
525.928	765.71
526.382	762.31
526.837	761.61
527.291	763.61
527.745	763.31
528.2	766.21
528.654	755.91
529.108	753.31
529.562	753.21
530.016	750.91
530.47	754.71
530.925	769.61
531.379	759.11
531.833	760.41
532.287	773.11
532.741	757.81
533.195	768.71
533.649	778.31
534.103	782.61
534.556	780.81
535.01	775.21
535.464	775.51
535.918	775.01
536.372	777.41
536.826	790.31
537.279	771.91
537.733	782.51
538.187	777.11
538.64	784.01
539.094	783.61
539.548	794.91
540.001	784.11
540.455	794.71
540.908	802.51
541.362	818.01
541.815	820.61
542.269	817.91
542.722	824.21
543.175	842.01
543.629	846.81
544.082	857.21
544.536	866.11
544.989	865.71
545.442	871.41
545.895	872.51
546.349	863.41
546.802	866.51
547.255	875.61
547.708	877.21
548.161	898.11
548.614	906.01
549.067	902.41
549.52	904.61
549.973	879.81
550.426	883.31
550.879	868.51
551.332	871.41
551.785	876.61
552.238	888.31
552.691	897.01
553.144	912.01
553.596	927.31
554.049	947.01
554.502	968.71
554.955	993.41
555.407	991.01
555.86	984.41
556.313	973.21
556.765	969.11
557.218	969.01
557.67	973.51
558.123	957.71
558.576	946.71
559.028	955.01
559.48	963.31
559.933	957.21
560.385	921.51
560.838	891.91
561.29	867.71
561.742	858.21
562.195	846.01
562.647	847.51
563.099	843.81
563.551	839.51
564.004	853.71
564.456	842.21
564.908	821.91
565.36	810.91
565.812	800.41
566.264	789.51
566.716	776.01
567.168	769.81
567.62	776.21
568.072	755.01
568.524	758.21
568.976	753.61
569.428	740.11
569.88	738.51
570.332	749.61
570.784	744.11
571.235	747.61
571.687	759.01
572.139	771.21
572.59	782.71
573.042	778.31
573.494	770.01
573.945	770.21
574.397	758.01
574.849	747.31
575.3	749.21
575.752	751.91
576.203	743.31
576.655	748.71
577.106	735.71
577.557	732.91
578.009	727.61
578.46	715.01
578.912	719.61
579.363	728.71
579.814	722.51
580.265	723.71
580.717	725.61
581.168	726.01
581.619	746.81
582.07	741.21
582.521	737.61
582.972	730.41
583.423	731.11
583.875	737.01
584.326	741.01
584.777	760.91
585.227	783.71
585.678	791.91
586.129	823.81
586.58	839.71
587.031	860.01
587.482	909.01
587.933	944.11
588.384	911.81
588.834	862.51
589.285	832.81
589.736	844.31
590.186	837.91
590.637	824.31
591.088	806.21
591.538	807.91
591.989	802.91
592.439	787.21
592.89	780.01
593.34	765.91
593.791	767.71
594.241	763.01
594.692	763.61
595.142	752.11
595.593	744.91
596.043	759.81
596.493	761.61
596.943	767.71
597.394	781.71
597.844	773.71
598.294	791.51
598.744	816.81
599.195	834.51
599.645	899.81
600.095	931.41
600.545	1002.51
600.995	1045.61
601.445	1110.21
601.895	1167.41
602.345	1223.71
602.795	1198.31
603.245	1153.21
603.695	1099.51
604.145	1041.71
604.594	986.41
605.044	934.51
605.494	863.81
605.944	816.11
606.393	812.81
606.843	796.91
607.293	797.41
607.743	788.11
608.192	804.51
608.642	812.21
609.091	812.51
609.541	813.11
609.99	822.21
610.44	821.91
610.889	766.81
611.339	748.71
611.788	737.21
612.238	743.11
612.687	759.01
613.136	755.61
613.586	758.11
614.035	750.61
614.484	766.61
614.933	762.81
615.383	756.61
615.832	759.31
616.281	745.21
616.73	721.71
617.179	696.91
617.628	687.81
618.077	680.91
618.526	664.01
618.975	664.71
619.424	653.91
619.873	655.81
620.322	662.31
620.771	644.91
621.22	648.21
621.669	637.51
622.118	633.61
622.567	632.41
623.015	617.81
623.464	609.91
623.913	601.31
624.361	602.51
624.81	595.41
625.259	600.81
625.707	600.31
626.156	598.71
626.604	613.61
627.053	611.91
627.501	607.81
627.95	612.31
628.398	624.81
628.847	604.31
629.295	608.71
629.744	618.41
630.192	614.51
630.64	599.31
631.089	586.91
631.537	580.61
631.985	571.61
632.433	568.81
632.881	566.31
633.33	568.01
633.778	554.61
634.226	563.31
634.674	571.21
635.122	574.71
635.57	590.31
636.018	598.01
636.466	600.11
636.914	591.91
637.362	607.61
637.81	620.61
638.258	619.41
638.705	624.31
639.153	656.41
639.601	657.41
640.049	692.01
640.497	722.51
640.944	742.41
641.392	699.31
641.84	658.21
642.287	628.91
642.735	596.21
643.182	594.31
643.63	608.11
644.078	609.51
644.525	619.61
644.973	618.41
645.42	637.11
645.867	654.71
646.315	671.31
646.762	694.21
647.21	724.51
647.657	747.21
648.104	779.41
648.551	801.41
648.999	878.41
649.446	933.51
649.893	1021.21
650.34	1172.41
650.787	1384.51
651.234	1720.81
651.682	2200.11
652.129	2997.91
652.576	4250.01
653.023	6135.51
653.47	8310.21
653.917	10331.41
654.363	11915.31
654.81	13154.71
655.257	12442.81
655.704	8245.21
656.151	5004.71
656.598	3283.51
657.044	2359.81
657.491	1844.61
657.938	1475.81
658.385	1234.11
658.831	1094.51
659.278	990.31
659.724	875.61
660.171	811.61
660.618	748.91
661.064	721.21
661.511	696.51
661.957	691.61
662.404	684.21
662.85	682.91
663.296	651.41
663.743	595.61
664.189	565.91
664.635	559.11
665.082	562.51
665.528	565.41
665.974	550.21
666.42	542.01
666.867	535.71
667.313	515.11
667.759	503.61
668.205	477.11
668.651	477.31
669.097	472.71
669.543	470.21
669.989	482.31
670.435	472.31
670.881	476.81
671.327	483.41
671.773	504.21
672.219	527.91
672.665	590.41
673.11	624.71
673.556	677.91
674.002	721.41
674.448	703.81
674.893	595.21
675.339	512.01
675.785	472.11
676.23	441.61
676.676	428.11
677.122	414.41
677.567	401.01
678.013	396.61
678.458	382.21
678.904	387.61
679.349	380.51
679.794	379.81
680.24	382.91
680.685	375.51
681.131	372.61
681.576	375.81
682.021	380.21
682.466	374.91
682.912	369.41
683.357	380.41
683.802	412.31
684.247	446.11
684.692	495.71
685.137	532.81
685.583	566.41
686.028	604.71
686.473	557.41
686.918	479.11
687.363	436.21
687.807	416.91
688.252	389.61
688.697	384.01
689.142	370.31
689.587	356.21
690.032	358.41
690.477	362.21
690.921	377.51
691.366	419.21
691.811	436.31
692.255	466.01
692.7	494.11
693.145	539.91
693.589	750.21
694.034	1216.91
694.478	1655.01
694.923	1868.81
695.367	2428.11
695.812	1292.21
696.256	535.61
696.701	399.81
697.145	370.31
697.59	352.41
698.034	345.01
698.478	344.41
698.922	342.31
699.367	348.51
699.811	366.01
700.255	379.61
700.699	408.11
701.143	451.11
701.588	510.11
702.032	547.61
702.476	546.41
702.92	519.71
703.364	525.11
703.808	692.81
704.252	1125.31
704.696	1550.81
705.14	1803.41
705.584	2288.81
706.027	1151.21
706.471	559.91
706.915	440.01
707.359	378.01
707.803	344.11
708.246	334.91
708.69	334.41
709.134	341.61
709.577	335.11
710.021	339.41
710.465	326.11
710.908	324.81
711.352	320.71
711.795	342.81
712.239	381.11
712.682	416.61
713.126	433.31
713.569	476.31
714.012	388.31
714.456	331.11
714.899	313.41
715.342	290.91
715.786	277.01
716.229	275.41
716.672	270.61
717.115	257.31
717.558	264.51
718.002	266.11
718.445	274.91
718.888	310.81
719.331	311.61
719.774	332.31
720.217	326.21
720.66	294.21
721.103	290.41
721.546	278.11
721.989	267.81
722.432	242.41
722.874	258.01
723.317	249.21
723.76	254.01
724.203	269.71
724.645	333.91
725.088	470.31
725.531	604.11
725.974	690.71
726.416	587.81
726.859	333.51
727.301	262.11
727.744	250.91
728.187	243.51
728.629	249.81
729.071	262.11
729.514	277.41
729.956	283.91
730.399	303.01
730.841	305.21
731.283	294.81
731.726	288.31
732.168	282.91
732.61	288.51
733.053	304.71
733.495	337.21
733.937	370.61
734.379	426.41
734.821	465.51
735.263	589.31
735.705	900.11
736.148	1701.21
736.59	2787.71
737.032	3286.71
737.474	2678.01
737.916	878.21
738.357	460.41
738.799	355.01
739.241	320.61
739.683	307.61
740.125	313.31
740.567	318.31
741.008	340.41
741.45	328.41
741.892	335.11
742.334	375.01
742.775	395.71
743.217	374.61
743.658	291.21
744.1	273.11
744.542	288.61
744.983	340.61
745.425	376.41
745.866	372.71
746.307	297.01
746.749	299.51
747.19	344.21
747.632	487.11
748.073	951.71
748.514	2014.11
748.956	3061.01
749.397	3829.51
749.838	3202.21
750.279	3188.31
750.72	1615.11
751.162	592.21
751.603	360.11
752.044	276.41
752.485	238.81
752.926	221.71
753.367	211.41
753.808	204.51
754.249	204.01
754.69	204.11
755.131	189.81
755.572	198.91
756.013	197.61
756.453	200.91
756.894	205.71
757.335	201.21
757.776	215.41
758.216	211.41
758.657	213.61
759.098	214.31
759.538	239.71
759.979	287.11
760.42	401.31
760.86	748.51
761.301	1961.81
761.741	4775.31
762.182	6907.61
