Data from 20171114-ORNL-Ar_H_NY_Subt18_08-08-57-754.txt Node
Date: Tue Nov 14 08:08:57 EST 2017
User: Ender
Spectrometer: HR+D1039
Trigger mode: 0
Integration Time (sec): 2.730000E-2
Scans to average: 10
Electric dark correction enabled: true
Nonlinearity correction enabled: false
Boxcar width: 0
XAxis mode: Wavelengths
Number of Pixels in Spectrum: 2048
>>>>>Begin Spectral Data<<<<<
187.836	1.57
188.309	1.57
188.782	1.57
189.255	-2.33
189.728	-3.03
190.201	4.37
190.674	1.47
191.147	3.27
191.619	-9.13
192.092	2.67
192.565	2.57
193.038	-2.33
193.511	3.47
193.984	1.97
194.456	-3.43
194.929	-1.63
195.402	-2.33
195.874	2.87
196.347	1.87
196.82	-10.03
197.292	1.87
197.765	1.37
198.237	-5.93
198.71	2.97
199.182	2.67
199.655	-1.23
200.127	1.87
200.6	-7.33
201.072	0.57
201.544	-1.93
202.017	-2.33
202.489	3.47
202.961	3.07
203.433	0.07
203.906	-5.13
204.378	-5.43
204.85	-4.03
205.322	-3.03
205.794	-0.23
206.266	-2.43
206.739	-8.13
207.211	1.57
207.683	-6.53
208.155	-7.23
208.627	-5.53
209.099	-1.63
209.57	-6.03
210.042	-0.23
210.514	-2.93
210.986	-2.23
211.458	-5.43
211.93	0.87
212.402	0.87
212.873	-8.63
213.345	-12.43
213.817	-13.23
214.288	-4.73
214.76	-9.43
215.232	-3.43
215.703	-5.03
216.175	-8.93
216.646	-5.33
217.118	-5.73
217.589	-6.33
218.061	0.17
218.532	-6.13
219.004	-4.93
219.475	-0.43
219.946	-3.23
220.418	-11.43
220.889	4.07
221.36	-0.63
221.832	-5.33
222.303	-8.43
222.774	-0.93
223.245	-8.43
223.717	-6.63
224.188	-1.73
224.659	-8.43
225.13	-8.13
225.601	0.27
226.072	4.47
226.543	-5.33
227.014	-2.93
227.485	-3.03
227.956	-5.73
228.427	-4.03
228.898	6.87
229.369	-0.13
229.839	-4.13
230.31	-6.93
230.781	3.27
231.252	-2.33
231.722	-4.23
232.193	-3.53
232.664	-6.73
233.135	1.67
233.605	-3.43
234.076	-6.63
234.546	2.57
235.017	5.37
235.487	-2.73
235.958	-3.53
236.428	-5.23
236.899	-7.23
237.369	-3.53
237.84	-6.73
238.31	-0.63
238.78	-7.73
239.251	-6.23
239.721	-7.13
240.191	-1.63
240.662	-7.53
241.132	-0.03
241.602	1.17
242.072	-2.83
242.542	5.27
243.013	-6.83
243.483	0.47
243.953	-2.73
244.423	0.27
244.893	-6.23
245.363	0.17
245.833	-3.23
246.303	-3.13
246.773	3.87
247.243	-5.33
247.712	3.07
248.182	5.37
248.652	2.67
249.122	-8.13
249.592	4.17
250.061	6.77
250.531	7.87
251.001	-2.03
251.471	0.57
251.94	5.57
252.41	0.47
252.879	-5.63
253.349	8.27
253.818	6.97
254.288	0.77
254.757	-3.23
255.227	-8.83
255.696	-2.83
256.166	4.77
256.635	2.57
257.105	-1.73
257.574	3.57
258.043	1.37
258.513	0.37
258.982	2.57
259.451	-2.03
259.92	2.47
260.389	4.37
260.859	7.77
261.328	2.47
261.797	-2.13
262.266	-1.93
262.735	4.07
263.204	-3.23
263.673	0.17
264.142	2.37
264.611	-6.93
265.08	-5.43
265.549	-6.93
266.018	-1.13
266.487	-6.23
266.955	-4.53
267.424	-0.23
267.893	-1.03
268.362	1.17
268.83	1.37
269.299	2.57
269.768	3.97
270.236	4.77
270.705	2.97
271.174	2.97
271.642	-2.03
272.111	5.47
272.579	3.37
273.048	4.57
273.516	4.67
273.985	7.87
274.453	8.07
274.922	9.47
275.39	5.27
275.858	-3.63
276.327	11.07
276.795	9.77
277.263	3.67
277.731	10.27
278.2	14.37
278.668	7.17
279.136	11.47
279.604	5.37
280.072	6.77
280.54	7.17
281.008	1.47
281.477	3.27
281.945	8.17
282.413	13.17
282.881	8.27
283.348	5.87
283.816	5.67
284.284	7.47
284.752	10.67
285.22	13.77
285.688	7.57
286.156	7.57
286.623	10.47
287.091	2.67
287.559	16.97
288.026	6.67
288.494	5.77
288.962	-0.43
289.429	12.47
289.897	12.67
290.364	10.47
290.832	10.17
291.3	13.37
291.767	15.37
292.234	9.67
292.702	6.77
293.169	11.77
293.637	14.37
294.104	14.97
294.571	-1.03
295.039	11.27
295.506	10.07
295.973	11.87
296.44	2.37
296.908	8.17
297.375	10.97
297.842	9.77
298.309	6.87
298.776	10.57
299.243	17.97
299.71	6.27
300.177	16.37
300.644	13.87
301.111	14.57
301.578	19.47
302.045	14.77
302.512	15.07
302.979	10.87
303.446	20.57
303.913	16.87
304.379	10.47
304.846	14.97
305.313	18.37
305.78	16.17
306.246	20.57
306.713	21.87
307.18	16.97
307.646	15.97
308.113	18.07
308.579	14.07
309.046	21.67
309.512	17.17
309.979	10.97
310.445	21.67
310.912	17.67
311.378	25.97
311.845	22.47
312.311	22.97
312.777	21.87
313.244	25.37
313.71	30.97
314.176	24.97
314.642	19.27
315.109	21.47
315.575	20.77
316.041	28.77
316.507	21.27
316.973	26.57
317.439	25.57
317.905	23.47
318.371	29.57
318.837	20.37
319.303	22.27
319.769	23.27
320.235	26.67
320.701	28.97
321.167	29.97
321.633	27.57
322.099	25.37
322.564	32.77
323.03	30.97
323.496	28.57
323.962	26.87
324.427	24.17
324.893	35.07
325.359	29.77
325.824	29.67
326.29	33.27
326.755	32.37
327.221	26.87
327.686	35.17
328.152	32.87
328.617	30.47
329.083	37.37
329.548	46.27
330.014	40.77
330.479	26.97
330.944	32.97
331.41	36.27
331.875	38.37
332.34	37.07
332.805	26.17
333.271	34.97
333.736	34.17
334.201	43.07
334.666	42.37
335.131	43.47
335.596	42.07
336.061	36.97
336.526	32.47
336.991	35.67
337.456	44.17
337.921	39.77
338.386	34.57
338.851	37.87
339.316	43.47
339.781	40.97
340.246	35.07
340.711	37.67
341.175	49.37
341.64	32.87
342.105	32.77
342.569	43.57
343.034	50.17
343.499	42.27
343.963	38.67
344.428	55.37
344.893	50.97
345.357	49.97
345.822	51.87
346.286	55.77
346.751	54.87
347.215	51.37
347.679	62.67
348.144	79.07
348.608	68.77
349.073	62.17
349.537	61.47
350.001	58.97
350.465	71.57
350.93	60.67
351.394	66.77
351.858	61.87
352.322	71.87
352.786	70.77
353.25	80.87
353.715	88.17
354.179	80.77
354.643	95.77
355.107	99.27
355.571	84.87
356.035	79.77
356.498	96.67
356.962	93.27
357.426	97.57
357.89	90.77
358.354	80.87
358.818	74.97
359.281	69.07
359.745	58.97
360.209	64.07
360.673	60.07
361.136	65.87
361.6	75.57
362.064	73.77
362.527	78.37
362.991	74.27
363.454	69.87
363.918	65.57
364.381	75.17
364.845	73.97
365.308	73.67
365.772	81.77
366.235	75.97
366.698	72.77
367.162	71.97
367.625	75.17
368.088	77.87
368.552	79.67
369.015	78.17
369.478	86.17
369.941	83.17
370.404	76.07
370.867	82.67
371.331	88.97
371.794	94.37
372.257	88.37
372.72	92.57
373.183	90.47
373.646	86.17
374.109	84.87
374.572	91.87
375.035	85.47
375.497	92.97
375.96	91.77
376.423	91.17
376.886	101.47
377.349	96.57
377.811	85.27
378.274	87.37
378.737	96.87
379.199	97.77
379.662	91.87
380.125	99.07
380.587	94.17
381.05	96.37
381.512	104.67
381.975	112.37
382.437	107.97
382.9	100.77
383.362	109.67
383.825	118.27
384.287	115.07
384.75	113.07
385.212	108.07
385.674	118.07
386.136	122.17
386.599	112.47
387.061	115.67
387.523	107.77
387.985	113.37
388.447	118.37
388.91	116.77
389.372	112.87
389.834	121.37
390.296	118.57
390.758	119.97
391.22	126.57
391.682	145.37
392.144	152.77
392.606	140.47
393.068	131.87
393.529	136.37
393.991	134.97
394.453	119.97
394.915	119.77
395.377	130.47
395.838	133.27
396.3	126.17
396.762	125.87
397.224	127.87
397.685	122.27
398.147	119.07
398.608	128.47
399.07	122.87
399.531	128.77
399.993	131.47
400.454	144.87
400.916	140.77
401.377	134.07
401.839	139.07
402.3	140.57
402.762	154.47
403.223	161.27
403.684	158.67
404.145	145.57
404.607	148.77
405.068	155.27
405.529	161.67
405.99	170.07
406.451	159.17
406.913	165.27
407.374	156.77
407.835	147.67
408.296	154.37
408.757	158.27
409.218	174.67
409.679	170.77
410.14	164.67
410.601	154.97
411.062	170.77
411.522	174.87
411.983	165.47
412.444	165.67
412.905	179.47
413.366	176.47
413.826	189.27
414.287	209.07
414.748	249.97
415.208	238.17
415.669	207.47
416.13	210.37
416.59	200.27
417.051	210.37
417.511	217.77
417.972	237.67
418.432	241.77
418.893	275.67
419.353	246.17
419.814	200.17
420.274	183.17
420.734	174.77
421.195	191.37
421.655	186.27
422.115	188.97
422.576	189.97
423.036	196.07
423.496	207.17
423.956	207.87
424.416	221.37
424.876	256.87
425.336	249.47
425.797	247.37
426.257	252.17
426.717	235.07
427.177	227.37
427.637	213.77
428.097	229.17
428.556	233.17
429.016	256.27
429.476	246.27
429.936	253.37
430.396	263.77
430.856	279.97
431.315	295.17
431.775	321.87
432.235	365.87
432.694	329.27
433.154	342.77
433.614	368.07
434.073	321.47
434.533	277.27
434.993	261.47
435.452	267.37
435.912	280.27
436.371	276.57
436.83	267.37
437.29	254.27
437.749	249.67
438.209	243.47
438.668	265.57
439.127	269.47
439.587	257.07
440.046	243.07
440.505	244.97
440.964	263.97
441.424	314.07
441.883	302.77
442.342	256.27
442.801	220.37
443.26	226.37
443.719	220.57
444.178	227.27
444.637	215.97
445.096	221.27
445.555	221.07
446.014	228.37
446.473	230.17
446.932	229.17
447.391	223.87
447.849	229.27
448.308	227.17
448.767	224.47
449.226	237.67
449.685	237.17
450.143	242.27
450.602	231.47
451.061	227.47
451.519	235.97
451.978	236.87
452.436	228.47
452.895	240.57
453.353	248.37
453.812	237.27
454.27	244.37
454.729	237.67
455.187	233.77
455.646	245.97
456.104	251.97
456.562	256.37
457.021	258.07
457.479	256.37
457.937	269.57
458.395	260.37
458.854	250.87
459.312	262.47
459.77	278.57
460.228	260.57
460.686	243.67
461.144	250.67
461.602	251.37
462.06	242.57
462.518	256.47
462.976	249.57
463.434	261.07
463.892	259.47
464.35	271.27
464.808	284.77
465.266	273.27
465.724	268.47
466.181	274.77
466.639	266.17
467.097	295.47
467.555	307.37
468.012	307.07
468.47	310.97
468.928	329.57
469.385	339.87
469.843	339.27
470.3	345.27
470.758	363.37
471.215	379.77
471.673	402.57
472.13	398.17
472.588	423.97
473.045	373.67
473.503	374.77
473.96	397.67
474.417	402.07
474.875	437.37
475.332	467.57
475.789	459.47
476.246	464.57
476.704	480.67
477.161	503.17
477.618	522.17
478.075	555.67
478.532	612.57
478.989	673.87
479.446	775.07
479.903	740.47
480.36	767.47
480.817	816.47
481.274	913.37
481.731	998.67
482.188	1068.57
482.645	1187.07
483.102	1271.67
483.558	1394.27
484.015	1436.17
484.472	1411.57
484.929	1371.57
485.385	1318.47
485.842	1293.97
486.299	1256.27
486.755	1209.67
487.212	1031.07
487.668	881.47
488.125	826.17
488.582	755.07
489.038	721.67
489.494	692.17
489.951	672.57
490.407	652.47
490.864	632.67
491.32	635.17
491.776	639.87
492.233	642.07
492.689	613.57
493.145	605.47
493.602	599.87
494.058	611.67
494.514	610.07
494.97	641.07
495.426	641.27
495.882	622.07
496.338	608.97
496.794	614.87
497.251	612.07
497.707	636.17
498.163	636.87
498.618	639.97
499.074	642.17
499.53	670.17
499.986	665.27
500.442	641.97
500.898	616.77
501.354	617.67
501.809	627.77
502.265	620.87
502.721	630.77
503.177	651.57
503.632	640.07
504.088	652.17
504.543	667.07
504.999	691.87
505.455	661.87
505.91	635.77
506.366	635.47
506.821	642.67
507.277	638.57
507.732	643.57
508.187	637.67
508.643	645.77
509.098	641.57
509.553	670.27
510.009	667.27
510.464	681.07
510.919	700.97
511.375	693.17
511.83	720.67
512.285	731.17
512.74	760.57
513.195	789.07
513.65	778.37
514.105	762.17
514.56	764.47
515.015	791.47
515.47	806.37
515.925	778.87
516.38	777.97
516.835	796.07
517.29	779.77
517.745	779.97
518.2	771.57
518.655	748.47
519.109	749.17
519.564	753.37
520.019	740.37
520.474	730.37
520.928	740.97
521.383	735.07
521.838	715.37
522.292	724.67
522.747	721.97
523.201	718.97
523.656	712.57
524.11	700.37
524.565	705.97
525.019	696.57
525.474	706.77
525.928	703.37
526.382	698.27
526.837	702.57
527.291	713.87
527.745	696.67
528.2	707.67
528.654	697.67
529.108	700.77
529.562	702.67
530.016	694.67
530.47	694.67
530.925	690.97
531.379	699.67
531.833	707.77
532.287	709.57
532.741	716.17
533.195	712.17
533.649	712.97
534.103	722.67
534.556	719.57
535.01	711.57
535.464	711.47
535.918	724.47
536.372	723.37
536.826	716.87
537.279	701.07
537.733	713.07
538.187	721.97
538.64	716.97
539.094	728.67
539.548	732.07
540.001	732.67
540.455	735.97
540.908	735.67
541.362	747.27
541.815	756.87
542.269	771.57
542.722	767.47
543.175	779.17
543.629	781.47
544.082	797.47
544.536	796.87
544.989	797.87
545.442	808.37
545.895	796.57
546.349	809.37
546.802	799.97
547.255	816.97
547.708	820.07
548.161	822.47
548.614	820.87
549.067	837.77
549.52	831.97
549.973	827.07
550.426	829.77
550.879	805.37
551.332	808.67
551.785	828.47
552.238	828.57
552.691	829.67
553.144	853.97
553.596	864.67
554.049	867.97
554.502	909.97
554.955	930.57
555.407	917.17
555.86	907.97
556.313	904.17
556.765	897.07
557.218	898.97
557.67	893.07
558.123	884.57
558.576	889.67
559.028	898.17
559.48	904.87
559.933	889.27
560.385	861.37
560.838	823.47
561.29	804.47
561.742	804.57
562.195	785.17
562.647	789.57
563.099	786.77
563.551	794.57
564.004	800.87
564.456	785.07
564.908	770.27
565.36	762.27
565.812	744.67
566.264	729.07
566.716	734.37
567.168	721.07
567.62	730.47
568.072	699.57
568.524	706.57
568.976	702.67
569.428	680.17
569.88	685.97
570.332	691.17
570.784	700.27
571.235	693.77
571.687	705.07
572.139	712.17
572.59	729.17
573.042	721.47
573.494	729.47
573.945	722.37
574.397	702.57
574.849	705.47
575.3	710.87
575.752	702.77
576.203	697.27
576.655	703.37
577.106	696.97
577.557	680.47
578.009	681.77
578.46	688.37
578.912	682.27
579.363	682.07
579.814	687.87
580.265	678.67
580.717	684.67
581.168	693.57
581.619	699.07
582.07	693.67
582.521	686.77
582.972	681.17
583.423	689.07
583.875	692.17
584.326	707.17
584.777	721.07
585.227	742.67
585.678	753.27
586.129	781.37
586.58	803.97
587.031	836.47
587.482	883.07
587.933	921.37
588.384	882.87
588.834	829.27
589.285	793.07
589.736	790.17
590.186	787.07
590.637	776.87
591.088	768.87
591.538	747.47
591.989	742.27
592.439	741.57
592.89	731.07
593.34	719.77
593.791	718.17
594.241	707.57
594.692	722.27
595.142	713.67
595.593	719.97
596.043	719.37
596.493	728.97
596.943	721.97
597.394	746.17
597.844	742.87
598.294	747.87
598.744	775.87
599.195	800.67
599.645	847.27
600.095	882.87
600.545	941.27
600.995	992.07
601.445	1056.37
601.895	1114.17
602.345	1169.47
602.795	1158.47
603.245	1096.87
603.695	1036.67
604.145	988.57
604.594	941.37
605.044	884.57
605.494	822.87
605.944	772.17
606.393	758.37
606.843	742.17
607.293	752.77
607.743	752.17
608.192	755.57
608.642	770.17
609.091	777.27
609.541	785.47
609.99	780.07
610.44	765.67
610.889	736.37
611.339	720.77
611.788	703.67
612.238	707.97
612.687	712.07
613.136	714.77
613.586	722.07
614.035	727.37
614.484	723.37
614.933	738.47
615.383	723.07
615.832	722.37
616.281	717.37
616.73	683.77
617.179	667.07
617.628	670.97
618.077	653.67
618.526	637.87
618.975	628.37
619.424	631.87
619.873	629.57
620.322	634.87
620.771	622.47
621.22	619.87
621.669	616.17
622.118	598.97
622.567	594.67
623.015	579.67
623.464	587.67
623.913	565.57
624.361	573.77
624.81	565.57
625.259	571.37
625.707	570.27
626.156	577.17
626.604	580.87
627.053	579.17
627.501	576.77
627.95	589.27
628.398	597.07
628.847	593.67
629.295	594.07
629.744	590.17
630.192	583.97
630.64	563.17
631.089	566.37
631.537	557.47
631.985	550.57
632.433	551.17
632.881	554.67
633.33	558.97
633.778	548.77
634.226	541.17
634.674	555.27
635.122	553.47
635.57	572.27
636.018	579.87
636.466	582.77
636.914	568.37
637.362	586.47
637.81	596.27
638.258	606.07
638.705	592.37
639.153	622.17
639.601	641.27
640.049	663.97
640.497	699.17
640.944	716.27
641.392	669.47
641.84	632.17
642.287	602.97
642.735	585.37
643.182	583.87
643.63	570.57
644.078	581.87
644.525	594.17
644.973	605.17
645.42	610.77
645.867	636.77
646.315	648.37
646.762	668.97
647.21	698.37
647.657	715.27
648.104	750.17
648.551	775.37
648.999	830.77
649.446	908.37
649.893	1005.27
650.34	1143.47
650.787	1361.47
651.234	1670.87
651.682	2175.77
652.129	2933.77
652.576	4167.97
653.023	6086.87
653.47	8237.37
653.917	10080.67
654.363	11569.07
654.81	12691.57
655.257	12041.77
655.704	7995.87
656.151	4817.07
656.598	3169.57
657.044	2269.57
657.491	1754.57
657.938	1428.17
658.385	1208.77
658.831	1055.57
659.278	949.57
659.724	841.27
660.171	779.37
660.618	717.07
661.064	697.57
661.511	663.67
661.957	657.57
662.404	651.17
662.85	660.87
663.296	633.37
663.743	578.67
664.189	554.87
664.635	551.47
665.082	539.27
665.528	542.17
665.974	540.77
666.42	523.77
666.867	518.47
667.313	496.57
667.759	478.17
668.205	457.57
668.651	461.07
669.097	466.27
669.543	457.47
669.989	459.57
670.435	463.47
670.881	460.57
671.327	468.47
671.773	489.27
672.219	511.77
672.665	576.07
673.11	613.87
673.556	656.77
674.002	688.87
674.448	685.27
674.893	573.77
675.339	502.17
675.785	451.47
676.23	440.47
676.676	408.97
677.122	401.57
677.567	386.77
678.013	382.27
678.458	371.67
678.904	377.67
679.349	363.77
679.794	374.47
680.24	372.37
680.685	366.77
681.131	359.97
681.576	369.37
682.021	367.67
682.466	363.17
682.912	364.37
683.357	369.27
683.802	401.47
684.247	424.17
684.692	479.47
685.137	523.57
685.583	553.07
686.028	586.77
686.473	536.87
686.918	467.17
687.363	440.57
687.807	410.77
688.252	381.77
688.697	372.87
689.142	348.87
689.587	345.37
690.032	329.57
690.477	355.87
690.921	368.37
691.366	396.17
691.811	414.87
692.255	448.07
692.7	480.37
693.145	540.27
693.589	764.27
694.034	1216.47
694.478	1645.67
694.923	1796.77
695.367	2345.07
695.812	1261.17
696.256	517.57
696.701	388.37
697.145	359.67
697.59	345.37
698.034	336.97
698.478	333.77
698.922	333.17
699.367	339.77
699.811	347.67
700.255	365.87
700.699	400.47
701.143	446.67
701.588	496.17
702.032	533.97
702.476	531.67
702.92	508.07
703.364	518.47
703.808	695.47
704.252	1128.77
704.696	1553.37
705.14	1742.37
705.584	2194.27
706.027	1121.27
706.471	551.57
706.915	422.57
707.359	368.67
707.803	338.67
708.246	325.97
708.69	331.47
709.134	331.67
709.577	325.67
710.021	338.77
710.465	316.17
710.908	319.37
711.352	313.27
711.795	331.27
712.239	366.47
712.682	402.77
713.126	428.77
713.569	481.77
714.012	378.57
714.456	320.37
714.899	304.47
715.342	287.57
715.786	272.97
716.229	269.17
716.672	262.87
717.115	256.27
717.558	267.37
718.002	265.07
718.445	277.17
718.888	297.87
719.331	304.27
719.774	324.77
720.217	315.57
720.66	297.57
721.103	279.87
721.546	267.07
721.989	256.57
722.432	242.07
722.874	247.97
723.317	241.17
723.76	248.97
724.203	271.27
724.645	342.47
725.088	483.37
725.531	609.17
725.974	664.37
726.416	560.97
726.859	317.47
727.301	259.67
727.744	249.47
728.187	241.77
728.629	249.37
729.071	257.77
729.514	270.07
729.956	289.67
730.399	297.97
730.841	307.97
731.283	298.17
731.726	277.37
732.168	277.97
732.61	283.97
733.053	304.27
733.495	336.07
733.937	372.97
734.379	434.07
734.821	474.97
735.263	595.17
735.705	918.97
736.148	1734.17
736.59	2751.97
737.032	3151.07
737.474	2606.87
737.916	866.07
738.357	461.27
738.799	344.57
739.241	319.57
739.683	309.17
740.125	324.47
740.567	318.57
741.008	341.37
741.45	331.77
741.892	334.87
742.334	364.77
742.775	386.07
743.217	369.37
743.658	285.37
744.1	274.27
744.542	276.37
744.983	334.77
745.425	368.27
745.866	361.87
746.307	292.57
746.749	293.07
747.19	348.57
747.632	499.77
748.073	986.77
748.514	2046.37
748.956	3028.47
749.397	3813.27
749.838	3153.67
750.279	3078.77
750.72	1582.77
751.162	587.57
751.603	346.27
752.044	270.07
752.485	232.47
752.926	222.77
753.367	210.67
753.808	209.37
754.249	205.77
754.69	195.17
755.131	187.07
755.572	193.17
756.013	186.37
756.453	193.67
756.894	201.77
757.335	202.67
757.776	211.27
758.216	200.27
758.657	202.47
759.098	214.67
759.538	244.87
759.979	284.77
760.42	415.17
760.86	797.87
761.301	2058.77
761.741	4832.27
762.182	6657.67
762.622	4716.17
763.063	1407.07
763.503	573.77
763.943	349.27
