Data from 20171114-ORNL-Ar_H_NY_Subt18_08-08-06-649.txt Node
Date: Tue Nov 14 08:08:06 EST 2017
User: Ender
Spectrometer: HR+D1039
Trigger mode: 0
Integration Time (sec): 2.730000E-2
Scans to average: 10
Electric dark correction enabled: true
Nonlinearity correction enabled: false
Boxcar width: 0
XAxis mode: Wavelengths
Number of Pixels in Spectrum: 2048
>>>>>Begin Spectral Data<<<<<
187.836	-7.85
188.309	-7.85
188.782	-7.85
189.255	6.75
189.728	-0.15
190.201	2.15
190.674	-3.65
191.147	3.85
191.619	-5.75
192.092	4.65
192.565	4.15
193.038	-1.15
193.511	5.15
193.984	-0.45
194.456	3.45
194.929	0.95
195.402	-11.35
195.874	-0.75
196.347	-1.15
196.82	-9.55
197.292	0.85
197.765	0.25
198.237	-4.75
198.71	4.75
199.182	1.05
199.655	7.95
200.127	4.55
200.6	2.05
201.072	-3.85
201.544	-1.15
202.017	4.85
202.489	-0.25
202.961	-0.55
203.433	-7.25
203.906	-6.75
204.378	-6.45
204.85	-0.65
205.322	-10.35
205.794	-3.85
206.266	-0.55
206.739	-10.95
207.211	2.85
207.683	-12.35
208.155	-4.55
208.627	-6.25
209.099	-0.85
209.57	-2.55
210.042	-6.75
210.514	-2.55
210.986	0.05
211.458	-10.55
211.93	-4.25
212.402	7.85
212.873	-6.25
213.345	-10.25
213.817	-14.65
214.288	-7.55
214.76	-7.55
215.232	-2.85
215.703	-1.35
216.175	-2.35
216.646	-0.65
217.118	-1.15
217.589	2.75
218.061	-4.05
218.532	-1.25
219.004	-2.65
219.475	-6.65
219.946	-4.75
220.418	-3.55
220.889	5.35
221.36	-2.95
221.832	-3.45
222.303	-9.05
222.774	2.55
223.245	-7.25
223.717	-2.05
224.188	-7.85
224.659	-8.35
225.13	-3.85
225.601	-4.55
226.072	1.35
226.543	-4.95
227.014	-2.05
227.485	-0.35
227.956	-6.35
228.427	2.65
228.898	1.25
229.369	0.55
229.839	-4.15
230.31	-8.85
230.781	6.25
231.252	-4.15
231.722	-9.05
232.193	-5.55
232.664	-4.25
233.135	-7.85
233.605	-2.35
234.076	-13.75
234.546	3.25
235.017	5.95
235.487	2.55
235.958	-5.45
236.428	-0.95
236.899	4.25
237.369	-0.15
237.84	-3.75
238.31	6.65
238.78	3.25
239.251	-0.45
239.721	0.95
240.191	1.25
240.662	-5.45
241.132	0.65
241.602	-8.85
242.072	-2.95
242.542	0.15
243.013	0.65
243.483	4.95
243.953	4.15
244.423	-3.15
244.893	-6.75
245.363	0.85
245.833	-1.15
246.303	-6.05
246.773	9.45
247.243	1.95
247.712	0.35
248.182	3.95
248.652	7.35
249.122	-2.55
249.592	11.05
250.061	17.25
250.531	23.95
251.001	14.65
251.471	21.65
251.94	14.75
252.41	9.65
252.879	-0.85
253.349	9.75
253.818	9.05
254.288	2.55
254.757	2.95
255.227	-4.65
255.696	-0.65
256.166	1.15
256.635	6.45
257.105	9.35
257.574	6.15
258.043	10.65
258.513	10.75
258.982	12.95
259.451	6.65
259.92	15.55
260.389	13.25
260.859	15.65
261.328	12.35
261.797	12.45
262.266	6.45
262.735	11.65
263.204	6.85
263.673	-5.45
264.142	6.75
264.611	-7.45
265.08	0.45
265.549	-3.05
266.018	0.75
266.487	-1.55
266.955	-1.15
267.424	4.45
267.893	1.55
268.362	-0.15
268.83	-1.25
269.299	14.05
269.768	8.95
270.236	3.05
270.705	2.35
271.174	3.15
271.642	12.95
272.111	9.95
272.579	13.25
273.048	20.65
273.516	27.45
273.985	22.35
274.453	20.45
274.922	19.55
275.39	6.45
275.858	3.55
276.327	11.95
276.795	14.75
277.263	1.65
277.731	30.95
278.2	44.25
278.668	48.15
279.136	43.35
279.604	12.65
280.072	11.05
280.54	6.25
281.008	12.65
281.477	14.15
281.945	6.85
282.413	13.05
282.881	12.85
283.348	2.25
283.816	9.15
284.284	11.35
284.752	13.95
285.22	11.35
285.688	8.75
286.156	20.55
286.623	41.05
287.091	51.35
287.559	24.15
288.026	11.55
288.494	16.25
288.962	1.55
289.429	7.35
289.897	17.35
290.364	11.75
290.832	14.65
291.3	16.55
291.767	14.85
292.234	15.75
292.702	16.75
293.169	12.25
293.637	20.65
294.104	19.05
294.571	10.35
295.039	9.75
295.506	8.55
295.973	15.45
296.44	9.45
296.908	12.05
297.375	11.45
297.842	14.75
298.309	12.05
298.776	13.55
299.243	18.65
299.71	11.45
300.177	21.55
300.644	15.15
301.111	19.75
301.578	15.65
302.045	10.85
302.512	21.45
302.979	21.35
303.446	21.15
303.913	20.05
304.379	20.85
304.846	26.95
305.313	14.85
305.78	20.05
306.246	19.25
306.713	21.75
307.18	24.45
307.646	20.35
308.113	26.95
308.579	26.25
309.046	24.85
309.512	25.05
309.979	15.95
310.445	30.35
310.912	20.65
311.378	26.25
311.845	21.65
312.311	23.05
312.777	27.85
313.244	24.95
313.71	30.75
314.176	29.65
314.642	31.25
315.109	26.35
315.575	31.15
316.041	29.15
316.507	31.25
316.973	33.75
317.439	33.25
317.905	37.25
318.371	29.05
318.837	32.45
319.303	29.65
319.769	30.85
320.235	39.25
320.701	35.85
321.167	36.95
321.633	35.35
322.099	42.15
322.564	43.55
323.03	33.25
323.496	35.55
323.962	36.75
324.427	30.55
324.893	40.25
325.359	34.35
325.824	35.85
326.29	31.35
326.755	31.25
327.221	36.35
327.686	37.75
328.152	44.95
328.617	36.65
329.083	43.15
329.548	43.55
330.014	42.15
330.479	42.85
330.944	40.65
331.41	49.05
331.875	38.45
332.34	48.45
332.805	42.35
333.271	40.95
333.736	37.25
334.201	51.05
334.666	46.55
335.131	47.25
335.596	50.55
336.061	48.25
336.526	41.65
336.991	42.85
337.456	57.05
337.921	47.85
338.386	42.85
338.851	45.75
339.316	42.25
339.781	47.35
340.246	52.65
340.711	41.75
341.175	47.45
341.64	45.75
342.105	46.95
342.569	56.55
343.034	51.45
343.499	52.15
343.963	54.05
344.428	63.85
344.893	56.45
345.357	55.95
345.822	58.65
346.286	68.75
346.751	66.95
347.215	70.55
347.679	70.75
348.144	94.85
348.608	78.65
349.073	68.75
349.537	67.55
350.001	77.25
350.465	83.85
350.93	79.55
351.394	77.55
351.858	67.65
352.322	83.25
352.786	70.65
353.25	101.25
353.715	112.95
354.179	97.95
354.643	117.65
355.107	119.45
355.571	101.05
356.035	99.25
356.498	120.35
356.962	128.75
357.426	132.15
357.89	111.35
358.354	88.35
358.818	79.55
359.281	80.45
359.745	72.05
360.209	73.05
360.673	76.05
361.136	74.45
361.6	83.75
362.064	76.55
362.527	89.35
362.991	88.65
363.454	77.55
363.918	74.55
364.381	77.15
364.845	75.65
365.308	85.95
365.772	85.25
366.235	80.05
366.698	79.45
367.162	81.05
367.625	81.95
368.088	84.45
368.552	84.75
369.015	93.45
369.478	97.25
369.941	97.75
370.404	90.95
370.867	104.45
371.331	104.95
371.794	114.45
372.257	109.05
372.72	116.95
373.183	108.15
373.646	106.75
374.109	105.45
374.572	106.05
375.035	108.45
375.497	103.75
375.96	105.05
376.423	95.05
376.886	113.25
377.349	111.05
377.811	98.85
378.274	108.25
378.737	108.05
379.199	110.85
379.662	113.65
380.125	116.55
380.587	116.05
381.05	124.75
381.512	124.15
381.975	127.45
382.437	130.45
382.9	123.65
383.362	126.45
383.825	131.55
384.287	146.85
384.75	137.55
385.212	138.45
385.674	133.55
386.136	136.65
386.599	128.25
387.061	121.45
387.523	135.95
387.985	135.65
388.447	143.55
388.91	143.55
389.372	154.95
389.834	149.15
390.296	148.85
390.758	154.25
391.22	168.15
391.682	216.25
392.144	294.95
392.606	229.35
393.068	166.45
393.529	166.95
393.991	151.65
394.453	141.25
394.915	160.85
395.377	186.35
395.838	217.25
396.3	159.55
396.762	143.95
397.224	129.05
397.685	134.25
398.147	135.55
398.608	132.15
399.07	127.85
399.531	128.85
399.993	138.55
400.454	154.85
400.916	154.15
401.377	149.05
401.839	151.85
402.3	145.75
402.762	162.15
403.223	174.95
403.684	172.75
404.145	161.05
404.607	152.35
405.068	169.85
405.529	165.25
405.99	186.85
406.451	171.45
406.913	166.15
407.374	161.15
407.835	154.35
408.296	177.35
408.757	177.25
409.218	189.65
409.679	180.25
410.14	175.95
410.601	181.15
411.062	184.25
411.522	195.45
411.983	193.35
412.444	176.55
412.905	181.65
413.366	182.25
413.826	191.95
414.287	215.95
414.748	256.45
415.208	244.95
415.669	213.75
416.13	205.85
416.59	200.75
417.051	207.95
417.511	214.75
417.972	236.15
418.432	249.05
418.893	290.45
419.353	246.55
419.814	194.35
420.274	179.75
420.734	178.35
421.195	203.35
421.655	194.45
422.115	194.15
422.576	192.85
423.036	184.75
423.496	203.95
423.956	218.15
424.416	228.85
424.876	259.25
425.336	257.75
425.797	266.15
426.257	255.15
426.717	242.25
427.177	231.95
427.637	225.65
428.097	231.65
428.556	243.15
429.016	269.55
429.476	266.45
429.936	272.75
430.396	274.65
430.856	291.75
431.315	315.85
431.775	348.85
432.235	381.15
432.694	353.95
433.154	364.35
433.614	400.95
434.073	351.65
434.533	289.05
434.993	277.05
435.452	279.15
435.912	299.75
436.371	286.65
436.83	272.45
437.29	277.45
437.749	250.85
438.209	248.35
438.668	279.55
439.127	286.75
439.587	252.65
440.046	250.55
440.505	262.05
440.964	273.45
441.424	332.95
441.883	308.15
442.342	267.95
442.801	227.05
443.26	217.65
443.719	217.55
444.178	222.45
444.637	213.65
445.096	225.65
445.555	217.65
446.014	216.05
446.473	227.35
446.932	230.75
447.391	227.75
447.849	225.05
448.308	215.45
448.767	218.65
449.226	230.55
449.685	234.85
450.143	245.55
450.602	238.25
451.061	223.85
451.519	230.95
451.978	228.75
452.436	230.25
452.895	239.45
453.353	245.15
453.812	245.65
454.27	236.65
454.729	238.35
455.187	237.95
455.646	253.45
456.104	242.05
456.562	258.75
457.021	267.25
457.479	264.55
457.937	271.55
458.395	256.95
458.854	246.75
459.312	253.95
459.77	270.15
460.228	248.55
460.686	241.15
461.144	249.35
461.602	239.95
462.06	241.25
462.518	257.45
462.976	260.45
463.434	258.05
463.892	260.15
464.35	266.95
464.808	289.05
465.266	255.65
465.724	258.35
466.181	265.75
466.639	265.55
467.097	281.65
467.555	302.85
468.012	300.65
468.47	302.55
468.928	326.95
469.385	336.25
469.843	339.05
470.3	345.35
470.758	362.75
471.215	380.85
471.673	408.15
472.13	406.65
472.588	423.05
473.045	372.85
473.503	376.65
473.96	390.55
474.417	398.75
474.875	422.65
475.332	476.15
475.789	455.95
476.246	469.05
476.704	484.15
477.161	501.35
477.618	525.25
478.075	567.25
478.532	609.85
478.989	684.05
479.446	808.95
479.903	762.65
480.36	796.45
480.817	852.15
481.274	956.35
481.731	1057.35
482.188	1135.15
482.645	1275.25
483.102	1379.05
483.558	1520.35
484.015	1576.05
484.472	1538.95
484.929	1501.85
485.385	1454.05
485.842	1408.85
486.299	1339.15
486.755	1295.55
487.212	1083.45
487.668	917.75
488.125	842.45
488.582	770.35
489.038	737.35
489.494	704.15
489.951	676.45
490.407	661.05
490.864	633.85
491.32	639.75
491.776	628.15
492.233	633.95
492.689	603.45
493.145	594.25
493.602	590.55
494.058	612.35
494.514	602.45
494.97	636.95
495.426	644.15
495.882	613.65
496.338	591.35
496.794	605.85
497.251	600.25
497.707	614.55
498.163	624.65
498.618	626.05
499.074	631.25
499.53	653.75
499.986	669.75
500.442	638.85
500.898	627.35
501.354	604.35
501.809	627.35
502.265	634.85
502.721	651.35
503.177	662.65
503.632	657.95
504.088	666.45
504.543	703.55
504.999	698.95
505.455	643.55
505.91	615.65
506.366	628.25
506.821	619.35
507.277	597.65
507.732	616.85
508.187	609.75
508.643	620.65
509.098	628.55
509.553	649.45
510.009	649.15
510.464	660.15
510.919	677.55
511.375	685.35
511.83	693.35
512.285	714.65
512.74	754.25
513.195	762.95
513.65	755.65
514.105	748.55
514.56	752.15
515.015	775.25
515.47	780.95
515.925	779.65
516.38	779.15
516.835	775.35
517.29	769.65
517.745	761.25
518.2	757.65
518.655	736.65
519.109	724.25
519.564	718.95
520.019	721.65
520.474	706.05
520.928	713.15
521.383	711.95
521.838	686.85
522.292	688.85
522.747	693.05
523.201	689.05
523.656	677.85
524.11	675.05
524.565	686.05
525.019	684.05
525.474	686.35
525.928	691.05
526.382	681.85
526.837	677.15
527.291	691.75
527.745	685.15
528.2	679.65
528.654	668.05
529.108	682.55
529.562	680.35
530.016	673.45
530.47	684.35
530.925	679.85
531.379	673.65
531.833	679.05
532.287	684.75
532.741	685.35
533.195	700.95
533.649	694.25
534.103	700.75
534.556	692.65
535.01	699.45
535.464	692.15
535.918	694.25
536.372	696.15
536.826	698.35
537.279	686.65
537.733	696.45
538.187	699.05
538.64	690.55
539.094	707.45
539.548	717.45
540.001	713.75
540.455	718.65
540.908	716.65
541.362	730.65
541.815	736.45
542.269	745.15
542.722	747.25
543.175	753.95
543.629	761.75
544.082	773.75
544.536	763.85
544.989	772.25
545.442	779.45
545.895	765.85
546.349	778.75
546.802	777.65
547.255	786.35
547.708	789.45
548.161	799.85
548.614	813.85
549.067	818.45
549.52	806.55
549.973	787.75
550.426	787.45
550.879	785.15
551.332	783.75
551.785	791.75
552.238	793.55
552.691	806.15
553.144	811.75
553.596	826.05
554.049	834.15
554.502	871.15
554.955	888.95
555.407	888.55
555.86	886.75
556.313	867.15
556.765	858.25
557.218	856.05
557.67	867.65
558.123	865.05
558.576	848.05
559.028	855.05
559.48	856.65
559.933	855.95
560.385	814.55
560.838	796.15
561.29	764.65
561.742	777.05
562.195	748.65
562.647	753.95
563.099	769.95
563.551	765.75
564.004	767.65
564.456	770.05
564.908	747.45
565.36	736.55
565.812	720.35
566.264	712.75
566.716	717.35
567.168	717.25
567.62	724.65
568.072	690.95
568.524	678.85
568.976	676.35
569.428	657.05
569.88	678.85
570.332	673.15
570.784	672.35
571.235	674.85
571.687	685.25
572.139	692.85
572.59	692.35
573.042	696.35
573.494	697.35
573.945	691.55
574.397	678.55
574.849	680.05
575.3	678.85
575.752	671.95
576.203	671.15
576.655	668.75
577.106	655.15
577.557	655.05
578.009	662.75
578.46	658.65
578.912	648.85
579.363	651.25
579.814	665.75
580.265	652.65
580.717	649.55
581.168	657.05
581.619	674.75
582.07	678.85
582.521	662.85
582.972	659.25
583.423	660.65
583.875	678.85
584.326	690.05
584.777	731.55
585.227	817.65
585.678	911.85
586.129	996.55
586.58	1076.35
587.031	1149.95
587.482	1291.75
587.933	1488.85
588.384	1293.25
588.834	961.45
589.285	797.05
589.736	769.75
590.186	762.45
590.637	751.05
591.088	730.25
591.538	733.85
591.989	714.25
592.439	713.65
592.89	709.55
593.34	703.05
593.791	700.55
594.241	697.35
594.692	699.15
595.142	700.45
595.593	693.55
596.043	701.15
596.493	702.65
596.943	715.25
597.394	710.35
597.844	690.25
598.294	718.05
598.744	742.95
599.195	768.45
599.645	802.25
600.095	845.55
600.545	912.75
600.995	952.95
601.445	1015.95
601.895	1070.65
602.345	1119.55
602.795	1097.35
603.245	1042.35
603.695	995.15
604.145	940.65
604.594	905.75
605.044	852.85
605.494	781.55
605.944	743.65
606.393	727.75
606.843	718.45
607.293	723.55
607.743	724.55
608.192	739.85
608.642	739.45
609.091	761.75
609.541	769.05
609.99	761.85
610.44	762.05
610.889	720.95
611.339	695.85
611.788	681.65
612.238	697.35
612.687	716.75
613.136	713.25
613.586	735.35
614.035	729.85
614.484	742.95
614.933	746.75
615.383	747.45
615.832	729.35
616.281	722.65
616.73	682.75
617.179	662.05
617.628	648.55
618.077	632.55
618.526	620.65
618.975	609.55
619.424	606.05
619.873	615.85
620.322	615.75
620.771	597.55
621.22	598.55
621.669	585.75
622.118	579.95
622.567	579.65
623.015	562.55
623.464	561.45
623.913	552.15
624.361	551.65
624.81	552.15
625.259	549.45
625.707	551.95
626.156	547.15
626.604	562.75
627.053	558.85
627.501	557.75
627.95	559.65
628.398	569.15
628.847	565.95
629.295	561.55
629.744	575.95
630.192	559.35
630.64	563.55
631.089	560.65
631.537	569.35
631.985	578.05
632.433	595.15
632.881	610.75
633.33	658.95
633.778	655.45
634.226	564.05
634.674	577.55
635.122	572.55
635.57	595.85
636.018	621.85
636.466	587.95
636.914	564.95
637.362	556.85
637.81	579.25
638.258	575.25
638.705	575.05
639.153	603.15
639.601	620.15
640.049	634.75
640.497	671.15
640.944	676.05
641.392	633.55
641.84	605.05
642.287	573.75
642.735	567.85
643.182	570.75
643.63	564.85
644.078	574.95
644.525	584.65
644.973	594.55
645.42	593.95
645.867	613.05
646.315	640.35
646.762	655.65
647.21	683.95
647.657	716.05
648.104	744.65
648.551	757.05
648.999	831.25
649.446	904.75
649.893	997.65
650.34	1155.95
650.787	1382.75
651.234	1721.45
651.682	2255.75
652.129	3119.35
652.576	4489.15
653.023	6591.45
653.47	9052.95
653.917	11220.25
654.363	12880.55
654.81	14145.45
655.257	13466.85
655.704	8789.95
656.151	5189.65
656.598	3378.25
657.044	2381.45
657.491	1834.45
657.938	1472.45
658.385	1229.35
658.831	1071.35
659.278	963.15
659.724	844.65
660.171	781.85
660.618	713.05
661.064	693.65
661.511	666.75
661.957	646.75
662.404	636.55
662.85	648.75
663.296	616.25
663.743	556.35
664.189	527.45
664.635	528.85
665.082	515.25
665.528	524.65
665.974	513.15
666.42	514.35
666.867	501.35
667.313	490.55
667.759	488.75
668.205	480.85
668.651	489.65
669.097	482.55
669.543	505.95
669.989	471.25
670.435	447.85
670.881	450.05
671.327	447.95
671.773	467.05
672.219	483.85
672.665	531.55
673.11	581.85
673.556	623.05
674.002	660.45
674.448	644.15
674.893	537.15
675.339	475.65
675.785	439.95
676.23	418.75
676.676	391.05
677.122	381.75
677.567	369.35
678.013	369.25
678.458	356.65
678.904	361.15
679.349	350.15
679.794	349.45
680.24	346.05
680.685	351.35
681.131	343.55
681.576	342.65
682.021	354.35
682.466	344.15
682.912	339.15
683.357	352.45
683.802	381.55
684.247	410.05
684.692	460.45
685.137	486.85
685.583	525.85
686.028	552.65
686.473	506.05
686.918	443.35
687.363	410.25
687.807	384.35
688.252	351.45
688.697	354.55
689.142	330.25
689.587	324.75
690.032	320.25
690.477	344.75
690.921	353.75
691.366	384.75
691.811	407.45
692.255	423.85
692.7	458.85
693.145	500.25
693.589	706.35
694.034	1141.05
694.478	1541.25
694.923	1701.35
695.367	2199.25
695.812	1163.95
696.256	491.55
696.701	362.45
697.145	342.85
697.59	339.25
698.034	318.95
698.478	328.95
698.922	333.75
699.367	330.85
699.811	333.15
700.255	355.45
700.699	389.95
701.143	422.25
701.588	475.25
702.032	516.45
702.476	513.05
702.92	488.55
703.364	490.25
703.808	643.05
704.252	1043.35
704.696	1458.55
705.14	1641.55
705.584	2089.25
706.027	1044.95
706.471	520.25
706.915	394.05
707.359	347.25
707.803	323.15
708.246	307.25
708.69	311.95
709.134	309.35
709.577	308.35
710.021	313.05
710.465	303.25
710.908	299.35
711.352	297.15
711.795	312.55
712.239	358.35
712.682	384.05
713.126	412.75
713.569	452.15
714.012	368.95
714.456	318.85
714.899	292.35
715.342	270.85
715.786	253.65
716.229	257.25
716.672	257.25
717.115	245.35
717.558	251.65
718.002	245.95
718.445	259.45
718.888	290.05
719.331	292.25
719.774	306.35
720.217	307.95
720.66	291.15
721.103	260.55
721.546	258.85
721.989	252.95
722.432	229.65
722.874	237.95
723.317	224.55
723.76	237.75
724.203	253.85
724.645	319.35
725.088	445.15
725.531	568.25
725.974	626.95
726.416	542.95
726.859	310.85
727.301	247.35
727.744	237.15
728.187	236.55
728.629	243.95
729.071	238.05
729.514	260.85
729.956	267.95
730.399	282.65
730.841	285.45
731.283	270.05
731.726	266.05
732.168	261.15
732.61	274.75
733.053	290.85
733.495	307.95
733.937	345.65
734.379	395.25
734.821	431.75
735.263	540.55
735.705	854.55
736.148	1599.55
736.59	2560.65
737.032	2965.15
737.474	2406.45
737.916	788.25
738.357	427.85
738.799	324.25
739.241	296.15
739.683	286.05
740.125	291.75
740.567	290.85
741.008	312.65
741.45	314.05
741.892	307.25
742.334	346.25
742.775	350.55
743.217	330.25
743.658	265.15
744.1	255.55
744.542	260.95
744.983	302.95
745.425	331.35
745.866	333.35
746.307	291.65
746.749	280.55
747.19	331.65
747.632	457.45
748.073	894.15
748.514	1884.05
748.956	2815.15
749.397	3522.75
749.838	2924.05
750.279	2865.75
750.72	1465.55
751.162	534.95
751.603	319.05
752.044	245.75
752.485	213.05
752.926	205.85
753.367	194.95
753.808	188.25
754.249	184.85
754.69	188.35
755.131	184.15
755.572	186.35
756.013	179.35
756.453	185.75
756.894	188.05
757.335	191.15
757.776	193.15
758.216	192.65
758.657	199.75
759.098	208.95
759.538	222.25
759.979	263.65
760.42	381.35
760.86	711.25
761.301	1853.15
761.741	4424.45
762.182	6223.35
762.622	4367.95
