Data from 20171114-ORNL-Ar_H_NY_Subt18_08-06-37-113.txt Node
Date: Tue Nov 14 08:06:37 EST 2017
User: Ender
Spectrometer: HR+D1039
Trigger mode: 0
Integration Time (sec): 2.730000E-2
Scans to average: 10
Electric dark correction enabled: true
Nonlinearity correction enabled: false
Boxcar width: 0
XAxis mode: Wavelengths
Number of Pixels in Spectrum: 2048
>>>>>Begin Spectral Data<<<<<
187.836	-2.7
188.309	-2.7
188.782	-2.7
189.255	-0.3
189.728	0.2
190.201	3.4
190.674	4.8
191.147	2.2
191.619	-9.7
192.092	0.7
192.565	5.4
193.038	-2
193.511	-2.6
193.984	-2.6
194.456	-1.8
194.929	3.1
195.402	-1.4
195.874	3.3
196.347	-1.8
196.82	-6.2
197.292	4.4
197.765	-2.2
198.237	-5
198.71	-1.3
199.182	0.1
199.655	3.9
200.127	3
200.6	0.3
201.072	1.1
201.544	-6.2
202.017	-4.8
202.489	4.8
202.961	-5
203.433	-4.5
203.906	-6.2
204.378	0.6
204.85	1.1
205.322	-8.4
205.794	-4.9
206.266	-3.2
206.739	-7.9
207.211	-2.9
207.683	-6.1
208.155	-7.6
208.627	-8.3
209.099	-1.5
209.57	-8.2
210.042	-1.7
210.514	-1.5
210.986	-2.9
211.458	-4
211.93	-0.6
212.402	2.7
212.873	-7.5
213.345	-6.2
213.817	-10.8
214.288	-3.8
214.76	-10.9
215.232	-5.6
215.703	-5
216.175	-1.5
216.646	-1.5
217.118	-4.3
217.589	-5.6
218.061	-2.3
218.532	-6.8
219.004	-2.7
219.475	-6.6
219.946	-7.9
220.418	-8.8
220.889	5.4
221.36	-4.6
221.832	-9.7
222.303	-6.9
222.774	-4.4
223.245	-11.9
223.717	-3.3
224.188	-6
224.659	-6.9
225.13	-7.8
225.601	-4.1
226.072	-3.8
226.543	-0.9
227.014	-3.2
227.485	-3.1
227.956	-0.4
228.427	2.7
228.898	-3.2
229.369	-1.8
229.839	-0.8
230.31	-9.6
230.781	3.8
231.252	-4.8
231.722	-8.2
232.193	-7.5
232.664	-1.1
233.135	-2
233.605	-2.5
234.076	-5.8
234.546	-0.7
235.017	1.4
235.487	-2.6
235.958	-3.1
236.428	-6.8
236.899	-4.8
237.369	1.8
237.84	-7.1
238.31	0.8
238.78	-3.6
239.251	-7.1
239.721	-0.9
240.191	-5.2
240.662	-7.9
241.132	-1
241.602	-2.4
242.072	-5.4
242.542	2.6
243.013	-7.2
243.483	6.1
243.953	1.4
244.423	-3.7
244.893	-7.5
245.363	1
245.833	5.2
246.303	-6.4
246.773	6.2
247.243	3.3
247.712	-1.6
248.182	5.1
248.652	3.1
249.122	-4.3
249.592	-2
250.061	4
250.531	15.7
251.001	4.6
251.471	5.4
251.94	8.6
252.41	4
252.879	1.7
253.349	6.3
253.818	0.6
254.288	1.5
254.757	2.7
255.227	-4.5
255.696	-1.6
256.166	5
256.635	4.9
257.105	3.9
257.574	4
258.043	4.5
258.513	-1.5
258.982	2
259.451	2.2
259.92	6.7
260.389	1.3
260.859	5.8
261.328	0.1
261.797	4.5
262.266	-3.4
262.735	6.9
263.204	3.2
263.673	0.6
264.142	3.6
264.611	-0.6
265.08	-1.6
265.549	2
266.018	7.3
266.487	0.6
266.955	-1.5
267.424	-2.6
267.893	3
268.362	-0.7
268.83	2.9
269.299	10.6
269.768	5.8
270.236	3.9
270.705	4.9
271.174	7.1
271.642	4.2
272.111	7.5
272.579	9.1
273.048	8.6
273.516	2.4
273.985	8.1
274.453	16.6
274.922	8.3
275.39	13.7
275.858	2
276.327	11.1
276.795	16.9
277.263	6.4
277.731	18
278.2	24.6
278.668	20.9
279.136	17.2
279.604	9.6
280.072	5.7
280.54	13.1
281.008	5.8
281.477	17.8
281.945	8.7
282.413	14.2
282.881	15.6
283.348	11.2
283.816	17.5
284.284	11.5
284.752	12.1
285.22	11.4
285.688	15
286.156	13.4
286.623	23.8
287.091	19.2
287.559	24.6
288.026	20
288.494	21.7
288.962	7.3
289.429	8.7
289.897	15.4
290.364	14.4
290.832	19.1
291.3	13.8
291.767	20.9
292.234	19.4
292.702	12.8
293.169	14.5
293.637	22.4
294.104	21.7
294.571	8.6
295.039	12.5
295.506	11.7
295.973	19.5
296.44	11
296.908	16.5
297.375	17.6
297.842	16.8
298.309	20.6
298.776	14.8
299.243	16.2
299.71	10
300.177	17.9
300.644	21.1
301.111	19.4
301.578	22.8
302.045	15
302.512	30.9
302.979	21.5
303.446	23.9
303.913	17.3
304.379	17.2
304.846	30.2
305.313	30.3
305.78	21.8
306.246	27
306.713	25.1
307.18	22.3
307.646	29.2
308.113	29.9
308.579	25.9
309.046	21.2
309.512	28.5
309.979	17.2
310.445	24.4
310.912	30.6
311.378	31.6
311.845	32.9
312.311	31
312.777	33.9
313.244	27.8
313.71	38.8
314.176	29.6
314.642	29.5
315.109	30.4
315.575	37.1
316.041	38.3
316.507	32
316.973	35.4
317.439	29.9
317.905	32.6
318.371	32.6
318.837	30.7
319.303	42.5
319.769	33.5
320.235	40.6
320.701	35.8
321.167	39.9
321.633	30.9
322.099	40.7
322.564	38.2
323.03	38.5
323.496	37.3
323.962	41.3
324.427	35.9
324.893	43.4
325.359	43.3
325.824	45.3
326.29	40
326.755	39.7
327.221	42.2
327.686	40.5
328.152	48.2
328.617	43.9
329.083	51.6
329.548	54.8
330.014	45.8
330.479	41.3
330.944	45.2
331.41	44
331.875	45.6
332.34	42.1
332.805	44.3
333.271	46.8
333.736	44.2
334.201	52.9
334.666	54.8
335.131	58
335.596	51
336.061	52
336.526	39.9
336.991	50.5
337.456	59.1
337.921	50.5
338.386	47.6
338.851	49.8
339.316	45.7
339.781	48.1
340.246	58.2
340.711	47.4
341.175	53.5
341.64	44.3
342.105	56.7
342.569	52
343.034	55.3
343.499	62.2
343.963	57.7
344.428	63.4
344.893	60.6
345.357	66.5
345.822	62.3
346.286	74.3
346.751	79.5
347.215	78
347.679	80.5
348.144	97.2
348.608	92.6
349.073	72.1
349.537	79.5
350.001	83.3
350.465	95.8
350.93	84.9
351.394	84.6
351.858	79.6
352.322	92.2
352.786	88.8
353.25	103.9
353.715	111.9
354.179	105.9
354.643	128.5
355.107	130.6
355.571	105.9
356.035	99.4
356.498	125.2
356.962	126.3
357.426	131
357.89	124.5
358.354	98.4
358.818	86.7
359.281	80.5
359.745	78.8
360.209	83.9
360.673	78.8
361.136	84.9
361.6	84.7
362.064	91.7
362.527	84.9
362.991	97.3
363.454	84
363.918	84
364.381	84.4
364.845	84.3
365.308	86.6
365.772	97.5
366.235	83.7
366.698	87.2
367.162	91
367.625	86.3
368.088	93.6
368.552	94.4
369.015	92.2
369.478	95.7
369.941	102.5
370.404	106
370.867	104.6
371.331	107
371.794	117.4
372.257	105.5
372.72	112.6
373.183	106.8
373.646	98.5
374.109	99.6
374.572	97.4
375.035	108.3
375.497	113.7
375.96	108.1
376.423	106.5
376.886	115.6
377.349	113.2
377.811	103.3
378.274	113
378.737	114.2
379.199	116.1
379.662	122.9
380.125	111.8
380.587	116.4
381.05	115.2
381.512	114.8
381.975	132.2
382.437	123.1
382.9	118.8
383.362	129.4
383.825	136.6
384.287	130.9
384.75	128.2
385.212	131.3
385.674	145.4
386.136	140.1
386.599	131.1
387.061	127.5
387.523	131.5
387.985	133.2
388.447	141.5
388.91	141.9
389.372	141.2
389.834	132.8
390.296	136.1
390.758	145.8
391.22	153.3
391.682	176.8
392.144	190.3
392.606	167.1
393.068	151.2
393.529	161
393.991	142.6
394.453	137.2
394.915	148.3
395.377	154.3
395.838	157.5
396.3	146.3
396.762	150.6
397.224	149.6
397.685	134
398.147	144.4
398.608	138.1
399.07	142.1
399.531	145.3
399.993	153.5
400.454	167.6
400.916	150.8
401.377	155.5
401.839	158.6
402.3	157.2
402.762	175.8
403.223	189.8
403.684	176.3
404.145	172
404.607	168.8
405.068	174.8
405.529	179.5
405.99	199.6
406.451	190.1
406.913	186.4
407.374	175
407.835	171.2
408.296	175.4
408.757	181.8
409.218	194.9
409.679	177.6
410.14	181
410.601	184.1
411.062	185.1
411.522	193.4
411.983	187
412.444	187.8
412.905	196
413.366	192.8
413.826	203
414.287	239.6
414.748	285.9
415.208	267.7
415.669	231.7
416.13	217.1
416.59	218.4
417.051	229.3
417.511	234.3
417.972	249.9
418.432	260.3
418.893	309.9
419.353	269.9
419.814	211.7
420.274	203
420.734	193.6
421.195	209.3
421.655	207.2
422.115	203.8
422.576	200.2
423.036	216.9
423.496	215.6
423.956	236.6
424.416	246.7
424.876	287.7
425.336	276.8
425.797	282.7
426.257	277.1
426.717	261.8
427.177	247
427.637	233.6
428.097	247.9
428.556	255.7
429.016	291.3
429.476	278.1
429.936	290.6
430.396	294.2
430.856	309.3
431.315	326.1
431.775	361.5
432.235	400.1
432.694	375.4
433.154	384.6
433.614	415.7
434.073	359.6
434.533	300.8
434.993	286.2
435.452	301.7
435.912	308.7
436.371	304.3
436.83	306.9
437.29	282.3
437.749	258.8
438.209	263.1
438.668	288.5
439.127	298.7
439.587	275.2
440.046	267.5
440.505	275.5
440.964	290.3
441.424	344
441.883	346.2
442.342	278
442.801	245.1
443.26	245.9
443.719	245.3
444.178	235.7
444.637	225.5
445.096	237.6
445.555	240
446.014	237.8
446.473	249
446.932	247
447.391	239.6
447.849	239.8
448.308	234
448.767	246.4
449.226	258.4
449.685	254.2
450.143	276.3
450.602	261.2
451.061	246.1
451.519	255.8
451.978	249.4
452.436	249
452.895	267.1
453.353	274.5
453.812	262
454.27	270.1
454.729	267.3
455.187	263.5
455.646	265.3
456.104	276.9
456.562	285.5
457.021	285.9
457.479	287.6
457.937	304
458.395	283.2
458.854	271.9
459.312	271.2
459.77	295.8
460.228	284.3
460.686	269.5
461.144	268.3
461.602	262.1
462.06	269.1
462.518	267
462.976	278.5
463.434	277.9
463.892	286
464.35	307.6
464.808	317.9
465.266	292.2
465.724	285.6
466.181	297.4
466.639	297.9
467.097	313.1
467.555	329.9
468.012	323
468.47	329.9
468.928	365.4
469.385	374.5
469.843	370.7
470.3	382.3
470.758	392.3
471.215	412.2
471.673	440.9
472.13	441.3
472.588	455.8
473.045	411
473.503	416.5
473.96	434.1
474.417	438.7
474.875	471.8
475.332	517.5
475.789	494.3
476.246	504.9
476.704	531.4
477.161	547.6
477.618	565
478.075	592.8
478.532	659.4
478.989	730.7
479.446	857.4
479.903	811.3
480.36	843
480.817	885.5
481.274	989.2
481.731	1087.2
482.188	1188.1
482.645	1308.4
483.102	1400.2
483.558	1530.1
484.015	1570.8
484.472	1548.5
484.929	1497.1
485.385	1452.5
485.842	1425.6
486.299	1378.4
486.755	1323.2
487.212	1127.5
487.668	964.3
488.125	894.4
488.582	818.7
489.038	802
489.494	765.1
489.951	729.4
490.407	711.4
490.864	699.4
491.32	694.2
491.776	694.5
492.233	695.1
492.689	661.7
493.145	656.4
493.602	657.8
494.058	665
494.514	673.1
494.97	684.4
495.426	701.3
495.882	672.3
496.338	660.9
496.794	673.8
497.251	666.9
497.707	686.3
498.163	685.2
498.618	692.3
499.074	707
499.53	728.6
499.986	732.7
500.442	694.8
500.898	677.4
501.354	665.4
501.809	670.7
502.265	673.6
502.721	681.4
503.177	693.7
503.632	695.1
504.088	704.9
504.543	735.5
504.999	747.7
505.455	714.9
505.91	695.9
506.366	694.7
506.821	697.1
507.277	679.7
507.732	679.4
508.187	695
508.643	693.4
509.098	698.8
509.553	723
510.009	731.6
510.464	732.3
510.919	743.9
511.375	749.8
511.83	769
512.285	786.5
512.74	824.5
513.195	862.7
513.65	846.1
514.105	830.5
514.56	838.1
515.015	849.6
515.47	863.1
515.925	859.1
516.38	866
516.835	849.8
517.29	853.2
517.745	829.7
518.2	818.2
518.655	816.9
519.109	801
519.564	797.9
520.019	798.2
520.474	785.4
520.928	803.2
521.383	772.5
521.838	772.3
522.292	782.7
522.747	771.2
523.201	770.3
523.656	749.7
524.11	754.4
524.565	755.7
525.019	751.6
525.474	749.2
525.928	755.1
526.382	754.4
526.837	765.2
527.291	773.9
527.745	772.2
528.2	764.1
528.654	754.3
529.108	747.1
529.562	747.8
530.016	750
530.47	747.9
530.925	752.7
531.379	749
531.833	759.4
532.287	753.3
532.741	772
533.195	768.6
533.649	774.3
534.103	789.2
534.556	773.2
535.01	776.3
535.464	776.4
535.918	787.5
536.372	780.8
536.826	777.5
537.279	764.5
537.733	780.1
538.187	782
538.64	785.5
539.094	792.5
539.548	788.9
540.001	779
540.455	784.9
540.908	797.5
541.362	801.3
541.815	803.2
542.269	821.2
542.722	820.3
543.175	843.3
543.629	840.5
544.082	857.7
544.536	865.2
544.989	853.5
545.442	856.4
545.895	867
546.349	851.9
546.802	868.8
547.255	862.4
547.708	882.2
548.161	885.7
548.614	892.5
549.067	897
549.52	896.9
549.973	881.9
550.426	880.5
550.879	870.4
551.332	875.2
551.785	883.8
552.238	884.8
552.691	891.1
553.144	913.6
553.596	921.6
554.049	952.3
554.502	980.4
554.955	999.4
555.407	984.1
555.86	981.3
556.313	969.7
556.765	963.3
557.218	966.3
557.67	966.8
558.123	956.8
558.576	945.6
559.028	953.1
559.48	980.3
559.933	953
560.385	912.3
560.838	893.4
561.29	859.3
561.742	860.2
562.195	836.1
562.647	829.6
563.099	841.4
563.551	846.5
564.004	855.3
564.456	842.2
564.908	830.1
565.36	803.6
565.812	797.6
566.264	779.6
566.716	787.7
567.168	764.2
567.62	765.9
568.072	759.4
568.524	754.3
568.976	742.2
569.428	733.6
569.88	740.6
570.332	743.8
570.784	740.3
571.235	749.2
571.687	755.8
572.139	772.1
572.59	776.9
573.042	775.5
573.494	768.5
573.945	763.8
574.397	751.4
574.849	740
575.3	748.4
575.752	738.9
576.203	735
576.655	743
577.106	739.7
577.557	727.3
578.009	724.3
578.46	728.9
578.912	722.5
579.363	721.4
579.814	731
580.265	727.8
580.717	720.8
581.168	729.5
581.619	737.2
582.07	744.6
582.521	734.9
582.972	722.2
583.423	735.6
583.875	733.9
584.326	752.6
584.777	761.9
585.227	785
585.678	821.3
586.129	853.4
586.58	879.3
587.031	909.8
587.482	977
587.933	1030.1
588.384	982.7
588.834	887.5
589.285	837.6
589.736	834.1
590.186	827.1
590.637	838.4
591.088	804.3
591.538	794.3
591.989	798.4
592.439	797.7
592.89	770.8
593.34	769.5
593.791	775.7
594.241	756.5
594.692	763
595.142	750.5
595.593	749.6
596.043	748
596.493	771.1
596.943	767.4
597.394	774.9
597.844	775.3
598.294	790.5
598.744	820.4
599.195	839.8
599.645	881.5
600.095	923.1
600.545	991
600.995	1053.7
601.445	1110.1
601.895	1173.3
602.345	1211.9
602.795	1196.1
603.245	1161.6
603.695	1095.9
604.145	1028.4
604.594	994
605.044	926.2
605.494	868.2
605.944	822.8
606.393	803.8
606.843	788.1
607.293	790
607.743	778.9
608.192	796.3
608.642	818
609.091	817.1
609.541	828.3
609.99	816.1
610.44	821
610.889	777.1
611.339	749.3
611.788	741.4
612.238	746.6
612.687	760.6
613.136	749.3
613.586	764.3
614.035	749.3
614.484	765.3
614.933	770.1
615.383	764.3
615.832	755.9
616.281	747.9
616.73	733.2
617.179	706.6
617.628	692.3
618.077	672.1
618.526	665.3
618.975	660.6
619.424	656
619.873	660.7
620.322	663.1
620.771	653.6
621.22	643.6
621.669	642.3
622.118	637.8
622.567	626.5
623.015	617.4
623.464	612.9
623.913	610.5
624.361	602.6
624.81	593.7
625.259	591.2
625.707	591.4
626.156	600.2
626.604	610.3
627.053	608.5
627.501	613.1
627.95	618.9
628.398	624.8
628.847	615.3
629.295	610.2
629.744	616.4
630.192	614.8
630.64	610.6
631.089	598.1
631.537	594.3
631.985	575.9
632.433	585.1
632.881	576
633.33	594.9
633.778	587.5
634.226	571.9
634.674	578.8
635.122	583.9
635.57	604.8
636.018	612.1
636.466	605.2
636.914	601.1
637.362	604.6
637.81	620.3
638.258	620
638.705	625.5
639.153	658.5
639.601	661.1
640.049	682.9
640.497	724.5
640.944	734.9
641.392	685.2
641.84	659.7
642.287	625.8
642.735	612.6
643.182	602.8
643.63	611
644.078	606.7
644.525	621
644.973	617.4
645.42	636.3
645.867	654.7
646.315	681.6
646.762	702.6
647.21	724
647.657	747.6
648.104	784.2
648.551	810.8
648.999	873.9
649.446	947.9
649.893	1032.1
650.34	1182.5
650.787	1403.7
651.234	1722.1
651.682	2216.3
652.129	3026.5
652.576	4288.4
653.023	6233.5
653.47	8456.2
653.917	10523
654.363	12094.4
654.81	13354.4
655.257	12667.4
655.704	8428.8
656.151	5058.3
656.598	3356.9
657.044	2394.2
657.491	1853
657.938	1500.2
658.385	1264.3
658.831	1103.2
659.278	988.8
659.724	880.2
660.171	818
660.618	744.6
661.064	723.6
661.511	701.5
661.957	697
662.404	682.6
662.85	681.5
663.296	658.4
663.743	600.8
664.189	572
664.635	569.4
665.082	562.9
665.528	562.4
665.974	553.5
666.42	546.7
666.867	538.3
667.313	514.7
667.759	506.8
668.205	484.5
668.651	491.2
669.097	492.1
669.543	486.5
669.989	479.5
670.435	475.1
670.881	473.2
671.327	482.2
671.773	502.5
672.219	529
672.665	581.9
673.11	628
673.556	684.4
674.002	722.1
674.448	705.3
674.893	593.3
675.339	514.3
675.785	473.9
676.23	455.6
676.676	424.6
677.122	412.4
677.567	401.1
678.013	388.9
678.458	388.6
678.904	385.7
679.349	379.6
679.794	383.7
680.24	374.4
680.685	370.6
681.131	377.4
681.576	378.2
682.021	389.5
682.466	378.2
682.912	372.8
683.357	383.7
683.802	413.7
684.247	444
684.692	490.4
685.137	534.9
685.583	577.7
686.028	605.4
686.473	558.3
686.918	475.6
687.363	452.5
687.807	429.2
688.252	393.9
688.697	381.2
689.142	363.4
689.587	357.7
690.032	351.2
690.477	364.7
690.921	386.7
691.366	410.2
691.811	434.5
692.255	459.2
692.7	485.6
693.145	534.5
693.589	744.6
694.034	1211.1
694.478	1642.9
694.923	1856.3
695.367	2425.3
695.812	1287.8
696.256	533.2
696.701	398.7
697.145	366.5
697.59	360.3
698.034	351.4
698.478	355.6
698.922	345.2
699.367	343.2
699.811	362.5
700.255	377.5
700.699	405.9
701.143	458.3
701.588	506.8
702.032	546
702.476	550.4
702.92	530.2
703.364	537.6
703.808	689
704.252	1105.4
704.696	1544.6
705.14	1801.6
705.584	2294.3
706.027	1140.4
706.471	567.6
706.915	437.2
707.359	380.5
707.803	345.1
708.246	341.5
708.69	335.1
709.134	345.2
709.577	331.4
710.021	337.3
710.465	328.1
710.908	327.5
711.352	314
711.795	336.1
712.239	374.6
712.682	407.7
713.126	447.1
713.569	494.3
714.012	389.7
714.456	332.9
714.899	309.1
715.342	296.5
715.786	283.3
716.229	283.5
716.672	276.9
717.115	274.8
717.558	271
718.002	265.4
718.445	285.4
718.888	305.6
719.331	316.6
719.774	332.3
720.217	331.5
720.66	309.5
721.103	286.3
721.546	275.5
721.989	261.4
722.432	243.6
722.874	259.9
723.317	246.8
723.76	259
724.203	282.5
724.645	339.7
725.088	476.9
725.531	609.4
725.974	699.7
726.416	598.9
726.859	336
727.301	264.5
727.744	259.6
728.187	245.3
728.629	261.1
729.071	260.5
729.514	282.3
729.956	289.8
730.399	305.2
730.841	310.5
731.283	296.3
731.726	283.3
732.168	285.3
732.61	290.4
733.053	312.2
733.495	339.9
733.937	383.2
734.379	423.2
734.821	468.7
735.263	579.2
735.705	909
736.148	1713
736.59	2792.6
737.032	3301.8
737.474	2659.4
737.916	874.5
738.357	457.5
738.799	360.9
739.241	323.9
739.683	308.3
740.125	312.1
740.567	313.5
741.008	337.1
741.45	335
741.892	335.2
742.334	375.2
742.775	391.5
743.217	369.4
743.658	287.8
744.1	271.1
744.542	284.2
744.983	336.5
745.425	381.6
745.866	372.5
746.307	301.9
746.749	301.3
747.19	348
747.632	484.1
748.073	935.1
748.514	2008.8
748.956	3071.2
749.397	3853.4
749.838	3182.8
750.279	3179.3
750.72	1618
751.162	602.4
751.603	344.7
752.044	271.7
752.485	229.5
752.926	226.1
753.367	218.7
753.808	209.5
754.249	204.7
754.69	201.6
755.131	195.8
755.572	192.4
756.013	195.9
756.453	200.4
756.894	198.6
757.335	210.3
757.776	206.6
758.216	215.3
758.657	207.4
759.098	219
759.538	249.5
759.979	284.6
760.42	409
760.86	757.8
761.301	1942
761.741	4739
762.182	6866
762.622	4885
763.063	1408.6
763.503	570.7
763.943	351.2
764.384	309.7
764.824	303.5
765.264	297.4
765.705	250.7
766.145	207.4
766.585	189.6
767.025	187
767.465	181.9
767.906	212.3
768.346	249.4
768.786	249.8
769.226	246.1
769.666	326.9
770.106	664.2
770.546	1665.2
770.986	2826.6
771.426	2541.9
771.866	854.3
772.306	356
772.745	217
773.185	184.5
773.625	169.8
774.065	169.3
774.505	179.9
774.944	229.3
775.384	421.5
775.824	704.9
776.263	680.9
776.703	330.3
777.142	178.4
777.582	151.4
778.021	136.4
778.461	132.8
778.9	144.2
779.34	130.7
779.779	118.4
780.219	115.4
780.658	115.1
781.097	119.2
781.537	119.9
781.976	116.3
782.415	113.7
782.855	113.6
783.294	109.7
783.733	103.6
784.172	113.4
784.611	108
785.05	121.2
785.489	120.5
785.928	131.2
786.367	129.6
786.806	128.6
787.245	139.9
787.684	147.9
788.123	157.4
788.562	141.2
789.001	141.7
789.44	131.6
789.879	126.4
790.317	124.5
790.756	137.1
791.195	135.3
791.634	157.6
792.072	217.8
792.511	389.5
792.95	1055
793.388	2261.3
793.827	2041.3
794.265	715
794.704	297.8
795.142	196.2
795.581	169.8
796.019	145.3
796.458	138.2
796.896	134.1
797.334	141.1
797.773	169.6
798.211	238.8
798.649	473.1
799.087	1089
799.526	1718.4
799.964	2143.8
800.402	2153.4
800.84	811.1
801.278	325.5
801.716	200.9
802.154	160.4
802.592	150.5
803.03	149.2
803.468	151.5
803.906	155.5
804.344	159
804.782	147.1
805.22	146.7
805.658	140.1
806.096	157.7
806.533	175.8
806.971	184.4
807.409	235.1
