Data from 20171114-ORNL-Ar_H_NY_Subt18_08-05-08-122.txt Node
Date: Tue Nov 14 08:05:08 EST 2017
User: Ender
Spectrometer: HR+D1039
Trigger mode: 0
Integration Time (sec): 2.730000E-2
Scans to average: 10
Electric dark correction enabled: true
Nonlinearity correction enabled: false
Boxcar width: 0
XAxis mode: Wavelengths
Number of Pixels in Spectrum: 2048
>>>>>Begin Spectral Data<<<<<
187.836	-7.71
188.309	-7.71
188.782	-7.71
189.255	-0.41
189.728	-4.01
190.201	6.89
190.674	5.19
191.147	3.19
191.619	-7.41
192.092	0.69
192.565	5.99
193.038	-2.71
193.511	1.49
193.984	0.39
194.456	-1.61
194.929	-2.61
195.402	-0.51
195.874	3.09
196.347	-2.51
196.82	0.59
197.292	4.49
197.765	-2.11
198.237	-2.01
198.71	-5.31
199.182	0.49
199.655	-0.81
200.127	8.39
200.6	-3.81
201.072	3.19
201.544	-6.71
202.017	6.29
202.489	1.39
202.961	-2.11
203.433	-0.41
203.906	-5.51
204.378	-4.71
204.85	0.79
205.322	-11.71
205.794	-1.11
206.266	-3.91
206.739	-8.51
207.211	1.59
207.683	-8.21
208.155	-6.41
208.627	1.59
209.099	-8.01
209.57	-1.61
210.042	-1.61
210.514	-0.81
210.986	-2.31
211.458	-6.21
211.93	0.29
212.402	1.59
212.873	-7.91
213.345	-9.51
213.817	-13.81
214.288	-3.01
214.76	-8.01
215.232	-5.61
215.703	-3.91
216.175	-3.41
216.646	-4.71
217.118	-12.41
217.589	-6.51
218.061	3.49
218.532	-2.51
219.004	4.19
219.475	0.59
219.946	1.99
220.418	-1.91
220.889	2.79
221.36	1.79
221.832	-4.31
222.303	-3.51
222.774	-0.61
223.245	-7.91
223.717	-2.61
224.188	-1.81
224.659	-3.81
225.13	-6.71
225.601	-2.51
226.072	-2.11
226.543	2.49
227.014	0.49
227.485	5.29
227.956	-6.61
228.427	1.49
228.898	1.39
229.369	0.69
229.839	-0.51
230.31	-2.31
230.781	4.49
231.252	-5.01
231.722	-6.21
232.193	-5.91
232.664	-0.21
233.135	3.79
233.605	2.89
234.076	-3.91
234.546	7.79
235.017	12.59
235.487	0.49
235.958	4.19
236.428	-4.01
236.899	7.99
237.369	4.99
237.84	-1.21
238.31	9.69
238.78	4.79
239.251	4.39
239.721	0.79
240.191	5.09
240.662	2.79
241.132	0.79
241.602	-0.91
242.072	10.99
242.542	4.89
243.013	0.39
243.483	5.69
243.953	5.79
244.423	5.29
244.893	-3.31
245.363	10.19
245.833	3.39
246.303	-0.61
246.773	6.99
247.243	4.49
247.712	9.89
248.182	4.99
248.652	11.69
249.122	5.09
249.592	15.89
250.061	24.89
250.531	39.49
251.001	20.09
251.471	28.39
251.94	22.29
252.41	10.29
252.879	7.89
253.349	16.39
253.818	9.49
254.288	2.59
254.757	8.19
255.227	6.09
255.696	6.19
256.166	10.99
256.635	8.99
257.105	14.49
257.574	13.09
258.043	12.49
258.513	13.39
258.982	17.79
259.451	13.59
259.92	14.69
260.389	11.39
260.859	17.79
261.328	14.89
261.797	21.69
262.266	14.69
262.735	17.79
263.204	10.49
263.673	3.19
264.142	13.49
264.611	3.39
265.08	3.79
265.549	4.99
266.018	9.19
266.487	4.19
266.955	-1.81
267.424	7.09
267.893	15.39
268.362	4.09
268.83	12.89
269.299	11.79
269.768	10.39
270.236	11.39
270.705	9.49
271.174	9.29
271.642	19.49
272.111	15.59
272.579	24.69
273.048	28.29
273.516	35.19
273.985	30.69
274.453	22.89
274.922	22.79
275.39	14.89
275.858	4.49
276.327	19.29
276.795	19.89
277.263	10.99
277.731	30.39
278.2	52.89
278.668	60.29
279.136	50.69
279.604	24.29
280.072	17.19
280.54	14.49
281.008	11.49
281.477	19.99
281.945	21.89
282.413	13.79
282.881	13.69
283.348	14.59
283.816	19.39
284.284	16.49
284.752	20.49
285.22	14.89
285.688	15.39
286.156	22.89
286.623	48.19
287.091	61.09
287.559	30.49
288.026	19.49
288.494	22.59
288.962	11.49
289.429	11.89
289.897	27.19
290.364	19.09
290.832	23.39
291.3	21.09
291.767	19.89
292.234	19.39
292.702	17.89
293.169	22.79
293.637	23.49
294.104	22.39
294.571	6.89
295.039	16.49
295.506	17.69
295.973	26.99
296.44	15.09
296.908	18.89
297.375	21.49
297.842	22.49
298.309	24.59
298.776	17.19
299.243	24.39
299.71	14.19
300.177	22.79
300.644	22.19
301.111	28.49
301.578	28.59
302.045	19.89
302.512	28.59
302.979	26.69
303.446	23.19
303.913	19.49
304.379	23.89
304.846	27.19
305.313	32.99
305.78	26.79
306.246	33.89
306.713	30.39
307.18	32.79
307.646	30.69
308.113	36.99
308.579	28.39
309.046	29.39
309.512	37.19
309.979	20.69
310.445	34.49
310.912	36.59
311.378	35.49
311.845	25.19
312.311	36.89
312.777	35.59
313.244	35.79
313.71	41.19
314.176	35.19
314.642	36.99
315.109	38.59
315.575	43.29
316.041	36.19
316.507	43.49
316.973	46.39
317.439	32.89
317.905	41.79
318.371	35.79
318.837	39.99
319.303	35.29
319.769	38.89
320.235	36.19
320.701	39.89
321.167	45.29
321.633	38.39
322.099	42.89
322.564	49.09
323.03	44.19
323.496	47.19
323.962	45.69
324.427	35.89
324.893	42.09
325.359	40.89
325.824	37.39
326.29	41.59
326.755	43.09
327.221	46.89
327.686	45.39
328.152	51.09
328.617	41.69
329.083	49.29
329.548	56.69
330.014	48.79
330.479	40.39
330.944	55.49
331.41	48.09
331.875	43.99
332.34	44.69
332.805	46.69
333.271	51.29
333.736	42.69
334.201	58.49
334.666	55.99
335.131	63.09
335.596	52.69
336.061	55.39
336.526	49.99
336.991	46.49
337.456	56.09
337.921	49.49
338.386	44.79
338.851	47.19
339.316	52.89
339.781	54.69
340.246	59.19
340.711	45.19
341.175	52.69
341.64	50.69
342.105	53.09
342.569	63.39
343.034	64.39
343.499	56.89
343.963	57.59
344.428	64.69
344.893	64.39
345.357	63.09
345.822	68.69
346.286	71.39
346.751	74.79
347.215	73.79
347.679	82.59
348.144	105.09
348.608	84.79
349.073	70.59
349.537	78.49
350.001	87.29
350.465	91.89
350.93	81.69
351.394	83.39
351.858	74.69
352.322	94.79
352.786	82.59
353.25	106.79
353.715	109.29
354.179	105.19
354.643	123.89
355.107	129.69
355.571	110.59
356.035	105.79
356.498	117.09
356.962	126.39
357.426	140.29
357.89	117.79
358.354	97.79
358.818	86.79
359.281	87.39
359.745	73.59
360.209	76.79
360.673	73.79
361.136	84.29
361.6	88.29
362.064	85.49
362.527	89.89
362.991	91.29
363.454	85.59
363.918	71.99
364.381	81.69
364.845	86.79
365.308	91.39
365.772	93.59
366.235	81.49
366.698	88.69
367.162	93.49
367.625	84.59
368.088	94.09
368.552	92.79
369.015	89.49
369.478	97.39
369.941	106.29
370.404	96.69
370.867	107.49
371.331	113.49
371.794	121.29
372.257	110.69
372.72	123.79
373.183	113.19
373.646	109.49
374.109	101.19
374.572	107.69
375.035	109.59
375.497	104.39
375.96	109.29
376.423	107.09
376.886	110.79
377.349	105.59
377.811	104.29
378.274	111.69
378.737	102.79
379.199	111.49
379.662	113.69
380.125	118.69
380.587	117.49
381.05	132.59
381.512	128.09
381.975	134.29
382.437	131.49
382.9	129.89
383.362	133.19
383.825	142.49
384.287	142.99
384.75	140.99
385.212	147.79
385.674	143.59
386.136	138.09
386.599	127.69
387.061	130.29
387.523	128.09
387.985	132.99
388.447	143.49
388.91	143.19
389.372	156.19
389.834	149.69
390.296	141.69
390.758	161.09
391.22	171.09
391.682	202.19
392.144	298.59
392.606	232.99
393.068	168.49
393.529	173.69
393.991	147.19
394.453	148.89
394.915	152.79
395.377	193.49
395.838	213.99
396.3	150.79
396.762	142.19
397.224	130.29
397.685	134.59
398.147	132.69
398.608	132.29
399.07	126.29
399.531	136.99
399.993	143.89
400.454	153.89
400.916	139.59
401.377	142.59
401.839	152.99
402.3	153.69
402.762	161.29
403.223	177.89
403.684	173.09
404.145	159.29
404.607	162.69
405.068	170.29
405.529	171.29
405.99	189.09
406.451	179.89
406.913	177.79
407.374	158.59
407.835	162.79
408.296	169.19
408.757	171.29
409.218	184.89
409.679	184.79
410.14	173.99
410.601	175.99
411.062	179.99
411.522	189.79
411.983	195.59
412.444	181.29
412.905	178.49
413.366	178.29
413.826	189.29
414.287	214.99
414.748	256.79
415.208	248.29
415.669	213.29
416.13	206.29
416.59	199.79
417.051	210.39
417.511	223.49
417.972	233.29
418.432	240.39
418.893	283.39
419.353	248.49
419.814	197.29
420.274	178.59
420.734	171.69
421.195	195.09
421.655	195.49
422.115	190.69
422.576	191.29
423.036	200.79
423.496	205.49
423.956	208.09
424.416	231.49
424.876	259.49
425.336	254.29
425.797	259.99
426.257	255.29
426.717	240.49
427.177	233.19
427.637	227.39
428.097	232.69
428.556	242.79
429.016	258.09
429.476	252.19
429.936	269.19
430.396	277.19
430.856	290.39
431.315	319.99
431.775	353.79
432.235	377.09
432.694	351.09
433.154	353.49
433.614	386.39
434.073	338.89
434.533	285.59
434.993	271.29
435.452	279.69
435.912	294.69
436.371	287.09
436.83	279.59
437.29	268.09
437.749	244.79
438.209	239.99
438.668	266.39
439.127	288.49
439.587	259.89
440.046	248.19
440.505	259.09
440.964	278.19
441.424	309.39
441.883	314.29
442.342	256.29
442.801	226.69
443.26	226.09
443.719	212.49
444.178	217.19
444.637	208.69
445.096	216.29
445.555	224.99
446.014	223.79
446.473	223.69
446.932	223.19
447.391	217.19
447.849	222.59
448.308	213.99
448.767	215.49
449.226	230.39
449.685	230.59
450.143	242.19
450.602	229.09
451.061	228.09
451.519	231.19
451.978	226.79
452.436	233.19
452.895	238.49
453.353	254.49
453.812	235.99
454.27	237.79
454.729	231.39
455.187	234.59
455.646	243.29
456.104	248.89
456.562	256.99
457.021	262.09
457.479	253.59
457.937	267.19
458.395	258.89
458.854	247.49
459.312	251.89
459.77	270.39
460.228	251.89
460.686	244.69
461.144	251.29
461.602	244.29
462.06	234.39
462.518	242.79
462.976	248.69
463.434	252.49
463.892	263.89
464.35	269.99
464.808	289.29
465.266	251.49
465.724	267.99
466.181	270.69
466.639	269.29
467.097	287.19
467.555	291.09
468.012	297.99
468.47	300.29
468.928	321.29
469.385	338.29
469.843	343.59
470.3	338.29
470.758	349.79
471.215	384.29
471.673	402.09
472.13	399.99
472.588	403.89
473.045	364.19
473.503	373.09
473.96	379.19
474.417	396.49
474.875	426.59
475.332	462.59
475.789	449.99
476.246	456.49
476.704	474.69
477.161	501.49
477.618	520.99
478.075	555.69
478.532	605.99
478.989	682.69
479.446	787.19
479.903	767.69
480.36	804.39
480.817	857.19
481.274	952.19
481.731	1047.09
482.188	1158.69
482.645	1300.09
483.102	1401.59
483.558	1554.39
484.015	1585.99
484.472	1582.19
484.929	1518.59
485.385	1467.99
485.842	1427.19
486.299	1375.99
486.755	1278.59
487.212	1083.59
487.668	924.19
488.125	849.09
488.582	766.09
489.038	746.49
489.494	704.79
489.951	683.39
490.407	665.99
490.864	638.79
491.32	637.49
491.776	628.39
492.233	642.99
492.689	601.79
493.145	596.29
493.602	587.99
494.058	599.29
494.514	603.09
494.97	620.99
495.426	639.59
495.882	608.09
496.338	604.49
496.794	620.39
497.251	619.29
497.707	626.39
498.163	634.09
498.618	635.99
499.074	630.69
499.53	675.99
499.986	672.59
500.442	638.79
500.898	610.19
501.354	619.69
501.809	625.59
502.265	630.69
502.721	648.99
503.177	659.19
503.632	647.79
504.088	666.29
504.543	700.39
504.999	694.99
505.455	648.39
505.91	626.79
506.366	618.19
506.821	613.29
507.277	606.09
507.732	613.79
508.187	613.29
508.643	622.39
509.098	618.59
509.553	640.39
510.009	637.49
510.464	658.49
510.919	685.39
511.375	686.09
511.83	699.99
512.285	711.49
512.74	745.59
513.195	769.79
513.65	764.59
514.105	746.69
514.56	753.79
515.015	778.69
515.47	795.69
515.925	783.99
516.38	771.89
516.835	781.59
517.29	766.29
517.745	763.69
518.2	745.19
518.655	736.89
519.109	723.69
519.564	721.59
520.019	716.39
520.474	701.99
520.928	716.09
521.383	705.69
521.838	702.69
522.292	696.49
522.747	691.09
523.201	693.59
523.656	686.69
524.11	672.99
524.565	676.99
525.019	678.79
525.474	690.49
525.928	681.89
526.382	679.89
526.837	690.49
527.291	699.79
527.745	688.89
528.2	687.39
528.654	675.89
529.108	675.89
529.562	679.69
530.016	673.19
530.47	685.29
530.925	676.59
531.379	678.39
531.833	689.19
532.287	689.49
532.741	682.29
533.195	685.69
533.649	686.39
534.103	707.59
534.556	692.29
535.01	698.49
535.464	695.89
535.918	713.89
536.372	710.39
536.826	704.19
537.279	698.79
537.733	692.39
538.187	704.99
538.64	697.39
539.094	699.89
539.548	715.99
540.001	708.59
540.455	709.39
540.908	711.89
541.362	716.49
541.815	728.39
542.269	742.59
542.722	736.09
543.175	755.89
543.629	753.49
544.082	761.79
544.536	765.69
544.989	764.89
545.442	762.69
545.895	771.19
546.349	763.89
546.802	761.39
547.255	778.39
547.708	785.49
548.161	794.39
548.614	798.59
549.067	814.19
549.52	790.29
549.973	788.79
550.426	779.09
550.879	769.19
551.332	777.19
551.785	780.89
552.238	772.89
552.691	789.39
553.144	807.79
553.596	819.29
554.049	832.69
554.502	857.99
554.955	883.99
555.407	882.89
555.86	872.09
556.313	867.69
556.765	868.39
557.218	859.09
557.67	854.19
558.123	851.39
558.576	849.39
559.028	847.69
559.48	863.99
559.933	844.29
560.385	801.99
560.838	784.29
561.29	762.29
561.742	754.49
562.195	740.99
562.647	733.29
563.099	740.69
563.551	739.79
564.004	756.39
564.456	741.09
564.908	738.89
565.36	720.19
565.812	705.89
566.264	694.49
566.716	706.09
567.168	686.89
567.62	707.59
568.072	674.39
568.524	674.99
568.976	659.59
569.428	653.59
569.88	649.49
570.332	656.99
570.784	656.99
571.235	649.99
571.687	669.69
572.139	675.79
572.59	686.59
573.042	677.69
573.494	682.99
573.945	675.19
574.397	657.49
574.849	667.19
575.3	661.69
575.752	649.59
576.203	652.89
576.655	660.49
577.106	656.79
577.557	648.79
578.009	641.99
578.46	643.89
578.912	632.59
579.363	634.39
579.814	649.89
580.265	635.09
580.717	639.99
581.168	639.39
581.619	656.19
582.07	650.49
582.521	641.69
582.972	641.49
583.423	655.69
583.875	654.09
584.326	664.59
584.777	714.59
585.227	780.49
585.678	877.69
586.129	961.49
586.58	1033.69
587.031	1109.69
587.482	1277.69
587.933	1478.19
588.384	1259.19
588.834	947.69
589.285	770.69
589.736	736.49
590.186	732.99
590.637	727.79
591.088	714.09
591.538	701.09
591.989	703.09
592.439	692.79
592.89	685.99
593.34	672.79
593.791	679.39
594.241	668.39
594.692	672.49
595.142	668.89
595.593	660.69
596.043	667.09
596.493	680.99
596.943	687.09
597.394	691.69
597.844	683.69
598.294	695.19
598.744	704.69
599.195	740.69
599.645	772.79
600.095	811.09
600.545	854.09
600.995	918.79
601.445	966.59
601.895	1036.69
602.345	1077.69
602.795	1056.79
603.245	1011.09
603.695	962.59
604.145	908.89
604.594	871.99
605.044	804.19
605.494	756.39
605.944	709.39
606.393	702.49
606.843	695.49
607.293	692.39
607.743	692.29
608.192	710.99
608.642	726.89
609.091	720.69
609.541	733.09
609.99	730.99
610.44	724.39
610.889	686.29
611.339	653.89
611.788	657.89
612.238	657.99
612.687	667.39
613.136	682.79
613.586	700.99
614.035	692.49
614.484	711.69
614.933	710.09
615.383	722.69
615.832	706.29
616.281	688.09
616.73	636.89
617.179	623.89
617.628	613.09
618.077	591.49
618.526	580.89
618.975	581.99
619.424	578.99
619.873	574.19
620.322	569.69
620.771	568.89
621.22	565.49
621.669	552.39
622.118	553.79
622.567	550.79
623.015	534.09
623.464	533.19
623.913	535.69
624.361	516.29
624.81	514.49
625.259	523.09
625.707	520.49
626.156	510.89
626.604	529.39
627.053	536.89
627.501	523.69
627.95	534.99
628.398	536.19
628.847	532.29
629.295	528.99
629.744	538.29
630.192	528.79
630.64	535.89
631.089	527.39
631.537	538.39
631.985	548.79
632.433	557.79
632.881	568.19
633.33	622.89
633.778	596.39
634.226	527.79
634.674	529.39
635.122	536.19
635.57	560.39
636.018	591.19
636.466	535.99
636.914	520.79
637.362	539.89
637.81	533.39
638.258	548.09
638.705	543.39
639.153	564.89
639.601	570.19
640.049	601.49
640.497	617.49
640.944	649.19
641.392	603.79
641.84	572.49
642.287	538.89
642.735	528.99
643.182	529.39
643.63	524.99
644.078	534.29
644.525	548.49
644.973	555.59
645.42	570.29
645.867	583.99
646.315	591.29
646.762	604.49
647.21	640.19
647.657	656.99
648.104	701.49
648.551	725.19
648.999	784.39
649.446	848.79
649.893	936.59
650.34	1071.89
650.787	1287.49
651.234	1604.39
651.682	2081.99
652.129	2847.09
652.576	4116.99
653.023	6088.89
653.47	8367.99
653.917	10553.99
654.363	12282.29
654.81	13733.89
655.257	13092.69
655.704	8536.39
656.151	4981.79
656.598	3232.09
657.044	2290.79
657.491	1759.59
657.938	1382.49
658.385	1159.19
658.831	1013.09
659.278	901.09
659.724	792.69
660.171	735.99
660.618	673.69
661.064	645.59
661.511	614.19
661.957	607.29
662.404	588.19
662.85	608.29
663.296	579.49
663.743	518.59
664.189	493.79
664.635	493.69
665.082	497.49
665.528	487.59
665.974	473.29
666.42	474.39
666.867	462.99
667.313	448.49
667.759	445.29
668.205	439.39
668.651	444.49
669.097	451.99
669.543	469.99
669.989	434.29
670.435	419.29
670.881	414.49
671.327	416.39
671.773	429.29
672.219	448.79
672.665	501.19
673.11	537.29
673.556	580.19
674.002	618.39
674.448	603.99
674.893	502.99
675.339	437.59
675.785	404.99
676.23	383.39
676.676	360.69
677.122	358.59
677.567	344.99
678.013	332.79
678.458	327.79
678.904	316.09
679.349	318.99
679.794	323.09
680.24	323.49
680.685	312.29
681.131	321.59
681.576	320.49
682.021	322.99
682.466	315.29
682.912	321.29
683.357	320.49
683.802	350.09
684.247	377.89
684.692	411.79
685.137	462.39
685.583	490.29
686.028	513.99
686.473	473.49
686.918	410.99
687.363	383.49
687.807	360.49
688.252	335.79
688.697	320.19
689.142	307.69
689.587	301.59
690.032	294.19
690.477	310.09
690.921	313.69
691.366	342.89
691.811	360.29
692.255	394.79
692.7	411.89
693.145	458.59
693.589	619.49
694.034	1006.09
694.478	1392.39
694.923	1592.59
695.367	2093.99
695.812	1091.39
696.256	456.19
696.701	338.29
697.145	315.79
697.59	295.19
698.034	294.19
698.478	299.29
698.922	297.79
699.367	296.39
699.811	311.69
700.255	319.09
700.699	342.09
701.143	391.09
701.588	439.19
702.032	469.99
702.476	459.89
702.92	440.69
703.364	444.09
703.808	565.59
704.252	924.59
704.696	1299.79
705.14	1525.09
705.584	1959.29
706.027	980.39
706.471	471.49
706.915	352.49
707.359	317.09
707.803	288.59
708.246	282.19
708.69	277.89
709.134	287.29
709.577	275.09
710.021	284.99
710.465	281.89
710.908	274.49
711.352	270.19
711.795	287.89
712.239	320.89
712.682	350.39
713.126	379.79
713.569	426.39
714.012	336.79
714.456	299.09
714.899	276.79
715.342	244.69
715.786	236.49
716.229	236.99
716.672	238.19
717.115	223.79
717.558	224.49
718.002	219.49
718.445	231.79
718.888	268.39
719.331	276.89
719.774	279.29
720.217	270.89
720.66	252.29
721.103	241.19
721.546	230.09
721.989	224.89
722.432	206.59
722.874	218.19
723.317	208.99
723.76	204.99
724.203	234.99
724.645	288.59
725.088	396.39
725.531	510.99
725.974	591.29
726.416	506.69
726.859	277.89
727.301	223.89
727.744	207.79
728.187	210.09
728.629	215.79
729.071	218.89
729.514	231.19
729.956	242.59
730.399	253.59
730.841	268.09
731.283	254.39
731.726	234.79
732.168	235.79
732.61	241.29
733.053	258.79
733.495	275.69
733.937	316.29
734.379	351.59
734.821	392.59
735.263	484.19
735.705	727.69
736.148	1384.89
736.59	2317.59
737.032	2783.09
737.474	2281.89
737.916	732.19
738.357	387.19
738.799	296.19
739.241	275.49
739.683	257.89
740.125	269.09
740.567	272.49
741.008	291.69
741.45	291.99
741.892	280.99
742.334	310.89
742.775	330.79
743.217	305.19
743.658	246.19
744.1	226.29
744.542	238.89
744.983	282.29
745.425	310.29
745.866	318.59
746.307	259.99
746.749	263.79
747.19	290.59
747.632	405.69
748.073	759.39
748.514	1650.99
748.956	2564.69
749.397	3204.79
749.838	2656.99
750.279	2708.99
750.72	1363.29
751.162	496.09
751.603	295.69
752.044	226.49
752.485	199.59
752.926	192.89
753.367	183.29
753.808	175.59
754.249	169.89
754.69	176.19
755.131	164.39
755.572	170.99
756.013	170.99
756.453	179.59
756.894	166.89
757.335	170.89
757.776	176.59
758.216	179.89
758.657	186.79
759.098	180.49
759.538	205.89
759.979	230.29
760.42	326.09
760.86	604.99
761.301	1571.99
761.741	3900.79
762.182	5935.99
