Data from 20171114-ORNL-Ar_H_NY_Subt18_08-07-08-232.txt Node
Date: Tue Nov 14 08:07:08 EST 2017
User: Ender
Spectrometer: HR+D1039
Trigger mode: 0
Integration Time (sec): 2.730000E-2
Scans to average: 10
Electric dark correction enabled: true
Nonlinearity correction enabled: false
Boxcar width: 0
XAxis mode: Wavelengths
Number of Pixels in Spectrum: 2048
>>>>>Begin Spectral Data<<<<<
187.836	-5.16
188.309	-5.16
188.782	-5.16
189.255	5.84
189.728	1.44
190.201	4.44
190.674	0.84
191.147	5.34
191.619	-5.26
192.092	-0.36
192.565	-1.26
193.038	2.44
193.511	0.44
193.984	0.54
194.456	-1.26
194.929	0.84
195.402	-3.06
195.874	-5.86
196.347	-1.36
196.82	-1.56
197.292	6.14
197.765	3.84
198.237	-7.56
198.71	1.14
199.182	-5.16
199.655	4.04
200.127	-0.16
200.6	-3.56
201.072	-5.66
201.544	-4.36
202.017	1.24
202.489	-2.66
202.961	-7.06
203.433	-8.06
203.906	-8.06
204.378	-9.46
204.85	-2.36
205.322	-4.66
205.794	-4.76
206.266	-7.66
206.739	-11.66
207.211	5.24
207.683	-4.96
208.155	-4.76
208.627	-4.46
209.099	-2.86
209.57	-12.86
210.042	-5.96
210.514	-2.16
210.986	-5.26
211.458	-1.66
211.93	-4.66
212.402	-0.16
212.873	-6.66
213.345	-12.66
213.817	-14.36
214.288	-3.66
214.76	-13.36
215.232	1.54
215.703	-2.36
216.175	-5.56
216.646	-6.86
217.118	-12.66
217.589	-4.86
218.061	-4.06
218.532	-6.66
219.004	0.24
219.475	-3.46
219.946	-8.26
220.418	-7.96
220.889	-1.66
221.36	-2.46
221.832	-11.16
222.303	-6.06
222.774	0.84
223.245	-9.76
223.717	-11.76
224.188	0.14
224.659	-7.96
225.13	-2.36
225.601	-2.36
226.072	-4.26
226.543	0.34
227.014	-3.76
227.485	1.34
227.956	-3.66
228.427	-8.96
228.898	-4.86
229.369	4.44
229.839	-8.06
230.31	-6.96
230.781	-1.06
231.252	-1.96
231.722	-4.66
232.193	-0.06
232.664	-0.06
233.135	-1.66
233.605	0.14
234.076	-9.86
234.546	-1.86
235.017	-3.06
235.487	-0.56
235.958	-8.06
236.428	-5.96
236.899	-1.26
237.369	-8.16
237.84	-8.76
238.31	3.64
238.78	-5.16
239.251	-2.96
239.721	-0.66
240.191	-3.16
240.662	-7.16
241.132	-10.16
241.602	-6.46
242.072	-5.06
242.542	2.74
243.013	-2.86
243.483	2.64
243.953	-1.46
244.423	-1.16
244.893	-6.36
245.363	-0.06
245.833	-4.66
246.303	-2.16
246.773	-2.36
247.243	-1.36
247.712	-5.56
248.182	-0.56
248.652	-2.06
249.122	-6.46
249.592	-6.76
250.061	-0.86
250.531	5.64
251.001	-8.46
251.471	6.94
251.94	8.14
252.41	0.14
252.879	-5.36
253.349	7.34
253.818	1.04
254.288	-3.16
254.757	0.34
255.227	-3.56
255.696	1.04
256.166	1.84
256.635	-1.06
257.105	-2.36
257.574	-2.16
258.043	-3.56
258.513	-3.46
258.982	2.04
259.451	-10.76
259.92	-2.46
260.389	0.64
260.859	9.44
261.328	4.34
261.797	-1.76
262.266	3.54
262.735	0.64
263.204	6.14
263.673	-1.86
264.142	2.54
264.611	-10.86
265.08	-0.96
265.549	-2.26
266.018	4.34
266.487	-6.06
266.955	-4.86
267.424	-9.46
267.893	-3.36
268.362	-3.86
268.83	-3.56
269.299	5.44
269.768	1.34
270.236	-0.96
270.705	-2.36
271.174	5.34
271.642	2.84
272.111	1.74
272.579	-3.96
273.048	-3.66
273.516	-0.96
273.985	-0.46
274.453	12.14
274.922	8.04
275.39	6.34
275.858	-1.66
276.327	6.04
276.795	10.74
277.263	4.24
277.731	13.54
278.2	7.34
278.668	6.64
279.136	1.44
279.604	1.94
280.072	5.34
280.54	5.94
281.008	5.14
281.477	9.44
281.945	1.84
282.413	7.84
282.881	5.74
283.348	0.44
283.816	14.74
284.284	16.04
284.752	13.64
285.22	3.94
285.688	8.54
286.156	4.74
286.623	12.34
287.091	8.04
287.559	12.24
288.026	4.04
288.494	10.04
288.962	-2.46
289.429	1.84
289.897	9.44
290.364	6.94
290.832	10.44
291.3	6.74
291.767	8.04
292.234	12.24
292.702	7.04
293.169	15.74
293.637	12.94
294.104	9.14
294.571	3.64
295.039	3.54
295.506	11.44
295.973	12.14
296.44	5.84
296.908	7.14
297.375	10.64
297.842	7.34
298.309	6.54
298.776	5.24
299.243	12.14
299.71	7.04
300.177	11.54
300.644	16.74
301.111	9.24
301.578	17.34
302.045	9.64
302.512	16.44
302.979	18.44
303.446	23.34
303.913	6.74
304.379	8.14
304.846	19.34
305.313	19.74
305.78	20.24
306.246	15.74
306.713	15.14
307.18	16.14
307.646	17.54
308.113	19.14
308.579	15.04
309.046	20.14
309.512	25.54
309.979	14.54
310.445	22.24
310.912	21.64
311.378	22.34
311.845	27.04
312.311	22.34
312.777	23.74
313.244	27.04
313.71	24.64
314.176	22.64
314.642	20.54
315.109	22.64
315.575	25.54
316.041	27.04
316.507	20.44
316.973	27.04
317.439	24.84
317.905	21.74
318.371	33.14
318.837	24.74
319.303	28.84
319.769	30.14
320.235	28.14
320.701	28.24
321.167	22.74
321.633	18.74
322.099	27.74
322.564	33.84
323.03	34.44
323.496	30.64
323.962	33.14
324.427	29.04
324.893	35.14
325.359	29.74
325.824	27.44
326.29	27.64
326.755	35.34
327.221	30.14
327.686	27.34
328.152	40.24
328.617	36.84
329.083	42.94
329.548	45.34
330.014	42.94
330.479	34.84
330.944	32.44
331.41	32.54
331.875	42.44
332.34	38.24
332.805	37.24
333.271	39.44
333.736	28.44
334.201	40.94
334.666	40.54
335.131	38.54
335.596	40.64
336.061	39.74
336.526	32.84
336.991	40.74
337.456	50.04
337.921	39.04
338.386	39.04
338.851	38.04
339.316	41.54
339.781	46.54
340.246	43.34
340.711	40.04
341.175	41.94
341.64	36.04
342.105	44.34
342.569	44.24
343.034	49.24
343.499	50.54
343.963	42.24
344.428	53.64
344.893	47.94
345.357	44.94
345.822	46.34
346.286	55.14
346.751	62.94
347.215	56.94
347.679	66.44
348.144	73.74
348.608	68.84
349.073	53.14
349.537	60.74
350.001	68.04
350.465	76.14
350.93	66.14
351.394	71.84
351.858	65.84
352.322	69.44
352.786	68.54
353.25	76.44
353.715	86.74
354.179	91.34
354.643	99.24
355.107	99.24
355.571	86.04
356.035	83.54
356.498	102.14
356.962	96.94
357.426	108.24
357.89	90.34
358.354	82.44
358.818	70.74
359.281	64.94
359.745	67.14
360.209	70.54
360.673	65.54
361.136	72.14
361.6	76.54
362.064	67.04
362.527	67.24
362.991	83.84
363.454	71.84
363.918	68.94
364.381	71.54
364.845	71.94
365.308	78.94
365.772	78.94
366.235	83.54
366.698	76.04
367.162	76.24
367.625	72.64
368.088	75.44
368.552	79.14
369.015	78.54
369.478	82.74
369.941	92.84
370.404	81.74
370.867	91.34
371.331	84.34
371.794	99.34
372.257	87.94
372.72	99.14
373.183	90.44
373.646	88.44
374.109	81.54
374.572	96.34
375.035	92.24
375.497	91.94
375.96	94.14
376.423	91.64
376.886	98.94
377.349	99.74
377.811	97.34
378.274	91.94
378.737	94.04
379.199	100.24
379.662	105.54
380.125	103.94
380.587	95.24
381.05	96.04
381.512	100.84
381.975	121.34
382.437	108.44
382.9	109.14
383.362	117.74
383.825	117.24
384.287	111.84
384.75	107.14
385.212	109.54
385.674	121.04
386.136	120.54
386.599	111.44
387.061	114.94
387.523	120.64
387.985	114.64
388.447	124.64
388.91	115.44
389.372	119.54
389.834	122.54
390.296	116.74
390.758	122.74
391.22	130.44
391.682	136.24
392.144	140.84
392.606	134.74
393.068	134.84
393.529	141.64
393.991	132.34
394.453	130.14
394.915	123.44
395.377	129.94
395.838	128.94
396.3	127.54
396.762	135.04
397.224	131.44
397.685	130.94
398.147	131.64
398.608	127.24
399.07	125.74
399.531	128.64
399.993	135.54
400.454	149.04
400.916	142.14
401.377	137.64
401.839	141.24
402.3	144.54
402.762	157.94
403.223	168.14
403.684	160.64
404.145	157.54
404.607	160.24
405.068	157.54
405.529	156.74
405.99	180.94
406.451	165.64
406.913	171.24
407.374	157.14
407.835	155.84
408.296	165.74
408.757	168.54
409.218	181.94
409.679	166.64
410.14	177.04
410.601	169.84
411.062	169.54
411.522	179.44
411.983	177.04
412.444	168.84
412.905	176.44
413.366	182.14
413.826	195.24
414.287	218.84
414.748	261.84
415.208	257.24
415.669	213.24
416.13	210.14
416.59	206.64
417.051	215.24
417.511	226.74
417.972	241.84
418.432	253.24
418.893	291.34
419.353	255.44
419.814	208.44
420.274	181.24
420.734	175.04
421.195	195.84
421.655	201.04
422.115	193.54
422.576	195.04
423.036	205.44
423.496	208.34
423.956	218.74
424.416	239.54
424.876	267.34
425.336	263.04
425.797	264.34
426.257	249.54
426.717	242.54
427.177	232.44
427.637	217.64
428.097	230.84
428.556	241.44
429.016	269.44
429.476	256.14
429.936	270.04
430.396	274.64
430.856	287.44
431.315	309.64
431.775	339.24
432.235	368.04
432.694	342.74
433.154	350.74
433.614	380.84
434.073	322.84
434.533	287.34
434.993	270.34
435.452	271.54
435.912	295.84
436.371	281.84
436.83	272.54
437.29	261.34
437.749	245.54
438.209	245.44
438.668	271.54
439.127	286.54
439.587	268.34
440.046	248.94
440.505	254.64
440.964	271.84
441.424	317.84
441.883	304.74
442.342	255.24
442.801	232.24
443.26	227.74
443.719	222.84
444.178	223.24
444.637	213.84
445.096	233.34
445.555	225.84
446.014	232.04
446.473	232.64
446.932	242.34
447.391	235.84
447.849	240.04
448.308	235.44
448.767	227.84
449.226	245.04
449.685	244.34
450.143	263.24
450.602	251.44
451.061	241.34
451.519	237.04
451.978	247.74
452.436	244.04
452.895	246.94
453.353	257.84
453.812	245.14
454.27	249.84
454.729	247.24
455.187	240.74
455.646	251.24
456.104	253.24
456.562	269.64
457.021	273.34
457.479	263.54
457.937	285.94
458.395	278.44
458.854	264.24
459.312	260.94
459.77	280.34
460.228	268.64
460.686	248.24
461.144	262.54
461.602	261.44
462.06	252.94
462.518	267.84
462.976	265.34
463.434	268.84
463.892	273.94
464.35	288.24
464.808	300.24
465.266	277.04
465.724	287.94
466.181	295.24
466.639	290.04
467.097	305.34
467.555	323.94
468.012	315.64
468.47	315.44
468.928	335.44
469.385	353.24
469.843	364.54
470.3	364.94
470.758	371.24
471.215	387.84
471.673	419.44
472.13	416.04
472.588	428.54
473.045	387.54
473.503	391.94
473.96	408.64
474.417	424.44
474.875	452.84
475.332	482.44
475.789	475.64
476.246	476.64
476.704	491.24
477.161	518.64
477.618	540.34
478.075	568.94
478.532	631.34
478.989	695.54
479.446	806.54
479.903	774.24
480.36	804.64
480.817	851.94
481.274	945.24
481.731	1030.54
482.188	1104.44
482.645	1233.34
483.102	1315.54
483.558	1440.34
484.015	1486.94
484.472	1453.44
484.929	1421.74
485.385	1372.04
485.842	1346.44
486.299	1291.64
486.755	1255.64
487.212	1060.74
487.668	916.14
488.125	856.44
488.582	784.44
489.038	768.84
489.494	717.84
489.951	708.04
490.407	678.14
490.864	666.44
491.32	666.04
491.776	660.74
492.233	665.04
492.689	627.74
493.145	632.74
493.602	618.44
494.058	637.04
494.514	636.44
494.97	657.54
495.426	673.44
495.882	648.34
496.338	636.84
496.794	637.84
497.251	632.94
497.707	653.84
498.163	647.34
498.618	661.34
499.074	675.24
499.53	691.34
499.986	696.84
500.442	669.14
500.898	643.64
501.354	640.24
501.809	646.14
502.265	649.24
502.721	653.94
503.177	665.04
503.632	666.34
504.088	686.44
504.543	689.54
504.999	713.44
505.455	681.94
505.91	663.34
506.366	668.94
506.821	661.54
507.277	659.64
507.732	662.04
508.187	647.14
508.643	661.04
509.098	669.04
509.553	688.44
510.009	704.54
510.464	704.34
510.919	715.44
511.375	725.24
511.83	740.44
512.285	759.54
512.74	793.94
513.195	818.34
513.65	803.94
514.105	800.14
514.56	800.94
515.015	820.04
515.47	820.94
515.925	823.54
516.38	827.34
516.835	825.94
517.29	816.24
517.745	807.94
518.2	795.74
518.655	787.64
519.109	770.54
519.564	772.24
520.019	761.54
520.474	760.74
520.928	766.64
521.383	760.74
521.838	740.44
522.292	749.74
522.747	746.24
523.201	746.54
523.656	728.84
524.11	719.74
524.565	725.14
525.019	727.14
525.474	723.84
525.928	725.64
526.382	728.34
526.837	726.64
527.291	732.54
527.745	735.84
528.2	729.24
528.654	722.14
529.108	726.34
529.562	720.24
530.016	717.54
530.47	732.54
530.925	714.74
531.379	721.84
531.833	736.44
532.287	732.54
532.741	723.34
533.195	736.24
533.649	747.74
534.103	748.44
534.556	743.44
535.01	749.74
535.464	740.44
535.918	753.74
536.372	742.44
536.826	752.84
537.279	744.24
537.733	747.44
538.187	742.04
538.64	749.94
539.094	757.44
539.548	764.54
540.001	763.54
540.455	763.04
540.908	763.84
541.362	780.34
541.815	784.74
542.269	796.34
542.722	796.94
543.175	810.24
543.629	812.64
544.082	830.84
544.536	827.04
544.989	820.74
545.442	827.54
545.895	833.24
546.349	828.44
546.802	832.14
547.255	841.84
547.708	842.24
548.161	860.54
548.614	866.24
549.067	875.14
549.52	856.94
549.973	860.44
550.426	842.94
550.879	834.34
551.332	837.34
551.785	837.54
552.238	849.24
552.691	854.84
553.144	889.14
553.596	886.24
554.049	906.24
554.502	948.04
554.955	965.64
555.407	953.24
555.86	928.94
556.313	941.44
556.765	926.64
557.218	917.44
557.67	912.44
558.123	919.74
558.576	916.54
559.028	930.24
559.48	925.44
559.933	910.54
560.385	892.84
560.838	845.34
561.29	835.64
561.742	822.84
562.195	808.34
562.647	807.14
563.099	821.94
563.551	814.44
564.004	822.04
564.456	807.84
564.908	806.04
565.36	786.84
565.812	766.74
566.264	745.54
566.716	756.54
567.168	738.74
567.62	743.74
568.072	728.04
568.524	726.74
568.976	730.34
569.428	706.04
569.88	715.24
570.332	712.04
570.784	723.84
571.235	714.74
571.687	731.84
572.139	745.84
572.59	746.64
573.042	750.04
573.494	751.34
573.945	745.84
574.397	718.54
574.849	733.14
575.3	729.24
575.752	726.14
576.203	717.24
576.655	721.84
577.106	701.44
577.557	694.04
578.009	708.54
578.46	706.24
578.912	692.24
579.363	702.34
579.814	698.74
580.265	688.74
580.717	704.74
581.168	709.04
581.619	704.84
582.07	707.54
582.521	698.54
582.972	698.54
583.423	704.44
583.875	705.04
584.326	716.84
584.777	722.34
585.227	735.54
585.678	749.84
586.129	759.64
586.58	782.64
587.031	798.54
587.482	834.64
587.933	842.04
588.384	829.34
588.834	816.64
589.285	807.84
589.736	815.34
590.186	809.74
590.637	799.54
591.088	772.64
591.538	758.54
591.989	754.24
592.439	751.74
592.89	756.64
593.34	741.84
593.791	738.14
594.241	724.64
594.692	729.94
595.142	726.54
595.593	723.14
596.043	735.84
596.493	736.14
596.943	732.64
597.394	745.64
597.844	748.34
598.294	756.84
598.744	788.04
599.195	817.34
599.645	857.34
600.095	894.34
600.545	955.14
600.995	1010.34
601.445	1061.54
601.895	1127.74
602.345	1184.24
602.795	1164.94
603.245	1128.94
603.695	1073.24
604.145	1003.74
604.594	957.04
605.044	895.64
605.494	833.34
605.944	786.84
606.393	765.74
606.843	755.14
607.293	760.94
607.743	748.64
608.192	772.14
608.642	779.94
609.091	790.84
609.541	794.94
609.99	791.44
610.44	801.64
610.889	738.44
611.339	712.74
611.788	700.34
612.238	706.34
612.687	720.24
613.136	722.94
613.586	727.64
614.035	726.94
614.484	729.44
614.933	732.04
615.383	735.14
615.832	729.34
616.281	722.14
616.73	699.84
617.179	670.94
617.628	660.54
618.077	651.04
618.526	638.54
618.975	632.54
619.424	636.24
619.873	639.54
620.322	630.14
620.771	627.94
621.22	630.04
621.669	609.94
622.118	613.24
622.567	600.04
623.015	591.54
623.464	586.74
623.913	580.94
624.361	577.94
624.81	576.34
625.259	570.84
625.707	574.64
626.156	571.24
626.604	585.74
627.053	585.04
627.501	582.34
627.95	592.24
628.398	611.14
628.847	585.84
629.295	591.54
629.744	596.34
630.192	583.44
630.64	579.34
631.089	565.64
631.537	555.74
631.985	547.74
632.433	555.04
632.881	542.54
633.33	552.44
633.778	547.84
634.226	541.64
634.674	559.94
635.122	556.94
635.57	570.04
636.018	581.34
636.466	578.14
636.914	569.14
637.362	586.24
637.81	597.34
638.258	600.04
638.705	596.44
639.153	629.84
639.601	639.94
640.049	660.64
640.497	695.14
640.944	715.44
641.392	667.94
641.84	627.54
642.287	605.24
642.735	578.34
643.182	582.34
643.63	593.54
644.078	577.04
644.525	596.94
644.973	597.34
645.42	604.54
645.867	631.64
646.315	643.74
646.762	674.44
647.21	704.64
647.657	717.54
648.104	747.54
648.551	766.14
648.999	824.24
649.446	906.04
649.893	986.34
650.34	1133.64
650.787	1335.74
651.234	1648.44
651.682	2125.04
652.129	2868.84
652.576	4082.04
653.023	5955.24
653.47	8030.64
653.917	9999.04
654.363	11528.84
654.81	12710.94
655.257	12019.44
655.704	7985.84
656.151	4811.44
656.598	3175.04
657.044	2266.24
657.491	1761.64
657.938	1425.04
658.385	1200.74
658.831	1052.24
659.278	944.54
659.724	838.64
660.171	785.84
660.618	728.04
661.064	694.84
661.511	676.84
661.957	658.04
662.404	658.04
662.85	666.34
663.296	623.84
663.743	571.44
664.189	557.84
664.635	544.44
665.082	544.94
665.528	548.04
665.974	528.44
666.42	526.54
666.867	523.94
667.313	498.04
667.759	478.14
668.205	458.14
668.651	461.34
669.097	459.34
669.543	455.64
669.989	465.64
670.435	463.04
670.881	458.74
671.327	466.24
671.773	491.14
672.219	509.44
672.665	570.24
673.11	612.84
673.556	660.14
674.002	688.64
674.448	678.54
674.893	572.14
675.339	496.64
675.785	446.94
676.23	437.54
676.676	415.24
677.122	399.84
677.567	388.54
678.013	380.34
678.458	379.74
678.904	377.84
679.349	367.94
679.794	373.54
680.24	370.94
680.685	360.04
681.131	361.44
681.576	360.84
682.021	368.04
682.466	364.84
682.912	364.64
683.357	373.24
683.802	399.54
684.247	432.74
684.692	469.64
685.137	520.44
685.583	554.64
686.028	587.44
686.473	544.44
686.918	466.44
687.363	438.84
687.807	406.84
688.252	383.84
688.697	376.54
689.142	358.74
689.587	347.04
690.032	339.64
690.477	356.84
690.921	372.64
691.366	401.44
691.811	416.14
692.255	445.14
692.7	480.64
693.145	519.04
693.589	732.94
694.034	1198.14
694.478	1614.44
694.923	1815.24
695.367	2355.44
695.812	1249.84
696.256	517.54
696.701	393.54
697.145	361.24
697.59	340.04
698.034	337.24
698.478	341.44
698.922	339.54
699.367	335.74
699.811	349.24
700.255	365.04
700.699	397.64
701.143	440.24
701.588	498.84
702.032	528.94
702.476	533.14
702.92	512.54
703.364	510.14
703.808	679.04
704.252	1099.54
704.696	1530.74
705.14	1755.14
705.584	2239.44
706.027	1121.84
706.471	547.54
706.915	415.94
707.359	366.74
707.803	328.14
708.246	324.74
708.69	322.14
709.134	325.74
709.577	311.74
710.021	320.04
710.465	324.64
710.908	315.14
711.352	311.04
711.795	326.84
712.239	369.04
712.682	392.44
713.126	425.74
713.569	464.44
714.012	367.64
714.456	312.94
714.899	295.74
715.342	277.94
715.786	271.54
716.229	266.24
716.672	268.94
717.115	258.34
717.558	259.74
718.002	264.44
718.445	277.14
718.888	300.44
719.331	313.14
719.774	322.74
720.217	313.04
720.66	297.74
721.103	284.24
721.546	266.84
721.989	254.94
722.432	236.74
722.874	246.14
723.317	235.84
723.76	244.54
724.203	265.04
724.645	339.54
725.088	467.24
725.531	588.14
725.974	667.94
726.416	571.54
726.859	319.64
727.301	252.34
727.744	244.34
728.187	241.94
728.629	248.24
729.071	256.94
729.514	269.54
729.956	285.04
730.399	285.54
730.841	291.94
731.283	284.74
731.726	272.44
732.168	271.54
732.61	278.44
733.053	296.34
733.495	330.74
733.937	364.94
734.379	418.64
734.821	454.14
735.263	573.44
735.705	882.94
736.148	1679.54
736.59	2741.74
737.032	3224.24
737.474	2607.14
737.916	862.24
738.357	449.04
738.799	336.24
739.241	307.34
739.683	299.44
740.125	308.34
740.567	314.54
741.008	331.34
741.45	324.64
741.892	330.84
742.334	367.84
742.775	370.64
743.217	362.34
743.658	286.04
744.1	271.14
744.542	273.94
744.983	327.14
745.425	354.64
745.866	357.04
746.307	293.74
746.749	288.84
747.19	341.34
747.632	473.54
748.073	938.44
748.514	1984.84
748.956	2990.44
749.397	3761.64
749.838	3124.04
750.279	3107.64
750.72	1589.34
751.162	572.64
751.603	335.44
752.044	261.24
752.485	225.04
752.926	221.74
753.367	210.64
753.808	202.74
754.249	193.84
754.69	197.14
755.131	190.54
755.572	189.14
756.013	179.24
756.453	188.84
756.894	199.04
757.335	200.84
757.776	203.54
758.216	206.94
758.657	209.14
759.098	215.94
759.538	235.14
759.979	287.74
760.42	398.04
760.86	739.04
761.301	1940.34
761.741	4679.04
762.182	6751.24
762.622	4787.84
763.063	1391.64
763.503	563.94
