Data from 20171114-ORNL-Ar_H_NY_Subt18_08-08-54-448.txt Node
Date: Tue Nov 14 08:08:54 EST 2017
User: Ender
Spectrometer: HR+D1039
Trigger mode: 0
Integration Time (sec): 2.730000E-2
Scans to average: 10
Electric dark correction enabled: true
Nonlinearity correction enabled: false
Boxcar width: 0
XAxis mode: Wavelengths
Number of Pixels in Spectrum: 2048
>>>>>Begin Spectral Data<<<<<
187.836	0.84
188.309	0.84
188.782	0.84
189.255	-3.86
189.728	-1.56
190.201	8.54
190.674	5.34
191.147	-2.76
191.619	-5.96
192.092	-1.36
192.565	5.44
193.038	-3.86
193.511	-1.16
193.984	-0.46
194.456	-2.46
194.929	2.44
195.402	0.04
195.874	0.74
196.347	-6.36
196.82	-11.16
197.292	4.24
197.765	-0.66
198.237	-5.26
198.71	1.04
199.182	-4.56
199.655	0.14
200.127	1.84
200.6	-9.86
201.072	-3.06
201.544	-8.16
202.017	-1.16
202.489	3.54
202.961	-2.16
203.433	-7.76
203.906	-14.26
204.378	-9.56
204.85	-6.06
205.322	-11.36
205.794	-4.46
206.266	-5.86
206.739	-12.56
207.211	-2.76
207.683	-7.76
208.155	-4.76
208.627	-3.16
209.099	-3.76
209.57	-11.96
210.042	-14.06
210.514	-2.36
210.986	-2.56
211.458	-9.06
211.93	-7.06
212.402	-1.46
212.873	-2.16
213.345	-11.26
213.817	-17.96
214.288	-6.56
214.76	-11.66
215.232	-5.66
215.703	-1.56
216.175	-3.06
216.646	-0.46
217.118	-10.66
217.589	-5.56
218.061	-3.76
218.532	-11.36
219.004	-4.56
219.475	-8.26
219.946	-3.96
220.418	-5.86
220.889	-4.56
221.36	-2.76
221.832	-5.56
222.303	-8.46
222.774	-1.16
223.245	-12.86
223.717	-8.96
224.188	-4.26
224.659	-7.96
225.13	-10.06
225.601	7.04
226.072	-0.26
226.543	0.74
227.014	-5.26
227.485	-6.86
227.956	-3.86
228.427	-2.16
228.898	0.94
229.369	0.44
229.839	-3.16
230.31	-11.26
230.781	0.54
231.252	0.74
231.722	-9.16
232.193	-2.96
232.664	-4.36
233.135	-11.16
233.605	-7.46
234.076	-11.26
234.546	-4.16
235.017	-1.26
235.487	-5.66
235.958	-5.16
236.428	-7.06
236.899	-5.76
237.369	-4.86
237.84	-6.16
238.31	-1.86
238.78	-1.66
239.251	-4.76
239.721	-2.46
240.191	-6.36
240.662	-9.16
241.132	2.64
241.602	-7.86
242.072	-5.26
242.542	1.54
243.013	-0.26
243.483	-5.36
243.953	2.14
244.423	-3.26
244.893	-7.66
245.363	-2.66
245.833	-1.56
246.303	-1.76
246.773	5.44
247.243	-2.66
247.712	-4.26
248.182	-2.56
248.652	2.04
249.122	-8.46
249.592	1.14
250.061	7.34
250.531	11.84
251.001	-3.96
251.471	7.34
251.94	5.14
252.41	-4.56
252.879	-3.86
253.349	4.24
253.818	8.24
254.288	-3.36
254.757	-3.26
255.227	-11.56
255.696	-0.46
256.166	4.04
256.635	0.44
257.105	1.54
257.574	-0.46
258.043	-4.46
258.513	2.04
258.982	4.24
259.451	-1.66
259.92	-2.76
260.389	1.04
260.859	8.24
261.328	-4.36
261.797	4.74
262.266	0.14
262.735	3.34
263.204	3.34
263.673	-6.76
264.142	6.94
264.611	-3.76
265.08	-1.06
265.549	-3.36
266.018	-2.56
266.487	-8.96
266.955	-8.66
267.424	-6.56
267.893	-4.56
268.362	-3.96
268.83	-2.46
269.299	1.04
269.768	-2.76
270.236	1.44
270.705	-7.26
271.174	-4.36
271.642	0.74
272.111	-2.76
272.579	-1.36
273.048	3.94
273.516	5.34
273.985	9.24
274.453	6.14
274.922	3.84
275.39	2.44
275.858	-2.86
276.327	4.64
276.795	12.04
277.263	0.24
277.731	12.44
278.2	16.14
278.668	12.44
279.136	9.34
279.604	4.24
280.072	4.04
280.54	3.64
281.008	4.04
281.477	3.14
281.945	3.64
282.413	7.14
282.881	5.24
283.348	-4.96
283.816	6.84
284.284	0.34
284.752	9.74
285.22	5.34
285.688	9.54
286.156	0.34
286.623	18.44
287.091	11.34
287.559	9.54
288.026	7.64
288.494	8.64
288.962	-6.46
289.429	7.64
289.897	16.54
290.364	11.34
290.832	9.44
291.3	5.44
291.767	12.34
292.234	10.64
292.702	7.34
293.169	10.54
293.637	15.14
294.104	16.84
294.571	-2.86
295.039	9.34
295.506	9.14
295.973	12.04
296.44	6.54
296.908	8.64
297.375	10.04
297.842	7.74
298.309	4.74
298.776	13.94
299.243	13.64
299.71	1.74
300.177	14.14
300.644	15.44
301.111	6.54
301.578	10.14
302.045	6.84
302.512	14.24
302.979	13.24
303.446	14.44
303.913	14.54
304.379	10.14
304.846	17.44
305.313	19.94
305.78	16.54
306.246	14.24
306.713	13.04
307.18	18.54
307.646	18.14
308.113	14.94
308.579	16.64
309.046	21.64
309.512	21.94
309.979	12.64
310.445	18.94
310.912	21.04
311.378	23.14
311.845	23.94
312.311	18.74
312.777	18.24
313.244	18.54
313.71	26.54
314.176	19.44
314.642	19.64
315.109	22.24
315.575	24.34
316.041	26.74
316.507	22.54
316.973	26.24
317.439	24.64
317.905	25.54
318.371	20.44
318.837	26.54
319.303	27.24
319.769	20.04
320.235	17.44
320.701	18.64
321.167	27.74
321.633	19.44
322.099	24.24
322.564	27.54
323.03	21.44
323.496	32.54
323.962	26.14
324.427	26.04
324.893	25.24
325.359	21.14
325.824	30.14
326.29	26.24
326.755	30.74
327.221	29.54
327.686	27.44
328.152	31.34
328.617	30.04
329.083	33.94
329.548	35.24
330.014	36.74
330.479	30.24
330.944	34.34
331.41	26.84
331.875	36.84
332.34	31.84
332.805	31.94
333.271	30.14
333.736	26.94
334.201	34.74
334.666	43.64
335.131	40.54
335.596	39.44
336.061	41.74
336.526	29.44
336.991	33.24
337.456	48.14
337.921	36.94
338.386	28.84
338.851	38.54
339.316	37.54
339.781	39.34
340.246	43.94
340.711	42.84
341.175	44.34
341.64	37.44
342.105	42.04
342.569	43.34
343.034	45.14
343.499	37.94
343.963	41.04
344.428	52.84
344.893	46.44
345.357	52.64
345.822	48.34
346.286	58.04
346.751	57.04
347.215	56.64
347.679	54.44
348.144	78.34
348.608	64.34
349.073	62.14
349.537	64.64
350.001	56.44
350.465	72.04
350.93	72.04
351.394	64.74
351.858	59.44
352.322	66.64
352.786	67.14
353.25	77.44
353.715	85.54
354.179	87.04
354.643	94.24
355.107	93.44
355.571	77.04
356.035	76.94
356.498	88.24
356.962	94.94
357.426	100.54
357.89	92.54
358.354	72.84
358.818	69.14
359.281	69.74
359.745	62.04
360.209	69.24
360.673	67.74
361.136	62.04
361.6	75.74
362.064	66.14
362.527	68.94
362.991	72.64
363.454	68.64
363.918	64.44
364.381	66.24
364.845	72.74
365.308	75.44
365.772	77.34
366.235	75.34
366.698	66.34
367.162	74.64
367.625	66.64
368.088	74.94
368.552	73.54
369.015	75.24
369.478	80.24
369.941	86.14
370.404	78.84
370.867	80.84
371.331	87.04
371.794	90.74
372.257	84.84
372.72	96.94
373.183	92.14
373.646	82.84
374.109	86.84
374.572	88.44
375.035	82.24
375.497	91.04
375.96	86.44
376.423	85.04
376.886	98.14
377.349	95.94
377.811	86.04
378.274	87.44
378.737	97.44
379.199	100.04
379.662	90.44
380.125	91.24
380.587	93.84
381.05	92.74
381.512	102.14
381.975	108.24
382.437	97.24
382.9	105.64
383.362	113.34
383.825	123.14
384.287	118.24
384.75	113.64
385.212	113.54
385.674	123.94
386.136	116.64
386.599	110.54
387.061	113.24
387.523	106.04
387.985	113.74
388.447	124.14
388.91	120.34
389.372	128.64
389.834	120.44
390.296	120.04
390.758	123.84
391.22	127.34
391.682	146.34
392.144	168.94
392.606	149.14
393.068	132.54
393.529	141.84
393.991	127.84
394.453	119.84
394.915	125.34
395.377	132.34
395.838	139.74
396.3	134.84
396.762	128.74
397.224	128.74
397.685	118.44
398.147	117.54
398.608	121.14
399.07	112.84
399.531	121.34
399.993	132.84
400.454	145.74
400.916	132.74
401.377	132.24
401.839	138.74
402.3	146.44
402.762	153.64
403.223	159.44
403.684	159.54
404.145	150.24
404.607	150.74
405.068	142.94
405.529	152.94
405.99	173.74
406.451	160.44
406.913	166.44
407.374	151.84
407.835	150.54
408.296	156.74
408.757	155.74
409.218	169.24
409.679	167.44
410.14	163.94
410.601	168.74
411.062	172.34
411.522	172.54
411.983	169.84
412.444	160.44
412.905	167.14
413.366	176.24
413.826	188.04
414.287	207.14
414.748	250.04
415.208	231.54
415.669	204.04
416.13	193.54
416.59	186.54
417.051	204.14
417.511	213.64
417.972	232.84
418.432	236.84
418.893	278.94
419.353	238.54
419.814	189.44
420.274	178.54
420.734	171.14
421.195	188.34
421.655	183.54
422.115	181.64
422.576	179.04
423.036	197.74
423.496	202.64
423.956	207.64
424.416	229.34
424.876	255.74
425.336	249.84
425.797	251.34
426.257	250.24
426.717	233.44
427.177	228.14
427.637	219.44
428.097	228.14
428.556	224.04
429.016	253.14
429.476	250.54
429.936	253.44
430.396	272.94
430.856	279.24
431.315	298.54
431.775	325.94
432.235	355.24
432.694	331.24
433.154	332.74
433.614	367.74
434.073	318.74
434.533	269.14
434.993	253.14
435.452	262.94
435.912	280.94
436.371	267.44
436.83	266.14
437.29	251.64
437.749	237.14
438.209	234.94
438.668	263.14
439.127	270.04
439.587	247.34
440.046	240.54
440.505	253.94
440.964	263.94
441.424	306.94
441.883	301.34
442.342	251.74
442.801	222.84
443.26	219.14
443.719	216.74
444.178	216.44
444.637	207.04
445.096	222.44
445.555	214.34
446.014	223.34
446.473	220.44
446.932	224.14
447.391	226.74
447.849	227.74
448.308	215.34
448.767	218.94
449.226	228.34
449.685	230.24
450.143	243.14
450.602	231.94
451.061	225.54
451.519	231.84
451.978	228.54
452.436	225.54
452.895	239.34
453.353	245.74
453.812	236.04
454.27	232.94
454.729	228.54
455.187	231.64
455.646	240.54
456.104	245.24
456.562	253.64
457.021	258.14
457.479	252.14
457.937	268.64
458.395	259.14
458.854	246.84
459.312	254.84
459.77	269.74
460.228	256.84
460.686	242.24
461.144	247.64
461.602	240.94
462.06	237.74
462.518	257.64
462.976	252.04
463.434	252.84
463.892	258.54
464.35	271.44
464.808	274.64
465.266	265.44
465.724	264.64
466.181	273.24
466.639	272.84
467.097	290.34
467.555	289.74
468.012	300.34
468.47	299.04
468.928	325.34
469.385	333.34
469.843	348.24
470.3	344.14
470.758	364.54
471.215	381.34
471.673	408.64
472.13	394.84
472.588	409.44
473.045	367.14
473.503	377.64
473.96	384.14
474.417	397.24
474.875	429.04
475.332	467.24
475.789	459.84
476.246	459.94
476.704	483.94
477.161	506.44
477.618	516.34
478.075	548.84
478.532	607.34
478.989	667.44
479.446	776.04
479.903	741.24
480.36	771.84
480.817	821.14
481.274	905.04
481.731	996.74
482.188	1089.14
482.645	1210.64
483.102	1288.24
483.558	1400.34
484.015	1448.34
484.472	1414.74
484.929	1371.14
485.385	1338.44
485.842	1293.94
486.299	1250.44
486.755	1202.64
487.212	1030.74
487.668	877.84
488.125	819.64
488.582	752.44
489.038	725.84
489.494	681.84
489.951	674.34
490.407	649.64
490.864	642.24
491.32	623.94
491.776	638.04
492.233	637.84
492.689	610.34
493.145	604.04
493.602	586.34
494.058	605.24
494.514	601.24
494.97	627.74
495.426	634.04
495.882	617.14
496.338	605.64
496.794	608.94
497.251	595.94
497.707	620.34
498.163	620.54
498.618	620.24
499.074	631.54
499.53	658.54
499.986	660.64
500.442	647.84
500.898	617.84
501.354	616.14
501.809	618.94
502.265	631.44
502.721	632.34
503.177	639.84
503.632	643.34
504.088	642.94
504.543	674.94
504.999	687.04
505.455	651.24
505.91	627.84
506.366	632.44
506.821	628.94
507.277	617.84
507.732	632.44
508.187	632.64
508.643	642.94
509.098	646.54
509.553	659.94
510.009	665.54
510.464	673.84
510.919	691.74
511.375	696.44
511.83	706.64
512.285	718.34
512.74	755.84
513.195	768.24
513.65	764.54
514.105	766.24
514.56	774.34
515.015	785.74
515.47	795.04
515.925	782.84
516.38	783.04
516.835	786.94
517.29	776.14
517.745	767.14
518.2	754.14
518.655	743.04
519.109	744.44
519.564	744.94
520.019	726.74
520.474	715.44
520.928	725.44
521.383	717.34
521.838	705.74
522.292	708.14
522.747	707.84
523.201	705.84
523.656	703.24
524.11	702.34
524.565	694.74
525.019	687.94
525.474	705.14
525.928	693.64
526.382	694.54
526.837	701.14
527.291	699.94
527.745	692.04
528.2	698.34
528.654	692.44
529.108	691.54
529.562	684.14
530.016	688.34
530.47	688.04
530.925	694.14
531.379	700.34
531.833	700.84
532.287	703.54
532.741	704.34
533.195	704.64
533.649	710.44
534.103	717.94
534.556	705.14
535.01	709.24
535.464	712.14
535.918	719.44
536.372	711.24
536.826	715.24
537.279	700.64
537.733	710.74
538.187	710.24
538.64	715.34
539.094	725.54
539.548	732.94
540.001	725.94
540.455	734.74
540.908	731.24
541.362	746.44
541.815	744.24
542.269	766.64
542.722	768.94
543.175	768.54
543.629	775.04
544.082	797.84
544.536	786.04
544.989	788.24
545.442	794.24
545.895	795.54
546.349	800.64
546.802	803.04
547.255	812.64
547.708	813.64
548.161	827.34
548.614	831.04
549.067	826.24
549.52	828.14
549.973	815.24
550.426	822.94
550.879	800.84
551.332	801.04
551.785	817.64
552.238	816.84
552.691	831.64
553.144	847.74
553.596	846.84
554.049	872.54
554.502	895.24
554.955	920.44
555.407	919.14
555.86	913.14
556.313	905.44
556.765	889.94
557.218	889.74
557.67	891.34
558.123	883.64
558.576	883.14
559.028	886.04
559.48	896.14
559.933	880.54
560.385	860.74
560.838	812.04
561.29	801.44
561.742	797.24
562.195	788.44
562.647	775.54
563.099	788.34
563.551	783.64
564.004	804.74
564.456	782.34
564.908	767.34
565.36	753.64
565.812	746.54
566.264	728.34
566.716	722.84
567.168	706.44
567.62	729.14
568.072	712.44
568.524	702.94
568.976	694.64
569.428	690.34
569.88	690.84
570.332	692.04
570.784	699.64
571.235	691.84
571.687	705.84
572.139	712.34
572.59	724.74
573.042	715.74
573.494	714.54
573.945	715.04
574.397	692.24
574.849	697.94
575.3	698.24
575.752	701.44
576.203	689.44
576.655	698.74
577.106	680.34
577.557	670.64
578.009	672.54
578.46	679.04
578.912	675.64
579.363	675.14
579.814	669.84
580.265	671.24
580.717	678.54
581.168	672.14
581.619	678.24
582.07	692.04
582.521	686.64
582.972	678.84
583.423	688.34
583.875	677.74
584.326	690.44
584.777	721.04
585.227	762.84
585.678	796.34
586.129	817.84
586.58	851.84
587.031	886.84
587.482	938.94
587.933	1006.94
588.384	939.04
588.834	847.54
589.285	800.64
589.736	787.64
590.186	785.24
590.637	779.94
591.088	748.54
591.538	750.04
591.989	742.64
592.439	741.44
592.89	735.04
593.34	716.94
593.791	721.34
594.241	708.74
594.692	710.64
595.142	712.34
595.593	700.04
596.043	715.24
596.493	719.64
596.943	717.24
597.394	725.94
597.844	734.74
598.294	739.64
598.744	760.44
599.195	793.34
599.645	844.34
600.095	883.74
600.545	931.14
600.995	992.24
601.445	1041.64
601.895	1110.04
602.345	1160.24
602.795	1146.04
603.245	1084.54
603.695	1021.04
604.145	975.04
604.594	931.54
605.044	873.24
605.494	830.94
605.944	774.14
606.393	749.94
606.843	741.14
607.293	743.14
607.743	740.04
608.192	763.44
608.642	780.84
609.091	776.24
609.541	780.34
609.99	783.74
610.44	769.84
610.889	726.94
611.339	712.94
611.788	703.84
612.238	704.84
612.687	712.34
613.136	713.34
613.586	736.44
614.035	726.34
614.484	739.44
614.933	733.44
615.383	728.24
615.832	724.64
616.281	728.54
616.73	692.54
617.179	676.24
617.628	659.54
618.077	645.44
618.526	633.44
618.975	636.14
619.424	625.44
619.873	622.54
620.322	621.64
620.771	622.94
621.22	619.94
621.669	604.14
622.118	602.14
622.567	595.04
623.015	575.94
623.464	577.04
623.913	572.14
624.361	559.24
624.81	558.84
625.259	563.34
625.707	557.14
626.156	572.04
626.604	584.74
627.053	572.94
627.501	582.64
627.95	577.14
628.398	598.14
628.847	578.44
629.295	586.24
629.744	586.64
630.192	581.14
630.64	576.34
631.089	558.24
631.537	557.44
631.985	551.84
632.433	564.24
632.881	558.84
633.33	571.94
633.778	563.44
634.226	544.44
634.674	551.04
635.122	554.74
635.57	575.74
636.018	588.94
636.466	581.14
636.914	571.44
637.362	583.74
637.81	592.34
638.258	602.54
638.705	593.34
639.153	622.44
639.601	628.74
640.049	652.24
640.497	684.94
640.944	707.34
641.392	661.64
641.84	625.44
642.287	597.24
642.735	570.54
643.182	577.04
643.63	570.94
644.078	577.94
644.525	588.34
644.973	592.74
645.42	599.04
645.867	629.54
646.315	642.24
646.762	667.64
647.21	698.64
647.657	713.34
648.104	753.24
648.551	770.34
648.999	828.74
649.446	913.84
649.893	994.14
650.34	1147.34
650.787	1369.04
651.234	1685.54
651.682	2169.94
652.129	2960.94
652.576	4216.24
653.023	6175.64
653.47	8369.04
653.917	10293.34
654.363	11768.84
654.81	12913.64
655.257	12266.84
655.704	8101.74
656.151	4880.44
656.598	3205.54
657.044	2295.34
657.491	1784.44
657.938	1441.84
658.385	1203.24
658.831	1050.04
659.278	946.74
659.724	843.04
660.171	801.24
660.618	723.94
661.064	688.34
661.511	673.44
661.957	657.94
662.404	655.44
662.85	651.94
663.296	634.04
663.743	562.64
664.189	548.84
664.635	546.04
665.082	544.54
665.528	534.94
665.974	528.24
666.42	518.24
666.867	520.84
667.313	498.04
667.759	475.14
668.205	462.04
668.651	464.04
669.097	458.94
669.543	458.74
669.989	466.94
670.435	466.94
670.881	457.84
671.327	460.24
671.773	482.54
672.219	514.04
672.665	570.74
673.11	611.44
673.556	659.24
674.002	693.84
674.448	678.84
674.893	569.74
675.339	490.54
675.785	457.84
676.23	433.94
676.676	415.14
677.122	391.74
677.567	380.44
678.013	386.14
678.458	371.14
678.904	369.44
679.349	363.14
679.794	366.54
680.24	364.14
680.685	367.04
681.131	360.24
681.576	362.64
682.021	361.04
682.466	361.24
682.912	362.44
683.357	366.74
683.802	397.64
684.247	434.74
684.692	478.64
685.137	510.64
685.583	559.94
686.028	590.34
686.473	540.64
686.918	454.64
687.363	432.34
687.807	410.34
688.252	377.74
688.697	369.94
689.142	349.14
689.587	346.24
690.032	331.84
690.477	361.64
690.921	364.54
691.366	397.04
691.811	414.54
692.255	447.74
692.7	483.04
693.145	533.44
693.589	758.24
694.034	1218.84
694.478	1623.94
694.923	1791.54
695.367	2317.94
695.812	1231.64
696.256	514.94
696.701	384.04
697.145	349.34
697.59	340.54
698.034	331.24
698.478	331.54
698.922	330.44
699.367	330.84
699.811	344.64
700.255	369.84
700.699	401.24
701.143	444.84
701.588	498.64
702.032	536.74
702.476	531.14
702.92	512.84
703.364	523.64
703.808	685.54
704.252	1126.64
704.696	1538.74
705.14	1741.94
705.584	2209.54
706.027	1123.64
706.471	546.34
706.915	416.34
707.359	367.84
707.803	326.54
708.246	321.34
708.69	325.84
709.134	327.14
709.577	323.84
710.021	327.14
710.465	315.44
710.908	310.64
711.352	310.44
711.795	320.34
712.239	365.54
712.682	402.64
713.126	433.44
713.569	476.84
714.012	373.74
714.456	323.94
714.899	303.84
715.342	273.24
715.786	273.24
716.229	269.04
716.672	268.24
717.115	256.94
717.558	254.14
718.002	259.74
718.445	270.34
718.888	300.34
719.331	297.54
719.774	325.04
720.217	319.74
720.66	295.44
721.103	278.64
721.546	255.84
721.989	255.94
722.432	235.94
722.874	244.34
723.317	233.74
723.76	244.44
724.203	267.34
724.645	340.24
725.088	467.94
725.531	604.84
725.974	671.24
726.416	572.84
726.859	311.34
727.301	252.74
727.744	242.24
728.187	230.74
728.629	249.34
729.071	246.74
729.514	267.44
729.956	288.84
730.399	295.94
730.841	305.24
731.283	281.84
731.726	275.54
732.168	276.04
732.61	269.14
733.053	293.64
733.495	328.14
733.937	361.14
734.379	429.64
734.821	458.34
735.263	582.34
735.705	910.44
736.148	1712.94
736.59	2765.94
737.032	3140.14
737.474	2562.14
737.916	856.64
738.357	451.74
738.799	342.74
739.241	311.84
739.683	299.14
740.125	315.34
740.567	312.84
741.008	330.14
741.45	328.44
741.892	331.94
742.334	370.64
742.775	378.54
743.217	361.54
743.658	285.54
744.1	269.04
744.542	280.34
744.983	331.04
745.425	360.04
745.866	357.64
746.307	298.24
746.749	290.74
747.19	347.04
747.632	493.34
748.073	986.44
748.514	2028.64
748.956	3008.64
749.397	3793.84
749.838	3119.04
750.279	3054.44
750.72	1574.24
751.162	572.04
751.603	334.84
752.044	254.94
752.485	224.34
752.926	220.64
753.367	215.34
753.808	203.04
754.249	205.44
754.69	197.04
755.131	192.74
755.572	189.94
756.013	190.44
756.453	189.84
756.894	193.34
757.335	195.14
757.776	201.64
758.216	200.44
758.657	205.04
759.098	206.74
759.538	236.24
759.979	278.24
760.42	394.14
760.86	786.64
761.301	2036.04
761.741	4790.84
762.182	6618.24
762.622	4697.34
763.063	1379.44
