Data from 20171114-ORNL-Ar_H_NY_Subt18_08-07-51-908.txt Node
Date: Tue Nov 14 08:07:51 EST 2017
User: Ender
Spectrometer: HR+D1039
Trigger mode: 0
Integration Time (sec): 2.730000E-2
Scans to average: 10
Electric dark correction enabled: true
Nonlinearity correction enabled: false
Boxcar width: 0
XAxis mode: Wavelengths
Number of Pixels in Spectrum: 2048
>>>>>Begin Spectral Data<<<<<
187.836	-5.6
188.309	-5.6
188.782	-5.6
189.255	5.5
189.728	0.4
190.201	11.1
190.674	-0.3
191.147	2.2
191.619	-9
192.092	0.6
192.565	0.9
193.038	-2.4
193.511	4.4
193.984	-3.3
194.456	-5
194.929	2.5
195.402	-1.1
195.874	-0.9
196.347	-2.6
196.82	-2.5
197.292	6.2
197.765	-0.8
198.237	-6.3
198.71	2.5
199.182	-7
199.655	0.2
200.127	1.8
200.6	-5.9
201.072	-2.1
201.544	-7.1
202.017	3.4
202.489	4.5
202.961	2.3
203.433	-8.5
203.906	-9.5
204.378	-4.7
204.85	2.3
205.322	-2.6
205.794	0.6
206.266	-6.1
206.739	-8.2
207.211	8.1
207.683	-4.7
208.155	-7.5
208.627	-4.7
209.099	-2.1
209.57	-8
210.042	-5.6
210.514	-3.1
210.986	-3.7
211.458	-2
211.93	-4
212.402	1.1
212.873	-4.4
213.345	-11.6
213.817	-7.9
214.288	-4.5
214.76	-9
215.232	-4.8
215.703	-6
216.175	-3.3
216.646	-2
217.118	-9.1
217.589	-6.3
218.061	2
218.532	-2.6
219.004	-3.8
219.475	-1.3
219.946	-2.6
220.418	-5.8
220.889	4.2
221.36	7.6
221.832	-4.1
222.303	-10
222.774	-8.5
223.245	-4.8
223.717	-5.5
224.188	-4
224.659	-8.8
225.13	-5.6
225.601	-2.4
226.072	-0.9
226.543	-1.1
227.014	-5.3
227.485	-5.4
227.956	-9.3
228.427	-7.6
228.898	-4
229.369	2.4
229.839	-3.3
230.31	-3.7
230.781	1
231.252	2.9
231.722	-1.1
232.193	-2.3
232.664	-3
233.135	-6.8
233.605	0
234.076	3.6
234.546	1.3
235.017	5.5
235.487	1
235.958	2.1
236.428	1.1
236.899	9.1
237.369	2.4
237.84	-3.2
238.31	7.7
238.78	2.7
239.251	0.4
239.721	0.9
240.191	-1.2
240.662	-0.9
241.132	3.6
241.602	-4.2
242.072	3
242.542	5.5
243.013	2.3
243.483	3
243.953	9
244.423	1.4
244.893	-2
245.363	3.1
245.833	5.5
246.303	2.7
246.773	5.4
247.243	0.3
247.712	4.5
248.182	9.4
248.652	4.7
249.122	1
249.592	11.3
250.061	13.2
250.531	28.5
251.001	21.3
251.471	22.2
251.94	17.8
252.41	1.6
252.879	4.3
253.349	11.1
253.818	12.2
254.288	2.7
254.757	2.2
255.227	3.9
255.696	6.2
256.166	1.9
256.635	3
257.105	14.1
257.574	8.7
258.043	1.9
258.513	10.1
258.982	16.8
259.451	7.1
259.92	5.9
260.389	11.2
260.859	20
261.328	6.5
261.797	14.4
262.266	13.3
262.735	12.4
263.204	7
263.673	2.6
264.142	8.1
264.611	-7.9
265.08	1.9
265.549	-2.4
266.018	3.8
266.487	3.8
266.955	-3.4
267.424	0.6
267.893	4.3
268.362	6.1
268.83	-0.2
269.299	2.9
269.768	4.7
270.236	-0.2
270.705	-0.3
271.174	1.2
271.642	6.9
272.111	5.7
272.579	20.9
273.048	21.8
273.516	31.5
273.985	31.6
274.453	19.1
274.922	24.4
275.39	6.6
275.858	9
276.327	7.7
276.795	20.2
277.263	1.4
277.731	26.1
278.2	51.3
278.668	56.1
279.136	43.4
279.604	16.8
280.072	17.1
280.54	10.8
281.008	10.9
281.477	14.5
281.945	17.4
282.413	13.1
282.881	15.6
283.348	9.4
283.816	17.4
284.284	11.8
284.752	17.7
285.22	17.1
285.688	15.6
286.156	17.9
286.623	45
287.091	47.6
287.559	34.1
288.026	19
288.494	13.6
288.962	1.4
289.429	11.6
289.897	19.6
290.364	23.9
290.832	25.3
291.3	16.7
291.767	19
292.234	18.6
292.702	10.1
293.169	19.2
293.637	21
294.104	17.6
294.571	7.6
295.039	5.8
295.506	11.1
295.973	19.4
296.44	12.1
296.908	18.8
297.375	12.4
297.842	17.6
298.309	12.6
298.776	12
299.243	17.8
299.71	13.4
300.177	20.3
300.644	17.4
301.111	15.5
301.578	21.7
302.045	13.3
302.512	23.1
302.979	24.4
303.446	23.5
303.913	19.4
304.379	16.1
304.846	27.9
305.313	25.6
305.78	20.8
306.246	23.5
306.713	32
307.18	27.7
307.646	24.1
308.113	26.9
308.579	21.6
309.046	27.4
309.512	27.2
309.979	16.3
310.445	28.7
310.912	25.5
311.378	33.6
311.845	22
312.311	30.1
312.777	30.6
313.244	31.8
313.71	34.4
314.176	30.3
314.642	29.2
315.109	29.6
315.575	36
316.041	35
316.507	35.7
316.973	36
317.439	33.7
317.905	39
318.371	33
318.837	31.8
319.303	25.1
319.769	29.8
320.235	28.6
320.701	33.8
321.167	35.2
321.633	30.5
322.099	37.7
322.564	40.7
323.03	37
323.496	40.1
323.962	41.3
324.427	32.5
324.893	35.3
325.359	33.1
325.824	34.7
326.29	36.1
326.755	36.1
327.221	39
327.686	33.5
328.152	45.1
328.617	36.9
329.083	45.6
329.548	48.4
330.014	44
330.479	37.7
330.944	43.9
331.41	42.4
331.875	35.4
332.34	36.2
332.805	37.3
333.271	43.4
333.736	41.7
334.201	48.3
334.666	51
335.131	51.6
335.596	52.2
336.061	48.8
336.526	41.1
336.991	42.3
337.456	53.1
337.921	48
338.386	43.2
338.851	38.5
339.316	44.8
339.781	45.8
340.246	49.2
340.711	46.3
341.175	48.8
341.64	44.5
342.105	45.8
342.569	51.1
343.034	56.2
343.499	54.1
343.963	49.5
344.428	58.9
344.893	61.3
345.357	56.6
345.822	61
346.286	64.4
346.751	63.2
347.215	62.6
347.679	73.2
348.144	95.3
348.608	72.3
349.073	69.1
349.537	69.8
350.001	74
350.465	78.6
350.93	73.5
351.394	76.7
351.858	67.6
352.322	79.8
352.786	80.5
353.25	94.8
353.715	101.7
354.179	97.4
354.643	118.9
355.107	118.4
355.571	101.2
356.035	100.2
356.498	111.7
356.962	114.9
357.426	124
357.89	111.8
358.354	84.8
358.818	81
359.281	70.4
359.745	74.2
360.209	71.1
360.673	73.3
361.136	72.3
361.6	87
362.064	79.2
362.527	77.8
362.991	82.5
363.454	74.5
363.918	78
364.381	73.8
364.845	80.9
365.308	82.4
365.772	84.3
366.235	80.1
366.698	73
367.162	86.9
367.625	83.7
368.088	79.5
368.552	84.8
369.015	87.1
369.478	86.5
369.941	99.6
370.404	89.6
370.867	106.6
371.331	104.1
371.794	107.1
372.257	107.4
372.72	111.2
373.183	109.1
373.646	95.9
374.109	100.1
374.572	104.8
375.035	108.5
375.497	102.6
375.96	101
376.423	91.6
376.886	111.1
377.349	101
377.811	95.2
378.274	105
378.737	99.4
379.199	106.4
379.662	101.7
380.125	116.2
380.587	112.1
381.05	112.3
381.512	123.9
381.975	132.9
382.437	131.7
382.9	126.4
383.362	129.8
383.825	130.3
384.287	138
384.75	134.9
385.212	136.6
385.674	137.1
386.136	133.2
386.599	126.5
387.061	117.2
387.523	124
387.985	129.4
388.447	137.3
388.91	136.3
389.372	157
389.834	151.7
390.296	136.5
390.758	147.8
391.22	162.1
391.682	208.2
392.144	292.4
392.606	231.4
393.068	169.5
393.529	174.7
393.991	154.2
394.453	144.2
394.915	154.7
395.377	190.1
395.838	215.6
396.3	144.6
396.762	140.9
397.224	128.8
397.685	126.3
398.147	132.2
398.608	127
399.07	127.3
399.531	127.9
399.993	136.8
400.454	147.8
400.916	143.5
401.377	136.9
401.839	142
402.3	145
402.762	160.7
403.223	175.7
403.684	164.4
404.145	163.5
404.607	155.4
405.068	159.1
405.529	162.1
405.99	181
406.451	174.6
406.913	170.4
407.374	163.4
407.835	156.4
408.296	166.3
408.757	167.4
409.218	185.9
409.679	178.3
410.14	167.2
410.601	172.2
411.062	180.6
411.522	190.5
411.983	190.6
412.444	178.9
412.905	177.1
413.366	173.4
413.826	187.7
414.287	210
414.748	252.9
415.208	239.1
415.669	203.4
416.13	191
416.59	199.9
417.051	202.4
417.511	215.7
417.972	229.1
418.432	239.5
418.893	283.1
419.353	244
419.814	193.8
420.274	178.6
420.734	168.1
421.195	193.6
421.655	198.4
422.115	185.4
422.576	183
423.036	197
423.496	201
423.956	208.2
424.416	223.4
424.876	255.8
425.336	247.6
425.797	254.6
426.257	245.9
426.717	236.9
427.177	229.7
427.637	215.8
428.097	225.6
428.556	241.6
429.016	265.3
429.476	250.6
429.936	273.9
430.396	266.6
430.856	291.5
431.315	303.3
431.775	339.4
432.235	368.4
432.694	340.8
433.154	354.5
433.614	377.5
434.073	330.5
434.533	274.9
434.993	273.5
435.452	272.3
435.912	291.3
436.371	282.9
436.83	281.9
437.29	267.9
437.749	249.7
438.209	240.6
438.668	264.4
439.127	280
439.587	259.7
440.046	246.3
440.505	256.2
440.964	269.7
441.424	311.4
441.883	304.2
442.342	251.4
442.801	217.6
443.26	222.9
443.719	221.2
444.178	214.4
444.637	201.2
445.096	216.8
445.555	216
446.014	213.8
446.473	225.5
446.932	222.5
447.391	221.9
447.849	218.9
448.308	219.8
448.767	219.8
449.226	228.7
449.685	227.9
450.143	241
450.602	228
451.061	222.9
451.519	220.9
451.978	227.8
452.436	225.2
452.895	230
453.353	246.8
453.812	238.7
454.27	231.3
454.729	231.5
455.187	238.5
455.646	239.8
456.104	238.8
456.562	255.4
457.021	255.2
457.479	254.3
457.937	268.7
458.395	253.3
458.854	246.8
459.312	248.1
459.77	273.8
460.228	251.4
460.686	245
461.144	243.1
461.602	239.1
462.06	237.3
462.518	246.2
462.976	255.9
463.434	246.5
463.892	253.2
464.35	262.3
464.808	283.3
465.266	256.1
465.724	268.1
466.181	264.8
466.639	266.7
467.097	283.8
467.555	295.5
468.012	293.6
468.47	294
468.928	324
469.385	333.7
469.843	334.3
470.3	335.6
470.758	354.4
471.215	371.1
471.673	392.4
472.13	398.1
472.588	409.6
473.045	365.4
473.503	369.2
473.96	385.1
474.417	392.3
474.875	419.7
475.332	460.8
475.789	445.7
476.246	463
476.704	475.6
477.161	499.4
477.618	509
478.075	543.4
478.532	602.9
478.989	675.7
479.446	788.6
479.903	762.7
480.36	803.7
480.817	848.6
481.274	950.8
481.731	1046.8
482.188	1142.8
482.645	1268.8
483.102	1390.8
483.558	1522.8
484.015	1574.8
484.472	1545.1
484.929	1497.2
485.385	1451.8
485.842	1405.7
486.299	1332.9
486.755	1274.2
487.212	1062.7
487.668	904.7
488.125	820.6
488.582	758.5
489.038	724.6
489.494	692.1
489.951	664
490.407	640.2
490.864	624.4
491.32	625
491.776	624.6
492.233	626.4
492.689	593.2
493.145	588
493.602	585.6
494.058	595.7
494.514	605.3
494.97	629.9
495.426	634.9
495.882	600
496.338	597.8
496.794	618.8
497.251	596.3
497.707	613.6
498.163	621.4
498.618	635.2
499.074	625.9
499.53	657.5
499.986	652.6
500.442	635.9
500.898	610.9
501.354	604.3
501.809	625.8
502.265	626.6
502.721	644.2
503.177	652.6
503.632	650.4
504.088	653.5
504.543	690.2
504.999	686.4
505.455	635.8
505.91	615.8
506.366	616.5
506.821	614.1
507.277	604
507.732	603.8
508.187	604.1
508.643	620.3
509.098	622.2
509.553	627
510.009	646.8
510.464	644
510.919	665.4
511.375	669.6
511.83	692.2
512.285	703.1
512.74	739.6
513.195	763.9
513.65	747.3
514.105	750.5
514.56	747.4
515.015	766
515.47	794
515.925	767.5
516.38	773.5
516.835	773
517.29	774.2
517.745	751
518.2	741.6
518.655	733.3
519.109	724.6
519.564	718.6
520.019	708.1
520.474	704.1
520.928	705.9
521.383	699.9
521.838	696.4
522.292	698.4
522.747	693.4
523.201	694.1
523.656	677.3
524.11	676.4
524.565	680
525.019	672.6
525.474	694.1
525.928	679.7
526.382	681.4
526.837	683
527.291	684.4
527.745	686.3
528.2	675.5
528.654	669.6
529.108	673.9
529.562	674.9
530.016	668.6
530.47	674.8
530.925	664.8
531.379	685.4
531.833	684.2
532.287	686.3
532.741	684
533.195	691.9
533.649	693.7
534.103	694.8
534.556	694.5
535.01	692.6
535.464	699.8
535.918	704.9
536.372	707.3
536.826	696.7
537.279	698.9
537.733	698.1
538.187	692.9
538.64	694
539.094	701.5
539.548	705.9
540.001	705
540.455	706.9
540.908	714.5
541.362	724
541.815	732.7
542.269	743.7
542.722	732.9
543.175	756
543.629	761.6
544.082	770
544.536	768.2
544.989	764.6
545.442	766.5
545.895	767.9
546.349	781.3
546.802	778.8
547.255	773.9
547.708	788.9
548.161	795.4
548.614	814.9
549.067	804.6
549.52	813.9
549.973	795.3
550.426	780.4
550.879	780
551.332	769.4
551.785	792.8
552.238	792.7
552.691	802.4
553.144	809.2
553.596	825.8
554.049	841
554.502	871.9
554.955	893.6
555.407	886.3
555.86	878.3
556.313	866
556.765	869.7
557.218	856.1
557.67	866.3
558.123	852.9
558.576	849.2
559.028	863.9
559.48	857.7
559.933	843.5
560.385	817.1
560.838	783.7
561.29	761.7
561.742	770.3
562.195	749.2
562.647	750.9
563.099	754.3
563.551	757.4
564.004	762.7
564.456	755.6
564.908	742.5
565.36	728.2
565.812	728.4
566.264	718.6
566.716	715.7
567.168	699.7
567.62	709.4
568.072	693.1
568.524	679.8
568.976	668.8
569.428	667.3
569.88	654.2
570.332	663.4
570.784	669.2
571.235	665.8
571.687	682.7
572.139	684.7
572.59	691.5
573.042	695.2
573.494	696.2
573.945	693.7
574.397	667.2
574.849	671.1
575.3	679.3
575.752	661.6
576.203	664.8
576.655	673.9
577.106	663.6
577.557	656.8
578.009	658.7
578.46	649.7
578.912	652.2
579.363	651.8
579.814	655.1
580.265	652
580.717	646.7
581.168	654.3
581.619	661
582.07	671.5
582.521	662.8
582.972	665.7
583.423	662.3
583.875	667.3
584.326	690.5
584.777	728.2
585.227	820.5
585.678	913.8
586.129	1009.3
586.58	1066.3
587.031	1159.7
587.482	1321.4
587.933	1505.5
588.384	1300
588.834	965.1
589.285	791.1
589.736	767.6
590.186	764.7
590.637	749.3
591.088	742.3
591.538	731.5
591.989	723.2
592.439	712.8
592.89	715.4
593.34	696.4
593.791	699.2
594.241	693.1
594.692	694.8
595.142	692.3
595.593	683.4
596.043	695.8
596.493	708.5
596.943	709
597.394	707.4
597.844	693.5
598.294	713.4
598.744	746.4
599.195	767
599.645	799.3
600.095	845.4
600.545	908.8
600.995	951.9
601.445	1009.7
601.895	1074.4
602.345	1114.1
602.795	1099.1
603.245	1044.5
603.695	995.4
604.145	947.5
604.594	895.3
605.044	838.3
605.494	780.2
605.944	736.3
606.393	732.8
606.843	716
607.293	730.8
607.743	735.4
608.192	736.3
608.642	750.5
609.091	749.1
609.541	761.6
609.99	762.5
610.44	756.9
610.889	710.6
611.339	696.5
611.788	678.4
612.238	688.9
612.687	705.6
613.136	712.8
613.586	734
614.035	732.3
614.484	750.4
614.933	736.6
615.383	750.6
615.832	740.7
616.281	716.8
616.73	683.8
617.179	659.4
617.628	649.5
618.077	617.9
618.526	615.2
618.975	607.3
619.424	610.1
619.873	591.2
620.322	605
620.771	604.6
621.22	588.9
621.669	582.9
622.118	578.3
622.567	580.9
623.015	565.6
623.464	562.6
623.913	554.1
624.361	539.3
624.81	547.9
625.259	555.1
625.707	546.6
626.156	545
626.604	560.1
627.053	553.5
627.501	558.5
627.95	562.3
628.398	569.4
628.847	564.2
629.295	557.8
629.744	569.3
630.192	561.6
630.64	563.7
631.089	558.1
631.537	577.2
631.985	591.9
632.433	607.7
632.881	617.4
633.33	667
633.778	647.5
634.226	573.6
634.674	575.7
635.122	576.2
635.57	595.5
636.018	621.4
636.466	576.2
636.914	547.9
637.362	561.5
637.81	575.5
638.258	568.8
638.705	569.7
639.153	602.5
639.601	609.5
640.049	630.4
640.497	659.3
640.944	679.1
641.392	639.4
641.84	601.4
642.287	573.8
642.735	561.2
643.182	572.2
643.63	573.6
644.078	575.5
644.525	588.1
644.973	589.3
645.42	603.9
645.867	615.1
646.315	630.1
646.762	664.6
647.21	687.2
647.657	717.7
648.104	749
648.551	775.9
648.999	842.4
649.446	911.8
649.893	1012.3
650.34	1155.9
650.787	1403
651.234	1727.2
651.682	2282.8
652.129	3146.1
652.576	4559.3
653.023	6713.3
653.47	9217.3
653.917	11415.5
654.363	13117.7
654.81	14437
655.257	13748.8
655.704	8960.5
656.151	5258.1
656.598	3416.5
657.044	2418.8
657.491	1842.1
657.938	1490.8
658.385	1238.3
658.831	1075.1
659.278	949.6
659.724	841.3
660.171	782.6
660.618	721.6
661.064	692.5
661.511	664.5
661.957	647.7
662.404	637.2
662.85	643.6
663.296	616.8
663.743	565.4
664.189	533
664.635	534.8
665.082	525.5
665.528	531.2
665.974	511.5
666.42	505
666.867	513
667.313	482.6
667.759	481.4
668.205	479.3
668.651	490.5
669.097	494.8
669.543	507
669.989	469.8
670.435	442.7
670.881	441.7
671.327	451.7
671.773	465.2
672.219	486.2
672.665	538.1
673.11	575.5
673.556	613.3
674.002	651.5
674.448	648.9
674.893	547.2
675.339	473.8
675.785	434.4
676.23	415.7
676.676	399.5
677.122	376.3
677.567	362.9
678.013	364.7
678.458	361.4
678.904	351.3
679.349	341.6
679.794	349.7
680.24	343.6
680.685	342.6
681.131	339.8
681.576	350.1
682.021	348.7
682.466	345.1
682.912	336.6
683.357	350.2
683.802	374.5
684.247	406.3
684.692	449.5
685.137	491.2
685.583	532
686.028	551.9
686.473	513.8
686.918	435.1
687.363	407.1
687.807	392.5
688.252	355.4
688.697	350.4
689.142	337.2
689.587	330.1
690.032	320.4
690.477	335.5
690.921	342.6
691.366	378.6
691.811	390.5
692.255	424.8
692.7	456.7
693.145	496.2
693.589	699.1
694.034	1126.7
694.478	1523.9
694.923	1710.2
695.367	2218
695.812	1171.4
696.256	486.9
696.701	361
697.145	336.6
697.59	326.2
698.034	318.6
698.478	324.3
698.922	315.2
699.367	325.2
699.811	334.1
700.255	356
700.699	385.4
701.143	422.4
701.588	475.8
702.032	501.7
702.476	508.5
702.92	490.1
703.364	486.3
703.808	640.2
704.252	1043.6
704.696	1443.6
705.14	1635
705.584	2080.8
706.027	1044.4
706.471	505.1
706.915	403.9
707.359	340.7
707.803	318.6
708.246	307.3
708.69	312.5
709.134	318.3
709.577	305.6
710.021	307.6
710.465	304.3
710.908	291.1
711.352	289.3
711.795	312.9
712.239	351.3
712.682	383.3
713.126	409.6
713.569	465.5
714.012	364.7
714.456	318.8
714.899	299.7
715.342	270.8
715.786	265.4
716.229	251.5
716.672	256.4
717.115	243.5
717.558	245.9
718.002	248.6
718.445	260.7
718.888	283.3
719.331	288.9
719.774	305.5
720.217	297.9
720.66	280.3
721.103	258.7
721.546	252.2
721.989	245.4
722.432	227.6
722.874	236.6
723.317	225.6
723.76	237.9
724.203	253.3
724.645	320.5
725.088	446.4
725.531	566.9
725.974	634
726.416	529.1
726.859	296
727.301	244.8
727.744	240.6
728.187	229.8
728.629	237.5
729.071	239.9
729.514	264.1
729.956	266.1
730.399	283.9
730.841	286.6
731.283	273.9
731.726	269.9
732.168	249.9
732.61	257.1
733.053	286.4
733.495	318.1
733.937	347.1
734.379	393.1
734.821	431.7
735.263	531.7
735.705	845.4
736.148	1586
736.59	2571.4
737.032	2985.2
737.474	2419.7
737.916	796.7
738.357	422
738.799	320.2
739.241	297
739.683	280.4
740.125	290.6
740.567	295.7
741.008	310.1
741.45	314.3
741.892	315.2
742.334	343
742.775	356.1
743.217	338.3
743.658	273.1
744.1	245.7
744.542	258
744.983	304.1
745.425	337.8
745.866	336.8
746.307	275.6
746.749	279.9
747.19	324.2
747.632	460.6
748.073	899.9
748.514	1877.7
748.956	2797.5
749.397	3512.7
749.838	2923.6
750.279	2893.9
750.72	1456
751.162	542.1
751.603	315.4
752.044	254.4
752.485	210.1
752.926	202.7
753.367	204.8
753.808	191.9
754.249	191
754.69	188.7
755.131	181.9
755.572	179.3
756.013	176.8
756.453	187.5
756.894	191.2
757.335	189.2
757.776	191.2
758.216	195.7
758.657	193.4
759.098	203.7
759.538	225.1
759.979	265
760.42	371
760.86	718.8
761.301	1853.7
761.741	4395.2
762.182	6230.9
762.622	4374.3
763.063	1272.7
763.503	520.5
763.943	341.8
764.384	341.9
764.824	406.3
765.264	436.8
765.705	308.2
766.145	206.3
766.585	183.7
767.025	173.4
767.465	191.8
767.906	249.1
768.346	318.1
768.786	337.1
769.226	268.9
769.666	318.3
770.106	637.3
770.546	1578.4
770.986	2602.6
771.426	2289.9
771.866	777.3
772.306	326.8
772.745	209.5
773.185	178.3
773.625	165.7
774.065	166.6
774.505	197.5
774.944	324.5
775.384	727.2
775.824	1279.1
776.263	1233
776.703	519.4
777.142	227.2
777.582	159.3
778.021	142.2
778.461	138.2
778.9	144.6
779.34	133.2
779.779	121.4
780.219	113.2
780.658	109
781.097	117.5
781.537	112.6
781.976	111.2
782.415	106
782.855	111.9
783.294	102.4
783.733	111.5
784.172	108.8
784.611	103.9
785.05	115.5
785.489	106.5
785.928	117.4
786.367	112.3
786.806	124.1
787.245	131.7
787.684	132
788.123	148.5
788.562	129.6
789.001	118
789.44	120.7
789.879	121.8
790.317	116.6
790.756	124.2
791.195	125.9
791.634	147.6
792.072	211.3
792.511	375.2
792.95	1018.7
793.388	2101.1
793.827	1883.4
794.265	668.3
794.704	284
795.142	184.8
795.581	153.2
796.019	137.3
796.458	127.9
796.896	116.3
797.334	133.7
797.773	160.2
798.211	220.1
798.649	445
799.087	1021.2
799.526	1578.8
799.964	1969.4
800.402	1944.7
800.84	736.9
801.278	295.8
801.716	178.9
802.154	152.6
802.592	146
803.03	139.4
803.468	132.6
803.906	140.9
804.344	153.9
804.782	135.8
805.22	130.1
805.658	128.3
806.096	146.7
806.533	156
806.971	172.6
807.409	219.8
807.847	318.9
