Data from 20171114-ORNL-Ar_H_NY_Subt18_08-04-37-822.txt Node
Date: Tue Nov 14 08:04:37 EST 2017
User: Ender
Spectrometer: HR+D1039
Trigger mode: 0
Integration Time (sec): 2.730000E-2
Scans to average: 10
Electric dark correction enabled: true
Nonlinearity correction enabled: false
Boxcar width: 0
XAxis mode: Wavelengths
Number of Pixels in Spectrum: 2048
>>>>>Begin Spectral Data<<<<<
187.836	-3.46
188.309	-3.46
188.782	-3.46
189.255	0.84
189.728	-3.86
190.201	2.34
190.674	0.04
191.147	4.54
191.619	-6.56
192.092	2.34
192.565	2.14
193.038	0.64
193.511	2.94
193.984	-1.66
194.456	-0.56
194.929	-1.96
195.402	1.24
195.874	0.94
196.347	2.14
196.82	-5.26
197.292	10.44
197.765	-0.36
198.237	-4.56
198.71	4.34
199.182	-0.26
199.655	-0.36
200.127	1.44
200.6	0.44
201.072	-0.36
201.544	-2.56
202.017	-4.96
202.489	0.24
202.961	-2.46
203.433	-3.06
203.906	-7.56
204.378	-6.96
204.85	-2.56
205.322	-8.26
205.794	-1.16
206.266	0.34
206.739	-5.46
207.211	-0.06
207.683	-1.76
208.155	-4.36
208.627	-6.56
209.099	-0.86
209.57	-3.46
210.042	-3.36
210.514	-2.46
210.986	3.94
211.458	-4.56
211.93	0.84
212.402	1.54
212.873	-7.56
213.345	-16.76
213.817	-11.36
214.288	-4.66
214.76	-7.56
215.232	-9.36
215.703	-7.26
216.175	-3.56
216.646	-2.36
217.118	-3.66
217.589	-4.66
218.061	7.44
218.532	-4.66
219.004	1.24
219.475	-4.66
219.946	1.64
220.418	-2.86
220.889	3.84
221.36	-1.26
221.832	-4.76
222.303	-3.36
222.774	0.44
223.245	-11.46
223.717	-8.96
224.188	-4.36
224.659	-13.16
225.13	-9.46
225.601	-7.96
226.072	-1.46
226.543	-1.16
227.014	-2.86
227.485	-4.66
227.956	-3.96
228.427	-5.66
228.898	4.94
229.369	2.54
229.839	4.44
230.31	-4.96
230.781	0.44
231.252	-2.66
231.722	-6.96
232.193	2.44
232.664	3.44
233.135	6.84
233.605	0.74
234.076	-0.66
234.546	2.24
235.017	4.04
235.487	2.34
235.958	4.44
236.428	3.64
236.899	1.34
237.369	-2.66
237.84	-4.36
238.31	12.04
238.78	8.74
239.251	-2.76
239.721	3.74
240.191	-2.26
240.662	-0.36
241.132	-2.86
241.602	0.14
242.072	6.94
242.542	6.64
243.013	1.44
243.483	3.04
243.953	2.84
244.423	-2.66
244.893	3.04
245.363	5.24
245.833	8.24
246.303	1.84
246.773	9.74
247.243	1.74
247.712	1.74
248.182	8.64
248.652	3.24
249.122	3.34
249.592	14.24
250.061	21.34
250.531	40.04
251.001	16.94
251.471	27.94
251.94	22.54
252.41	5.44
252.879	6.64
253.349	12.04
253.818	9.74
254.288	8.84
254.757	8.44
255.227	2.34
255.696	11.94
256.166	3.84
256.635	12.74
257.105	11.94
257.574	6.54
258.043	6.14
258.513	15.24
258.982	25.74
259.451	14.64
259.92	16.64
260.389	17.24
260.859	22.14
261.328	14.04
261.797	24.44
262.266	16.24
262.735	15.34
263.204	2.34
263.673	0.44
264.142	4.64
264.611	-3.86
265.08	3.84
265.549	6.04
266.018	8.94
266.487	-4.16
266.955	3.64
267.424	5.84
267.893	6.94
268.362	9.54
268.83	6.74
269.299	10.04
269.768	10.14
270.236	12.84
270.705	5.04
271.174	6.14
271.642	9.14
272.111	2.74
272.579	23.64
273.048	22.34
273.516	31.24
273.985	29.94
274.453	27.44
274.922	26.64
275.39	12.64
275.858	4.84
276.327	12.44
276.795	13.94
277.263	8.94
277.731	27.84
278.2	62.14
278.668	69.94
279.136	56.74
279.604	25.94
280.072	18.34
280.54	19.74
281.008	15.04
281.477	15.14
281.945	17.74
282.413	15.94
282.881	18.74
283.348	10.04
283.816	15.84
284.284	16.64
284.752	24.14
285.22	20.34
285.688	19.44
286.156	24.94
286.623	46.84
287.091	58.24
287.559	34.94
288.026	19.44
288.494	8.24
288.962	9.54
289.429	15.34
289.897	21.94
290.364	14.34
290.832	17.24
291.3	20.74
291.767	22.24
292.234	23.24
292.702	21.54
293.169	21.34
293.637	25.84
294.104	26.14
294.571	11.34
295.039	14.64
295.506	18.44
295.973	17.84
296.44	17.04
296.908	14.74
297.375	21.44
297.842	25.64
298.309	15.24
298.776	15.04
299.243	25.94
299.71	17.14
300.177	22.14
300.644	28.24
301.111	25.84
301.578	22.74
302.045	17.54
302.512	35.34
302.979	34.04
303.446	29.74
303.913	23.64
304.379	22.04
304.846	29.64
305.313	24.04
305.78	29.34
306.246	29.34
306.713	33.14
307.18	32.84
307.646	32.04
308.113	34.14
308.579	28.34
309.046	25.24
309.512	26.24
309.979	21.04
310.445	30.04
310.912	31.64
311.378	30.54
311.845	29.64
312.311	36.44
312.777	38.24
313.244	34.44
313.71	37.74
314.176	37.44
314.642	36.34
315.109	34.84
315.575	38.24
316.041	41.44
316.507	39.24
316.973	38.74
317.439	40.04
317.905	39.04
318.371	35.84
318.837	37.74
319.303	31.94
319.769	34.04
320.235	34.74
320.701	39.84
321.167	37.84
321.633	33.04
322.099	39.04
322.564	47.14
323.03	50.44
323.496	40.24
323.962	41.74
324.427	39.94
324.893	45.54
325.359	44.34
325.824	41.54
326.29	36.94
326.755	40.74
327.221	39.64
327.686	41.54
328.152	41.74
328.617	44.34
329.083	50.94
329.548	51.84
330.014	53.04
330.479	40.94
330.944	40.04
331.41	40.94
331.875	44.84
332.34	41.54
332.805	41.84
333.271	46.24
333.736	47.94
334.201	55.74
334.666	50.14
335.131	57.94
335.596	54.94
336.061	49.14
336.526	48.64
336.991	53.64
337.456	51.04
337.921	49.24
338.386	46.74
338.851	51.44
339.316	50.54
339.781	43.04
340.246	54.54
340.711	48.94
341.175	51.84
341.64	45.54
342.105	56.94
342.569	58.94
343.034	58.64
343.499	56.94
343.963	54.44
344.428	63.64
344.893	62.04
345.357	58.64
345.822	58.84
346.286	64.44
346.751	77.44
347.215	66.84
347.679	80.84
348.144	99.84
348.608	77.24
349.073	74.24
349.537	73.84
350.001	80.54
350.465	91.04
350.93	83.34
351.394	82.84
351.858	78.34
352.322	84.44
352.786	84.14
353.25	96.54
353.715	114.54
354.179	102.24
354.643	119.14
355.107	125.84
355.571	106.04
356.035	104.04
356.498	104.04
356.962	115.74
357.426	127.44
357.89	114.24
358.354	88.34
358.818	82.24
359.281	82.44
359.745	75.24
360.209	78.54
360.673	74.54
361.136	79.14
361.6	83.34
362.064	79.64
362.527	82.34
362.991	93.44
363.454	72.74
363.918	75.84
364.381	73.44
364.845	81.44
365.308	85.94
365.772	82.94
366.235	87.44
366.698	78.24
367.162	79.64
367.625	89.14
368.088	83.84
368.552	90.34
369.015	90.84
369.478	102.74
369.941	102.84
370.404	93.54
370.867	102.34
371.331	104.74
371.794	113.34
372.257	111.04
372.72	115.84
373.183	106.04
373.646	103.44
374.109	101.34
374.572	108.74
375.035	105.94
375.497	109.14
375.96	100.44
376.423	100.14
376.886	113.04
377.349	107.44
377.811	99.04
378.274	103.54
378.737	98.94
379.199	113.94
379.662	108.34
380.125	115.64
380.587	118.14
381.05	121.24
381.512	121.34
381.975	132.44
382.437	125.94
382.9	120.34
383.362	126.34
383.825	141.84
384.287	144.04
384.75	136.94
385.212	134.34
385.674	135.34
386.136	133.74
386.599	129.94
387.061	120.64
387.523	130.04
387.985	118.94
388.447	138.84
388.91	137.34
389.372	149.84
389.834	143.94
390.296	137.84
390.758	147.64
391.22	161.14
391.682	199.04
392.144	281.54
392.606	215.64
393.068	161.54
393.529	156.64
393.991	140.54
394.453	137.04
394.915	150.74
395.377	191.84
395.838	204.14
396.3	147.74
396.762	131.94
397.224	132.34
397.685	125.14
398.147	129.24
398.608	124.74
399.07	117.24
399.531	130.54
399.993	133.24
400.454	146.94
400.916	146.64
401.377	139.54
401.839	143.14
402.3	137.84
402.762	160.34
403.223	174.74
403.684	168.74
404.145	149.94
404.607	154.84
405.068	151.24
405.529	155.24
405.99	181.74
406.451	162.14
406.913	166.84
407.374	155.34
407.835	155.24
408.296	156.34
408.757	163.44
409.218	175.34
409.679	173.64
410.14	166.04
410.601	169.24
411.062	176.64
411.522	186.04
411.983	183.64
412.444	164.64
412.905	178.94
413.366	175.84
413.826	182.64
414.287	204.04
414.748	250.44
415.208	228.64
415.669	201.44
416.13	197.74
416.59	191.04
417.051	196.64
417.511	210.64
417.972	226.24
418.432	230.44
418.893	268.64
419.353	237.14
419.814	195.84
420.274	174.64
420.734	177.04
421.195	196.34
421.655	186.84
422.115	185.14
422.576	178.04
423.036	191.34
423.496	196.44
423.956	204.24
424.416	222.44
424.876	258.94
425.336	252.14
425.797	249.94
426.257	241.54
426.717	226.84
427.177	225.34
427.637	205.34
428.097	226.54
428.556	225.94
429.016	256.84
429.476	251.34
429.936	254.94
430.396	260.24
430.856	276.94
431.315	294.94
431.775	325.14
432.235	362.34
432.694	328.04
433.154	343.94
433.614	372.14
434.073	316.64
434.533	272.44
434.993	259.24
435.452	269.14
435.912	281.44
436.371	274.24
436.83	272.24
437.29	247.54
437.749	232.74
438.209	232.94
438.668	253.94
439.127	272.84
439.587	251.64
440.046	232.44
440.505	244.04
440.964	258.54
441.424	302.64
441.883	290.64
442.342	246.04
442.801	213.14
443.26	202.94
443.719	209.64
444.178	212.74
444.637	199.04
445.096	208.04
445.555	207.94
446.014	215.14
446.473	211.24
446.932	223.14
447.391	208.04
447.849	209.84
448.308	200.84
448.767	215.24
449.226	229.04
449.685	229.14
450.143	240.04
450.602	226.64
451.061	213.64
451.519	217.34
451.978	219.14
452.436	220.74
452.895	221.74
453.353	241.94
453.812	224.34
454.27	223.24
454.729	232.14
455.187	230.84
455.646	232.24
456.104	230.54
456.562	237.04
457.021	248.94
457.479	247.04
457.937	256.24
458.395	248.44
458.854	230.24
459.312	234.74
459.77	255.14
460.228	233.54
460.686	225.04
461.144	234.34
461.602	228.54
462.06	234.94
462.518	240.24
462.976	245.14
463.434	236.34
463.892	249.54
464.35	262.04
464.808	275.74
465.266	251.54
465.724	256.24
466.181	257.64
466.639	264.34
467.097	273.24
467.555	281.04
468.012	287.14
468.47	296.24
468.928	310.54
469.385	323.84
469.843	329.34
470.3	323.24
470.758	340.74
471.215	364.84
471.673	383.84
472.13	379.14
472.588	391.64
473.045	348.14
473.503	354.44
473.96	372.64
474.417	379.44
474.875	407.44
475.332	445.84
475.789	439.04
476.246	443.84
476.704	470.14
477.161	479.64
477.618	486.84
478.075	527.54
478.532	570.44
478.989	649.64
479.446	748.34
479.903	721.34
480.36	763.24
480.817	817.54
481.274	913.44
481.731	1003.04
482.188	1107.34
482.645	1224.54
483.102	1334.14
483.558	1461.04
484.015	1517.44
484.472	1494.54
484.929	1451.44
485.385	1411.34
485.842	1358.34
486.299	1293.84
486.755	1217.54
487.212	1035.14
487.668	864.84
488.125	804.64
488.582	738.64
489.038	701.44
489.494	678.74
489.951	648.84
490.407	630.64
490.864	618.84
491.32	612.44
491.776	596.94
492.233	607.34
492.689	577.74
493.145	574.14
493.602	561.04
494.058	578.14
494.514	579.24
494.97	600.64
495.426	611.64
495.882	596.54
496.338	582.34
496.794	585.34
497.251	584.04
497.707	603.24
498.163	602.84
498.618	614.84
499.074	614.74
499.53	628.94
499.986	643.14
500.442	616.64
500.898	601.64
501.354	593.64
501.809	597.84
502.265	605.54
502.721	622.74
503.177	627.24
503.632	624.14
504.088	633.14
504.543	678.44
504.999	663.84
505.455	622.14
505.91	604.14
506.366	592.84
506.821	601.04
507.277	586.84
507.732	593.64
508.187	596.04
508.643	599.94
509.098	593.24
509.553	609.74
510.009	615.74
510.464	627.34
510.919	647.94
511.375	653.84
511.83	658.64
512.285	679.44
512.74	725.54
513.195	735.44
513.65	729.44
514.105	732.04
514.56	723.64
515.015	757.64
515.47	774.74
515.925	748.64
516.38	755.54
516.835	757.94
517.29	746.94
517.745	740.24
518.2	721.74
518.655	708.64
519.109	707.14
519.564	691.74
520.019	685.84
520.474	678.84
520.928	692.64
521.383	678.94
521.838	666.34
522.292	685.04
522.747	669.24
523.201	658.64
523.656	649.34
524.11	649.14
524.565	649.54
525.019	640.14
525.474	658.94
525.928	668.94
526.382	656.94
526.837	661.34
527.291	653.44
527.745	650.04
528.2	647.54
528.654	643.04
529.108	641.54
529.562	649.94
530.016	648.34
530.47	652.34
530.925	650.14
531.379	657.74
531.833	665.24
532.287	662.14
532.741	658.44
533.195	654.74
533.649	670.04
534.103	679.84
534.556	675.14
535.01	678.44
535.464	657.04
535.918	675.64
536.372	679.54
536.826	673.74
537.279	664.24
537.733	669.24
538.187	665.04
538.64	667.14
539.094	677.54
539.548	679.54
540.001	678.14
540.455	666.34
540.908	678.54
541.362	690.34
541.815	692.34
542.269	703.04
542.722	705.54
543.175	717.44
543.629	725.54
544.082	726.04
544.536	733.74
544.989	733.94
545.442	738.04
545.895	734.94
546.349	725.14
546.802	741.74
547.255	744.34
547.708	745.04
548.161	746.74
548.614	756.54
549.067	765.54
549.52	759.94
549.973	755.74
550.426	745.84
550.879	734.64
551.332	741.74
551.785	739.24
552.238	750.94
552.691	749.14
553.144	773.44
553.596	786.04
554.049	807.14
554.502	825.24
554.955	840.74
555.407	846.54
555.86	839.74
556.313	822.54
556.765	821.64
557.218	812.24
557.67	811.64
558.123	808.34
558.576	803.14
559.028	807.14
559.48	813.84
559.933	807.74
560.385	766.24
560.838	747.84
561.29	729.94
561.742	717.24
562.195	700.34
562.647	698.74
563.099	704.84
563.551	711.14
564.004	727.24
564.456	710.44
564.908	689.54
565.36	686.04
565.812	673.04
566.264	662.34
566.716	670.84
567.168	661.74
567.62	667.54
568.072	648.34
568.524	635.94
568.976	637.14
569.428	613.34
569.88	618.24
570.332	630.44
570.784	631.64
571.235	621.64
571.687	633.44
572.139	647.14
572.59	648.34
573.042	652.04
573.494	651.24
573.945	643.94
574.397	626.74
574.849	626.54
575.3	634.94
575.752	622.64
576.203	609.94
576.655	632.94
577.106	616.74
577.557	619.34
578.009	618.64
578.46	611.44
578.912	609.04
579.363	604.14
579.814	605.04
580.265	603.84
580.717	603.74
581.168	616.54
581.619	625.94
582.07	621.44
582.521	612.84
582.972	608.84
583.423	615.54
583.875	621.04
584.326	630.64
584.777	674.14
585.227	745.54
585.678	825.64
586.129	904.44
586.58	963.94
587.031	1049.74
587.482	1204.84
587.933	1378.04
588.384	1191.14
588.834	882.84
589.285	731.74
589.736	717.74
590.186	701.64
590.637	696.74
591.088	676.54
591.538	663.14
591.989	657.44
592.439	664.34
592.89	649.54
593.34	636.44
593.791	641.34
594.241	640.74
594.692	641.44
595.142	636.84
595.593	632.54
596.043	638.14
596.493	636.44
596.943	640.84
597.394	654.34
597.844	642.14
598.294	652.54
598.744	674.84
599.195	692.94
599.645	738.14
600.095	770.44
600.545	817.04
600.995	859.14
601.445	920.54
601.895	977.84
602.345	1021.34
602.795	1008.84
603.245	952.94
603.695	898.24
604.145	854.24
604.594	821.44
605.044	768.04
605.494	717.74
605.944	676.34
606.393	669.14
606.843	649.64
607.293	651.24
607.743	661.64
608.192	669.74
608.642	675.84
609.091	690.24
609.541	687.04
609.99	677.14
610.44	677.34
610.889	640.74
611.339	619.24
611.788	604.14
612.238	622.84
612.687	640.04
613.136	632.64
613.586	656.84
614.035	649.24
614.484	679.74
614.933	675.74
615.383	660.84
615.832	660.54
616.281	636.14
616.73	617.24
617.179	589.04
617.628	584.14
618.077	566.64
618.526	548.94
618.975	547.34
619.424	544.64
619.873	542.34
620.322	539.14
620.771	534.04
621.22	541.84
621.669	522.84
622.118	510.94
622.567	508.44
623.015	494.54
623.464	496.44
623.913	493.64
624.361	489.94
624.81	494.44
625.259	495.34
625.707	491.44
626.156	485.64
626.604	506.24
627.053	502.24
627.501	500.04
627.95	509.64
628.398	511.94
628.847	499.64
629.295	493.34
629.744	512.64
630.192	503.54
630.64	500.04
631.089	504.44
631.537	504.64
631.985	518.84
632.433	520.34
632.881	526.64
633.33	575.94
633.778	553.04
634.226	496.74
634.674	504.34
635.122	512.64
635.57	524.14
636.018	547.54
636.466	508.04
636.914	483.54
637.362	498.94
637.81	507.34
638.258	500.84
638.705	499.44
639.153	529.54
639.601	540.14
640.049	551.84
640.497	588.64
640.944	598.84
641.392	565.04
641.84	539.84
642.287	510.24
642.735	489.04
643.182	509.14
643.63	493.94
644.078	497.44
644.525	520.94
644.973	521.04
645.42	532.44
645.867	534.84
646.315	556.54
646.762	589.14
647.21	602.44
647.657	622.04
648.104	655.04
648.551	670.64
648.999	723.04
649.446	792.24
649.893	862.44
650.34	992.84
650.787	1198.54
651.234	1469.44
651.682	1917.74
652.129	2617.44
652.576	3770.74
653.023	5585.34
653.47	7700.84
653.917	9754.54
654.363	11414.34
654.81	12813.14
655.257	12171.14
655.704	7911.54
656.151	4633.44
656.598	3005.24
657.044	2110.74
657.491	1623.54
657.938	1293.94
658.385	1074.84
658.831	939.14
659.278	843.44
659.724	754.14
660.171	684.34
660.618	626.24
661.064	597.94
661.511	578.04
661.957	573.04
662.404	544.94
662.85	555.84
663.296	532.54
663.743	488.34
664.189	469.24
664.635	460.44
665.082	458.54
665.528	460.24
665.974	450.04
666.42	441.94
666.867	442.34
667.313	422.34
667.759	419.64
668.205	419.24
668.651	413.74
669.097	418.24
669.543	442.64
669.989	410.14
670.435	387.34
670.881	388.94
671.327	387.34
671.773	403.04
672.219	418.54
672.665	470.24
673.11	499.04
673.556	539.24
674.002	576.34
674.448	563.74
674.893	469.04
675.339	409.74
675.785	378.74
676.23	367.54
676.676	338.64
677.122	332.34
677.567	328.74
678.013	319.74
678.458	300.84
678.904	302.44
679.349	298.94
679.794	305.74
680.24	302.54
680.685	299.84
681.131	296.64
681.576	301.34
682.021	305.84
682.466	298.64
682.912	294.44
683.357	298.74
683.802	321.14
684.247	345.04
684.692	393.54
685.137	428.24
685.583	467.04
686.028	476.74
686.473	451.34
686.918	382.24
687.363	362.04
687.807	343.94
688.252	313.54
688.697	306.44
689.142	289.84
689.587	289.04
690.032	281.44
690.477	284.74
690.921	298.64
691.366	330.14
691.811	347.74
692.255	363.94
692.7	392.94
693.145	432.34
693.589	580.94
694.034	939.44
694.478	1301.94
694.923	1504.04
695.367	1982.74
695.812	1034.64
696.256	427.94
696.701	313.64
697.145	297.74
697.59	286.84
698.034	275.34
698.478	287.34
698.922	275.84
699.367	270.04
699.811	282.04
700.255	301.94
700.699	326.64
701.143	355.84
701.588	401.64
702.032	435.94
702.476	443.34
702.92	420.04
703.364	409.54
703.808	526.14
704.252	854.54
704.696	1224.04
705.14	1449.74
705.584	1871.04
706.027	914.04
706.471	442.44
706.915	330.04
707.359	295.74
707.803	275.74
708.246	262.44
708.69	261.94
709.134	266.44
709.577	265.14
710.021	266.74
710.465	260.84
710.908	252.54
711.352	255.34
711.795	264.64
712.239	293.44
712.682	324.44
713.126	368.74
713.569	400.24
714.012	319.34
714.456	276.54
714.899	259.24
715.342	233.24
715.786	220.04
716.229	221.34
716.672	217.84
717.115	211.24
717.558	213.94
718.002	213.44
718.445	222.34
718.888	241.54
719.331	250.74
719.774	262.94
720.217	262.74
720.66	246.24
721.103	227.34
721.546	210.64
721.989	213.14
722.432	200.14
722.874	199.34
723.317	197.04
723.76	194.74
724.203	220.44
724.645	264.14
725.088	367.34
725.531	476.84
725.974	558.54
726.416	470.24
726.859	259.84
727.301	212.74
727.744	200.04
728.187	193.54
728.629	204.14
729.071	201.04
729.514	223.74
729.956	232.34
730.399	241.34
730.841	239.44
731.283	230.84
731.726	220.44
732.168	225.14
732.61	232.04
733.053	241.74
733.495	264.34
733.937	302.14
734.379	342.64
734.821	363.84
735.263	444.64
735.705	691.14
736.148	1289.14
736.59	2165.94
737.032	2671.64
737.474	2151.94
737.916	684.84
738.357	371.54
738.799	282.04
739.241	258.04
739.683	242.44
740.125	247.14
740.567	251.14
741.008	273.54
741.45	265.64
741.892	263.94
742.334	294.54
742.775	307.44
743.217	295.04
743.658	228.24
744.1	225.84
744.542	226.94
744.983	264.54
745.425	300.34
745.866	297.64
746.307	240.14
746.749	236.24
747.19	262.44
747.632	379.74
748.073	714.04
748.514	1526.94
748.956	2427.14
749.397	3045.94
749.838	2523.14
750.279	2589.84
750.72	1296.24
751.162	463.74
751.603	264.14
752.044	215.04
752.485	186.84
752.926	176.04
753.367	175.04
753.808	161.24
754.249	162.34
754.69	155.94
755.131	146.84
755.572	147.54
756.013	152.54
756.453	153.74
756.894	152.64
757.335	159.74
757.776	160.64
758.216	155.44
758.657	160.04
759.098	163.54
759.538	186.84
759.979	221.24
760.42	311.44
760.86	576.94
761.301	1480.94
761.741	3679.14
762.182	5694.54
762.622	3983.34
