Data from 20171114-ORNL-Ar_H_NY_Subt18_08-06-51-307.txt Node
Date: Tue Nov 14 08:06:51 EST 2017
User: Ender
Spectrometer: HR+D1039
Trigger mode: 0
Integration Time (sec): 2.730000E-2
Scans to average: 10
Electric dark correction enabled: true
Nonlinearity correction enabled: false
Boxcar width: 0
XAxis mode: Wavelengths
Number of Pixels in Spectrum: 2048
>>>>>Begin Spectral Data<<<<<
187.836	-3.06
188.309	-3.06
188.782	-3.06
189.255	0.74
189.728	-3.86
190.201	4.84
190.674	-2.66
191.147	5.14
191.619	-7.36
192.092	2.84
192.565	9.34
193.038	-3.36
193.511	2.44
193.984	0.34
194.456	-2.46
194.929	3.24
195.402	-7.46
195.874	1.24
196.347	-5.06
196.82	-6.86
197.292	-1.76
197.765	0.74
198.237	-14.06
198.71	1.94
199.182	-5.36
199.655	-1.06
200.127	1.34
200.6	-6.26
201.072	0.74
201.544	-8.86
202.017	-2.46
202.489	2.14
202.961	3.14
203.433	-2.76
203.906	-8.76
204.378	-3.66
204.85	-3.26
205.322	-7.46
205.794	-3.76
206.266	-0.66
206.739	-11.26
207.211	3.84
207.683	-11.96
208.155	-9.16
208.627	-2.56
209.099	0.04
209.57	-10.06
210.042	-4.16
210.514	-1.26
210.986	-5.96
211.458	-5.96
211.93	-3.86
212.402	4.74
212.873	-7.16
213.345	-3.96
213.817	-10.86
214.288	-8.66
214.76	-10.76
215.232	-2.36
215.703	-1.56
216.175	-5.86
216.646	-0.76
217.118	-5.76
217.589	-2.46
218.061	-5.06
218.532	-5.16
219.004	-1.36
219.475	-6.46
219.946	-5.46
220.418	-8.76
220.889	2.84
221.36	-3.66
221.832	-6.16
222.303	-8.66
222.774	2.34
223.245	-6.16
223.717	-2.86
224.188	-2.96
224.659	-4.56
225.13	1.64
225.601	-4.06
226.072	1.24
226.543	-1.06
227.014	-0.36
227.485	0.04
227.956	-11.36
228.427	-5.86
228.898	0.54
229.369	-2.96
229.839	-2.46
230.31	-9.56
230.781	2.14
231.252	-7.96
231.722	-2.96
232.193	-9.66
232.664	-9.16
233.135	-2.06
233.605	-3.96
234.076	-1.76
234.546	-4.86
235.017	3.64
235.487	-2.86
235.958	-0.46
236.428	-9.66
236.899	-4.56
237.369	1.34
237.84	-5.26
238.31	-5.56
238.78	-1.26
239.251	-4.06
239.721	-5.76
240.191	2.34
240.662	-3.66
241.132	-3.66
241.602	-6.26
242.072	-2.46
242.542	-3.16
243.013	-6.26
243.483	-3.56
243.953	-3.66
244.423	-2.56
244.893	-13.26
245.363	-0.16
245.833	-1.46
246.303	-1.76
246.773	2.34
247.243	5.84
247.712	0.54
248.182	6.64
248.652	-0.96
249.122	-9.06
249.592	-0.56
250.061	-0.06
250.531	12.44
251.001	-8.76
251.471	1.44
251.94	2.64
252.41	-3.06
252.879	-2.16
253.349	8.14
253.818	5.94
254.288	0.94
254.757	-1.06
255.227	-5.36
255.696	0.14
256.166	0.14
256.635	-6.06
257.105	3.24
257.574	0.14
258.043	-1.66
258.513	-8.86
258.982	0.34
259.451	-4.46
259.92	0.24
260.389	2.94
260.859	10.04
261.328	-1.66
261.797	2.74
262.266	1.84
262.735	1.14
263.204	3.44
263.673	-0.56
264.142	8.64
264.611	1.94
265.08	0.34
265.549	-1.06
266.018	2.54
266.487	-3.06
266.955	-6.86
267.424	1.64
267.893	4.04
268.362	1.84
268.83	-1.06
269.299	4.74
269.768	0.64
270.236	1.44
270.705	1.84
271.174	-0.26
271.642	2.44
272.111	3.44
272.579	5.04
273.048	3.04
273.516	5.04
273.985	-1.36
274.453	8.14
274.922	8.94
275.39	-0.86
275.858	-5.36
276.327	7.14
276.795	8.94
277.263	-1.16
277.731	12.34
278.2	13.54
278.668	2.44
279.136	10.64
279.604	8.14
280.072	13.84
280.54	1.24
281.008	3.84
281.477	8.74
281.945	8.64
282.413	10.04
282.881	10.74
283.348	3.84
283.816	5.24
284.284	12.24
284.752	21.44
285.22	11.14
285.688	7.14
286.156	2.34
286.623	17.24
287.091	6.14
287.559	18.34
288.026	13.84
288.494	10.74
288.962	-1.46
289.429	8.44
289.897	15.84
290.364	13.54
290.832	17.04
291.3	13.44
291.767	15.24
292.234	7.64
292.702	8.44
293.169	14.84
293.637	22.54
294.104	18.04
294.571	13.84
295.039	11.94
295.506	10.84
295.973	11.74
296.44	10.64
296.908	17.64
297.375	12.54
297.842	13.94
298.309	10.54
298.776	14.64
299.243	17.74
299.71	3.44
300.177	11.64
300.644	14.84
301.111	17.14
301.578	19.44
302.045	16.94
302.512	21.04
302.979	20.44
303.446	17.74
303.913	13.74
304.379	15.44
304.846	18.74
305.313	23.24
305.78	13.24
306.246	22.04
306.713	22.14
307.18	22.14
307.646	21.64
308.113	26.24
308.579	19.94
309.046	21.54
309.512	24.94
309.979	12.34
310.445	26.24
310.912	24.44
311.378	27.64
311.845	24.84
312.311	32.94
312.777	25.84
313.244	22.74
313.71	38.14
314.176	27.94
314.642	21.44
315.109	26.84
315.575	31.74
316.041	30.74
316.507	29.04
316.973	31.14
317.439	32.54
317.905	26.34
318.371	28.54
318.837	34.84
319.303	23.34
319.769	26.84
320.235	28.04
320.701	29.94
321.167	35.14
321.633	28.44
322.099	29.24
322.564	33.74
323.03	35.64
323.496	29.64
323.962	35.44
324.427	29.74
324.893	46.14
325.359	28.64
325.824	33.44
326.29	32.44
326.755	27.74
327.221	43.04
327.686	30.64
328.152	40.14
328.617	33.84
329.083	43.94
329.548	44.24
330.014	39.44
330.479	33.04
330.944	36.34
331.41	39.54
331.875	37.94
332.34	35.54
332.805	37.74
333.271	43.44
333.736	38.24
334.201	46.74
334.666	44.64
335.131	38.04
335.596	45.34
336.061	45.44
336.526	37.74
336.991	47.74
337.456	51.94
337.921	40.34
338.386	44.24
338.851	44.54
339.316	45.94
339.781	40.64
340.246	50.54
340.711	38.94
341.175	41.94
341.64	44.84
342.105	49.64
342.569	50.34
343.034	50.24
343.499	52.54
343.963	50.94
344.428	57.44
344.893	60.04
345.357	56.24
345.822	53.74
346.286	58.94
346.751	64.64
347.215	58.54
347.679	73.24
348.144	86.34
348.608	69.44
349.073	65.24
349.537	72.54
350.001	75.84
350.465	81.24
350.93	76.54
351.394	74.64
351.858	64.54
352.322	79.34
352.786	74.44
353.25	86.64
353.715	101.04
354.179	88.94
354.643	103.64
355.107	109.94
355.571	94.84
356.035	87.34
356.498	103.94
356.962	106.54
357.426	116.94
357.89	107.24
358.354	82.84
358.818	79.84
359.281	74.84
359.745	65.54
360.209	69.34
360.673	71.54
361.136	78.04
361.6	78.64
362.064	78.54
362.527	78.94
362.991	88.24
363.454	77.24
363.918	65.54
364.381	80.24
364.845	80.44
365.308	80.74
365.772	83.54
366.235	80.44
366.698	83.84
367.162	86.04
367.625	85.64
368.088	80.44
368.552	85.74
369.015	82.74
369.478	92.84
369.941	99.64
370.404	87.24
370.867	91.94
371.331	93.54
371.794	101.34
372.257	92.54
372.72	104.04
373.183	101.34
373.646	87.64
374.109	93.14
374.572	97.64
375.035	100.24
375.497	98.24
375.96	100.64
376.423	104.94
376.886	112.94
377.349	112.34
377.811	105.44
378.274	105.94
378.737	101.74
379.199	106.44
379.662	106.34
380.125	105.04
380.587	99.24
381.05	107.34
381.512	111.44
381.975	120.04
382.437	120.14
382.9	114.54
383.362	125.74
383.825	123.04
384.287	124.54
384.75	121.64
385.212	126.74
385.674	136.84
386.136	139.14
386.599	119.74
387.061	125.54
387.523	121.74
387.985	124.24
388.447	137.54
388.91	123.84
389.372	123.24
389.834	128.44
390.296	122.14
390.758	121.64
391.22	134.84
391.682	150.54
392.144	151.64
392.606	142.24
393.068	139.74
393.529	157.24
393.991	146.64
394.453	125.74
394.915	131.04
395.377	136.14
395.838	128.74
396.3	133.24
396.762	144.34
397.224	134.94
397.685	131.94
398.147	132.24
398.608	135.54
399.07	130.84
399.531	142.94
399.993	156.54
400.454	154.64
400.916	155.04
401.377	148.74
401.839	154.24
402.3	153.84
402.762	163.64
403.223	172.44
403.684	170.44
404.145	157.24
404.607	155.94
405.068	165.14
405.529	162.94
405.99	189.94
406.451	176.84
406.913	178.64
407.374	164.44
407.835	160.54
408.296	170.44
408.757	173.04
409.218	185.44
409.679	182.24
410.14	176.64
410.601	182.14
411.062	181.74
411.522	182.64
411.983	183.24
412.444	181.04
412.905	176.44
413.366	193.14
413.826	202.94
414.287	232.44
414.748	270.44
415.208	259.64
415.669	226.44
416.13	219.64
416.59	212.64
417.051	222.94
417.511	231.24
417.972	247.74
418.432	258.14
418.893	295.54
419.353	263.14
419.814	209.54
420.274	187.54
420.734	187.74
421.195	203.54
421.655	197.94
422.115	203.24
422.576	203.94
423.036	203.34
423.496	213.84
423.956	228.44
424.416	243.54
424.876	277.84
425.336	271.84
425.797	271.34
426.257	260.14
426.717	248.84
427.177	243.04
427.637	231.34
428.097	237.54
428.556	251.04
429.016	275.74
429.476	273.54
429.936	281.74
430.396	274.24
430.856	293.14
431.315	316.34
431.775	361.04
432.235	381.44
432.694	355.54
433.154	367.94
433.614	391.44
434.073	341.24
434.533	284.24
434.993	269.14
435.452	286.64
435.912	292.04
436.371	292.94
436.83	280.24
437.29	269.14
437.749	256.54
438.209	252.54
438.668	283.74
439.127	299.04
439.587	270.74
440.046	255.94
440.505	268.14
440.964	289.34
441.424	334.04
441.883	314.64
442.342	265.64
442.801	238.74
443.26	237.64
443.719	231.64
444.178	234.14
444.637	224.94
445.096	238.74
445.555	245.04
446.014	239.74
446.473	238.24
446.932	244.54
447.391	244.94
447.849	246.14
448.308	235.34
448.767	240.34
449.226	250.64
449.685	248.04
450.143	265.14
450.602	254.14
451.061	244.94
451.519	250.64
451.978	242.04
452.436	250.44
452.895	253.74
453.353	266.54
453.812	258.14
454.27	250.64
454.729	252.44
455.187	253.24
455.646	260.74
456.104	262.54
456.562	272.04
457.021	283.14
457.479	273.04
457.937	291.34
458.395	287.94
458.854	271.34
459.312	271.44
459.77	287.34
460.228	277.34
460.686	267.64
461.144	261.04
461.602	256.04
462.06	256.54
462.518	272.84
462.976	269.14
463.434	274.64
463.892	278.74
464.35	284.94
464.808	304.44
465.266	281.24
465.724	290.14
466.181	291.34
466.639	284.14
467.097	307.54
467.555	319.34
468.012	327.04
468.47	330.74
468.928	355.54
469.385	362.14
469.843	373.94
470.3	370.14
470.758	384.74
471.215	402.64
471.673	432.54
472.13	430.34
472.588	442.34
473.045	401.64
473.503	408.94
473.96	424.24
474.417	424.04
474.875	452.94
475.332	495.04
475.789	474.94
476.246	489.24
476.704	510.44
477.161	536.64
477.618	556.14
478.075	585.64
478.532	649.24
478.989	712.74
479.446	831.14
479.903	790.24
480.36	817.94
480.817	866.44
481.274	959.14
481.731	1044.84
482.188	1127.54
482.645	1249.64
483.102	1338.64
483.558	1479.14
484.015	1516.54
484.472	1493.14
484.929	1450.24
485.385	1406.04
485.842	1372.24
486.299	1321.24
486.755	1270.64
487.212	1090.04
487.668	932.04
488.125	862.04
488.582	807.94
489.038	767.54
489.494	735.14
489.951	710.74
490.407	694.74
490.864	675.74
491.32	665.74
491.776	675.94
492.233	674.84
492.689	644.54
493.145	645.74
493.602	632.64
494.058	640.04
494.514	640.54
494.97	669.04
495.426	676.04
495.882	653.14
496.338	647.64
496.794	653.74
497.251	647.24
497.707	667.74
498.163	669.24
498.618	674.34
499.074	671.64
499.53	709.44
499.986	705.84
500.442	671.64
500.898	650.94
501.354	650.74
501.809	657.34
502.265	658.94
502.721	669.04
503.177	667.64
503.632	668.94
504.088	684.84
504.543	710.34
504.999	717.34
505.455	693.74
505.91	682.54
506.366	669.74
506.821	674.24
507.277	663.54
507.732	671.14
508.187	670.14
508.643	686.24
509.098	676.34
509.553	696.14
510.009	710.74
510.464	713.94
510.919	725.14
511.375	737.34
511.83	757.04
512.285	758.34
512.74	800.24
513.195	822.44
513.65	806.44
514.105	807.84
514.56	810.94
515.015	832.24
515.47	836.44
515.925	830.84
516.38	828.74
516.835	841.94
517.29	827.94
517.745	819.24
518.2	804.34
518.655	785.74
519.109	779.14
519.564	786.04
520.019	777.74
520.474	769.54
520.928	774.64
521.383	763.04
521.838	765.54
522.292	757.14
522.747	750.24
523.201	754.84
523.656	740.14
524.11	733.34
524.565	719.34
525.019	731.54
525.474	742.94
525.928	739.04
526.382	738.34
526.837	738.84
527.291	740.24
527.745	734.14
528.2	746.04
528.654	732.74
529.108	737.84
529.562	733.44
530.016	728.74
530.47	726.24
530.925	732.64
531.379	730.14
531.833	737.04
532.287	745.84
532.741	738.84
533.195	750.74
533.649	740.44
534.103	759.14
534.556	753.34
535.01	753.64
535.464	747.14
535.918	761.44
536.372	758.54
536.826	758.04
537.279	749.24
537.733	748.44
538.187	761.14
538.64	744.14
539.094	764.04
539.548	763.84
540.001	767.64
540.455	772.64
540.908	779.44
541.362	783.94
541.815	793.94
542.269	802.94
542.722	799.14
543.175	804.94
543.629	815.14
544.082	828.34
544.536	835.54
544.989	816.44
545.442	838.74
545.895	841.04
546.349	847.94
546.802	843.54
547.255	846.54
547.708	862.74
548.161	861.44
548.614	858.84
549.067	873.64
549.52	872.84
549.973	866.04
550.426	850.94
550.879	839.24
551.332	847.14
551.785	846.74
552.238	854.24
552.691	869.64
553.144	878.34
553.596	900.04
554.049	919.04
554.502	947.64
554.955	959.84
555.407	959.64
555.86	959.64
556.313	942.14
556.765	930.74
557.218	937.94
557.67	934.24
558.123	925.24
558.576	924.84
559.028	929.64
559.48	934.34
559.933	915.54
560.385	888.24
560.838	859.74
561.29	833.14
561.742	839.74
562.195	819.64
562.647	816.14
563.099	814.34
563.551	825.74
564.004	828.44
564.456	818.84
564.908	798.94
565.36	786.04
565.812	772.64
566.264	759.84
566.716	760.84
567.168	737.84
567.62	748.14
568.072	735.24
568.524	735.24
568.976	727.14
569.428	709.34
569.88	720.64
570.332	720.44
570.784	735.24
571.235	729.44
571.687	737.64
572.139	751.54
572.59	756.34
573.042	744.24
573.494	746.34
573.945	749.74
574.397	726.74
574.849	740.04
575.3	733.94
575.752	730.04
576.203	719.54
576.655	728.84
577.106	705.04
577.557	701.44
578.009	709.24
578.46	701.54
578.912	696.24
579.363	707.14
579.814	712.24
580.265	705.84
580.717	710.64
581.168	714.04
581.619	712.94
582.07	727.74
582.521	706.84
582.972	709.34
583.423	709.64
583.875	713.44
584.326	718.14
584.777	739.04
585.227	745.54
585.678	765.04
586.129	785.14
586.58	799.04
587.031	827.34
587.482	865.24
587.933	884.24
588.384	863.34
588.834	825.54
589.285	805.94
589.736	808.54
590.186	801.94
590.637	798.24
591.088	777.54
591.538	779.64
591.989	762.34
592.439	761.04
592.89	754.34
593.34	745.14
593.791	736.44
594.241	736.64
594.692	738.94
595.142	731.14
595.593	723.14
596.043	733.34
596.493	738.44
596.943	742.54
597.394	752.24
597.844	754.34
598.294	764.24
598.744	793.24
599.195	818.04
599.645	851.64
600.095	905.14
600.545	959.64
600.995	1011.94
601.445	1075.24
601.895	1146.14
602.345	1188.54
602.795	1173.74
603.245	1119.64
603.695	1057.24
604.145	1020.74
604.594	967.24
605.044	911.24
605.494	838.94
605.944	799.54
606.393	779.74
606.843	768.54
607.293	771.64
607.743	763.24
608.192	777.84
608.642	789.04
609.091	794.64
609.541	788.84
609.99	798.24
610.44	785.64
610.889	747.94
611.339	732.34
611.788	718.44
612.238	721.64
612.687	727.34
613.136	731.24
613.586	726.54
614.035	734.24
614.484	749.24
614.933	727.44
615.383	736.14
615.832	741.54
616.281	731.04
616.73	701.54
617.179	683.44
617.628	675.04
618.077	651.74
618.526	648.34
618.975	655.34
619.424	644.54
619.873	630.44
620.322	644.04
620.771	622.54
621.22	628.04
621.669	622.04
622.118	615.94
622.567	609.24
623.015	591.44
623.464	603.24
623.913	587.74
624.361	577.34
624.81	579.64
625.259	574.34
625.707	580.04
626.156	574.84
626.604	579.74
627.053	576.54
627.501	597.34
627.95	600.94
628.398	608.44
628.847	593.24
629.295	602.94
629.744	594.94
630.192	588.44
630.64	580.14
631.089	565.14
631.537	561.04
631.985	553.24
632.433	557.54
632.881	543.24
633.33	557.94
633.778	545.54
634.226	544.74
634.674	556.84
635.122	564.24
635.57	575.54
636.018	583.14
636.466	576.64
636.914	569.54
637.362	586.54
637.81	597.34
638.258	605.04
638.705	604.04
639.153	635.94
639.601	647.64
640.049	668.24
640.497	698.24
640.944	725.74
641.392	673.14
641.84	640.74
642.287	614.84
642.735	584.34
643.182	592.04
643.63	591.94
644.078	589.54
644.525	592.24
644.973	594.84
645.42	615.64
645.867	640.54
646.315	654.74
646.762	679.64
647.21	710.34
647.657	726.34
648.104	751.64
648.551	774.74
648.999	834.34
649.446	901.94
649.893	987.64
650.34	1139.54
650.787	1361.74
651.234	1661.84
651.682	2141.94
652.129	2881.24
652.576	4086.94
653.023	5969.94
653.47	8096.04
653.917	10069.14
654.363	11582.64
654.81	12789.54
655.257	12142.34
655.704	8069.84
656.151	4853.04
656.598	3196.34
657.044	2289.54
657.491	1785.74
657.938	1435.54
658.385	1224.24
658.831	1053.44
659.278	959.84
659.724	850.04
660.171	793.44
660.618	732.14
661.064	696.14
661.511	673.84
661.957	652.84
662.404	654.44
662.85	657.34
663.296	644.24
663.743	582.74
664.189	552.24
664.635	543.84
665.082	538.84
665.528	547.04
665.974	533.34
666.42	532.74
666.867	525.94
667.313	508.14
667.759	471.64
668.205	465.44
668.651	467.54
669.097	460.64
669.543	456.14
669.989	462.14
670.435	464.34
670.881	460.14
671.327	472.44
671.773	485.84
672.219	505.64
672.665	566.24
673.11	610.54
673.556	665.64
674.002	697.94
674.448	693.64
674.893	568.34
675.339	489.94
675.785	458.54
676.23	436.64
676.676	408.74
677.122	400.64
677.567	390.84
678.013	384.94
678.458	380.14
678.904	377.24
679.349	363.34
679.794	374.94
680.24	365.14
680.685	366.94
681.131	369.64
681.576	370.14
682.021	370.44
682.466	374.14
682.912	369.14
683.357	376.04
683.802	400.54
684.247	426.04
684.692	475.34
685.137	514.14
685.583	557.64
686.028	584.04
686.473	539.04
686.918	458.84
687.363	430.24
687.807	405.34
688.252	383.04
688.697	374.04
689.142	349.64
689.587	353.04
690.032	339.94
690.477	359.14
690.921	367.04
691.366	403.64
691.811	417.14
692.255	442.14
692.7	479.14
693.145	518.14
693.589	725.64
694.034	1181.44
694.478	1607.84
694.923	1828.74
695.367	2378.24
695.812	1253.34
696.256	521.54
696.701	386.24
697.145	363.04
697.59	341.04
698.034	336.74
698.478	334.94
698.922	333.14
699.367	340.64
699.811	342.04
700.255	372.04
700.699	392.04
701.143	438.74
701.588	496.24
702.032	532.34
702.476	531.04
702.92	514.94
703.364	525.14
703.808	682.94
704.252	1096.44
704.696	1541.04
705.14	1761.14
705.584	2227.64
706.027	1103.34
706.471	549.64
706.915	420.74
707.359	363.74
707.803	334.04
708.246	319.74
708.69	316.64
709.134	324.14
709.577	330.44
710.021	328.34
710.465	323.04
710.908	307.54
711.352	312.44
711.795	324.64
712.239	365.14
712.682	405.04
713.126	425.84
713.569	476.34
714.012	371.04
714.456	306.84
714.899	294.04
715.342	277.04
715.786	270.74
716.229	275.64
716.672	274.04
717.115	256.04
717.558	263.24
718.002	262.44
718.445	269.64
718.888	289.24
719.331	304.04
719.774	314.84
720.217	316.84
720.66	297.64
721.103	280.34
721.546	267.94
721.989	251.04
722.432	242.34
722.874	247.54
723.317	240.94
723.76	245.44
724.203	275.24
724.645	325.64
725.088	461.74
725.531	596.24
725.974	672.94
726.416	583.84
726.859	324.14
727.301	260.44
727.744	252.44
728.187	242.54
728.629	251.64
729.071	262.54
729.514	266.24
729.956	279.74
730.399	299.64
730.841	299.94
731.283	282.84
731.726	279.04
732.168	281.24
732.61	271.34
733.053	299.54
733.495	327.34
733.937	373.04
734.379	417.14
734.821	451.34
735.263	578.64
735.705	877.54
736.148	1663.54
736.59	2704.64
737.032	3212.74
737.474	2621.54
737.916	859.94
738.357	445.34
738.799	352.44
739.241	310.84
739.683	304.54
740.125	303.94
740.567	303.84
741.008	333.44
741.45	326.44
741.892	334.54
742.334	368.74
742.775	374.14
743.217	368.14
743.658	286.54
744.1	269.84
744.542	277.24
744.983	331.94
745.425	368.84
745.866	368.44
746.307	294.94
746.749	289.84
747.19	339.64
747.632	477.64
748.073	926.54
748.514	1969.54
748.956	3006.64
749.397	3788.14
749.838	3132.24
750.279	3119.84
750.72	1576.04
751.162	578.94
751.603	338.74
752.044	260.84
752.485	228.04
752.926	222.94
753.367	211.24
753.808	202.44
754.249	197.94
754.69	193.74
755.131	191.94
755.572	190.14
756.013	189.14
756.453	187.84
756.894	196.14
757.335	200.84
757.776	210.44
758.216	203.44
758.657	202.94
759.098	216.24
759.538	239.04
759.979	275.74
760.42	401.74
760.86	746.94
761.301	1936.34
761.741	4659.44
762.182	6763.04
762.622	4760.64
