Data from 20171114-ORNL-Ar_H_NY_Subt18_08-06-47-759.txt Node
Date: Tue Nov 14 08:06:47 EST 2017
User: Ender
Spectrometer: HR+D1039
Trigger mode: 0
Integration Time (sec): 2.730000E-2
Scans to average: 10
Electric dark correction enabled: true
Nonlinearity correction enabled: false
Boxcar width: 0
XAxis mode: Wavelengths
Number of Pixels in Spectrum: 2048
>>>>>Begin Spectral Data<<<<<
187.836	-2.44
188.309	-2.44
188.782	-2.44
189.255	4.96
189.728	2.26
190.201	5.36
190.674	-0.94
191.147	4.26
191.619	-9.54
192.092	2.76
192.565	1.96
193.038	-2.34
193.511	-3.74
193.984	1.86
194.456	-2.04
194.929	4.56
195.402	-1.84
195.874	-5.14
196.347	-0.14
196.82	-0.94
197.292	7.76
197.765	2.06
198.237	-8.44
198.71	-1.74
199.182	-3.14
199.655	4.06
200.127	6.26
200.6	-0.24
201.072	1.16
201.544	-2.04
202.017	-5.94
202.489	1.96
202.961	4.16
203.433	4.06
203.906	-0.34
204.378	-6.04
204.85	-2.34
205.322	-7.84
205.794	-0.44
206.266	0.96
206.739	-4.94
207.211	5.26
207.683	-7.74
208.155	-8.04
208.627	-10.34
209.099	-4.54
209.57	-6.14
210.042	-5.34
210.514	-5.34
210.986	-5.94
211.458	-7.34
211.93	-2.44
212.402	3.96
212.873	-6.44
213.345	-5.94
213.817	-16.24
214.288	2.46
214.76	-11.04
215.232	-5.84
215.703	-2.04
216.175	-4.14
216.646	-2.14
217.118	-7.04
217.589	-2.94
218.061	-4.04
218.532	-9.24
219.004	-3.14
219.475	-2.14
219.946	0.26
220.418	-3.84
220.889	-1.84
221.36	3.76
221.832	-5.94
222.303	-6.84
222.774	4.56
223.245	-4.34
223.717	-3.84
224.188	-2.24
224.659	-8.94
225.13	-3.34
225.601	-2.14
226.072	-1.84
226.543	-3.04
227.014	-1.34
227.485	0.46
227.956	-7.64
228.427	-7.44
228.898	-4.14
229.369	4.06
229.839	3.36
230.31	-6.14
230.781	-1.74
231.252	-1.64
231.722	-6.34
232.193	-4.94
232.664	2.86
233.135	4.46
233.605	-1.04
234.076	-8.04
234.546	-6.04
235.017	7.36
235.487	-0.24
235.958	2.06
236.428	1.36
236.899	-2.84
237.369	0.76
237.84	-6.04
238.31	1.26
238.78	-7.64
239.251	-8.04
239.721	-8.54
240.191	-0.14
240.662	2.96
241.132	-1.94
241.602	-2.44
242.072	2.06
242.542	3.36
243.013	-2.34
243.483	5.56
243.953	-0.04
244.423	3.66
244.893	-2.34
245.363	-1.64
245.833	-1.64
246.303	-1.74
246.773	3.56
247.243	-0.74
247.712	0.46
248.182	5.86
248.652	4.76
249.122	-11.24
249.592	-0.34
250.061	0.46
250.531	11.06
251.001	-0.34
251.471	4.16
251.94	6.26
252.41	-3.94
252.879	-12.64
253.349	6.66
253.818	12.76
254.288	6.26
254.757	4.96
255.227	-2.74
255.696	1.96
256.166	8.66
256.635	-0.04
257.105	4.66
257.574	-3.54
258.043	1.96
258.513	-4.84
258.982	7.56
259.451	2.56
259.92	4.76
260.389	-0.04
260.859	7.26
261.328	-4.74
261.797	7.46
262.266	5.66
262.735	11.86
263.204	4.76
263.673	-1.34
264.142	6.16
264.611	-2.04
265.08	4.46
265.549	3.56
266.018	5.46
266.487	-5.24
266.955	-5.04
267.424	1.76
267.893	9.76
268.362	-2.14
268.83	3.96
269.299	8.86
269.768	9.66
270.236	0.66
270.705	2.36
271.174	6.66
271.642	1.26
272.111	5.96
272.579	6.86
273.048	3.96
273.516	3.76
273.985	7.26
274.453	10.26
274.922	10.56
275.39	9.76
275.858	4.76
276.327	11.96
276.795	14.96
277.263	6.36
277.731	8.86
278.2	5.56
278.668	5.16
279.136	13.56
279.604	7.26
280.072	11.26
280.54	11.76
281.008	10.36
281.477	17.46
281.945	9.86
282.413	9.76
282.881	16.66
283.348	10.46
283.816	15.06
284.284	13.96
284.752	16.86
285.22	12.76
285.688	7.06
286.156	13.16
286.623	16.96
287.091	10.76
287.559	14.16
288.026	19.26
288.494	7.06
288.962	3.46
289.429	7.46
289.897	13.36
290.364	10.56
290.832	11.76
291.3	8.76
291.767	13.86
292.234	19.16
292.702	13.06
293.169	16.96
293.637	18.86
294.104	20.06
294.571	7.16
295.039	11.06
295.506	12.16
295.973	16.86
296.44	19.66
296.908	19.66
297.375	13.06
297.842	17.86
298.309	16.56
298.776	8.06
299.243	18.96
299.71	9.26
300.177	25.76
300.644	18.86
301.111	20.16
301.578	20.46
302.045	15.66
302.512	17.16
302.979	21.56
303.446	18.96
303.913	15.76
304.379	18.36
304.846	22.66
305.313	27.76
305.78	21.76
306.246	18.36
306.713	21.06
307.18	26.06
307.646	24.16
308.113	23.96
308.579	24.66
309.046	28.06
309.512	28.66
309.979	20.36
310.445	26.36
310.912	23.16
311.378	25.56
311.845	30.76
312.311	29.96
312.777	29.76
313.244	25.26
313.71	35.26
314.176	28.16
314.642	24.76
315.109	30.26
315.575	29.36
316.041	34.86
316.507	31.46
316.973	30.16
317.439	31.86
317.905	34.76
318.371	39.36
318.837	32.26
319.303	31.76
319.769	28.56
320.235	29.96
320.701	34.46
321.167	38.36
321.633	25.56
322.099	30.06
322.564	42.76
323.03	39.36
323.496	36.06
323.962	37.36
324.427	36.76
324.893	42.66
325.359	37.66
325.824	38.46
326.29	35.76
326.755	37.26
327.221	39.96
327.686	33.86
328.152	41.26
328.617	41.96
329.083	48.96
329.548	49.36
330.014	46.16
330.479	35.36
330.944	41.76
331.41	37.86
331.875	41.76
332.34	40.76
332.805	41.96
333.271	38.36
333.736	35.86
334.201	47.36
334.666	45.86
335.131	51.26
335.596	51.26
336.061	50.66
336.526	44.86
336.991	43.26
337.456	55.16
337.921	50.06
338.386	44.36
338.851	50.16
339.316	44.46
339.781	51.86
340.246	52.86
340.711	47.26
341.175	51.96
341.64	46.46
342.105	52.56
342.569	55.26
343.034	51.76
343.499	54.76
343.963	57.86
344.428	63.96
344.893	59.86
345.357	58.46
345.822	57.46
346.286	68.36
346.751	72.66
347.215	72.16
347.679	73.36
348.144	95.76
348.608	82.66
349.073	63.36
349.537	72.96
350.001	78.06
350.465	85.86
350.93	79.16
351.394	73.76
351.858	69.96
352.322	84.56
352.786	82.46
353.25	96.46
353.715	107.86
354.179	99.16
354.643	117.26
355.107	118.66
355.571	94.96
356.035	96.86
356.498	112.46
356.962	109.46
357.426	117.96
357.89	102.36
358.354	92.96
358.818	79.26
359.281	76.06
359.745	73.86
360.209	74.56
360.673	76.96
361.136	81.86
361.6	84.26
362.064	81.76
362.527	81.66
362.991	85.66
363.454	77.16
363.918	79.16
364.381	83.36
364.845	87.76
365.308	89.06
365.772	83.66
366.235	92.76
366.698	77.96
367.162	86.56
367.625	82.36
368.088	85.66
368.552	88.46
369.015	93.36
369.478	94.86
369.941	95.16
370.404	97.36
370.867	100.66
371.331	96.16
371.794	109.76
372.257	103.26
372.72	99.86
373.183	106.26
373.646	97.96
374.109	93.36
374.572	97.66
375.035	105.66
375.497	105.76
375.96	109.46
376.423	107.86
376.886	110.76
377.349	110.86
377.811	94.46
378.274	104.66
378.737	105.66
379.199	113.26
379.662	109.26
380.125	114.96
380.587	107.56
381.05	111.06
381.512	111.96
381.975	125.56
382.437	116.66
382.9	119.76
383.362	130.26
383.825	132.26
384.287	123.26
384.75	128.96
385.212	129.86
385.674	136.46
386.136	142.56
386.599	127.96
387.061	125.36
387.523	128.86
387.985	133.16
388.447	133.56
388.91	127.76
389.372	131.46
389.834	137.86
390.296	136.86
390.758	132.16
391.22	139.26
391.682	149.26
392.144	155.36
392.606	153.86
393.068	143.56
393.529	155.56
393.991	140.76
394.453	139.36
394.915	140.76
395.377	142.96
395.838	137.16
396.3	135.96
396.762	142.66
397.224	142.36
397.685	135.66
398.147	131.36
398.608	135.56
399.07	130.36
399.531	144.26
399.993	148.86
400.454	155.86
400.916	154.56
401.377	147.66
401.839	159.36
402.3	161.46
402.762	174.16
403.223	186.76
403.684	178.56
404.145	169.56
404.607	169.26
405.068	166.16
405.529	172.46
405.99	189.86
406.451	177.36
406.913	182.36
407.374	172.86
407.835	167.06
408.296	172.76
408.757	178.76
409.218	193.56
409.679	184.26
410.14	180.96
410.601	183.56
411.062	191.16
411.522	189.96
411.983	187.46
412.444	186.46
412.905	190.26
413.366	192.36
413.826	205.26
414.287	232.06
414.748	287.66
415.208	268.66
415.669	227.86
416.13	217.66
416.59	223.96
417.051	230.56
417.511	237.06
417.972	251.46
418.432	269.66
418.893	310.16
419.353	264.86
419.814	218.36
420.274	192.66
420.734	194.86
421.195	208.36
421.655	197.56
422.115	203.46
422.576	205.76
423.036	210.96
423.496	226.26
423.956	234.86
424.416	244.96
424.876	282.46
425.336	279.46
425.797	272.16
426.257	266.56
426.717	260.96
427.177	245.96
427.637	228.36
428.097	236.96
428.556	260.56
429.016	281.76
429.476	275.96
429.936	279.06
430.396	293.26
430.856	301.86
431.315	325.06
431.775	354.46
432.235	394.26
432.694	370.26
433.154	380.76
433.614	401.46
434.073	349.26
434.533	292.76
434.993	282.66
435.452	303.16
435.912	308.06
436.371	298.76
436.83	288.66
437.29	277.16
437.749	259.76
438.209	266.76
438.668	284.86
439.127	298.36
439.587	279.56
440.046	265.46
440.505	278.66
440.964	292.56
441.424	340.86
441.883	326.56
442.342	280.56
442.801	242.16
443.26	235.76
443.719	249.56
444.178	244.46
444.637	227.16
445.096	237.46
445.555	240.86
446.014	244.06
446.473	249.66
446.932	253.26
447.391	246.16
447.849	253.26
448.308	244.86
448.767	238.36
449.226	259.86
449.685	255.36
450.143	272.66
450.602	261.86
451.061	246.86
451.519	251.16
451.978	253.06
452.436	256.96
452.895	259.26
453.353	269.16
453.812	257.46
454.27	260.56
454.729	265.96
455.187	263.66
455.646	267.06
456.104	272.56
456.562	284.06
457.021	283.16
457.479	278.96
457.937	299.46
458.395	286.26
458.854	271.86
459.312	279.26
459.77	297.36
460.228	279.16
460.686	262.26
461.144	271.66
461.602	271.36
462.06	270.16
462.518	280.46
462.976	274.46
463.434	279.36
463.892	285.96
464.35	295.06
464.808	310.26
465.266	286.16
465.724	294.66
466.181	300.36
466.639	291.76
467.097	312.86
467.555	332.76
468.012	325.06
468.47	341.16
468.928	362.36
469.385	373.46
469.843	376.86
470.3	381.66
470.758	388.66
471.215	417.66
471.673	435.16
472.13	436.46
472.588	445.86
473.045	404.16
473.503	417.16
473.96	422.46
474.417	434.86
474.875	465.66
475.332	512.96
475.789	490.76
476.246	505.16
476.704	522.96
477.161	545.36
477.618	552.86
478.075	598.06
478.532	645.36
478.989	738.26
479.446	839.56
479.903	807.16
480.36	833.56
480.817	876.26
481.274	976.76
481.731	1063.46
482.188	1149.06
482.645	1270.76
483.102	1375.06
483.558	1489.86
484.015	1527.96
484.472	1515.96
484.929	1469.56
485.385	1439.06
485.842	1391.36
486.299	1345.06
486.755	1294.46
487.212	1110.96
487.668	951.56
488.125	878.46
488.582	813.06
489.038	791.36
489.494	743.16
489.951	731.96
490.407	709.86
490.864	686.46
491.32	685.76
491.776	681.96
492.233	693.86
492.689	658.66
493.145	654.56
493.602	646.66
494.058	660.86
494.514	654.56
494.97	675.26
495.426	691.16
495.882	667.56
496.338	661.36
496.794	667.66
497.251	661.96
497.707	681.46
498.163	681.86
498.618	688.36
499.074	683.66
499.53	715.06
499.986	714.46
500.442	684.86
500.898	671.06
501.354	661.26
501.809	657.86
502.265	675.36
502.721	678.96
503.177	682.56
503.632	691.26
504.088	692.66
504.543	715.76
504.999	740.36
505.455	713.96
505.91	688.76
506.366	685.26
506.821	680.76
507.277	684.06
507.732	679.96
508.187	691.76
508.643	693.76
509.098	694.86
509.553	719.46
510.009	723.46
510.464	735.26
510.919	749.66
511.375	749.56
511.83	768.76
512.285	777.96
512.74	814.56
513.195	846.46
513.65	832.06
514.105	832.06
514.56	836.36
515.015	854.56
515.47	871.76
515.925	842.56
516.38	841.06
516.835	865.46
517.29	845.46
517.745	840.66
518.2	833.36
518.655	814.26
519.109	803.66
519.564	809.46
520.019	790.56
520.474	787.46
520.928	781.06
521.383	783.16
521.838	766.56
522.292	767.06
522.747	773.46
523.201	757.06
523.656	747.76
524.11	745.56
524.565	737.36
525.019	751.26
525.474	752.26
525.928	752.66
526.382	745.96
526.837	751.26
527.291	757.76
527.745	767.36
528.2	754.26
528.654	750.56
529.108	741.96
529.562	738.96
530.016	741.66
530.47	740.56
530.925	737.96
531.379	747.26
531.833	762.06
532.287	756.26
532.741	751.86
533.195	761.86
533.649	764.26
534.103	772.16
534.556	767.86
535.01	759.16
535.464	753.76
535.918	756.36
536.372	773.46
536.826	773.46
537.279	759.76
537.733	763.16
538.187	775.16
538.64	772.06
539.094	782.36
539.548	783.46
540.001	771.76
540.455	783.76
540.908	788.16
541.362	791.96
541.815	803.66
542.269	815.56
542.722	828.36
543.175	826.96
543.629	828.46
544.082	836.26
544.536	845.26
544.989	851.06
545.442	854.56
545.895	852.86
546.349	856.56
546.802	856.76
547.255	863.76
547.708	864.26
548.161	886.56
548.614	889.86
549.067	900.46
549.52	889.66
549.973	868.96
550.426	868.06
550.879	863.16
551.332	863.26
551.785	871.76
552.238	876.36
552.691	888.86
553.144	901.46
553.596	914.16
554.049	922.26
554.502	963.16
554.955	984.36
555.407	981.36
555.86	970.36
556.313	953.56
556.765	956.46
557.218	953.36
557.67	957.36
558.123	950.76
558.576	946.46
559.028	941.56
559.48	951.16
559.933	933.56
560.385	901.16
560.838	868.46
561.29	855.76
561.742	848.36
562.195	830.66
562.647	831.46
563.099	843.56
563.551	833.06
564.004	852.16
564.456	838.66
564.908	821.66
565.36	794.96
565.812	789.06
566.264	772.26
566.716	766.76
567.168	757.66
567.62	761.76
568.072	754.46
568.524	748.06
568.976	751.16
569.428	722.56
569.88	719.56
570.332	730.06
570.784	735.46
571.235	733.36
571.687	752.06
572.139	761.96
572.59	769.96
573.042	761.16
573.494	767.36
573.945	752.96
574.397	735.76
574.849	744.86
575.3	737.76
575.752	739.46
576.203	728.66
576.655	737.16
577.106	724.86
577.557	720.06
578.009	727.56
578.46	709.16
578.912	707.96
579.363	714.66
579.814	724.16
580.265	712.66
580.717	708.76
581.168	718.26
581.619	726.26
582.07	727.76
582.521	718.26
582.972	719.16
583.423	723.06
583.875	724.76
584.326	734.86
584.777	748.06
585.227	769.06
585.678	779.46
586.129	792.16
586.58	802.26
587.031	832.26
587.482	864.66
587.933	884.06
588.384	867.46
588.834	829.26
589.285	829.66
589.736	831.06
590.186	822.76
590.637	821.66
591.088	798.26
591.538	801.36
591.989	780.66
592.439	766.16
592.89	750.46
593.34	759.96
593.791	752.36
594.241	737.36
594.692	736.96
595.142	737.36
595.593	739.96
596.043	745.76
596.493	747.16
596.943	751.16
597.394	767.46
597.844	760.66
598.294	788.66
598.744	814.46
599.195	836.76
599.645	875.76
600.095	915.36
600.545	975.96
600.995	1031.26
601.445	1095.16
601.895	1159.36
602.345	1209.66
602.795	1189.86
603.245	1151.46
603.695	1083.86
604.145	1018.96
604.594	977.26
605.044	925.36
605.494	853.76
605.944	805.96
606.393	788.56
606.843	780.16
607.293	780.66
607.743	770.36
608.192	783.66
608.642	799.56
609.091	813.66
609.541	811.06
609.99	810.26
610.44	808.26
610.889	754.76
611.339	735.96
611.788	726.46
612.238	726.56
612.687	749.66
613.136	743.16
613.586	749.16
614.035	735.16
614.484	762.26
614.933	751.86
615.383	751.96
615.832	745.56
616.281	741.36
616.73	712.46
617.179	690.66
617.628	683.66
618.077	673.46
618.526	657.46
618.975	660.36
619.424	652.26
619.873	648.76
620.322	653.16
620.771	642.96
621.22	642.96
621.669	622.86
622.118	621.66
622.567	610.86
623.015	608.36
623.464	615.16
623.913	593.26
624.361	590.26
624.81	580.36
625.259	582.56
625.707	592.76
626.156	596.06
626.604	609.56
627.053	594.76
627.501	603.76
627.95	607.16
628.398	620.06
628.847	605.16
629.295	603.86
629.744	611.16
630.192	601.06
630.64	592.16
631.089	587.46
631.537	570.66
631.985	561.56
632.433	554.56
632.881	553.86
633.33	561.56
633.778	547.56
634.226	549.76
634.674	570.46
635.122	558.26
635.57	579.06
636.018	607.16
636.466	594.86
636.914	586.56
637.362	599.76
637.81	607.26
638.258	615.86
638.705	611.26
639.153	643.26
639.601	652.26
640.049	678.96
640.497	700.46
640.944	729.56
641.392	689.26
641.84	657.96
642.287	620.46
642.735	600.96
643.182	592.36
643.63	594.96
644.078	592.46
644.525	608.36
644.973	617.16
645.42	617.16
645.867	639.36
646.315	665.06
646.762	686.56
647.21	724.46
647.657	733.46
648.104	764.56
648.551	789.76
648.999	839.16
649.446	917.86
649.893	1010.26
650.34	1151.36
650.787	1375.16
651.234	1699.86
651.682	2167.96
652.129	2935.76
652.576	4156.86
653.023	6043.66
653.47	8180.56
653.917	10187.06
654.363	11747.96
654.81	12950.66
655.257	12309.16
655.704	8153.46
656.151	4919.86
656.598	3232.16
657.044	2322.36
657.491	1805.46
657.938	1460.56
658.385	1225.46
658.831	1088.96
659.278	972.86
659.724	866.66
660.171	807.76
660.618	728.26
661.064	703.56
661.511	688.46
661.957	673.06
662.404	664.46
662.85	673.66
663.296	650.26
663.743	579.96
664.189	566.86
664.635	553.56
665.082	551.76
665.528	550.86
665.974	538.46
666.42	537.96
666.867	535.46
667.313	511.06
667.759	495.06
668.205	479.56
668.651	477.96
669.097	469.06
669.543	463.76
669.989	467.16
670.435	465.16
670.881	475.36
671.327	477.96
671.773	497.26
672.219	524.56
672.665	580.06
673.11	614.36
673.556	671.56
674.002	705.56
674.448	689.66
674.893	588.56
675.339	506.56
675.785	464.56
676.23	447.56
676.676	416.56
677.122	405.16
677.567	397.86
678.013	392.46
678.458	384.36
678.904	389.36
679.349	376.16
679.794	377.66
680.24	371.46
680.685	359.36
681.131	364.96
681.576	371.26
682.021	376.36
682.466	369.06
682.912	371.66
683.357	379.36
683.802	403.76
684.247	431.36
684.692	482.46
685.137	528.46
685.583	575.66
686.028	599.56
686.473	547.56
686.918	470.46
687.363	440.36
687.807	427.56
688.252	387.66
688.697	373.56
689.142	360.76
689.587	351.06
690.032	347.76
690.477	366.06
690.921	370.56
691.366	404.06
691.811	424.76
692.255	452.76
692.7	485.56
693.145	528.36
693.589	752.06
694.034	1205.66
694.478	1641.26
694.923	1841.76
695.367	2406.46
695.812	1281.56
696.256	540.36
696.701	399.16
697.145	363.16
697.59	352.16
698.034	342.46
698.478	344.86
698.922	339.16
699.367	341.76
699.811	351.46
700.255	376.16
700.699	404.66
701.143	446.66
701.588	498.66
702.032	542.66
702.476	537.96
702.92	522.66
703.364	524.26
703.808	683.46
704.252	1100.26
704.696	1536.96
705.14	1784.76
705.584	2275.46
706.027	1138.76
706.471	560.56
706.915	423.46
707.359	367.56
707.803	347.06
708.246	338.26
708.69	334.66
709.134	334.36
709.577	331.06
710.021	323.66
710.465	324.46
710.908	322.76
711.352	309.56
711.795	320.46
712.239	375.16
712.682	408.16
713.126	434.06
713.569	480.76
714.012	376.16
714.456	315.06
714.899	299.56
715.342	295.06
715.786	273.26
716.229	275.36
716.672	272.26
717.115	262.26
717.558	271.46
718.002	265.06
718.445	278.46
718.888	303.46
719.331	304.76
719.774	316.36
720.217	325.46
720.66	297.16
721.103	285.46
721.546	270.26
721.989	257.26
722.432	244.46
722.874	249.76
723.317	237.16
723.76	247.66
724.203	267.66
724.645	334.46
725.088	475.26
725.531	599.76
725.974	684.06
726.416	581.16
726.859	318.36
727.301	263.96
727.744	251.16
728.187	251.76
728.629	251.56
729.071	262.06
729.514	266.26
729.956	283.56
730.399	300.16
730.841	303.06
731.283	286.66
731.726	288.06
732.168	280.56
732.61	279.96
733.053	299.26
733.495	338.26
733.937	372.06
734.379	413.46
734.821	459.86
735.263	580.36
735.705	882.26
736.148	1689.46
736.59	2758.66
737.032	3268.66
737.474	2649.66
737.916	861.36
738.357	459.86
738.799	362.86
739.241	320.16
739.683	296.56
740.125	311.66
740.567	313.46
741.008	334.46
741.45	329.66
741.892	335.56
742.334	377.16
742.775	377.26
743.217	373.06
743.658	290.86
744.1	278.96
744.542	286.76
744.983	334.76
745.425	370.66
745.866	364.86
746.307	296.76
746.749	294.66
747.19	346.06
747.632	488.06
748.073	931.86
748.514	1985.06
748.956	3038.86
749.397	3820.26
749.838	3173.06
750.279	3167.36
750.72	1601.86
751.162	593.96
751.603	350.36
752.044	264.76
752.485	222.26
752.926	220.26
753.367	219.86
753.808	206.96
754.249	203.76
754.69	191.46
755.131	191.36
755.572	191.76
756.013	201.06
756.453	197.06
756.894	195.76
757.335	197.76
757.776	208.46
758.216	203.96
758.657	205.56
759.098	217.16
759.538	241.36
759.979	284.46
760.42	391.56
760.86	757.26
761.301	1955.86
761.741	4731.16
762.182	6852.06
762.622	4818.66
763.063	1399.96
