Data from 20171114-ORNL-Ar_H_NY_Subt18_08-06-04-082.txt Node
Date: Tue Nov 14 08:06:04 EST 2017
User: Ender
Spectrometer: HR+D1039
Trigger mode: 0
Integration Time (sec): 2.730000E-2
Scans to average: 10
Electric dark correction enabled: true
Nonlinearity correction enabled: false
Boxcar width: 0
XAxis mode: Wavelengths
Number of Pixels in Spectrum: 2048
>>>>>Begin Spectral Data<<<<<
187.836	-3.09
188.309	-3.09
188.782	-3.09
189.255	-1.09
189.728	-2.49
190.201	6.61
190.674	2.21
191.147	5.81
191.619	-6.09
192.092	1.51
192.565	6.01
193.038	1.61
193.511	1.71
193.984	-4.19
194.456	0.01
194.929	-2.39
195.402	-6.39
195.874	0.31
196.347	-2.49
196.82	-0.39
197.292	6.41
197.765	2.01
198.237	-6.29
198.71	7.51
199.182	1.91
199.655	3.11
200.127	3.11
200.6	-6.69
201.072	1.01
201.544	-6.29
202.017	-0.29
202.489	1.51
202.961	1.21
203.433	-5.79
203.906	-6.19
204.378	-7.99
204.85	0.61
205.322	-8.69
205.794	-1.99
206.266	-3.09
206.739	-3.49
207.211	8.01
207.683	-9.79
208.155	-2.89
208.627	-9.09
209.099	-0.79
209.57	-9.99
210.042	-1.69
210.514	1.91
210.986	-3.59
211.458	-7.59
211.93	-4.09
212.402	-0.09
212.873	-2.49
213.345	-8.29
213.817	-7.99
214.288	-1.49
214.76	-7.19
215.232	-2.89
215.703	1.01
216.175	0.51
216.646	-2.09
217.118	-9.99
217.589	-4.89
218.061	-6.39
218.532	-3.29
219.004	-6.19
219.475	-0.99
219.946	2.91
220.418	-3.69
220.889	6.21
221.36	3.41
221.832	4.31
222.303	-3.99
222.774	-0.29
223.245	-10.39
223.717	-2.39
224.188	1.71
224.659	-12.79
225.13	-5.99
225.601	3.71
226.072	2.41
226.543	4.01
227.014	2.91
227.485	4.61
227.956	-6.89
228.427	1.91
228.898	-2.99
229.369	13.11
229.839	-1.49
230.31	-2.99
230.781	4.41
231.252	-3.19
231.722	0.41
232.193	3.71
232.664	5.21
233.135	-4.39
233.605	4.71
234.076	-8.59
234.546	2.81
235.017	6.91
235.487	2.31
235.958	-0.99
236.428	-0.39
236.899	10.61
237.369	1.01
237.84	0.71
238.31	8.31
238.78	10.21
239.251	4.51
239.721	4.01
240.191	-0.59
240.662	2.71
241.132	7.01
241.602	4.11
242.072	-3.09
242.542	3.81
243.013	3.71
243.483	5.71
243.953	4.91
244.423	1.31
244.893	-2.69
245.363	1.91
245.833	3.71
246.303	2.01
246.773	4.31
247.243	1.31
247.712	1.11
248.182	6.01
248.652	4.31
249.122	3.71
249.592	16.91
250.061	20.21
250.531	38.11
251.001	16.31
251.471	23.91
251.94	16.41
252.41	10.61
252.879	-1.59
253.349	17.01
253.818	11.71
254.288	8.01
254.757	6.31
255.227	5.21
255.696	-0.09
256.166	0.81
256.635	7.11
257.105	11.91
257.574	8.71
258.043	9.11
258.513	15.81
258.982	17.31
259.451	9.41
259.92	18.41
260.389	9.41
260.859	20.91
261.328	15.11
261.797	21.41
262.266	10.21
262.735	14.41
263.204	11.91
263.673	10.01
264.142	9.11
264.611	-4.19
265.08	5.21
265.549	4.01
266.018	6.21
266.487	5.21
266.955	-1.09
267.424	7.91
267.893	7.81
268.362	8.31
268.83	3.81
269.299	12.21
269.768	6.61
270.236	17.81
270.705	5.91
271.174	7.91
271.642	5.61
272.111	13.51
272.579	22.71
273.048	21.81
273.516	31.91
273.985	33.01
274.453	35.61
274.922	21.71
275.39	11.91
275.858	6.21
276.327	13.41
276.795	20.81
277.263	10.41
277.731	37.11
278.2	59.11
278.668	67.61
279.136	52.21
279.604	19.51
280.072	14.21
280.54	14.71
281.008	14.31
281.477	15.41
281.945	13.21
282.413	16.11
282.881	18.31
283.348	1.21
283.816	18.61
284.284	15.11
284.752	22.41
285.22	13.61
285.688	15.71
286.156	21.51
286.623	49.11
287.091	61.41
287.559	32.11
288.026	21.61
288.494	20.51
288.962	5.81
289.429	15.41
289.897	18.61
290.364	21.01
290.832	18.51
291.3	16.91
291.767	21.21
292.234	20.41
292.702	15.31
293.169	16.61
293.637	19.61
294.104	15.91
294.571	12.41
295.039	12.01
295.506	18.71
295.973	17.81
296.44	20.21
296.908	22.01
297.375	24.31
297.842	24.11
298.309	18.11
298.776	16.91
299.243	24.21
299.71	13.61
300.177	21.91
300.644	22.81
301.111	19.51
301.578	25.61
302.045	25.21
302.512	23.41
302.979	26.31
303.446	21.31
303.913	22.91
304.379	22.31
304.846	32.01
305.313	26.81
305.78	23.01
306.246	33.21
306.713	30.11
307.18	33.51
307.646	29.51
308.113	31.01
308.579	26.41
309.046	27.21
309.512	27.71
309.979	23.61
310.445	27.01
310.912	27.71
311.378	37.11
311.845	20.41
312.311	30.11
312.777	33.51
313.244	34.51
313.71	42.01
314.176	33.51
314.642	35.71
315.109	36.61
315.575	38.51
316.041	42.61
316.507	42.31
316.973	41.41
317.439	40.11
317.905	43.51
318.371	41.21
318.837	36.11
319.303	48.21
319.769	39.61
320.235	40.71
320.701	37.61
321.167	36.21
321.633	41.91
322.099	48.51
322.564	47.41
323.03	46.91
323.496	36.11
323.962	44.21
324.427	38.01
324.893	45.01
325.359	40.61
325.824	44.71
326.29	37.11
326.755	35.91
327.221	44.31
327.686	42.01
328.152	53.21
328.617	46.91
329.083	53.81
329.548	51.41
330.014	54.71
330.479	41.21
330.944	51.11
331.41	40.51
331.875	54.11
332.34	40.41
332.805	53.11
333.271	54.21
333.736	46.01
334.201	56.81
334.666	58.11
335.131	64.51
335.596	53.31
336.061	55.31
336.526	43.21
336.991	53.61
337.456	53.21
337.921	51.41
338.386	46.11
338.851	43.21
339.316	47.61
339.781	47.61
340.246	51.31
340.711	49.41
341.175	57.01
341.64	48.71
342.105	54.71
342.569	59.41
343.034	62.71
343.499	58.21
343.963	54.71
344.428	68.11
344.893	72.81
345.357	64.31
345.822	68.71
346.286	73.81
346.751	89.51
347.215	70.31
347.679	85.91
348.144	103.51
348.608	90.91
349.073	75.61
349.537	83.31
350.001	90.21
350.465	89.91
350.93	88.41
351.394	83.21
351.858	76.01
352.322	92.51
352.786	97.41
353.25	108.11
353.715	118.21
354.179	108.31
354.643	131.01
355.107	130.51
355.571	109.61
356.035	113.31
356.498	126.11
356.962	124.61
357.426	146.01
357.89	122.21
358.354	103.11
358.818	88.31
359.281	82.01
359.745	78.71
360.209	84.81
360.673	86.61
361.136	89.01
361.6	93.21
362.064	95.31
362.527	92.51
362.991	94.91
363.454	92.21
363.918	82.91
364.381	89.81
364.845	85.51
365.308	93.51
365.772	89.91
366.235	93.81
366.698	91.21
367.162	92.01
367.625	94.41
368.088	89.71
368.552	92.41
369.015	96.11
369.478	100.21
369.941	106.91
370.404	101.61
370.867	114.21
371.331	113.91
371.794	119.91
372.257	114.61
372.72	126.71
373.183	110.81
373.646	111.81
374.109	113.21
374.572	110.31
375.035	114.11
375.497	124.61
375.96	120.11
376.423	108.31
376.886	124.01
377.349	110.61
377.811	110.81
378.274	114.41
378.737	111.01
379.199	119.61
379.662	121.41
380.125	129.31
380.587	126.31
381.05	126.71
381.512	137.11
381.975	140.91
382.437	137.61
382.9	137.81
383.362	140.41
383.825	151.71
384.287	157.91
384.75	151.71
385.212	150.81
385.674	146.41
386.136	145.21
386.599	137.81
387.061	134.21
387.523	141.01
387.985	142.91
388.447	155.71
388.91	153.41
389.372	168.21
389.834	163.41
390.296	155.71
390.758	164.11
391.22	184.51
391.682	217.81
392.144	313.41
392.606	242.01
393.068	173.91
393.529	174.51
393.991	159.31
394.453	155.11
394.915	169.61
395.377	202.31
395.838	218.21
396.3	164.61
396.762	157.71
397.224	142.61
397.685	132.91
398.147	136.61
398.608	135.91
399.07	136.81
399.531	144.81
399.993	156.31
400.454	162.01
400.916	151.61
401.377	150.61
401.839	155.31
402.3	164.31
402.762	177.41
403.223	191.91
403.684	179.01
404.145	170.91
404.607	165.81
405.068	172.31
405.529	178.41
405.99	200.11
406.451	181.31
406.913	180.01
407.374	171.11
407.835	171.21
408.296	180.21
408.757	180.71
409.218	192.51
409.679	190.71
410.14	184.71
410.601	184.41
411.062	190.81
411.522	200.71
411.983	212.41
412.444	188.91
412.905	185.61
413.366	192.01
413.826	203.01
414.287	228.51
414.748	277.11
415.208	262.01
415.669	223.91
416.13	220.61
416.59	211.91
417.051	217.51
417.511	223.11
417.972	255.81
418.432	254.11
418.893	291.71
419.353	266.41
419.814	209.21
420.274	190.31
420.734	195.91
421.195	197.51
421.655	204.81
422.115	202.01
422.576	204.01
423.036	207.01
423.496	222.11
423.956	228.31
424.416	248.21
424.876	278.51
425.336	278.31
425.797	275.91
426.257	274.91
426.717	263.81
427.177	238.71
427.637	242.91
428.097	251.81
428.556	259.21
429.016	285.61
429.476	282.41
429.936	287.51
430.396	300.21
430.856	304.81
431.315	331.71
431.775	363.31
432.235	396.01
432.694	374.21
433.154	381.11
433.614	421.11
434.073	360.51
434.533	299.71
434.993	282.01
435.452	302.01
435.912	312.61
436.371	302.01
436.83	301.51
437.29	287.51
437.749	265.11
438.209	252.31
438.668	292.01
439.127	300.61
439.587	271.81
440.046	262.41
440.505	272.21
440.964	294.71
441.424	336.11
441.883	327.21
442.342	265.61
442.801	232.61
443.26	228.11
443.719	230.11
444.178	226.41
444.637	222.61
445.096	235.91
445.555	235.41
446.014	237.51
446.473	239.11
446.932	248.71
447.391	238.91
447.849	239.91
448.308	225.11
448.767	233.01
449.226	247.91
449.685	243.91
450.143	255.51
450.602	249.21
451.061	240.31
451.519	237.41
451.978	250.11
452.436	249.81
452.895	246.81
453.353	257.91
453.812	252.61
454.27	250.21
454.729	243.81
455.187	256.91
455.646	252.01
456.104	259.81
456.562	271.41
457.021	283.41
457.479	277.21
457.937	280.41
458.395	283.11
458.854	260.71
459.312	273.71
459.77	279.51
460.228	268.51
460.686	259.31
461.144	262.51
461.602	255.01
462.06	256.41
462.518	268.21
462.976	269.41
463.434	264.71
463.892	271.11
464.35	296.11
464.808	303.61
465.266	277.91
465.724	275.41
466.181	285.41
466.639	294.21
467.097	305.91
467.555	319.61
468.012	317.71
468.47	316.31
468.928	347.21
469.385	353.41
469.843	362.51
470.3	361.81
470.758	387.01
471.215	411.21
471.673	434.81
472.13	424.91
472.588	438.41
473.045	387.31
473.503	395.01
473.96	412.51
474.417	419.31
474.875	456.61
475.332	497.41
475.789	492.31
476.246	484.71
476.704	507.31
477.161	531.31
477.618	546.11
478.075	593.51
478.532	655.71
478.989	726.01
479.446	841.31
479.903	811.41
480.36	834.91
480.817	905.81
481.274	1009.11
481.731	1121.71
482.188	1214.81
482.645	1370.01
483.102	1471.81
483.558	1620.41
484.015	1678.61
484.472	1644.21
484.929	1598.71
485.385	1543.51
485.842	1502.71
486.299	1418.41
486.755	1371.91
487.212	1141.51
487.668	969.41
488.125	895.41
488.582	808.91
489.038	779.81
489.494	749.61
489.951	717.71
490.407	700.71
490.864	681.81
491.32	679.31
491.776	671.11
492.233	672.81
492.689	633.81
493.145	633.71
493.602	619.21
494.058	643.81
494.514	644.31
494.97	673.11
495.426	668.51
495.882	652.01
496.338	645.71
496.794	646.41
497.251	655.91
497.707	660.91
498.163	656.71
498.618	668.61
499.074	677.21
499.53	699.01
499.986	712.11
500.442	677.21
500.898	657.81
501.354	653.01
501.809	665.71
502.265	658.31
502.721	680.11
503.177	705.61
503.632	692.01
504.088	703.31
504.543	744.51
504.999	727.71
505.455	679.21
505.91	657.81
506.366	660.41
506.821	650.31
507.277	646.21
507.732	638.11
508.187	653.41
508.643	653.41
509.098	663.61
509.553	686.41
510.009	683.21
510.464	697.51
510.919	709.11
511.375	725.01
511.83	734.91
512.285	752.21
512.74	786.01
513.195	816.11
513.65	806.91
514.105	797.21
514.56	800.51
515.015	818.51
515.47	849.31
515.925	815.21
516.38	817.91
516.835	838.01
517.29	813.31
517.745	800.71
518.2	790.51
518.655	773.71
519.109	780.81
519.564	773.71
520.019	755.51
520.474	764.91
520.928	750.31
521.383	745.31
521.838	740.31
522.292	738.91
522.747	734.41
523.201	722.61
523.656	720.11
524.11	714.61
524.565	718.61
525.019	714.61
525.474	731.01
525.928	722.01
526.382	711.91
526.837	726.61
527.291	732.21
527.745	725.51
528.2	712.61
528.654	715.61
529.108	712.61
529.562	720.71
530.016	727.11
530.47	714.21
530.925	711.21
531.379	722.51
531.833	733.61
532.287	727.71
532.741	734.91
533.195	723.51
533.649	741.11
534.103	742.41
534.556	741.71
535.01	738.31
535.464	731.91
535.918	743.61
536.372	742.81
536.826	738.01
537.279	722.71
537.733	729.81
538.187	736.61
538.64	736.21
539.094	747.51
539.548	758.01
540.001	748.41
540.455	746.31
540.908	747.91
541.362	772.01
541.815	773.01
542.269	784.51
542.722	781.71
543.175	791.31
543.629	803.11
544.082	819.51
544.536	800.11
544.989	811.71
545.442	816.11
545.895	806.21
546.349	813.11
546.802	817.91
547.255	822.21
547.708	834.01
548.161	833.71
548.614	850.81
549.067	841.41
549.52	843.91
549.973	840.31
550.426	834.01
550.879	822.91
551.332	819.61
551.785	837.91
552.238	831.01
552.691	837.31
553.144	847.71
553.596	872.21
554.049	890.01
554.502	924.11
554.955	937.41
555.407	937.21
555.86	931.31
556.313	927.11
556.765	903.01
557.218	914.31
557.67	919.21
558.123	905.31
558.576	900.21
559.028	906.01
559.48	905.81
559.933	900.71
560.385	855.21
560.838	822.61
561.29	804.31
561.742	797.51
562.195	792.01
562.647	791.71
563.099	795.71
563.551	805.31
564.004	797.91
564.456	787.51
564.908	781.91
565.36	772.61
565.812	757.51
566.264	741.21
566.716	748.81
567.168	732.51
567.62	753.41
568.072	730.91
568.524	723.01
568.976	704.51
569.428	694.91
569.88	694.71
570.332	703.61
570.784	700.01
571.235	708.61
571.687	712.41
572.139	714.01
572.59	729.81
573.042	724.31
573.494	732.61
573.945	724.91
574.397	707.41
574.849	709.51
575.3	710.11
575.752	708.91
576.203	692.21
576.655	696.71
577.106	686.11
577.557	687.01
578.009	683.01
578.46	688.51
578.912	677.81
579.363	682.71
579.814	687.91
580.265	676.81
580.717	686.51
581.168	689.51
581.619	687.61
582.07	699.11
582.521	689.01
582.972	692.41
583.423	697.61
583.875	701.61
584.326	715.21
584.777	763.71
585.227	839.71
585.678	940.31
586.129	1036.81
586.58	1106.81
587.031	1182.51
587.482	1352.51
587.933	1537.21
588.384	1345.31
588.834	997.81
589.285	830.81
589.736	806.51
590.186	798.11
590.637	783.81
591.088	757.81
591.538	752.21
591.989	738.11
592.439	743.41
592.89	734.61
593.34	723.11
593.791	716.21
594.241	725.61
594.692	723.91
595.142	732.21
595.593	716.01
596.043	729.51
596.493	720.81
596.943	737.81
597.394	742.31
597.844	737.41
598.294	750.01
598.744	768.21
599.195	792.01
599.645	835.51
600.095	876.91
600.545	925.41
600.995	985.31
601.445	1033.81
601.895	1109.81
602.345	1151.91
602.795	1132.81
603.245	1079.21
603.695	1021.71
604.145	978.81
604.594	930.71
605.044	871.21
605.494	817.81
605.944	769.11
606.393	753.41
606.843	739.01
607.293	749.61
607.743	745.71
608.192	763.11
608.642	768.31
609.091	782.21
609.541	782.31
609.99	791.31
610.44	785.81
610.889	732.91
611.339	704.71
611.788	705.81
612.238	719.21
612.687	734.81
613.136	725.31
613.586	752.61
614.035	762.01
614.484	762.71
614.933	767.51
615.383	770.91
615.832	751.11
616.281	740.81
616.73	707.31
617.179	683.51
617.628	665.81
618.077	647.61
618.526	634.11
618.975	631.11
619.424	620.51
619.873	628.61
620.322	630.01
620.771	622.01
621.22	614.01
621.669	601.91
622.118	599.71
622.567	591.21
623.015	587.31
623.464	572.81
623.913	569.91
624.361	561.41
624.81	570.41
625.259	571.51
625.707	570.31
626.156	570.71
626.604	576.11
627.053	569.21
627.501	565.31
627.95	582.11
628.398	590.01
628.847	574.81
629.295	576.91
629.744	576.31
630.192	577.71
630.64	572.41
631.089	586.11
631.537	583.41
631.985	594.91
632.433	613.51
632.881	614.41
633.33	669.91
633.778	651.71
634.226	577.31
634.674	576.21
635.122	586.51
635.57	608.01
636.018	633.81
636.466	588.01
636.914	565.81
637.362	575.21
637.81	586.51
638.258	589.11
638.705	589.01
639.153	612.41
639.601	622.61
640.049	648.11
640.497	678.31
640.944	704.81
641.392	652.31
641.84	626.11
642.287	594.01
642.735	573.11
643.182	578.81
643.63	583.41
644.078	595.51
644.525	593.61
644.973	607.41
645.42	608.11
645.867	628.81
646.315	638.91
646.762	681.31
647.21	697.71
647.657	720.01
648.104	759.41
648.551	781.11
648.999	852.51
649.446	923.51
649.893	1018.91
650.34	1172.91
650.787	1409.91
651.234	1754.41
651.682	2275.51
652.129	3115.61
652.576	4509.61
653.023	6642.41
653.47	9137.31
653.917	11429.61
654.363	13215.31
654.81	14631.61
655.257	13917.01
655.704	9096.61
656.151	5407.71
656.598	3483.01
657.044	2462.11
657.491	1897.21
657.938	1517.01
658.385	1271.01
658.831	1096.51
659.278	972.81
659.724	867.81
660.171	800.31
660.618	733.01
661.064	689.11
661.511	681.41
661.957	664.81
662.404	644.31
662.85	665.71
663.296	636.41
663.743	566.21
664.189	544.81
664.635	539.91
665.082	534.11
665.528	530.51
665.974	525.01
666.42	510.31
666.867	509.21
667.313	498.41
667.759	483.61
668.205	485.31
668.651	484.01
669.097	487.11
669.543	503.91
669.989	481.01
670.435	450.41
670.881	464.51
671.327	454.01
671.773	471.31
672.219	488.41
672.665	537.91
673.11	581.61
673.556	620.41
674.002	661.91
674.448	649.91
674.893	553.91
675.339	480.11
675.785	445.91
676.23	421.81
676.676	393.61
677.122	384.11
677.567	374.81
678.013	369.01
678.458	356.71
678.904	370.81
679.349	347.51
679.794	359.41
680.24	346.11
680.685	354.01
681.131	347.31
681.576	350.81
682.021	354.41
682.466	349.81
682.912	350.31
683.357	348.01
683.802	380.61
684.247	412.21
684.692	446.41
685.137	491.61
685.583	531.21
686.028	567.91
686.473	523.81
686.918	441.01
687.363	417.21
687.807	399.11
688.252	370.91
688.697	360.31
689.142	339.81
689.587	329.01
690.032	329.11
690.477	341.41
690.921	352.41
691.366	379.51
691.811	402.71
692.255	426.61
692.7	461.31
693.145	494.61
693.589	695.21
694.034	1099.01
694.478	1529.11
694.923	1741.11
695.367	2261.91
695.812	1194.41
696.256	495.71
696.701	371.51
697.145	346.61
697.59	328.41
698.034	325.61
698.478	327.41
698.922	323.71
699.367	323.71
699.811	339.51
700.255	360.71
700.699	390.01
701.143	426.81
701.588	474.71
702.032	516.21
702.476	510.31
702.92	489.51
703.364	485.01
703.808	625.91
704.252	1019.81
704.696	1439.61
705.14	1663.71
705.584	2135.61
706.027	1067.11
706.471	533.81
706.915	402.51
707.359	350.01
707.803	321.91
708.246	306.11
708.69	311.91
709.134	314.11
709.577	309.11
710.021	313.61
710.465	303.51
710.908	303.31
711.352	296.11
711.795	311.21
712.239	349.41
712.682	385.61
713.126	416.11
713.569	469.11
714.012	374.31
714.456	323.91
714.899	299.61
715.342	274.81
715.786	260.21
716.229	261.01
716.672	254.71
717.115	248.01
717.558	255.21
718.002	252.01
718.445	263.71
718.888	285.01
719.331	294.51
719.774	302.31
720.217	306.01
720.66	285.51
721.103	267.51
721.546	249.61
721.989	245.11
722.432	231.11
722.874	238.71
723.317	230.41
723.76	237.41
724.203	255.11
724.645	319.71
725.088	440.71
725.531	558.31
725.974	634.61
726.416	541.91
726.859	301.81
727.301	245.21
727.744	243.41
728.187	231.81
728.629	245.71
729.071	242.41
729.514	255.21
729.956	267.21
730.399	278.11
730.841	286.51
731.283	271.91
731.726	265.11
732.168	256.71
732.61	272.61
733.053	278.71
733.495	320.21
733.937	349.41
734.379	400.01
734.821	433.21
735.263	531.91
735.705	838.31
736.148	1538.71
736.59	2552.91
737.032	3051.41
737.474	2469.01
737.916	799.11
738.357	416.41
738.799	318.91
739.241	302.51
739.683	278.01
740.125	279.41
740.567	300.71
741.008	312.41
741.45	313.31
741.892	317.61
742.334	344.11
742.775	355.91
743.217	334.81
743.658	277.21
744.1	248.21
744.542	267.11
744.983	299.81
745.425	336.01
745.866	333.71
746.307	287.41
746.749	284.21
747.19	323.41
747.632	446.21
748.073	864.91
748.514	1842.41
748.956	2813.91
749.397	3539.01
749.838	2926.11
750.279	2941.61
750.72	1481.51
751.162	545.01
751.603	316.21
752.044	248.51
752.485	208.51
752.926	214.81
753.367	210.31
753.808	194.91
754.249	191.01
754.69	186.01
755.131	183.41
755.572	179.01
756.013	171.91
756.453	187.11
756.894	182.71
757.335	193.01
757.776	200.91
758.216	201.81
758.657	201.01
759.098	204.51
759.538	227.41
759.979	259.11
760.42	368.01
760.86	685.71
761.301	1785.21
761.741	4339.01
762.182	6407.31
762.622	4517.81
