Data from 20171114-ORNL-Ar_H_NY_Subt18_08-03-33-127.txt Node
Date: Tue Nov 14 08:03:33 EST 2017
User: Ender
Spectrometer: HR+D1039
Trigger mode: 0
Integration Time (sec): 2.730000E-2
Scans to average: 10
Electric dark correction enabled: true
Nonlinearity correction enabled: false
Boxcar width: 0
XAxis mode: Wavelengths
Number of Pixels in Spectrum: 2048
>>>>>Begin Spectral Data<<<<<
187.836	-2.89
188.309	-2.89
188.782	-2.89
189.255	-1.49
189.728	2.21
190.201	9.61
190.674	2.71
191.147	3.61
191.619	-7.89
192.092	4.21
192.565	2.41
193.038	-3.89
193.511	-2.69
193.984	-1.59
194.456	-4.39
194.929	4.01
195.402	-2.29
195.874	-1.59
196.347	-4.29
196.82	-10.79
197.292	4.11
197.765	-4.89
198.237	-4.89
198.71	2.01
199.182	-2.69
199.655	4.61
200.127	4.41
200.6	-0.69
201.072	-3.89
201.544	-1.39
202.017	-6.09
202.489	6.41
202.961	-1.39
203.433	-2.29
203.906	-2.49
204.378	-5.19
204.85	-0.69
205.322	-12.09
205.794	-5.59
206.266	-9.39
206.739	-6.99
207.211	-2.29
207.683	-11.39
208.155	-4.39
208.627	-1.49
209.099	-9.39
209.57	-4.89
210.042	-2.79
210.514	-6.89
210.986	-2.79
211.458	-7.39
211.93	-1.39
212.402	-1.89
212.873	-6.09
213.345	-5.89
213.817	-13.59
214.288	2.31
214.76	-11.69
215.232	-6.29
215.703	-3.79
216.175	-2.79
216.646	-6.99
217.118	-7.49
217.589	-5.19
218.061	-3.49
218.532	-8.09
219.004	0.21
219.475	-5.79
219.946	-0.99
220.418	-10.39
220.889	6.21
221.36	-2.99
221.832	-1.59
222.303	-18.09
222.774	0.01
223.245	-13.39
223.717	-6.99
224.188	-4.69
224.659	-5.79
225.13	-4.19
225.601	-6.69
226.072	-3.59
226.543	-5.29
227.014	-2.19
227.485	-3.49
227.956	-9.29
228.427	-7.19
228.898	-0.99
229.369	-1.59
229.839	-16.29
230.31	-12.59
230.781	-2.29
231.252	-0.49
231.722	-11.09
232.193	-3.19
232.664	-5.09
233.135	3.61
233.605	-1.09
234.076	-7.39
234.546	-0.99
235.017	-0.99
235.487	-2.89
235.958	-4.79
236.428	-8.69
236.899	-5.39
237.369	-8.29
237.84	-6.59
238.31	-0.79
238.78	-4.99
239.251	-6.99
239.721	-9.29
240.191	-10.89
240.662	-3.89
241.132	-2.69
241.602	-6.49
242.072	-2.89
242.542	-1.99
243.013	-9.09
243.483	-0.99
243.953	-3.39
244.423	-1.89
244.893	-3.59
245.363	2.01
245.833	-0.39
246.303	-4.79
246.773	-2.49
247.243	-10.59
247.712	-7.09
248.182	3.31
248.652	1.91
249.122	-17.09
249.592	-4.99
250.061	0.71
250.531	2.81
251.001	-2.49
251.471	3.61
251.94	2.11
252.41	-5.99
252.879	-11.89
253.349	5.01
253.818	1.11
254.288	-4.69
254.757	-0.19
255.227	-7.79
255.696	-7.09
256.166	-2.89
256.635	-3.89
257.105	-3.59
257.574	-6.29
258.043	-1.89
258.513	-7.99
258.982	-1.29
259.451	-9.29
259.92	-4.39
260.389	-7.29
260.859	1.21
261.328	-9.49
261.797	-0.69
262.266	-6.69
262.735	1.21
263.204	-2.59
263.673	-6.49
264.142	-5.79
264.611	-8.99
265.08	-3.59
265.549	-6.29
266.018	-2.59
266.487	-15.89
266.955	-12.79
267.424	-8.49
267.893	-4.09
268.362	-10.49
268.83	-5.39
269.299	0.51
269.768	-5.29
270.236	-2.19
270.705	-9.19
271.174	-4.09
271.642	-2.29
272.111	-4.49
272.579	-4.99
273.048	-2.99
273.516	-5.49
273.985	-6.79
274.453	-5.39
274.922	7.01
275.39	-1.79
275.858	-6.99
276.327	-5.09
276.795	2.01
277.263	-2.09
277.731	-0.99
278.2	-4.69
278.668	-3.69
279.136	-6.19
279.604	-4.59
280.072	-0.49
280.54	-5.29
281.008	0.11
281.477	0.01
281.945	1.11
282.413	-2.89
282.881	-0.79
283.348	-8.29
283.816	3.81
284.284	1.21
284.752	8.51
285.22	-1.99
285.688	-2.19
286.156	-7.49
286.623	7.51
287.091	-7.39
287.559	-0.09
288.026	-3.49
288.494	-5.99
288.962	-11.99
289.429	-9.99
289.897	3.51
290.364	-1.89
290.832	-2.09
291.3	-4.09
291.767	1.61
292.234	-0.19
292.702	-4.09
293.169	-0.89
293.637	3.71
294.104	2.41
294.571	-12.99
295.039	-4.69
295.506	-7.39
295.973	-6.19
296.44	-5.09
296.908	-0.19
297.375	-3.99
297.842	-3.99
298.309	-7.99
298.776	-11.39
299.243	-0.59
299.71	-13.19
300.177	-7.59
300.644	-1.99
301.111	-1.49
301.578	5.41
302.045	-4.39
302.512	1.41
302.979	-0.69
303.446	-0.89
303.913	-6.49
304.379	-7.89
304.846	-3.59
305.313	-3.29
305.78	-5.29
306.246	-0.59
306.713	1.61
307.18	-0.19
307.646	-0.49
308.113	-5.59
308.579	-5.09
309.046	-3.69
309.512	-2.49
309.979	-8.79
310.445	-1.29
310.912	-1.49
311.378	2.61
311.845	-1.09
312.311	6.31
312.777	-1.49
313.244	1.91
313.71	9.71
314.176	-3.99
314.642	-5.99
315.109	-2.49
315.575	-1.59
316.041	0.01
316.507	-0.19
316.973	-2.19
317.439	-2.39
317.905	0.11
318.371	4.91
318.837	2.11
319.303	3.51
319.769	-1.09
320.235	2.21
320.701	2.81
321.167	4.21
321.633	-1.99
322.099	1.81
322.564	6.91
323.03	-0.79
323.496	5.11
323.962	0.71
324.427	-0.29
324.893	2.11
325.359	3.01
325.824	-5.29
326.29	0.61
326.755	-3.29
327.221	-2.39
327.686	0.21
328.152	4.91
328.617	0.11
329.083	4.11
329.548	8.21
330.014	6.01
330.479	-5.39
330.944	1.81
331.41	-0.19
331.875	0.51
332.34	-2.09
332.805	1.81
333.271	2.01
333.736	-3.49
334.201	7.81
334.666	3.41
335.131	5.51
335.596	2.41
336.061	7.21
336.526	-5.39
336.991	0.61
337.456	7.91
337.921	3.31
338.386	-1.59
338.851	3.21
339.316	7.71
339.781	1.31
340.246	9.51
340.711	2.51
341.175	4.01
341.64	1.91
342.105	3.41
342.569	5.31
343.034	11.21
343.499	7.01
343.963	-0.39
344.428	11.21
344.893	6.41
345.357	6.61
345.822	6.51
346.286	4.51
346.751	9.81
347.215	8.81
347.679	9.21
348.144	13.81
348.608	7.81
349.073	8.41
349.537	8.01
350.001	5.51
350.465	14.41
350.93	10.41
351.394	17.81
351.858	6.71
352.322	14.41
352.786	8.01
353.25	13.11
353.715	17.51
354.179	10.21
354.643	13.41
355.107	11.01
355.571	14.51
356.035	18.51
356.498	17.01
356.962	10.01
357.426	12.41
357.89	10.81
358.354	12.11
358.818	17.01
359.281	6.41
359.745	8.01
360.209	7.51
360.673	5.51
361.136	6.51
361.6	12.81
362.064	14.51
362.527	13.01
362.991	18.51
363.454	4.31
363.918	7.41
364.381	8.11
364.845	7.71
365.308	14.61
365.772	12.11
366.235	12.51
366.698	9.41
367.162	9.31
367.625	11.31
368.088	8.81
368.552	14.21
369.015	12.91
369.478	13.01
369.941	18.51
370.404	10.21
370.867	14.01
371.331	17.71
371.794	12.21
372.257	10.51
372.72	12.01
373.183	17.31
373.646	5.01
374.109	8.31
374.572	10.11
375.035	14.11
375.497	13.81
375.96	20.21
376.423	15.11
376.886	12.61
377.349	13.71
377.811	13.51
378.274	13.61
378.737	15.31
379.199	13.61
379.662	18.21
380.125	18.91
380.587	14.91
381.05	8.31
381.512	20.41
381.975	23.51
382.437	14.31
382.9	16.31
383.362	22.11
383.825	22.61
384.287	17.31
384.75	17.41
385.212	20.11
385.674	19.41
386.136	18.51
386.599	15.41
387.061	20.11
387.523	18.81
387.985	19.81
388.447	27.21
388.91	26.31
389.372	20.51
389.834	26.71
390.296	19.51
390.758	20.71
391.22	24.71
391.682	27.01
392.144	31.21
392.606	25.61
393.068	25.51
393.529	30.91
393.991	24.71
394.453	21.61
394.915	24.21
395.377	24.61
395.838	19.71
396.3	25.01
396.762	24.11
397.224	19.81
397.685	17.51
398.147	21.61
398.608	14.11
399.07	16.41
399.531	19.51
399.993	24.41
400.454	29.11
400.916	25.81
401.377	25.51
401.839	24.61
402.3	24.31
402.762	28.21
403.223	34.61
403.684	30.91
404.145	28.81
404.607	28.01
405.068	29.61
405.529	19.71
405.99	24.91
406.451	22.41
406.913	24.01
407.374	26.51
407.835	25.21
408.296	30.71
408.757	27.61
409.218	32.91
409.679	21.81
410.14	28.81
410.601	35.91
411.062	33.71
411.522	33.21
411.983	31.11
412.444	32.01
412.905	32.21
413.366	35.31
413.826	41.91
414.287	46.71
414.748	67.81
415.208	53.31
415.669	43.71
416.13	47.81
416.59	47.11
417.051	47.71
417.511	48.01
417.972	52.21
418.432	59.01
418.893	75.91
419.353	62.91
419.814	43.71
420.274	36.81
420.734	39.01
421.195	40.21
421.655	32.11
422.115	42.81
422.576	44.31
423.036	43.01
423.496	40.41
423.956	44.01
424.416	43.81
424.876	61.31
425.336	50.21
425.797	47.61
426.257	47.81
426.717	43.21
427.177	44.21
427.637	33.21
428.097	45.21
428.556	33.81
429.016	46.11
429.476	37.81
429.936	43.51
430.396	36.71
430.856	38.11
431.315	49.61
431.775	57.31
432.235	64.61
432.694	48.11
433.154	54.01
433.614	53.51
434.073	51.41
434.533	41.41
434.993	41.91
435.452	35.61
435.912	42.11
436.371	41.81
436.83	40.31
437.29	45.71
437.749	43.71
438.209	42.81
438.668	48.51
439.127	49.11
439.587	49.21
440.046	44.61
440.505	40.41
440.964	44.61
441.424	51.11
441.883	47.11
442.342	58.11
442.801	39.41
443.26	40.21
443.719	50.61
444.178	47.41
444.637	36.31
445.096	42.01
445.555	47.71
446.014	45.81
446.473	47.71
446.932	49.71
447.391	40.51
447.849	44.01
448.308	39.71
448.767	36.31
449.226	47.31
449.685	53.91
450.143	60.11
450.602	42.91
451.061	41.21
451.519	46.41
451.978	44.71
452.436	44.61
452.895	41.11
453.353	45.81
453.812	51.31
454.27	49.41
454.729	50.61
455.187	41.11
455.646	52.11
456.104	45.41
456.562	47.11
457.021	51.21
457.479	54.31
457.937	50.91
458.395	44.51
458.854	37.11
459.312	44.11
459.77	46.01
460.228	46.21
460.686	42.21
461.144	53.41
461.602	47.61
462.06	44.21
462.518	46.81
462.976	50.81
463.434	49.01
463.892	45.71
464.35	50.31
464.808	62.11
465.266	46.31
465.724	58.11
466.181	59.61
466.639	51.11
467.097	61.41
467.555	56.81
468.012	60.71
468.47	59.71
468.928	66.91
469.385	73.51
469.843	68.31
470.3	67.51
470.758	64.81
471.215	69.01
471.673	71.31
472.13	76.91
472.588	74.21
473.045	70.51
473.503	72.81
473.96	69.91
474.417	68.91
474.875	72.61
475.332	85.61
475.789	75.91
476.246	79.61
476.704	81.01
477.161	76.41
477.618	75.51
478.075	86.01
478.532	91.91
478.989	91.31
479.446	104.21
479.903	101.01
480.36	96.31
480.817	87.61
481.274	100.41
481.731	99.41
482.188	90.61
482.645	97.31
483.102	99.41
483.558	108.21
484.015	106.81
484.472	108.21
484.929	106.01
485.385	108.21
485.842	111.61
486.299	105.81
486.755	126.61
487.212	119.51
487.668	100.11
488.125	111.31
488.582	101.51
489.038	95.11
489.494	101.81
489.951	92.81
490.407	99.21
490.864	98.51
491.32	111.71
491.776	106.61
492.233	106.61
492.689	97.21
493.145	100.91
493.602	101.11
494.058	105.21
494.514	102.01
494.97	106.21
495.426	101.11
495.882	105.71
496.338	102.81
496.794	104.01
497.251	101.31
497.707	112.21
498.163	111.11
498.618	116.31
499.074	116.01
499.53	108.01
499.986	114.01
500.442	114.01
500.898	108.41
501.354	99.91
501.809	116.51
502.265	109.91
502.721	119.41
503.177	122.91
503.632	118.41
504.088	123.01
504.543	120.41
504.999	125.01
505.455	107.21
505.91	111.81
506.366	112.51
506.821	107.31
507.277	112.61
507.732	107.41
508.187	115.41
508.643	113.91
509.098	107.11
509.553	125.01
510.009	128.71
510.464	111.71
510.919	126.21
511.375	121.81
511.83	130.61
512.285	130.31
512.74	145.51
513.195	149.21
513.65	144.31
514.105	146.51
514.56	136.61
515.015	146.21
515.47	149.41
515.925	145.21
516.38	147.61
516.835	151.51
517.29	150.61
517.745	146.01
518.2	141.41
518.655	138.51
519.109	135.91
519.564	131.51
520.019	119.91
520.474	124.91
520.928	121.21
521.383	125.61
521.838	113.81
522.292	125.81
522.747	129.31
523.201	125.01
523.656	119.01
524.11	126.51
524.565	124.51
525.019	113.41
525.474	117.91
525.928	118.51
526.382	119.41
526.837	118.21
527.291	113.71
527.745	112.61
528.2	112.41
528.654	116.41
529.108	112.71
529.562	104.01
530.016	111.21
530.47	104.51
530.925	110.91
531.379	108.91
531.833	105.51
532.287	112.31
532.741	115.61
533.195	114.11
533.649	113.61
534.103	118.81
534.556	110.11
535.01	108.01
535.464	104.01
535.918	121.01
536.372	118.31
536.826	120.91
537.279	108.61
537.733	114.41
538.187	114.51
538.64	118.31
539.094	117.51
539.548	111.61
540.001	113.61
540.455	116.51
540.908	115.31
541.362	119.81
541.815	129.71
542.269	124.61
542.722	118.31
543.175	119.31
543.629	124.21
544.082	132.61
544.536	135.31
544.989	123.21
545.442	130.21
545.895	124.41
546.349	131.91
546.802	130.21
547.255	131.41
547.708	138.41
548.161	145.01
548.614	141.51
549.067	153.41
549.52	138.21
549.973	138.01
550.426	132.91
550.879	121.61
551.332	130.51
551.785	135.21
552.238	127.81
552.691	135.61
553.144	138.61
553.596	134.31
554.049	139.91
554.502	150.51
554.955	159.31
555.407	146.61
555.86	146.11
556.313	143.71
556.765	145.31
557.218	144.21
557.67	142.71
558.123	139.81
558.576	137.41
559.028	145.21
559.48	144.91
559.933	145.61
560.385	131.11
560.838	134.71
561.29	120.11
561.742	120.01
562.195	119.71
562.647	117.91
563.099	126.71
563.551	123.41
564.004	135.11
564.456	122.11
564.908	117.51
565.36	108.11
565.812	116.11
566.264	101.21
566.716	108.91
567.168	105.41
567.62	113.41
568.072	101.11
568.524	109.81
568.976	98.21
569.428	96.41
569.88	97.31
570.332	94.71
570.784	99.21
571.235	99.21
571.687	105.01
572.139	106.11
572.59	107.31
573.042	109.51
573.494	102.01
573.945	104.21
574.397	90.91
574.849	96.41
575.3	98.01
575.752	93.11
576.203	101.21
576.655	97.71
577.106	98.81
577.557	92.01
578.009	97.21
578.46	92.71
578.912	90.91
579.363	92.51
579.814	99.71
580.265	94.61
580.717	93.31
581.168	94.61
581.619	97.71
582.07	97.01
582.521	93.11
582.972	90.61
583.423	92.71
583.875	83.91
584.326	89.61
584.777	93.41
585.227	92.31
585.678	92.11
586.129	97.61
586.58	105.51
587.031	110.31
587.482	117.11
587.933	119.01
588.384	108.91
588.834	116.61
589.285	115.41
589.736	115.21
590.186	107.31
590.637	111.71
591.088	102.91
591.538	106.61
591.989	112.71
592.439	115.71
592.89	106.61
593.34	92.21
593.791	101.21
594.241	89.41
594.692	102.11
595.142	93.91
595.593	90.51
596.043	88.91
596.493	93.51
596.943	97.61
597.394	99.91
597.844	90.91
598.294	100.71
598.744	110.91
599.195	108.01
599.645	119.11
600.095	130.11
600.545	146.11
600.995	158.01
601.445	181.01
601.895	192.81
602.345	209.11
602.795	183.91
603.245	167.21
603.695	144.31
604.145	137.11
604.594	127.31
605.044	121.61
605.494	103.91
605.944	95.31
606.393	96.11
606.843	91.51
607.293	106.21
607.743	97.01
608.192	100.81
608.642	109.71
609.091	111.01
609.541	108.81
609.99	102.31
610.44	105.11
610.889	96.21
611.339	87.71
611.788	84.51
612.238	94.71
612.687	105.61
613.136	92.51
613.586	100.51
614.035	90.91
614.484	97.71
614.933	87.71
615.383	95.91
615.832	99.11
616.281	94.51
616.73	90.81
617.179	88.31
617.628	86.81
618.077	88.91
618.526	76.11
618.975	82.91
619.424	80.31
619.873	81.21
620.322	90.31
620.771	72.51
621.22	80.81
621.669	71.11
622.118	74.21
622.567	69.41
623.015	63.61
623.464	72.41
623.913	66.01
624.361	67.01
624.81	58.31
625.259	64.21
625.707	71.81
626.156	68.01
626.604	74.81
627.053	75.21
627.501	72.61
627.95	71.51
628.398	74.71
628.847	66.11
629.295	70.11
629.744	78.41
630.192	72.71
630.64	71.21
631.089	60.01
631.537	68.51
631.985	58.01
632.433	69.31
632.881	59.91
633.33	62.51
633.778	50.01
634.226	57.21
634.674	61.21
635.122	61.71
635.57	64.81
636.018	70.71
636.466	75.71
636.914	64.61
637.362	73.31
637.81	74.61
638.258	74.71
638.705	65.91
639.153	76.91
639.601	77.71
640.049	78.21
640.497	94.81
640.944	100.71
641.392	71.01
641.84	61.01
642.287	60.61
642.735	50.21
643.182	61.81
643.63	53.61
644.078	51.41
644.525	55.71
644.973	57.31
645.42	58.01
645.867	57.81
646.315	60.21
646.762	50.61
647.21	62.81
647.657	52.71
648.104	63.11
648.551	53.31
648.999	54.81
649.446	58.91
649.893	48.41
650.34	56.81
650.787	54.21
651.234	61.81
651.682	53.41
652.129	61.51
652.576	57.41
653.023	69.71
653.47	70.01
653.917	71.51
654.363	82.11
654.81	80.81
655.257	76.31
655.704	66.61
656.151	51.91
656.598	55.71
657.044	54.91
657.491	55.41
657.938	50.31
658.385	58.61
658.831	54.11
659.278	68.11
659.724	55.11
660.171	53.21
660.618	53.91
661.064	59.81
661.511	53.41
661.957	47.31
662.404	49.01
662.85	63.51
663.296	60.61
663.743	55.61
664.189	52.21
664.635	57.51
665.082	49.41
665.528	49.31
665.974	51.91
666.42	53.91
666.867	54.41
667.313	43.91
667.759	52.91
668.205	46.61
668.651	50.41
669.097	54.01
669.543	47.51
669.989	43.91
670.435	47.31
670.881	45.71
671.327	51.11
671.773	56.21
672.219	56.51
672.665	70.91
673.11	75.91
673.556	75.41
674.002	99.41
674.448	90.11
674.893	69.41
675.339	56.11
675.785	50.31
676.23	50.21
676.676	37.61
677.122	50.11
677.567	37.21
678.013	44.31
678.458	37.41
678.904	42.51
679.349	32.91
679.794	44.81
680.24	36.21
680.685	34.91
681.131	35.61
681.576	40.81
682.021	44.01
682.466	39.61
682.912	31.11
683.357	30.91
683.802	52.91
684.247	46.21
684.692	58.41
685.137	61.01
685.583	81.11
686.028	81.81
686.473	70.91
686.918	48.71
687.363	53.01
687.807	50.91
688.252	39.71
688.697	41.21
689.142	35.81
689.587	36.51
690.032	28.01
690.477	37.21
690.921	36.61
691.366	42.51
691.811	46.81
692.255	56.91
692.7	61.51
693.145	64.01
693.589	93.91
694.034	177.21
694.478	256.71
694.923	315.41
695.367	429.91
695.812	192.31
696.256	66.41
696.701	42.71
697.145	41.61
697.59	35.91
698.034	37.51
698.478	34.81
698.922	34.71
699.367	38.61
699.811	43.91
700.255	45.71
700.699	47.21
701.143	56.11
701.588	73.11
702.032	83.21
702.476	69.41
702.92	65.01
703.364	59.21
703.808	84.61
704.252	152.31
704.696	238.91
705.14	300.11
705.584	408.21
706.027	186.91
706.471	66.21
706.915	49.31
707.359	31.31
707.803	32.51
708.246	33.21
708.69	40.71
709.134	42.01
709.577	36.31
710.021	44.71
710.465	40.21
710.908	34.01
711.352	34.91
711.795	33.61
712.239	45.21
712.682	38.21
713.126	59.21
713.569	65.51
714.012	53.31
714.456	35.91
714.899	35.51
715.342	21.31
715.786	23.31
716.229	24.91
716.672	24.71
717.115	26.01
717.558	25.01
718.002	27.01
718.445	26.51
718.888	40.31
719.331	41.71
719.774	45.41
720.217	41.01
720.66	30.61
721.103	28.11
721.546	22.31
721.989	26.31
722.432	14.71
722.874	23.01
723.317	15.91
723.76	22.41
724.203	30.01
724.645	43.11
725.088	65.81
725.531	80.91
725.974	106.01
726.416	88.11
726.859	41.11
727.301	24.01
727.744	24.61
728.187	23.51
728.629	26.01
729.071	21.61
729.514	31.81
729.956	27.41
730.399	31.21
730.841	35.81
731.283	29.11
731.726	23.61
732.168	29.81
732.61	28.01
733.053	37.01
733.495	37.21
733.937	44.41
734.379	50.81
734.821	53.11
735.263	73.21
735.705	124.81
736.148	256.81
736.59	455.01
737.032	563.11
737.474	455.21
737.916	117.71
738.357	54.71
738.799	36.81
739.241	28.81
739.683	24.91
740.125	35.41
740.567	32.11
741.008	39.31
741.45	44.41
741.892	40.81
742.334	48.61
742.775	41.61
743.217	41.31
743.658	29.11
744.1	35.41
744.542	29.71
744.983	26.61
745.425	36.41
745.866	40.31
746.307	36.01
746.749	29.91
747.19	43.11
747.632	63.21
748.073	134.11
748.514	315.31
748.956	506.01
749.397	635.31
749.838	526.11
750.279	555.71
750.72	250.01
751.162	83.01
751.603	40.01
752.044	30.11
752.485	15.81
752.926	21.81
753.367	20.21
753.808	24.61
754.249	22.91
754.69	15.41
755.131	14.01
755.572	12.31
756.013	15.11
756.453	19.61
756.894	21.11
757.335	17.91
757.776	18.01
758.216	20.21
758.657	17.41
759.098	14.21
759.538	16.21
759.979	25.11
760.42	44.31
760.86	100.41
761.301	293.01
761.741	761.21
762.182	1185.91
762.622	815.11
763.063	208.81
763.503	72.61
763.943	39.71
764.384	35.71
764.824	29.31
765.264	20.41
765.705	17.11
766.145	12.51
766.585	16.81
767.025	15.41
767.465	12.41
767.906	13.81
768.346	22.31
768.786	15.41
769.226	9.61
769.666	31.91
770.106	92.01
770.546	260.91
770.986	504.11
771.426	445.21
771.866	126.91
772.306	44.01
772.745	21.21
773.185	13.91
773.625	12.61
774.065	14.01
774.505	21.11
774.944	19.21
775.384	34.31
775.824	72.51
776.263	70.11
776.703	24.61
777.142	10.61
777.582	5.91
778.021	9.31
778.461	8.51
778.9	11.11
779.34	19.91
779.779	5.51
780.219	5.71
780.658	2.51
781.097	4.31
781.537	10.91
781.976	7.21
782.415	5.91
782.855	4.11
783.294	6.41
