Data from 20171114-ORNL-Ar_H_NY_Subt18_08-07-04-683.txt Node
Date: Tue Nov 14 08:07:04 EST 2017
User: Ender
Spectrometer: HR+D1039
Trigger mode: 0
Integration Time (sec): 2.730000E-2
Scans to average: 10
Electric dark correction enabled: true
Nonlinearity correction enabled: false
Boxcar width: 0
XAxis mode: Wavelengths
Number of Pixels in Spectrum: 2048
>>>>>Begin Spectral Data<<<<<
187.836	-4.46
188.309	-4.46
188.782	-4.46
189.255	4.44
189.728	-4.96
190.201	5.94
190.674	5.34
191.147	-3.46
191.619	-6.46
192.092	-0.06
192.565	2.64
193.038	-0.56
193.511	-1.36
193.984	0.54
194.456	5.94
194.929	3.84
195.402	-1.36
195.874	-5.96
196.347	-1.26
196.82	-8.26
197.292	9.24
197.765	-1.56
198.237	-8.06
198.71	2.54
199.182	-1.56
199.655	0.24
200.127	0.84
200.6	-2.56
201.072	-5.16
201.544	-4.16
202.017	-5.86
202.489	6.24
202.961	-3.06
203.433	-6.16
203.906	-7.86
204.378	-4.26
204.85	-2.66
205.322	-5.96
205.794	-5.86
206.266	-0.56
206.739	-6.76
207.211	0.04
207.683	-9.46
208.155	-8.66
208.627	-9.26
209.099	0.04
209.57	-7.86
210.042	-3.56
210.514	-4.26
210.986	-0.36
211.458	-8.16
211.93	-3.66
212.402	-0.36
212.873	-6.56
213.345	-6.66
213.817	-10.26
214.288	-6.76
214.76	-13.76
215.232	-2.06
215.703	-3.26
216.175	0.04
216.646	-6.56
217.118	-9.66
217.589	0.94
218.061	-3.36
218.532	-4.26
219.004	0.94
219.475	-3.56
219.946	-5.36
220.418	-2.16
220.889	-3.66
221.36	-0.06
221.832	-6.66
222.303	-7.26
222.774	-0.76
223.245	-11.86
223.717	-7.76
224.188	-6.26
224.659	-4.36
225.13	-10.46
225.601	-0.66
226.072	-1.66
226.543	-4.56
227.014	-0.36
227.485	-5.46
227.956	-7.86
228.427	-4.66
228.898	-4.06
229.369	2.54
229.839	-3.96
230.31	-12.56
230.781	-3.36
231.252	-6.36
231.722	-6.46
232.193	-3.86
232.664	-2.96
233.135	-8.16
233.605	-6.06
234.076	-11.26
234.546	-0.96
235.017	0.34
235.487	-0.66
235.958	-1.06
236.428	-4.26
236.899	-6.76
237.369	-0.06
237.84	-3.36
238.31	3.84
238.78	-8.06
239.251	-3.76
239.721	-4.76
240.191	-1.06
240.662	-2.56
241.132	-5.06
241.602	-6.66
242.072	-1.86
242.542	5.04
243.013	2.34
243.483	1.24
243.953	-3.16
244.423	-0.16
244.893	-1.76
245.363	-1.66
245.833	-2.96
246.303	-5.16
246.773	0.34
247.243	-0.36
247.712	-1.86
248.182	-2.06
248.652	-3.96
249.122	-11.96
249.592	-3.36
250.061	1.04
250.531	3.64
251.001	-2.26
251.471	0.54
251.94	4.04
252.41	-7.86
252.879	-15.96
253.349	3.74
253.818	7.74
254.288	1.64
254.757	4.24
255.227	-4.66
255.696	-2.66
256.166	0.94
256.635	-5.56
257.105	-2.96
257.574	-3.66
258.043	2.04
258.513	-3.56
258.982	-1.06
259.451	-4.66
259.92	0.04
260.389	-0.76
260.859	4.54
261.328	5.84
261.797	4.54
262.266	-5.26
262.735	9.94
263.204	2.14
263.673	-3.36
264.142	3.44
264.611	-6.96
265.08	-3.76
265.549	2.84
266.018	5.34
266.487	-7.36
266.955	-8.66
267.424	0.14
267.893	-3.46
268.362	-0.06
268.83	3.64
269.299	2.54
269.768	-3.66
270.236	-1.66
270.705	-1.86
271.174	-0.56
271.642	-4.26
272.111	-5.06
272.579	4.94
273.048	-1.66
273.516	0.04
273.985	-2.16
274.453	8.24
274.922	6.34
275.39	1.64
275.858	-3.46
276.327	6.34
276.795	10.34
277.263	3.14
277.731	14.64
278.2	6.34
278.668	2.94
279.136	9.54
279.604	3.84
280.072	9.14
280.54	5.14
281.008	2.94
281.477	10.94
281.945	-1.66
282.413	7.74
282.881	6.84
283.348	2.74
283.816	7.64
284.284	9.04
284.752	17.14
285.22	7.54
285.688	6.64
286.156	11.74
286.623	14.04
287.091	3.34
287.559	12.54
288.026	5.74
288.494	12.74
288.962	-0.46
289.429	-0.86
289.897	13.84
290.364	10.64
290.832	9.54
291.3	7.64
291.767	11.04
292.234	13.94
292.702	10.84
293.169	5.24
293.637	17.04
294.104	14.34
294.571	3.54
295.039	6.14
295.506	6.84
295.973	13.44
296.44	3.94
296.908	9.94
297.375	9.14
297.842	16.44
298.309	12.14
298.776	5.44
299.243	8.24
299.71	8.14
300.177	19.64
300.644	11.34
301.111	8.74
301.578	20.64
302.045	8.64
302.512	16.14
302.979	23.34
303.446	15.04
303.913	6.84
304.379	8.04
304.846	19.54
305.313	15.34
305.78	16.74
306.246	17.24
306.713	17.24
307.18	15.24
307.646	17.04
308.113	18.84
308.579	19.14
309.046	23.14
309.512	21.64
309.979	11.54
310.445	16.84
310.912	22.34
311.378	27.44
311.845	26.74
312.311	23.14
312.777	22.34
313.244	25.24
313.71	28.14
314.176	23.54
314.642	23.44
315.109	18.24
315.575	28.94
316.041	25.54
316.507	15.04
316.973	27.14
317.439	22.54
317.905	30.54
318.371	29.64
318.837	26.84
319.303	25.74
319.769	26.64
320.235	25.64
320.701	25.34
321.167	25.44
321.633	20.44
322.099	29.84
322.564	30.14
323.03	31.34
323.496	34.24
323.962	30.64
324.427	29.04
324.893	40.04
325.359	27.04
325.824	22.34
326.29	27.14
326.755	28.04
327.221	37.24
327.686	33.54
328.152	44.54
328.617	30.44
329.083	28.94
329.548	40.64
330.014	36.34
330.479	32.94
330.944	34.84
331.41	38.84
331.875	34.64
332.34	32.84
332.805	35.04
333.271	42.74
333.736	32.74
334.201	39.94
334.666	39.64
335.131	41.14
335.596	38.84
336.061	40.94
336.526	31.04
336.991	38.34
337.456	44.74
337.921	43.34
338.386	41.04
338.851	34.84
339.316	41.14
339.781	39.24
340.246	42.74
340.711	41.14
341.175	42.74
341.64	38.04
342.105	41.14
342.569	44.54
343.034	45.44
343.499	42.74
343.963	47.34
344.428	55.44
344.893	48.44
345.357	47.34
345.822	49.04
346.286	53.14
346.751	65.04
347.215	54.04
347.679	53.94
348.144	75.94
348.608	68.84
349.073	59.84
349.537	65.24
350.001	61.84
350.465	68.04
350.93	64.14
351.394	69.74
351.858	55.24
352.322	69.44
352.786	65.44
353.25	78.54
353.715	90.54
354.179	84.04
354.643	95.64
355.107	98.24
355.571	88.44
356.035	79.14
356.498	94.94
356.962	91.14
357.426	104.44
357.89	93.84
358.354	73.34
358.818	72.64
359.281	68.74
359.745	65.54
360.209	69.94
360.673	58.44
361.136	68.34
361.6	73.34
362.064	76.04
362.527	76.84
362.991	79.34
363.454	69.74
363.918	67.94
364.381	70.64
364.845	73.74
365.308	77.34
365.772	78.54
366.235	74.54
366.698	65.14
367.162	74.64
367.625	75.44
368.088	71.04
368.552	78.24
369.015	76.14
369.478	89.64
369.941	80.94
370.404	74.04
370.867	86.14
371.331	89.04
371.794	89.34
372.257	90.94
372.72	87.64
373.183	88.04
373.646	79.74
374.109	77.14
374.572	87.74
375.035	87.74
375.497	90.44
375.96	88.44
376.423	85.44
376.886	99.24
377.349	104.24
377.811	91.44
378.274	94.04
378.737	89.44
379.199	88.14
379.662	101.14
380.125	93.94
380.587	96.74
381.05	92.34
381.512	104.54
381.975	108.14
382.437	109.24
382.9	105.74
383.362	112.24
383.825	115.24
384.287	107.24
384.75	115.24
385.212	108.94
385.674	120.04
386.136	121.64
386.599	113.54
387.061	117.64
387.523	110.94
387.985	111.34
388.447	119.94
388.91	116.24
389.372	123.54
389.834	120.04
390.296	116.94
390.758	125.34
391.22	117.84
391.682	135.04
392.144	141.34
392.606	132.04
393.068	127.64
393.529	138.14
393.991	129.54
394.453	123.24
394.915	121.44
395.377	123.74
395.838	124.44
396.3	122.54
396.762	120.04
397.224	129.24
397.685	123.54
398.147	126.84
398.608	123.34
399.07	123.34
399.531	124.94
399.993	127.64
400.454	143.54
400.916	134.74
401.377	138.74
401.839	140.74
402.3	141.14
402.762	157.14
403.223	173.34
403.684	161.44
404.145	148.14
404.607	150.94
405.068	154.54
405.529	159.94
405.99	171.84
406.451	159.64
406.913	168.24
407.374	158.04
407.835	154.44
408.296	160.54
408.757	161.64
409.218	172.34
409.679	166.24
410.14	170.94
410.601	162.14
411.062	172.84
411.522	168.14
411.983	165.34
412.444	167.14
412.905	178.74
413.366	177.54
413.826	187.74
414.287	214.44
414.748	261.04
415.208	241.14
415.669	211.54
416.13	207.14
416.59	194.84
417.051	209.84
417.511	212.14
417.972	233.94
418.432	247.64
418.893	288.04
419.353	244.44
419.814	196.34
420.274	178.94
420.734	182.64
421.195	189.44
421.655	186.44
422.115	193.94
422.576	187.94
423.036	191.14
423.496	203.54
423.956	219.74
424.416	232.44
424.876	265.34
425.336	249.34
425.797	248.74
426.257	250.84
426.717	231.24
427.177	231.44
427.637	217.64
428.097	231.04
428.556	243.94
429.016	252.44
429.476	253.54
429.936	261.84
430.396	273.14
430.856	281.44
431.315	296.04
431.775	333.54
432.235	366.24
432.694	337.34
433.154	335.44
433.614	360.24
434.073	319.44
434.533	274.94
434.993	261.04
435.452	272.64
435.912	278.44
436.371	277.74
436.83	271.24
437.29	258.94
437.749	240.94
438.209	241.24
438.668	263.64
439.127	285.34
439.587	258.74
440.046	246.94
440.505	254.14
440.964	275.64
441.424	317.44
441.883	301.14
442.342	252.24
442.801	222.34
443.26	224.84
443.719	221.54
444.178	222.64
444.637	214.34
445.096	225.84
445.555	226.34
446.014	225.24
446.473	228.34
446.932	237.14
447.391	226.64
447.849	236.34
448.308	216.34
448.767	226.14
449.226	239.84
449.685	232.44
450.143	245.94
450.602	233.34
451.061	228.54
451.519	237.54
451.978	234.14
452.436	240.54
452.895	240.94
453.353	250.74
453.812	237.04
454.27	244.24
454.729	245.24
455.187	249.64
455.646	244.84
456.104	253.54
456.562	262.34
457.021	274.44
457.479	267.24
457.937	274.44
458.395	272.04
458.854	252.64
459.312	263.84
459.77	278.64
460.228	263.74
460.686	253.34
461.144	255.14
461.602	253.44
462.06	254.44
462.518	263.94
462.976	257.74
463.434	259.04
463.892	266.34
464.35	274.64
464.808	289.14
465.266	272.94
465.724	280.94
466.181	274.34
466.639	277.34
467.097	295.34
467.555	308.14
468.012	312.74
468.47	315.74
468.928	342.14
469.385	343.14
469.843	353.04
470.3	356.44
470.758	364.04
471.215	388.84
471.673	407.04
472.13	412.44
472.588	426.34
473.045	374.14
473.503	394.14
473.96	402.44
474.417	412.24
474.875	445.44
475.332	479.64
475.789	469.04
476.246	471.04
476.704	490.54
477.161	510.34
477.618	531.04
478.075	557.14
478.532	613.34
478.989	695.64
479.446	780.34
479.903	753.04
480.36	795.34
480.817	833.44
481.274	930.04
481.731	1009.54
482.188	1091.24
482.645	1211.94
483.102	1291.24
483.558	1398.14
484.015	1447.74
484.472	1440.14
484.929	1377.74
485.385	1344.04
485.842	1325.24
486.299	1264.24
486.755	1237.24
487.212	1051.34
487.668	904.34
488.125	821.94
488.582	766.44
489.038	733.94
489.494	712.34
489.951	689.44
490.407	665.04
490.864	641.54
491.32	647.44
491.776	648.54
492.233	651.24
492.689	611.34
493.145	620.14
493.602	611.14
494.058	626.14
494.514	619.24
494.97	644.04
495.426	658.04
495.882	639.24
496.338	625.14
496.794	629.24
497.251	624.44
497.707	641.44
498.163	647.24
498.618	646.24
499.074	654.34
499.53	682.74
499.986	682.24
500.442	662.04
500.898	641.54
501.354	628.54
501.809	631.04
502.265	632.64
502.721	645.74
503.177	650.94
503.632	648.24
504.088	660.04
504.543	684.44
504.999	702.44
505.455	670.04
505.91	645.64
506.366	654.54
506.821	654.34
507.277	649.84
507.732	645.84
508.187	647.94
508.643	662.14
509.098	666.64
509.553	670.64
510.009	684.94
510.464	696.04
510.919	704.54
511.375	704.84
511.83	739.04
512.285	739.44
512.74	773.74
513.195	812.24
513.65	795.94
514.105	782.54
514.56	787.14
515.015	810.14
515.47	829.54
515.925	801.84
516.38	801.54
516.835	804.24
517.29	801.44
517.745	801.54
518.2	791.14
518.655	774.64
519.109	768.74
519.564	755.14
520.019	760.64
520.474	745.34
520.928	739.94
521.383	727.54
521.838	726.54
522.292	724.44
522.747	725.14
523.201	726.44
523.656	720.64
524.11	703.34
524.565	710.04
525.019	705.94
525.474	720.74
525.928	715.24
526.382	715.54
526.837	723.04
527.291	730.04
527.745	712.64
528.2	719.04
528.654	719.74
529.108	702.64
529.562	708.14
530.016	711.44
530.47	708.84
530.925	702.64
531.379	711.44
531.833	719.64
532.287	714.64
532.741	721.14
533.195	722.84
533.649	737.14
534.103	749.34
534.556	725.94
535.01	733.34
535.464	719.34
535.918	734.94
536.372	743.34
536.826	732.24
537.279	725.04
537.733	736.14
538.187	737.14
538.64	733.24
539.094	740.44
539.548	746.44
540.001	745.14
540.455	754.84
540.908	750.44
541.362	753.24
541.815	771.44
542.269	780.84
542.722	781.54
543.175	783.64
543.629	800.44
544.082	808.64
544.536	809.44
544.989	804.64
545.442	822.54
545.895	815.64
546.349	815.24
546.802	826.04
547.255	824.14
547.708	829.64
548.161	846.44
548.614	854.64
549.067	855.44
549.52	855.24
549.973	843.14
550.426	834.54
550.879	835.64
551.332	819.84
551.785	835.84
552.238	847.54
552.691	848.34
553.144	868.54
553.596	880.74
554.049	889.94
554.502	924.84
554.955	938.94
555.407	937.94
555.86	933.94
556.313	917.14
556.765	917.64
557.218	916.64
557.67	915.24
558.123	917.14
558.576	906.74
559.028	916.44
559.48	909.74
559.933	901.94
560.385	868.04
560.838	846.34
561.29	808.04
561.742	807.44
562.195	785.34
562.647	800.84
563.099	813.24
563.551	803.24
564.004	814.44
564.456	806.04
564.908	775.34
565.36	767.34
565.812	756.14
566.264	737.24
566.716	737.04
567.168	725.54
567.62	737.54
568.072	726.04
568.524	713.94
568.976	709.84
569.428	703.54
569.88	700.44
570.332	703.24
570.784	707.44
571.235	714.04
571.687	719.34
572.139	728.74
572.59	742.04
573.042	741.24
573.494	729.84
573.945	733.84
574.397	707.04
574.849	718.64
575.3	724.14
575.752	702.74
576.203	708.24
576.655	696.24
577.106	699.94
577.557	694.94
578.009	693.34
578.46	696.54
578.912	684.44
579.363	688.24
579.814	694.94
580.265	681.84
580.717	683.14
581.168	691.34
581.619	700.04
582.07	699.14
582.521	693.04
582.972	692.54
583.423	693.94
583.875	694.04
584.326	706.24
584.777	713.44
585.227	734.44
585.678	737.24
586.129	756.74
586.58	778.14
587.031	797.84
587.482	828.74
587.933	853.54
588.384	836.84
588.834	806.64
589.285	791.74
589.736	803.64
590.186	783.24
590.637	783.84
591.088	767.64
591.538	757.94
591.989	752.64
592.439	746.04
592.89	733.44
593.34	726.04
593.791	724.24
594.241	716.74
594.692	720.34
595.142	714.54
595.593	711.74
596.043	710.94
596.493	733.84
596.943	720.44
597.394	743.84
597.844	740.64
598.294	760.54
598.744	777.64
599.195	796.94
599.645	850.64
600.095	884.64
600.545	942.34
600.995	990.94
601.445	1048.54
601.895	1106.44
602.345	1160.84
602.795	1142.94
603.245	1101.94
603.695	1049.14
604.145	976.64
604.594	931.34
605.044	878.74
605.494	829.44
605.944	782.54
606.393	772.34
606.843	755.14
607.293	755.24
607.743	733.84
608.192	760.04
608.642	776.14
609.091	775.44
609.541	788.04
609.99	775.64
610.44	769.64
610.889	732.24
611.339	710.24
611.788	698.54
612.238	698.74
612.687	718.14
613.136	706.04
613.586	724.34
614.035	713.44
614.484	733.84
614.933	725.64
615.383	727.24
615.832	722.64
616.281	722.94
616.73	686.94
617.179	679.04
617.628	654.44
618.077	633.74
618.526	636.64
618.975	625.44
619.424	635.24
619.873	634.14
620.322	627.14
620.771	619.24
621.22	606.54
621.669	599.94
622.118	606.04
622.567	589.84
623.015	584.64
623.464	584.74
623.913	570.44
624.361	567.04
624.81	564.44
625.259	561.24
625.707	565.84
626.156	565.64
626.604	579.04
627.053	576.14
627.501	577.64
627.95	585.04
628.398	595.24
628.847	577.14
629.295	592.84
629.744	594.54
630.192	580.84
630.64	576.04
631.089	553.44
631.537	546.84
631.985	533.94
632.433	537.04
632.881	536.44
633.33	543.74
633.778	530.74
634.226	536.44
634.674	548.14
635.122	552.24
635.57	561.64
636.018	568.14
636.466	574.44
636.914	567.44
637.362	580.34
637.81	589.34
638.258	598.04
638.705	594.44
639.153	618.94
639.601	632.24
640.049	653.44
640.497	681.04
640.944	700.44
641.392	658.64
641.84	622.24
642.287	589.34
642.735	585.34
643.182	573.54
643.63	576.74
644.078	569.64
644.525	585.24
644.973	588.44
645.42	599.34
645.867	627.04
646.315	637.44
646.762	659.44
647.21	697.44
647.657	715.94
648.104	749.54
648.551	769.14
648.999	823.64
649.446	887.44
649.893	977.54
650.34	1109.24
650.787	1311.34
651.234	1617.44
651.682	2095.74
652.129	2833.54
652.576	4027.34
653.023	5853.44
653.47	7932.84
653.917	9897.04
654.363	11341.44
654.81	12599.24
655.257	11902.14
655.704	7879.74
656.151	4755.74
656.598	3126.74
657.044	2246.94
657.491	1747.54
657.938	1409.14
658.385	1193.24
658.831	1041.24
659.278	929.94
659.724	836.24
660.171	776.04
660.618	723.14
661.064	684.34
661.511	654.74
661.957	647.74
662.404	640.84
662.85	657.04
663.296	629.84
663.743	561.94
664.189	553.34
664.635	537.44
665.082	532.84
665.528	538.64
665.974	525.24
666.42	507.04
666.867	517.64
667.313	488.84
667.759	475.34
668.205	462.34
668.651	466.74
669.097	457.44
669.543	453.54
669.989	449.94
670.435	458.54
670.881	449.24
671.327	450.44
671.773	478.24
672.219	491.34
672.665	551.34
673.11	608.44
673.556	648.84
674.002	684.24
674.448	675.64
674.893	562.44
675.339	487.44
675.785	448.94
676.23	430.84
676.676	397.44
677.122	383.54
677.567	384.54
678.013	376.84
678.458	364.24
678.904	373.44
679.349	355.14
679.794	364.14
680.24	364.44
680.685	356.84
681.131	359.64
681.576	357.04
682.021	360.34
682.466	363.54
682.912	349.04
683.357	359.44
683.802	391.44
684.247	421.64
684.692	466.74
685.137	507.54
685.583	549.64
686.028	575.74
686.473	525.44
686.918	453.74
687.363	431.84
687.807	404.94
688.252	370.64
688.697	370.34
689.142	344.74
689.587	343.24
690.032	340.34
690.477	356.64
690.921	370.44
691.366	389.04
691.811	412.64
692.255	432.84
692.7	474.84
693.145	509.24
693.589	726.14
694.034	1176.54
694.478	1599.34
694.923	1790.64
695.367	2337.04
695.812	1238.14
696.256	517.24
696.701	381.04
697.145	348.44
697.59	336.64
698.034	333.84
698.478	329.64
698.922	324.34
699.367	335.44
699.811	341.84
700.255	359.44
700.699	393.24
701.143	431.54
701.588	494.84
702.032	532.44
702.476	526.14
702.92	501.74
703.364	503.14
703.808	667.94
704.252	1093.74
704.696	1506.54
705.14	1736.94
705.584	2199.84
706.027	1105.84
706.471	538.94
706.915	408.94
707.359	363.84
707.803	329.44
708.246	325.54
708.69	330.34
709.134	315.74
709.577	317.54
710.021	317.14
710.465	306.44
710.908	304.44
711.352	309.24
711.795	318.94
712.239	355.84
712.682	398.44
713.126	421.54
713.569	468.64
714.012	367.04
714.456	314.34
714.899	292.94
715.342	282.44
715.786	268.14
716.229	269.54
716.672	264.14
717.115	250.04
717.558	252.84
718.002	255.74
718.445	269.04
718.888	296.34
719.331	302.74
719.774	316.34
720.217	314.44
720.66	291.04
721.103	267.84
721.546	253.04
721.989	245.34
722.432	235.94
722.874	243.54
723.317	225.84
723.76	237.54
724.203	264.74
724.645	331.64
725.088	460.84
725.531	589.44
725.974	661.84
726.416	565.24
726.859	317.04
727.301	250.04
727.744	241.84
728.187	231.64
728.629	248.04
729.071	251.34
729.514	278.34
729.956	270.74
730.399	296.84
730.841	303.44
731.283	279.54
731.726	271.04
732.168	264.74
732.61	273.74
733.053	297.14
733.495	318.04
733.937	362.04
734.379	413.24
734.821	447.04
735.263	567.04
735.705	879.14
736.148	1636.24
736.59	2685.24
737.032	3167.64
737.474	2582.44
737.916	843.24
738.357	445.44
738.799	340.34
739.241	305.94
739.683	295.94
740.125	297.74
740.567	302.24
741.008	325.74
741.45	330.44
741.892	321.24
742.334	359.04
742.775	366.84
743.217	367.04
743.658	285.24
744.1	266.64
744.542	265.84
744.983	328.64
745.425	360.44
745.866	353.14
746.307	288.94
746.749	289.74
747.19	325.34
747.632	466.94
748.073	924.84
748.514	1934.84
748.956	2966.54
749.397	3752.44
749.838	3095.84
750.279	3068.94
750.72	1568.34
751.162	558.44
751.603	336.44
752.044	262.34
752.485	222.94
752.926	209.64
753.367	211.24
753.808	201.24
754.249	188.24
754.69	194.44
755.131	194.24
755.572	185.14
756.013	181.84
756.453	190.74
756.894	194.84
757.335	196.44
757.776	202.64
758.216	194.04
758.657	191.94
759.098	211.24
759.538	228.64
759.979	277.14
760.42	383.14
760.86	735.94
761.301	1920.04
761.741	4641.44
762.182	6651.04
762.622	4707.54
763.063	1374.24
763.503	552.24
