Data from 20171114-ORNL-Ar_H_NY_Subt18_08-06-22-918.txt Node
Date: Tue Nov 14 08:06:22 EST 2017
User: Ender
Spectrometer: HR+D1039
Trigger mode: 0
Integration Time (sec): 2.730000E-2
Scans to average: 10
Electric dark correction enabled: true
Nonlinearity correction enabled: false
Boxcar width: 0
XAxis mode: Wavelengths
Number of Pixels in Spectrum: 2048
>>>>>Begin Spectral Data<<<<<
187.836	-0.15
188.309	-0.15
188.782	-0.15
189.255	0.35
189.728	-1.35
190.201	6.25
190.674	-2.05
191.147	2.85
191.619	-3.85
192.092	5.45
192.565	3.25
193.038	-0.25
193.511	3.25
193.984	-3.05
194.456	-3.25
194.929	-3.45
195.402	-2.45
195.874	-1.55
196.347	-4.05
196.82	-10.35
197.292	-0.65
197.765	-7.65
198.237	-7.05
198.71	-2.45
199.182	-6.55
199.655	-3.85
200.127	-0.45
200.6	-7.45
201.072	-7.25
201.544	-7.15
202.017	-6.55
202.489	2.75
202.961	-2.65
203.433	-4.35
203.906	-8.75
204.378	-7.55
204.85	-2.85
205.322	-8.35
205.794	-6.15
206.266	-5.25
206.739	-11.75
207.211	0.85
207.683	-10.85
208.155	-12.45
208.627	-7.95
209.099	-6.95
209.57	-7.65
210.042	-11.05
210.514	-0.25
210.986	-5.85
211.458	-11.15
211.93	-3.25
212.402	0.35
212.873	-12.45
213.345	-6.75
213.817	-11.25
214.288	-4.35
214.76	-9.55
215.232	-1.15
215.703	-6.45
216.175	-7.25
216.646	-4.35
217.118	-12.35
217.589	-1.05
218.061	-3.45
218.532	-6.75
219.004	-8.15
219.475	-7.85
219.946	-2.65
220.418	-5.45
220.889	1.75
221.36	-1.05
221.832	-4.65
222.303	-11.15
222.774	-4.55
223.245	-8.75
223.717	-6.95
224.188	-13.15
224.659	-11.95
225.13	-16.55
225.601	-1.45
226.072	-1.85
226.543	-4.75
227.014	-5.85
227.485	-5.35
227.956	-6.65
228.427	-4.85
228.898	-1.05
229.369	2.95
229.839	-1.15
230.31	-7.85
230.781	-3.05
231.252	-3.05
231.722	-10.65
232.193	0.05
232.664	1.75
233.135	2.15
233.605	-0.95
234.076	-5.85
234.546	-2.85
235.017	6.45
235.487	-1.65
235.958	-1.55
236.428	-1.75
236.899	0.75
237.369	-1.65
237.84	-2.15
238.31	3.05
238.78	-3.55
239.251	-1.95
239.721	4.45
240.191	4.35
240.662	0.45
241.132	-2.45
241.602	-6.85
242.072	-0.75
242.542	6.05
243.013	0.15
243.483	8.45
243.953	8.25
244.423	-3.35
244.893	-3.25
245.363	4.05
245.833	-0.35
246.303	-0.65
246.773	10.15
247.243	-0.15
247.712	4.05
248.182	6.35
248.652	3.15
249.122	-1.85
249.592	6.35
250.061	16.35
250.531	30.15
251.001	14.35
251.471	20.55
251.94	13.15
252.41	1.65
252.879	-2.65
253.349	13.05
253.818	9.55
254.288	0.75
254.757	0.55
255.227	-1.15
255.696	-2.35
256.166	4.45
256.635	11.75
257.105	6.05
257.574	4.75
258.043	2.85
258.513	16.85
258.982	19.65
259.451	7.55
259.92	7.15
260.389	8.15
260.859	15.45
261.328	12.05
261.797	20.65
262.266	1.25
262.735	8.25
263.204	5.05
263.673	-0.15
264.142	9.05
264.611	-4.95
265.08	2.95
265.549	-4.55
266.018	5.15
266.487	-1.85
266.955	-4.25
267.424	-2.95
267.893	4.85
268.362	0.55
268.83	0.15
269.299	11.05
269.768	6.15
270.236	8.95
270.705	-1.25
271.174	2.55
271.642	6.75
272.111	5.95
272.579	16.25
273.048	25.35
273.516	29.15
273.985	22.05
274.453	22.85
274.922	18.75
275.39	11.95
275.858	2.15
276.327	13.15
276.795	16.65
277.263	1.35
277.731	29.05
278.2	54.95
278.668	56.55
279.136	41.35
279.604	11.55
280.072	9.45
280.54	9.85
281.008	8.85
281.477	12.35
281.945	10.65
282.413	10.25
282.881	12.75
283.348	9.35
283.816	15.05
284.284	10.05
284.752	19.95
285.22	9.95
285.688	14.75
286.156	20.15
286.623	44.45
287.091	53.75
287.559	29.45
288.026	19.25
288.494	16.05
288.962	4.55
289.429	2.35
289.897	13.55
290.364	11.25
290.832	11.85
291.3	14.35
291.767	16.95
292.234	20.45
292.702	13.95
293.169	15.55
293.637	19.85
294.104	21.45
294.571	6.95
295.039	7.95
295.506	16.95
295.973	12.55
296.44	15.05
296.908	23.55
297.375	22.45
297.842	20.05
298.309	16.35
298.776	16.75
299.243	27.15
299.71	13.85
300.177	16.95
300.644	18.15
301.111	16.55
301.578	20.85
302.045	11.95
302.512	23.65
302.979	21.95
303.446	20.15
303.913	14.25
304.379	17.35
304.846	23.05
305.313	26.65
305.78	25.95
306.246	23.85
306.713	26.15
307.18	18.95
307.646	23.65
308.113	25.45
308.579	20.75
309.046	26.45
309.512	28.15
309.979	15.35
310.445	31.55
310.912	28.15
311.378	29.35
311.845	27.35
312.311	29.25
312.777	24.95
313.244	31.05
313.71	35.85
314.176	28.65
314.642	34.55
315.109	32.95
315.575	32.05
316.041	37.65
316.507	32.55
316.973	38.75
317.439	32.95
317.905	34.45
318.371	37.35
318.837	36.55
319.303	33.45
319.769	34.85
320.235	28.45
320.701	38.35
321.167	33.95
321.633	39.65
322.099	39.85
322.564	41.05
323.03	40.25
323.496	36.15
323.962	43.45
324.427	34.75
324.893	41.45
325.359	42.35
325.824	34.35
326.29	40.35
326.755	46.05
327.221	41.05
327.686	35.85
328.152	45.95
328.617	38.25
329.083	43.45
329.548	48.35
330.014	48.25
330.479	39.35
330.944	48.55
331.41	40.35
331.875	45.15
332.34	40.75
332.805	41.55
333.271	50.55
333.736	37.05
334.201	53.35
334.666	49.05
335.131	51.35
335.596	52.55
336.061	52.75
336.526	43.85
336.991	47.95
337.456	54.95
337.921	54.65
338.386	51.85
338.851	46.35
339.316	45.85
339.781	45.15
340.246	52.85
340.711	46.55
341.175	49.15
341.64	39.05
342.105	54.25
342.569	55.95
343.034	53.25
343.499	61.95
343.963	55.45
344.428	63.85
344.893	59.15
345.357	62.65
345.822	61.75
346.286	67.95
346.751	73.75
347.215	66.65
347.679	73.75
348.144	97.45
348.608	91.55
349.073	67.45
349.537	75.75
350.001	79.55
350.465	88.55
350.93	80.45
351.394	75.25
351.858	79.55
352.322	83.65
352.786	89.85
353.25	100.65
353.715	116.35
354.179	101.15
354.643	121.15
355.107	130.55
355.571	107.55
356.035	101.75
356.498	118.75
356.962	122.85
357.426	132.75
357.89	125.15
358.354	92.05
358.818	84.75
359.281	74.55
359.745	76.85
360.209	79.55
360.673	79.35
361.136	83.65
361.6	91.45
362.064	82.15
362.527	85.95
362.991	90.45
363.454	81.35
363.918	73.25
364.381	79.45
364.845	85.35
365.308	87.05
365.772	89.85
366.235	87.15
366.698	85.95
367.162	86.55
367.625	85.35
368.088	83.65
368.552	86.65
369.015	89.75
369.478	96.85
369.941	100.95
370.404	97.45
370.867	105.85
371.331	103.85
371.794	121.55
372.257	115.55
372.72	113.95
373.183	109.15
373.646	108.55
374.109	104.55
374.572	103.05
375.035	107.85
375.497	109.55
375.96	105.65
376.423	102.95
376.886	116.55
377.349	111.05
377.811	108.65
378.274	109.05
378.737	108.95
379.199	115.25
379.662	111.55
380.125	119.75
380.587	119.15
381.05	125.05
381.512	130.25
381.975	138.85
382.437	132.55
382.9	130.75
383.362	133.85
383.825	136.85
384.287	147.25
384.75	147.25
385.212	142.55
385.674	142.75
386.136	136.95
386.599	124.55
387.061	132.95
387.523	131.05
387.985	138.55
388.447	145.25
388.91	149.85
389.372	160.75
389.834	153.55
390.296	144.55
390.758	157.35
391.22	170.35
391.682	216.15
392.144	307.15
392.606	238.45
393.068	171.45
393.529	173.05
393.991	158.85
394.453	150.55
394.915	151.25
395.377	200.35
395.838	222.05
396.3	162.25
396.762	145.65
397.224	143.55
397.685	133.45
398.147	133.95
398.608	127.75
399.07	132.25
399.531	142.55
399.993	147.75
400.454	158.95
400.916	149.15
401.377	142.85
401.839	154.35
402.3	158.05
402.762	167.45
403.223	179.35
403.684	175.95
404.145	166.65
404.607	165.45
405.068	172.75
405.529	175.65
405.99	194.05
406.451	192.95
406.913	183.25
407.374	169.75
407.835	162.35
408.296	169.65
408.757	169.55
409.218	193.15
409.679	188.15
410.14	177.35
410.601	176.95
411.062	183.75
411.522	194.55
411.983	197.25
412.444	181.85
412.905	186.45
413.366	188.95
413.826	193.05
414.287	222.25
414.748	256.25
415.208	248.25
415.669	213.45
416.13	206.65
416.59	204.75
417.051	223.45
417.511	228.75
417.972	246.95
418.432	252.85
418.893	292.85
419.353	253.35
419.814	202.35
420.274	194.85
420.734	182.75
421.195	204.55
421.655	203.75
422.115	203.45
422.576	186.05
423.036	193.15
423.496	209.15
423.956	223.65
424.416	237.15
424.876	265.15
425.336	269.95
425.797	270.55
426.257	260.45
426.717	250.85
427.177	238.35
427.637	233.45
428.097	243.45
428.556	247.95
429.016	281.25
429.476	272.85
429.936	289.75
430.396	279.35
430.856	302.55
431.315	327.55
431.775	363.25
432.235	387.15
432.694	362.55
433.154	371.15
433.614	407.25
434.073	344.15
434.533	294.15
434.993	280.45
435.452	291.45
435.912	307.05
436.371	295.25
436.83	293.65
437.29	274.85
437.749	257.25
438.209	253.05
438.668	282.25
439.127	296.15
439.587	271.55
440.046	258.45
440.505	270.25
440.964	285.35
441.424	338.95
441.883	322.05
442.342	265.65
442.801	232.65
443.26	220.85
443.719	217.75
444.178	218.85
444.637	212.55
445.096	225.05
445.555	230.45
446.014	224.65
446.473	235.55
446.932	240.35
447.391	226.95
447.849	232.85
448.308	225.85
448.767	217.35
449.226	240.95
449.685	240.75
450.143	254.25
450.602	248.85
451.061	233.85
451.519	234.15
451.978	242.15
452.436	241.55
452.895	246.25
453.353	257.85
453.812	241.55
454.27	243.45
454.729	240.65
455.187	251.85
455.646	250.25
456.104	252.75
456.562	266.05
457.021	278.75
457.479	265.25
457.937	286.35
458.395	268.55
458.854	247.35
459.312	259.65
459.77	283.95
460.228	260.35
460.686	249.95
461.144	253.45
461.602	249.05
462.06	249.05
462.518	267.75
462.976	266.75
463.434	263.95
463.892	266.25
464.35	284.35
464.808	289.25
465.266	270.15
465.724	273.65
466.181	279.15
466.639	276.25
467.097	299.25
467.555	307.15
468.012	309.75
468.47	316.25
468.928	344.15
469.385	351.95
469.843	356.95
470.3	360.05
470.758	378.25
471.215	396.25
471.673	421.45
472.13	416.65
472.588	427.85
473.045	389.75
473.503	382.25
473.96	405.75
474.417	411.75
474.875	447.15
475.332	481.75
475.789	478.55
476.246	483.75
476.704	504.25
477.161	520.35
477.618	541.55
478.075	573.15
478.532	627.25
478.989	709.15
479.446	840.05
479.903	791.75
480.36	845.65
480.817	899.25
481.274	991.65
481.731	1101.75
482.188	1203.55
482.645	1340.15
483.102	1460.95
483.558	1596.75
484.015	1663.75
484.472	1618.45
484.929	1572.15
485.385	1508.15
485.842	1484.75
486.299	1410.45
486.755	1340.15
487.212	1130.15
487.668	963.35
488.125	877.85
488.582	809.85
489.038	778.45
489.494	726.65
489.951	715.65
490.407	688.65
490.864	673.35
491.32	668.15
491.776	662.25
492.233	668.45
492.689	632.75
493.145	639.05
493.602	623.25
494.058	635.45
494.514	635.65
494.97	666.65
495.426	671.75
495.882	642.35
496.338	644.45
496.794	647.15
497.251	639.15
497.707	659.65
498.163	655.75
498.618	656.35
499.074	667.05
499.53	694.55
499.986	689.45
500.442	674.25
500.898	661.15
501.354	648.45
501.809	655.35
502.265	664.05
502.721	678.35
503.177	694.65
503.632	687.15
504.088	701.15
504.543	730.15
504.999	733.75
505.455	669.45
505.91	654.35
506.366	646.35
506.821	640.45
507.277	644.15
507.732	646.65
508.187	631.95
508.643	644.85
509.098	654.65
509.553	675.35
510.009	686.95
510.464	684.25
510.919	700.65
511.375	713.75
511.83	718.35
512.285	743.35
512.74	782.35
513.195	806.45
513.65	793.05
514.105	791.25
514.56	786.25
515.015	812.85
515.47	832.65
515.925	807.25
516.38	809.25
516.835	807.95
517.29	810.75
517.745	802.05
518.2	787.05
518.655	759.75
519.109	762.25
519.564	756.65
520.019	747.85
520.474	747.85
520.928	746.85
521.383	738.95
521.838	726.15
522.292	728.15
522.747	725.45
523.201	720.55
523.656	714.35
524.11	707.75
524.565	708.65
525.019	707.85
525.474	721.95
525.928	724.45
526.382	718.35
526.837	711.85
527.291	726.55
527.745	716.05
528.2	713.25
528.654	707.45
529.108	712.05
529.562	709.75
530.016	703.85
530.47	712.15
530.925	716.85
531.379	727.45
531.833	713.95
532.287	723.95
532.741	724.05
533.195	722.25
533.649	727.65
534.103	742.85
534.556	733.85
535.01	729.15
535.464	726.15
535.918	738.85
536.372	745.35
536.826	733.85
537.279	722.55
537.733	732.35
538.187	735.65
538.64	740.65
539.094	742.35
539.548	751.15
540.001	747.45
540.455	742.95
540.908	753.05
541.362	753.55
541.815	759.85
542.269	773.05
542.722	773.15
543.175	795.25
543.629	786.05
544.082	803.35
544.536	804.25
544.989	802.15
545.442	817.85
545.895	809.95
546.349	807.65
546.802	807.95
547.255	815.45
547.708	827.35
548.161	845.05
548.614	832.55
549.067	844.65
549.52	843.65
549.973	823.95
550.426	824.05
550.879	808.15
551.332	823.75
551.785	829.65
552.238	827.35
552.691	834.15
553.144	856.45
553.596	868.65
554.049	876.05
554.502	914.95
554.955	943.35
555.407	934.65
555.86	918.45
556.313	910.45
556.765	897.15
557.218	900.85
557.67	908.55
558.123	906.85
558.576	894.65
559.028	901.55
559.48	901.05
559.933	893.25
560.385	855.85
560.838	824.05
561.29	797.55
561.742	813.55
562.195	785.75
562.647	787.35
563.099	800.85
563.551	784.85
564.004	795.25
564.456	792.25
564.908	784.15
565.36	770.55
565.812	751.65
566.264	741.65
566.716	744.05
567.168	732.75
567.62	740.15
568.072	733.95
568.524	717.45
568.976	708.25
569.428	687.05
569.88	693.25
570.332	690.85
570.784	693.25
571.235	689.25
571.687	715.45
572.139	712.65
572.59	731.75
573.042	720.55
573.494	733.95
573.945	710.05
574.397	703.15
574.849	716.35
575.3	708.45
575.752	702.25
576.203	692.35
576.655	711.65
577.106	683.05
577.557	680.65
578.009	685.15
578.46	679.35
578.912	677.95
579.363	681.45
579.814	685.95
580.265	680.65
580.717	688.45
581.168	684.45
581.619	696.45
582.07	696.15
582.521	692.75
582.972	685.35
583.423	689.15
583.875	698.75
584.326	731.35
584.777	773.65
585.227	839.95
585.678	955.15
586.129	1038.45
586.58	1115.05
587.031	1200.65
587.482	1362.65
587.933	1559.95
588.384	1353.65
588.834	1002.05
589.285	821.15
589.736	805.95
590.186	800.05
590.637	785.95
591.088	764.15
591.538	751.45
591.989	741.35
592.439	745.55
592.89	740.05
593.34	731.35
593.791	728.65
594.241	723.55
594.692	725.15
595.142	718.55
595.593	722.65
596.043	721.55
596.493	730.25
596.943	737.45
597.394	736.75
597.844	728.95
598.294	742.75
598.744	771.65
599.195	801.65
599.645	838.75
600.095	883.65
600.545	934.35
600.995	985.15
601.445	1040.45
601.895	1112.45
602.345	1148.15
602.795	1146.85
603.245	1096.85
603.695	1026.45
604.145	979.85
604.594	931.15
605.044	883.25
605.494	802.65
605.944	769.25
606.393	761.35
606.843	742.75
607.293	757.15
607.743	754.35
608.192	763.65
608.642	773.55
609.091	782.35
609.541	793.55
609.99	783.45
610.44	778.85
610.889	736.45
611.339	719.65
611.788	698.85
612.238	708.45
612.687	731.95
613.136	733.25
613.586	759.95
614.035	753.15
614.484	775.25
614.933	777.05
615.383	754.35
615.832	765.65
616.281	740.45
616.73	707.25
617.179	676.15
617.628	656.35
618.077	648.15
618.526	638.05
618.975	631.65
619.424	624.15
619.873	629.05
620.322	633.25
620.771	621.85
621.22	615.15
621.669	604.25
622.118	600.05
622.567	592.75
623.015	578.45
623.464	577.15
623.913	575.15
624.361	561.55
624.81	566.25
625.259	564.65
625.707	562.85
626.156	574.15
626.604	576.25
627.053	577.55
627.501	572.65
627.95	580.85
628.398	588.85
628.847	584.65
629.295	569.05
629.744	573.65
630.192	576.15
630.64	578.55
631.089	562.15
631.537	598.55
631.985	593.55
632.433	613.95
632.881	622.55
633.33	677.15
633.778	646.15
634.226	579.95
634.674	585.45
635.122	589.15
635.57	603.25
636.018	631.55
636.466	595.15
636.914	563.05
637.362	587.45
637.81	582.75
638.258	597.95
638.705	591.55
639.153	619.05
639.601	631.85
640.049	653.75
640.497	683.65
640.944	702.15
641.392	654.05
641.84	613.75
642.287	587.85
642.735	584.65
643.182	584.25
643.63	575.65
644.078	590.15
644.525	615.65
644.973	612.25
645.42	623.65
645.867	628.65
646.315	659.85
646.762	676.25
647.21	707.15
647.657	733.15
648.104	770.95
648.551	791.65
648.999	856.25
649.446	934.75
649.893	1027.25
650.34	1188.85
650.787	1421.55
651.234	1775.95
651.682	2303.05
652.129	3178.65
652.576	4579.45
653.023	6746.55
653.47	9297.65
653.917	11582.15
654.363	13374.75
654.81	14727.05
655.257	14001.35
655.704	9226.75
656.151	5431.25
656.598	3516.15
657.044	2478.65
657.491	1913.85
657.938	1542.45
658.385	1279.05
658.831	1103.55
659.278	996.25
659.724	884.55
660.171	802.25
660.618	731.25
661.064	696.15
661.511	680.15
661.957	664.25
662.404	654.05
662.85	666.55
663.296	633.35
663.743	565.45
664.189	544.95
664.635	539.15
665.082	531.05
665.528	532.95
665.974	521.45
666.42	511.55
666.867	509.95
667.313	495.85
667.759	498.15
668.205	478.65
668.651	491.95
669.097	489.05
669.543	514.55
669.989	474.75
670.435	454.25
670.881	452.65
671.327	457.35
671.773	472.95
672.219	495.25
672.665	544.65
673.11	584.85
673.556	641.75
674.002	682.65
674.448	664.05
674.893	552.05
675.339	484.35
675.785	446.85
676.23	420.95
676.676	402.45
677.122	383.55
677.567	372.45
678.013	367.65
678.458	361.85
678.904	365.75
679.349	350.85
679.794	361.55
680.24	349.25
680.685	348.35
681.131	348.45
681.576	356.85
682.021	362.65
682.466	351.15
682.912	342.65
683.357	353.45
683.802	384.35
684.247	409.45
684.692	463.15
685.137	502.35
685.583	542.75
686.028	570.55
686.473	521.95
686.918	443.55
687.363	417.45
687.807	396.05
688.252	355.15
688.697	354.85
689.142	339.25
689.587	333.85
690.032	332.75
690.477	340.25
690.921	354.45
691.366	381.95
691.811	402.85
692.255	431.85
692.7	468.55
693.145	508.15
693.589	696.85
694.034	1143.35
694.478	1539.05
694.923	1742.35
695.367	2288.85
695.812	1202.55
696.256	510.05
696.701	373.95
697.145	343.25
697.59	332.45
698.034	324.65
698.478	327.75
698.922	334.95
699.367	333.25
699.811	345.75
700.255	361.05
700.699	381.35
701.143	425.65
701.588	472.85
702.032	514.05
702.476	515.95
702.92	489.85
703.364	484.55
703.808	646.35
704.252	1035.45
704.696	1461.05
705.14	1679.85
705.584	2134.55
706.027	1062.15
706.471	529.45
706.915	401.95
707.359	346.95
707.803	322.65
708.246	305.45
708.69	311.55
709.134	319.75
709.577	310.85
710.021	321.45
710.465	313.65
710.908	306.15
711.352	295.95
711.795	310.45
712.239	354.55
712.682	389.15
713.126	419.15
713.569	466.85
714.012	366.35
714.456	319.95
714.899	299.55
715.342	272.95
715.786	261.85
716.229	255.25
716.672	251.55
717.115	251.65
717.558	256.65
718.002	254.75
718.445	263.45
718.888	287.55
719.331	293.85
719.774	303.85
720.217	303.25
720.66	283.05
721.103	258.95
721.546	249.95
721.989	258.45
722.432	229.55
722.874	234.25
723.317	231.35
723.76	244.25
724.203	260.45
724.645	321.95
725.088	448.35
725.531	577.35
725.974	648.55
726.416	548.45
726.859	306.65
727.301	245.05
727.744	236.35
728.187	233.35
728.629	240.65
729.071	247.25
729.514	258.65
729.956	271.05
730.399	276.85
730.841	288.45
731.283	270.75
731.726	269.05
732.168	262.85
732.61	266.55
733.053	290.75
733.495	317.05
733.937	358.25
734.379	397.65
734.821	425.05
735.263	538.45
735.705	841.75
736.148	1573.35
736.59	2581.25
737.032	3070.45
737.474	2503.75
737.916	811.45
738.357	426.75
738.799	329.45
739.241	294.65
739.683	287.55
740.125	292.75
740.567	289.35
741.008	311.05
741.45	318.05
741.892	313.95
742.334	343.55
742.775	357.75
743.217	340.85
743.658	273.65
744.1	251.25
744.542	266.65
744.983	311.15
745.425	342.75
745.866	353.75
746.307	286.25
746.749	280.35
747.19	322.45
747.632	454.95
748.073	881.05
748.514	1862.95
748.956	2855.05
749.397	3578.25
749.838	2971.65
750.279	2983.45
750.72	1493.55
751.162	557.05
751.603	322.15
752.044	253.15
752.485	216.25
752.926	208.45
753.367	203.45
753.808	197.35
754.249	187.55
754.69	184.65
755.131	183.15
755.572	181.65
756.013	175.95
756.453	180.75
756.894	187.95
757.335	195.35
757.776	191.35
758.216	193.95
758.657	203.35
759.098	201.75
759.538	222.75
759.979	267.95
760.42	372.55
760.86	697.25
761.301	1809.55
761.741	4412.55
