Data from 20171114-ORNL-Ar_H_NY_Subt18_08-07-31-435.txt Node
Date: Tue Nov 14 08:07:31 EST 2017
User: Ender
Spectrometer: HR+D1039
Trigger mode: 0
Integration Time (sec): 2.730000E-2
Scans to average: 10
Electric dark correction enabled: true
Nonlinearity correction enabled: false
Boxcar width: 0
XAxis mode: Wavelengths
Number of Pixels in Spectrum: 2048
>>>>>Begin Spectral Data<<<<<
187.836	-4.25
188.309	-4.25
188.782	-4.25
189.255	1.65
189.728	0.25
190.201	3.75
190.674	2.85
191.147	1.55
191.619	-6.55
192.092	2.65
192.565	8.05
193.038	-0.65
193.511	-1.15
193.984	-0.85
194.456	-2.25
194.929	0.35
195.402	-2.75
195.874	-2.65
196.347	2.95
196.82	-5.25
197.292	2.35
197.765	-2.45
198.237	-3.35
198.71	5.15
199.182	-3.85
199.655	4.85
200.127	7.35
200.6	-0.25
201.072	0.95
201.544	2.45
202.017	-2.35
202.489	-0.75
202.961	4.85
203.433	-4.85
203.906	1.65
204.378	-9.25
204.85	-2.45
205.322	-8.95
205.794	-2.35
206.266	-7.35
206.739	-5.05
207.211	-1.75
207.683	-6.15
208.155	-5.95
208.627	-2.75
209.099	-6.85
209.57	-12.35
210.042	-8.75
210.514	-8.45
210.986	-1.35
211.458	-9.45
211.93	-1.45
212.402	3.55
212.873	-8.35
213.345	-7.15
213.817	-8.05
214.288	2.15
214.76	-10.25
215.232	-1.65
215.703	-6.85
216.175	-5.45
216.646	-0.25
217.118	-4.05
217.589	-2.25
218.061	-1.55
218.532	-1.65
219.004	-2.35
219.475	-0.55
219.946	-0.25
220.418	-4.05
220.889	1.95
221.36	-2.15
221.832	-4.75
222.303	-4.45
222.774	4.35
223.245	-8.85
223.717	-9.25
224.188	-5.75
224.659	-8.85
225.13	-9.65
225.601	-1.15
226.072	4.85
226.543	3.95
227.014	-2.45
227.485	-1.75
227.956	-4.65
228.427	-2.65
228.898	1.25
229.369	1.55
229.839	-1.85
230.31	-6.85
230.781	-2.55
231.252	-2.05
231.722	-3.85
232.193	2.05
232.664	1.45
233.135	-2.25
233.605	2.55
234.076	2.65
234.546	3.65
235.017	8.95
235.487	-2.95
235.958	-6.15
236.428	-2.45
236.899	4.75
237.369	3.25
237.84	-4.25
238.31	9.25
238.78	-4.85
239.251	-3.35
239.721	5.25
240.191	3.25
240.662	-1.35
241.132	4.45
241.602	-3.25
242.072	-3.55
242.542	7.45
243.013	-0.35
243.483	-2.45
243.953	1.65
244.423	-0.85
244.893	-4.15
245.363	2.95
245.833	6.85
246.303	-5.35
246.773	7.95
247.243	-3.55
247.712	2.35
248.182	8.95
248.652	7.95
249.122	-1.95
249.592	12.95
250.061	21.35
250.531	27.35
251.001	12.05
251.471	16.15
251.94	11.45
252.41	6.25
252.879	-2.55
253.349	12.45
253.818	9.65
254.288	6.05
254.757	5.55
255.227	-2.95
255.696	4.25
256.166	3.55
256.635	7.15
257.105	6.45
257.574	3.15
258.043	5.55
258.513	5.05
258.982	7.95
259.451	0.45
259.92	7.15
260.389	2.75
260.859	17.15
261.328	6.25
261.797	13.75
262.266	3.05
262.735	10.05
263.204	2.85
263.673	-3.95
264.142	3.65
264.611	-4.55
265.08	3.45
265.549	2.45
266.018	-1.35
266.487	-5.25
266.955	-2.75
267.424	2.75
267.893	7.95
268.362	-1.65
268.83	1.75
269.299	10.65
269.768	3.65
270.236	4.25
270.705	-0.05
271.174	2.05
271.642	3.75
272.111	9.55
272.579	14.95
273.048	16.35
273.516	24.75
273.985	14.65
274.453	22.05
274.922	16.75
275.39	11.95
275.858	-0.55
276.327	5.95
276.795	11.15
277.263	8.75
277.731	25.05
278.2	41.95
278.668	46.55
279.136	40.35
279.604	16.15
280.072	13.75
280.54	5.75
281.008	7.95
281.477	9.25
281.945	5.95
282.413	7.15
282.881	14.05
283.348	8.45
283.816	9.85
284.284	15.45
284.752	12.95
285.22	9.15
285.688	8.85
286.156	11.35
286.623	40.55
287.091	42.45
287.559	25.65
288.026	14.05
288.494	10.35
288.962	2.15
289.429	5.95
289.897	14.15
290.364	11.15
290.832	11.45
291.3	11.85
291.767	11.55
292.234	13.35
292.702	15.75
293.169	13.45
293.637	18.05
294.104	15.55
294.571	4.65
295.039	9.95
295.506	12.05
295.973	16.45
296.44	8.55
296.908	15.55
297.375	11.65
297.842	15.55
298.309	15.05
298.776	5.95
299.243	15.75
299.71	10.15
300.177	16.95
300.644	19.15
301.111	21.25
301.578	20.15
302.045	4.85
302.512	16.55
302.979	22.65
303.446	15.05
303.913	12.95
304.379	16.55
304.846	18.15
305.313	15.35
305.78	18.45
306.246	16.25
306.713	19.85
307.18	19.75
307.646	22.85
308.113	21.85
308.579	17.65
309.046	23.55
309.512	21.25
309.979	12.95
310.445	26.55
310.912	27.95
311.378	24.65
311.845	25.35
312.311	20.05
312.777	22.55
313.244	27.85
313.71	29.15
314.176	23.15
314.642	25.65
315.109	27.75
315.575	29.65
316.041	33.75
316.507	31.45
316.973	34.05
317.439	28.85
317.905	34.35
318.371	30.85
318.837	26.35
319.303	24.05
319.769	25.55
320.235	26.85
320.701	28.65
321.167	26.25
321.633	25.95
322.099	28.85
322.564	35.95
323.03	32.75
323.496	31.15
323.962	32.55
324.427	26.25
324.893	38.55
325.359	32.35
325.824	33.35
326.29	32.55
326.755	28.85
327.221	33.55
327.686	30.95
328.152	39.45
328.617	25.95
329.083	36.25
329.548	43.75
330.014	46.55
330.479	34.05
330.944	33.55
331.41	38.05
331.875	33.95
332.34	36.05
332.805	34.75
333.271	38.85
333.736	37.35
334.201	43.45
334.666	42.95
335.131	43.55
335.596	41.35
336.061	37.75
336.526	39.55
336.991	38.35
337.456	48.95
337.921	43.35
338.386	39.95
338.851	33.25
339.316	39.95
339.781	39.55
340.246	43.05
340.711	32.95
341.175	40.65
341.64	40.65
342.105	45.05
342.569	48.65
343.034	48.55
343.499	51.55
343.963	40.05
344.428	55.05
344.893	55.15
345.357	46.25
345.822	50.85
346.286	53.45
346.751	64.65
347.215	58.15
347.679	57.55
348.144	78.35
348.608	64.35
349.073	56.55
349.537	60.45
350.001	63.55
350.465	74.35
350.93	72.25
351.394	71.45
351.858	55.75
352.322	70.85
352.786	72.55
353.25	87.35
353.715	94.85
354.179	81.55
354.643	102.75
355.107	107.05
355.571	83.75
356.035	86.85
356.498	97.25
356.962	98.35
357.426	105.85
357.89	94.85
358.354	74.65
358.818	70.05
359.281	66.15
359.745	66.35
360.209	65.55
360.673	59.55
361.136	72.05
361.6	69.45
362.064	66.45
362.527	70.45
362.991	76.25
363.454	72.95
363.918	66.95
364.381	71.85
364.845	75.95
365.308	70.95
365.772	77.55
366.235	71.85
366.698	75.05
367.162	81.15
367.625	79.35
368.088	70.95
368.552	82.15
369.015	81.35
369.478	80.85
369.941	87.25
370.404	86.15
370.867	94.85
371.331	97.55
371.794	107.75
372.257	99.75
372.72	102.15
373.183	97.75
373.646	92.45
374.109	97.25
374.572	92.75
375.035	98.95
375.497	93.05
375.96	92.95
376.423	88.45
376.886	97.25
377.349	97.05
377.811	91.15
378.274	94.15
378.737	93.55
379.199	107.15
379.662	100.65
380.125	107.15
380.587	107.85
381.05	118.25
381.512	115.05
381.975	119.85
382.437	122.75
382.9	114.35
383.362	124.55
383.825	128.45
384.287	133.75
384.75	129.25
385.212	128.55
385.674	129.85
386.136	120.95
386.599	115.15
387.061	119.95
387.523	124.15
387.985	120.35
388.447	139.75
388.91	133.35
389.372	145.65
389.834	141.05
390.296	131.15
390.758	139.05
391.22	155.95
391.682	187.75
392.144	272.35
392.606	217.15
393.068	153.25
393.529	150.65
393.991	135.65
394.453	137.05
394.915	143.85
395.377	184.45
395.838	195.85
396.3	140.25
396.762	132.35
397.224	123.65
397.685	123.55
398.147	121.05
398.608	119.75
399.07	121.35
399.531	121.65
399.993	127.75
400.454	135.25
400.916	139.75
401.377	133.45
401.839	143.35
402.3	138.05
402.762	155.35
403.223	161.45
403.684	154.05
404.145	141.85
404.607	146.35
405.068	154.25
405.529	159.15
405.99	174.85
406.451	164.15
406.913	158.45
407.374	149.65
407.835	149.25
408.296	155.75
408.757	155.85
409.218	168.45
409.679	163.05
410.14	160.75
410.601	167.75
411.062	178.65
411.522	182.85
411.983	186.05
412.444	162.65
412.905	164.55
413.366	173.95
413.826	184.85
414.287	199.75
414.748	244.75
415.208	228.45
415.669	196.35
416.13	182.25
416.59	192.15
417.051	196.75
417.511	207.95
417.972	222.85
418.432	237.45
418.893	278.25
419.353	235.75
419.814	187.25
420.274	179.95
420.734	168.35
421.195	185.25
421.655	189.25
422.115	180.05
422.576	179.55
423.036	186.95
423.496	192.55
423.956	212.15
424.416	220.15
424.876	254.65
425.336	242.95
425.797	245.75
426.257	243.55
426.717	230.25
427.177	229.85
427.637	218.45
428.097	226.75
428.556	232.75
429.016	258.15
429.476	250.05
429.936	258.05
430.396	264.15
430.856	277.15
431.315	303.25
431.775	328.65
432.235	355.75
432.694	336.75
433.154	346.95
433.614	362.85
434.073	310.75
434.533	276.25
434.993	260.85
435.452	272.45
435.912	281.25
436.371	272.85
436.83	268.35
437.29	256.25
437.749	236.55
438.209	237.15
438.668	261.45
439.127	273.95
439.587	247.55
440.046	231.35
440.505	252.55
440.964	262.95
441.424	302.05
441.883	297.05
442.342	248.35
442.801	210.85
443.26	218.65
443.719	217.55
444.178	208.85
444.637	201.25
445.096	208.65
445.555	211.75
446.014	214.05
446.473	209.05
446.932	225.25
447.391	215.65
447.849	214.75
448.308	208.85
448.767	209.95
449.226	227.35
449.685	226.75
450.143	234.25
450.602	224.35
451.061	217.95
451.519	229.95
451.978	223.95
452.436	224.45
452.895	229.45
453.353	239.35
453.812	237.75
454.27	227.25
454.729	230.05
455.187	226.85
455.646	234.75
456.104	237.55
456.562	239.75
457.021	251.15
457.479	250.55
457.937	256.85
458.395	248.65
458.854	242.35
459.312	246.65
459.77	265.75
460.228	242.65
460.686	232.75
461.144	240.35
461.602	236.45
462.06	232.75
462.518	247.05
462.976	247.55
463.434	245.15
463.892	254.35
464.35	268.75
464.808	284.75
465.266	260.45
465.724	265.45
466.181	265.35
466.639	266.95
467.097	277.65
467.555	288.25
468.012	291.45
468.47	297.95
468.928	316.25
469.385	335.45
469.843	334.25
470.3	333.85
470.758	348.95
471.215	372.45
471.673	388.55
472.13	392.65
472.588	406.65
473.045	357.65
473.503	366.85
473.96	376.05
474.417	386.15
474.875	420.55
475.332	456.85
475.789	436.95
476.246	452.75
476.704	465.95
477.161	486.65
477.618	507.85
478.075	543.65
478.532	597.65
478.989	668.55
479.446	774.65
479.903	752.35
480.36	782.05
480.817	836.05
481.274	930.35
481.731	1030.45
482.188	1133.85
482.645	1253.45
483.102	1356.65
483.558	1466.15
484.015	1529.35
484.472	1505.55
484.929	1458.85
485.385	1420.85
485.842	1368.35
486.299	1300.35
486.755	1255.95
487.212	1048.85
487.668	891.25
488.125	827.85
488.582	748.85
489.038	718.85
489.494	686.35
489.951	664.55
490.407	636.85
490.864	623.55
491.32	611.35
491.776	624.85
492.233	635.35
492.689	596.65
493.145	584.55
493.602	579.25
494.058	593.15
494.514	597.45
494.97	612.55
495.426	630.25
495.882	594.85
496.338	594.95
496.794	597.65
497.251	602.35
497.707	616.95
498.163	621.45
498.618	629.15
499.074	621.35
499.53	657.55
499.986	652.95
500.442	624.95
500.898	621.45
501.354	614.55
501.809	617.35
502.265	629.35
502.721	642.45
503.177	654.35
503.632	645.95
504.088	655.95
504.543	688.35
504.999	691.15
505.455	637.45
505.91	625.35
506.366	611.75
506.821	615.25
507.277	608.45
507.732	604.45
508.187	616.55
508.643	609.35
509.098	616.15
509.553	630.05
510.009	647.05
510.464	658.15
510.919	668.85
511.375	679.75
511.83	686.45
512.285	708.55
512.74	741.55
513.195	760.25
513.65	753.25
514.105	762.45
514.56	749.85
515.015	770.05
515.47	780.45
515.925	783.85
516.38	766.75
516.835	772.25
517.29	755.15
517.745	762.85
518.2	745.55
518.655	723.65
519.109	720.55
519.564	727.05
520.019	704.95
520.474	707.05
520.928	713.55
521.383	698.65
521.838	695.65
522.292	698.85
522.747	699.35
523.201	682.35
523.656	675.65
524.11	683.85
524.565	675.75
525.019	680.05
525.474	679.95
525.928	689.65
526.382	682.95
526.837	686.35
527.291	674.35
527.745	681.15
528.2	682.35
528.654	681.45
529.108	679.15
529.562	680.25
530.016	680.65
530.47	677.75
530.925	678.55
531.379	680.85
531.833	688.05
532.287	691.05
532.741	680.85
533.195	690.85
533.649	696.35
534.103	692.55
534.556	691.75
535.01	698.85
535.464	687.15
535.918	700.45
536.372	692.75
536.826	698.15
537.279	689.65
537.733	700.75
538.187	704.95
538.64	696.45
539.094	706.65
539.548	713.05
540.001	711.85
540.455	710.65
540.908	725.05
541.362	723.85
541.815	734.65
542.269	740.75
542.722	746.55
543.175	749.85
543.629	762.05
544.082	769.85
544.536	777.95
544.989	777.45
545.442	784.65
545.895	774.75
546.349	778.75
546.802	772.35
547.255	788.45
547.708	794.05
548.161	793.75
548.614	802.85
549.067	815.25
549.52	791.95
549.973	797.65
550.426	786.65
550.879	787.15
551.332	782.85
551.785	793.15
552.238	791.45
552.691	803.95
553.144	804.35
553.596	827.95
554.049	846.15
554.502	877.45
554.955	890.15
555.407	890.85
555.86	882.05
556.313	866.95
556.765	866.25
557.218	863.25
557.67	866.35
558.123	860.55
558.576	845.75
559.028	856.15
559.48	863.05
559.933	859.95
560.385	829.05
560.838	790.35
561.29	771.25
561.742	769.85
562.195	757.35
562.647	751.65
563.099	764.65
563.551	762.75
564.004	768.25
564.456	761.15
564.908	750.55
565.36	737.55
565.812	732.75
566.264	710.25
566.716	715.95
567.168	712.45
567.62	717.95
568.072	701.75
568.524	692.85
568.976	683.55
569.428	668.05
569.88	664.25
570.332	673.25
570.784	678.45
571.235	665.75
571.687	679.15
572.139	688.95
572.59	694.35
573.042	705.35
573.494	700.45
573.945	693.95
574.397	676.35
574.849	676.55
575.3	676.55
575.752	658.75
576.203	681.05
576.655	677.65
577.106	654.65
577.557	649.25
578.009	660.55
578.46	651.05
578.912	653.65
579.363	662.65
579.814	661.25
580.265	650.15
580.717	656.55
581.168	660.05
581.619	667.95
582.07	664.45
582.521	671.15
582.972	667.55
583.423	665.95
583.875	662.65
584.326	696.45
584.777	738.35
585.227	815.65
585.678	893.15
586.129	971.55
586.58	1051.45
587.031	1123.85
587.482	1265.85
587.933	1434.85
588.384	1258.05
588.834	955.55
589.285	793.25
589.736	772.65
590.186	767.15
590.637	754.55
591.088	738.85
591.538	733.45
591.989	726.45
592.439	718.55
592.89	717.35
593.34	705.95
593.791	709.65
594.241	694.55
594.692	697.65
595.142	695.65
595.593	704.15
596.043	699.45
596.493	704.95
596.943	710.15
597.394	711.85
597.844	718.25
598.294	718.75
598.744	755.45
599.195	765.65
599.645	809.85
600.095	845.05
600.545	916.45
600.995	969.75
601.445	1007.85
601.895	1075.75
602.345	1118.45
602.795	1099.25
603.245	1052.55
603.695	983.25
604.145	951.55
604.594	903.75
605.044	847.35
605.494	783.55
605.944	749.15
606.393	739.75
606.843	719.05
607.293	724.95
607.743	722.65
608.192	738.55
608.642	751.35
609.091	752.05
609.541	762.55
609.99	764.15
610.44	756.15
610.889	715.15
611.339	702.05
611.788	676.55
612.238	686.95
612.687	709.15
613.136	720.05
613.586	730.65
614.035	723.45
614.484	750.85
614.933	746.75
615.383	732.75
615.832	730.45
616.281	716.45
616.73	682.25
617.179	659.75
617.628	641.95
618.077	632.05
618.526	617.25
618.975	612.25
619.424	620.95
619.873	609.65
620.322	608.15
620.771	601.15
621.22	605.45
621.669	592.35
622.118	581.45
622.567	569.85
623.015	564.85
623.464	564.05
623.913	560.85
624.361	551.25
624.81	544.45
625.259	545.35
625.707	553.95
626.156	550.85
626.604	564.35
627.053	553.95
627.501	555.55
627.95	560.05
628.398	565.15
628.847	567.55
629.295	572.65
629.744	568.65
630.192	571.05
630.64	567.55
631.089	563.25
631.537	568.85
631.985	581.15
632.433	592.85
632.881	596.95
633.33	664.65
633.778	630.15
634.226	568.65
634.674	575.35
635.122	572.45
635.57	585.55
636.018	613.55
636.466	578.05
636.914	555.25
637.362	562.05
637.81	569.45
638.258	579.85
638.705	574.95
639.153	609.25
639.601	614.25
640.049	641.85
640.497	669.45
640.944	694.65
641.392	640.65
641.84	600.85
642.287	569.75
642.735	554.25
643.182	566.05
643.63	567.85
644.078	569.35
644.525	588.35
644.973	595.35
645.42	599.35
645.867	616.25
646.315	635.25
646.762	660.05
647.21	687.65
647.657	711.95
648.104	750.25
648.551	772.75
648.999	835.15
649.446	903.45
649.893	998.95
650.34	1149.55
650.787	1383.55
651.234	1727.95
651.682	2241.65
652.129	3074.95
652.576	4443.55
653.023	6540.65
653.47	8926.45
653.917	11151.35
654.363	12794.05
654.81	14106.05
655.257	13380.75
655.704	8777.15
656.151	5183.55
656.598	3362.55
657.044	2377.85
657.491	1834.15
657.938	1473.75
658.385	1228.55
658.831	1064.45
659.278	944.05
659.724	853.05
660.171	777.45
660.618	722.25
661.064	680.75
661.511	650.75
661.957	647.75
662.404	637.45
662.85	639.65
663.296	621.65
663.743	548.45
664.189	539.65
664.635	531.95
665.082	528.05
665.528	533.35
665.974	511.25
666.42	507.55
666.867	505.15
667.313	495.85
667.759	475.75
668.205	478.55
668.651	479.65
669.097	482.15
669.543	497.85
669.989	465.25
670.435	442.35
670.881	442.75
671.327	445.55
671.773	460.65
672.219	488.25
672.665	547.35
673.11	577.55
673.556	620.75
674.002	660.85
674.448	651.15
674.893	540.45
675.339	474.65
675.785	429.15
676.23	420.65
676.676	392.55
677.122	383.85
677.567	369.95
678.013	368.95
678.458	362.25
678.904	361.55
679.349	351.55
679.794	351.85
680.24	344.15
680.685	345.85
681.131	342.15
681.576	346.65
682.021	352.95
682.466	350.05
682.912	334.95
683.357	352.95
683.802	384.85
684.247	405.45
684.692	448.25
685.137	485.15
685.583	525.65
686.028	554.05
686.473	514.55
686.918	443.95
687.363	412.35
687.807	394.45
688.252	361.55
688.697	355.65
689.142	330.65
689.587	333.05
690.032	329.05
690.477	346.65
690.921	355.05
691.366	387.95
691.811	401.45
692.255	432.35
692.7	460.35
693.145	503.85
693.589	694.35
694.034	1140.15
694.478	1524.95
694.923	1716.45
695.367	2233.75
695.812	1167.05
696.256	492.55
696.701	366.85
697.145	343.05
697.59	327.25
698.034	320.95
698.478	332.65
698.922	331.85
699.367	326.05
699.811	334.85
700.255	362.05
700.699	384.15
701.143	428.45
701.588	480.15
702.032	514.65
702.476	507.25
702.92	482.35
703.364	490.95
703.808	639.35
704.252	1046.95
704.696	1455.15
705.14	1650.25
705.584	2110.45
706.027	1057.55
706.471	521.45
706.915	395.55
707.359	348.35
707.803	321.05
708.246	311.75
708.69	312.75
709.134	313.45
709.577	316.15
710.021	319.75
710.465	308.95
710.908	299.25
711.352	295.15
711.795	313.05
712.239	350.95
712.682	388.15
713.126	410.05
713.569	456.95
714.012	374.55
714.456	325.05
714.899	295.35
715.342	273.65
715.786	258.65
716.229	255.75
716.672	255.65
717.115	241.15
717.558	248.75
718.002	247.55
718.445	261.55
718.888	280.55
719.331	292.85
719.774	307.75
720.217	295.95
720.66	284.15
721.103	267.75
721.546	250.25
721.989	250.25
722.432	223.75
722.874	243.25
723.317	226.25
723.76	230.05
724.203	258.85
724.645	315.25
725.088	442.05
725.531	562.35
725.974	642.05
726.416	540.45
726.859	301.25
727.301	242.75
727.744	240.25
728.187	231.95
728.629	233.95
729.071	243.15
729.514	259.95
729.956	279.15
730.399	281.35
730.841	282.55
731.283	271.85
731.726	264.65
732.168	258.35
732.61	268.45
733.053	282.95
733.495	310.85
733.937	358.45
734.379	391.45
734.821	438.75
735.263	544.45
735.705	844.95
736.148	1596.85
736.59	2584.85
737.032	3018.35
737.474	2454.75
737.916	808.25
738.357	418.55
738.799	330.75
739.241	306.25
739.683	283.45
740.125	292.25
740.567	296.65
741.008	307.85
741.45	306.85
741.892	313.15
742.334	340.25
742.775	354.85
743.217	339.45
743.658	276.35
744.1	252.85
744.542	270.15
744.983	309.45
745.425	347.65
745.866	344.25
746.307	277.85
746.749	281.85
747.19	321.65
747.632	462.45
748.073	897.25
748.514	1884.15
748.956	2843.05
749.397	3543.55
749.838	2948.05
750.279	2920.85
750.72	1480.15
751.162	543.35
751.603	318.15
752.044	251.95
752.485	212.95
752.926	211.35
753.367	198.85
753.808	198.65
754.249	190.35
754.69	182.15
755.131	187.25
755.572	178.45
756.013	180.25
756.453	180.25
756.894	184.45
757.335	197.95
757.776	194.95
758.216	193.25
758.657	201.45
759.098	203.35
759.538	220.15
759.979	266.45
760.42	364.25
760.86	715.55
761.301	1854.65
761.741	4425.35
762.182	6345.75
762.622	4430.35
763.063	1301.25
763.503	533.85
