Data from 20171114-ORNL-Ar_H_NY_Subt18_08-04-20-625.txt Node
Date: Tue Nov 14 08:04:20 EST 2017
User: Ender
Spectrometer: HR+D1039
Trigger mode: 0
Integration Time (sec): 2.730000E-2
Scans to average: 10
Electric dark correction enabled: true
Nonlinearity correction enabled: false
Boxcar width: 0
XAxis mode: Wavelengths
Number of Pixels in Spectrum: 2048
>>>>>Begin Spectral Data<<<<<
187.836	-6.46
188.309	-6.46
188.782	-6.46
189.255	0.24
189.728	0.74
190.201	7.64
190.674	6.34
191.147	3.84
191.619	-7.46
192.092	1.34
192.565	1.54
193.038	-2.26
193.511	2.94
193.984	-2.86
194.456	4.14
194.929	-5.26
195.402	-3.06
195.874	-1.36
196.347	4.74
196.82	-5.26
197.292	3.04
197.765	-4.16
198.237	-9.66
198.71	-1.76
199.182	-3.86
199.655	2.24
200.127	3.94
200.6	-4.56
201.072	-0.66
201.544	-7.26
202.017	1.04
202.489	5.74
202.961	-6.56
203.433	-5.06
203.906	-0.06
204.378	-7.06
204.85	-9.86
205.322	-10.46
205.794	-1.46
206.266	-7.26
206.739	-13.16
207.211	4.44
207.683	-7.36
208.155	-6.46
208.627	-7.86
209.099	-0.06
209.57	-9.86
210.042	-4.96
210.514	-4.86
210.986	-7.46
211.458	-10.46
211.93	-4.96
212.402	2.24
212.873	-3.36
213.345	-7.26
213.817	-7.86
214.288	-3.46
214.76	-14.16
215.232	-4.36
215.703	-5.76
216.175	-1.06
216.646	-3.56
217.118	-3.56
217.589	-6.16
218.061	-0.86
218.532	-6.26
219.004	-6.46
219.475	0.84
219.946	-4.16
220.418	-12.36
220.889	0.34
221.36	0.64
221.832	-3.66
222.303	-2.26
222.774	-4.66
223.245	-12.46
223.717	-8.96
224.188	-5.36
224.659	-6.06
225.13	-7.46
225.601	-5.56
226.072	-2.06
226.543	0.04
227.014	2.34
227.485	-2.86
227.956	-1.16
228.427	-0.96
228.898	0.74
229.369	3.74
229.839	-7.66
230.31	-5.06
230.781	1.74
231.252	-2.56
231.722	-9.96
232.193	-2.06
232.664	-0.56
233.135	-0.76
233.605	-1.56
234.076	-7.86
234.546	3.74
235.017	5.94
235.487	2.24
235.958	-0.16
236.428	-5.26
236.899	3.04
237.369	8.44
237.84	-0.06
238.31	2.64
238.78	8.24
239.251	4.24
239.721	3.14
240.191	3.14
240.662	0.54
241.132	-2.36
241.602	-4.36
242.072	1.04
242.542	15.54
243.013	-3.66
243.483	6.14
243.953	1.34
244.423	0.64
244.893	-2.96
245.363	7.64
245.833	3.34
246.303	2.04
246.773	4.64
247.243	4.84
247.712	6.74
248.182	9.54
248.652	13.54
249.122	-4.36
249.592	12.24
250.061	21.04
250.531	34.14
251.001	16.84
251.471	23.44
251.94	14.64
252.41	14.04
252.879	2.74
253.349	13.04
253.818	8.84
254.288	8.24
254.757	0.44
255.227	2.64
255.696	-0.06
256.166	2.94
256.635	8.24
257.105	7.04
257.574	2.54
258.043	8.04
258.513	12.34
258.982	18.64
259.451	8.84
259.92	16.94
260.389	11.94
260.859	17.54
261.328	7.54
261.797	22.04
262.266	12.14
262.735	17.34
263.204	7.94
263.673	4.34
264.142	2.84
264.611	2.24
265.08	2.84
265.549	0.54
266.018	4.94
266.487	1.34
266.955	-2.36
267.424	-2.06
267.893	6.74
268.362	-1.76
268.83	0.84
269.299	13.84
269.768	7.64
270.236	9.94
270.705	6.24
271.174	2.54
271.642	4.44
272.111	7.44
272.579	19.14
273.048	14.14
273.516	25.24
273.985	27.74
274.453	28.54
274.922	15.24
275.39	10.64
275.858	12.64
276.327	10.44
276.795	19.34
277.263	6.44
277.731	34.64
278.2	44.64
278.668	59.04
279.136	52.84
279.604	15.24
280.072	14.14
280.54	11.94
281.008	14.44
281.477	12.54
281.945	15.94
282.413	16.04
282.881	18.64
283.348	8.74
283.816	10.94
284.284	10.24
284.752	17.14
285.22	11.24
285.688	14.24
286.156	25.14
286.623	48.54
287.091	52.84
287.559	24.64
288.026	15.14
288.494	19.24
288.962	1.14
289.429	10.44
289.897	16.64
290.364	13.04
290.832	20.24
291.3	16.04
291.767	15.94
292.234	20.04
292.702	16.74
293.169	17.04
293.637	19.84
294.104	16.54
294.571	10.84
295.039	14.44
295.506	16.64
295.973	14.14
296.44	19.34
296.908	18.64
297.375	14.34
297.842	16.34
298.309	11.34
298.776	15.84
299.243	21.04
299.71	13.44
300.177	25.14
300.644	30.54
301.111	24.64
301.578	17.34
302.045	13.14
302.512	21.14
302.979	21.34
303.446	22.04
303.913	19.44
304.379	18.74
304.846	27.64
305.313	23.44
305.78	19.54
306.246	31.44
306.713	28.64
307.18	20.94
307.646	23.94
308.113	29.44
308.579	21.84
309.046	29.44
309.512	24.24
309.979	17.34
310.445	25.74
310.912	21.54
311.378	32.34
311.845	23.94
312.311	27.04
312.777	28.94
313.244	34.24
313.71	36.64
314.176	30.74
314.642	30.94
315.109	27.54
315.575	36.24
316.041	29.74
316.507	29.44
316.973	34.14
317.439	40.34
317.905	29.64
318.371	34.14
318.837	28.74
319.303	28.74
319.769	32.94
320.235	32.84
320.701	37.54
321.167	37.34
321.633	36.14
322.099	31.44
322.564	43.54
323.03	37.54
323.496	36.64
323.962	37.54
324.427	28.44
324.893	41.04
325.359	32.14
325.824	32.54
326.29	33.04
326.755	39.34
327.221	35.14
327.686	33.14
328.152	42.54
328.617	44.94
329.083	47.14
329.548	50.94
330.014	42.64
330.479	34.74
330.944	42.74
331.41	45.54
331.875	43.44
332.34	41.94
332.805	38.24
333.271	42.94
333.736	36.64
334.201	48.64
334.666	48.54
335.131	58.84
335.596	52.64
336.061	41.54
336.526	39.94
336.991	41.04
337.456	54.04
337.921	46.24
338.386	38.54
338.851	37.04
339.316	41.04
339.781	39.34
340.246	51.24
340.711	44.54
341.175	44.64
341.64	43.54
342.105	47.44
342.569	53.44
343.034	54.74
343.499	49.24
343.963	50.04
344.428	55.74
344.893	51.44
345.357	54.14
345.822	55.34
346.286	58.24
346.751	66.24
347.215	60.84
347.679	63.84
348.144	88.34
348.608	79.94
349.073	59.34
349.537	73.14
350.001	67.54
350.465	80.54
350.93	75.94
351.394	71.04
351.858	64.84
352.322	76.14
352.786	73.84
353.25	92.24
353.715	97.74
354.179	89.54
354.643	105.84
355.107	116.64
355.571	96.84
356.035	91.14
356.498	103.64
356.962	113.84
357.426	108.84
357.89	112.54
358.354	85.84
358.818	78.04
359.281	79.54
359.745	69.44
360.209	69.04
360.673	65.14
361.136	77.34
361.6	74.64
362.064	81.64
362.527	73.24
362.991	83.04
363.454	77.34
363.918	72.04
364.381	71.04
364.845	71.44
365.308	83.64
365.772	81.54
366.235	85.44
366.698	78.34
367.162	78.74
367.625	79.84
368.088	76.54
368.552	82.04
369.015	81.64
369.478	93.44
369.941	91.74
370.404	88.34
370.867	98.64
371.331	96.24
371.794	105.74
372.257	101.04
372.72	111.44
373.183	103.34
373.646	92.54
374.109	97.44
374.572	96.74
375.035	93.74
375.497	96.54
375.96	96.94
376.423	91.84
376.886	106.64
377.349	104.14
377.811	95.24
378.274	94.84
378.737	105.64
379.199	95.44
379.662	103.24
380.125	103.74
380.587	105.54
381.05	115.64
381.512	120.84
381.975	124.34
382.437	122.94
382.9	113.04
383.362	124.94
383.825	130.74
384.287	133.74
384.75	127.24
385.212	125.54
385.674	127.14
386.136	128.84
386.599	110.84
387.061	114.14
387.523	116.54
387.985	123.44
388.447	134.24
388.91	132.94
389.372	145.54
389.834	142.14
390.296	131.24
390.758	133.84
391.22	153.84
391.682	187.84
392.144	263.94
392.606	210.44
393.068	149.84
393.529	156.74
393.991	135.34
394.453	135.14
394.915	137.84
395.377	180.04
395.838	190.44
396.3	144.44
396.762	126.04
397.224	121.74
397.685	117.84
398.147	118.44
398.608	121.44
399.07	113.94
399.531	126.34
399.993	128.14
400.454	147.64
400.916	128.14
401.377	132.24
401.839	137.04
402.3	136.94
402.762	150.24
403.223	160.74
403.684	159.64
404.145	145.14
404.607	148.44
405.068	148.34
405.529	154.04
405.99	164.34
406.451	151.84
406.913	165.14
407.374	150.44
407.835	142.54
408.296	152.64
408.757	155.84
409.218	165.34
409.679	162.14
410.14	160.34
410.601	160.74
411.062	167.34
411.522	171.54
411.983	174.44
412.444	156.84
412.905	166.34
413.366	167.44
413.826	181.14
414.287	195.24
414.748	233.64
415.208	232.74
415.669	189.84
416.13	189.94
416.59	178.04
417.051	191.14
417.511	193.94
417.972	217.94
418.432	224.84
418.893	267.44
419.353	233.94
419.814	181.34
420.274	165.04
420.734	154.74
421.195	184.24
421.655	180.44
422.115	177.24
422.576	174.34
423.036	183.74
423.496	185.44
423.956	195.14
424.416	211.44
424.876	241.04
425.336	239.34
425.797	239.24
426.257	230.74
426.717	217.54
427.177	213.94
427.637	197.74
428.097	207.14
428.556	221.64
429.016	243.44
429.476	233.54
429.936	245.64
430.396	243.94
430.856	256.44
431.315	280.14
431.775	313.54
432.235	343.14
432.694	323.54
433.154	320.84
433.614	342.04
434.073	298.24
434.533	250.84
434.993	246.44
435.452	245.54
435.912	265.34
436.371	259.44
436.83	261.14
437.29	246.84
437.749	228.44
438.209	214.64
438.668	241.64
439.127	253.34
439.587	234.14
440.046	222.84
440.505	230.94
440.964	240.54
441.424	276.14
441.883	273.44
442.342	233.94
442.801	203.04
443.26	195.44
443.719	198.44
444.178	195.84
444.637	196.14
445.096	192.44
445.555	204.94
446.014	202.74
446.473	209.94
446.932	206.94
447.391	203.94
447.849	207.84
448.308	202.14
448.767	202.14
449.226	211.54
449.685	213.64
450.143	235.04
450.602	217.34
451.061	207.44
451.519	220.74
451.978	210.64
452.436	210.04
452.895	212.34
453.353	230.34
453.812	216.04
454.27	213.94
454.729	214.94
455.187	211.64
455.646	219.24
456.104	217.74
456.562	230.74
457.021	234.14
457.479	227.94
457.937	241.24
458.395	242.34
458.854	229.04
459.312	231.14
459.77	241.04
460.228	228.94
460.686	218.74
461.144	229.24
461.602	223.04
462.06	219.44
462.518	231.24
462.976	232.94
463.434	242.54
463.892	241.64
464.35	249.74
464.808	258.84
465.266	248.14
465.724	246.14
466.181	240.14
466.639	247.04
467.097	263.64
467.555	274.64
468.012	272.24
468.47	273.54
468.928	290.54
469.385	306.24
469.843	314.84
470.3	311.14
470.758	324.24
471.215	341.74
471.673	358.64
472.13	362.64
472.588	366.14
473.045	334.04
473.503	343.34
473.96	348.34
474.417	366.14
474.875	386.84
475.332	423.04
475.789	412.64
476.246	419.64
476.704	443.34
477.161	461.84
477.618	476.64
478.075	495.24
478.532	562.94
478.989	613.14
479.446	704.84
479.903	689.44
480.36	730.34
480.817	782.94
481.274	874.04
481.731	978.94
482.188	1060.74
482.645	1189.44
483.102	1288.54
483.558	1392.34
484.015	1462.24
484.472	1444.54
484.929	1386.74
485.385	1344.64
485.842	1314.24
486.299	1252.84
486.755	1179.24
487.212	990.34
487.668	845.34
488.125	777.64
488.582	703.24
489.038	677.54
489.494	645.74
489.951	623.54
490.407	610.44
490.864	582.54
491.32	587.34
491.776	578.24
492.233	575.84
492.689	545.64
493.145	545.04
493.602	551.04
494.058	555.34
494.514	554.64
494.97	571.44
495.426	589.84
495.882	568.14
496.338	562.94
496.794	563.04
497.251	560.14
497.707	572.54
498.163	584.34
498.618	587.54
499.074	584.94
499.53	599.84
499.986	607.64
500.442	593.94
500.898	572.34
501.354	571.84
501.809	574.14
502.265	583.34
502.721	587.24
503.177	602.24
503.632	602.54
504.088	606.84
504.543	641.34
504.999	637.14
505.455	595.54
505.91	580.64
506.366	580.14
506.821	562.04
507.277	566.14
507.732	560.14
508.187	561.94
508.643	576.24
509.098	575.34
509.553	583.24
510.009	605.24
510.464	599.84
510.919	612.34
511.375	625.54
511.83	636.74
512.285	642.54
512.74	688.34
513.195	707.74
513.65	694.14
514.105	685.74
514.56	696.04
515.015	716.54
515.47	731.34
515.925	718.54
516.38	713.44
516.835	722.44
517.29	710.54
517.745	696.94
518.2	693.54
518.655	671.44
519.109	667.64
519.564	672.64
520.019	663.04
520.474	657.54
520.928	656.54
521.383	650.94
521.838	644.44
522.292	644.24
522.747	634.04
523.201	631.74
523.656	628.24
524.11	623.74
524.565	619.14
525.019	614.54
525.474	624.04
525.928	625.24
526.382	622.34
526.837	626.74
527.291	626.44
527.745	630.04
528.2	624.34
528.654	613.64
529.108	604.84
529.562	616.64
530.016	617.34
530.47	614.84
530.925	616.84
531.379	627.04
531.833	626.14
532.287	622.04
532.741	631.24
533.195	637.24
533.649	639.34
534.103	641.54
534.556	627.74
535.01	639.84
535.464	634.04
535.918	650.04
536.372	639.14
536.826	647.04
537.279	626.64
537.733	636.24
538.187	633.04
538.64	636.84
539.094	638.14
539.548	654.44
540.001	637.04
540.455	637.74
540.908	649.74
541.362	653.64
541.815	661.04
542.269	664.64
542.722	674.14
543.175	688.24
543.629	684.64
544.082	692.84
544.536	690.04
544.989	704.94
545.442	706.04
545.895	698.34
546.349	697.84
546.802	704.04
547.255	704.84
547.708	711.94
548.161	728.44
548.614	717.84
549.067	735.14
549.52	730.94
549.973	719.94
550.426	714.84
550.879	712.34
551.332	713.04
551.785	709.54
552.238	712.84
552.691	717.64
553.144	737.84
553.596	748.24
554.049	760.34
554.502	777.34
554.955	804.94
555.407	801.74
555.86	801.14
556.313	792.94
556.765	774.34
557.218	773.14
557.67	778.44
558.123	768.24
558.576	769.54
559.028	768.44
559.48	773.74
559.933	765.54
560.385	742.64
560.838	706.44
561.29	681.74
561.742	679.84
562.195	667.44
562.647	664.64
563.099	689.74
563.551	671.54
564.004	685.24
564.456	673.54
564.908	655.44
565.36	660.04
565.812	644.94
566.264	641.44
566.716	634.04
567.168	625.84
567.62	629.24
568.072	616.84
568.524	609.74
568.976	585.84
569.428	586.74
569.88	589.44
570.332	596.54
570.784	588.84
571.235	591.94
571.687	593.64
572.139	618.14
572.59	614.24
573.042	616.34
573.494	622.04
573.945	606.04
574.397	598.24
574.849	602.24
575.3	606.54
575.752	588.34
576.203	589.54
576.655	595.94
577.106	582.94
577.557	575.34
578.009	579.34
578.46	577.84
578.912	570.54
579.363	578.34
579.814	574.94
580.265	568.54
580.717	574.94
581.168	585.74
581.619	583.74
582.07	601.54
582.521	580.74
582.972	578.04
583.423	592.24
583.875	580.64
584.326	605.44
584.777	651.44
585.227	714.04
585.678	777.84
586.129	862.44
586.58	931.04
587.031	1014.24
587.482	1170.04
587.933	1322.94
588.384	1150.34
588.834	852.14
589.285	699.74
589.736	672.94
590.186	666.94
590.637	659.04
591.088	638.24
591.538	628.04
591.989	620.74
592.439	625.14
592.89	617.64
593.34	610.94
593.791	606.64
594.241	602.24
594.692	603.74
595.142	597.74
595.593	594.94
596.043	597.74
596.493	615.14
596.943	615.04
597.394	614.04
597.844	604.84
598.294	616.04
598.744	638.84
599.195	657.04
599.645	685.74
600.095	724.94
600.545	773.34
600.995	809.84
601.445	867.24
601.895	917.94
602.345	968.14
602.795	957.44
603.245	909.84
603.695	859.84
604.145	808.64
604.594	763.84
605.044	724.34
605.494	687.44
605.944	643.44
606.393	630.84
606.843	610.24
607.293	626.24
607.743	605.84
608.192	615.94
608.642	648.44
609.091	644.24
609.541	647.04
609.99	642.54
610.44	632.94
610.889	607.64
611.339	585.64
611.788	577.44
612.238	581.74
612.687	607.44
613.136	605.64
613.586	625.84
614.035	610.94
614.484	641.24
614.933	640.54
615.383	631.84
615.832	619.14
616.281	605.24
616.73	574.84
617.179	553.74
617.628	546.94
618.077	532.34
618.526	523.34
618.975	520.44
619.424	509.44
619.873	508.44
620.322	512.14
620.771	509.74
621.22	512.24
621.669	497.44
622.118	490.34
622.567	485.34
623.015	473.24
623.464	475.84
623.913	472.04
624.361	455.84
624.81	464.54
625.259	466.34
625.707	467.84
626.156	454.94
626.604	462.34
627.053	461.54
627.501	468.64
627.95	472.64
628.398	483.64
628.847	468.74
629.295	470.74
629.744	475.84
630.192	483.84
630.64	467.54
631.089	467.24
631.537	476.74
631.985	482.44
632.433	501.04
632.881	491.94
633.33	540.24
633.778	521.24
634.226	463.64
634.674	464.14
635.122	474.74
635.57	492.94
636.018	511.14
636.466	481.04
636.914	462.44
637.362	471.74
637.81	479.94
638.258	474.44
638.705	475.94
639.153	494.94
639.601	509.04
640.049	527.64
640.497	553.14
640.944	571.94
641.392	527.94
641.84	506.44
642.287	482.84
642.735	469.04
643.182	473.04
643.63	466.94
644.078	476.04
644.525	487.14
644.973	492.04
645.42	488.84
645.867	515.94
646.315	519.04
646.762	543.34
647.21	567.34
647.657	589.14
648.104	609.64
648.551	636.04
648.999	679.34
649.446	743.24
649.893	835.94
650.34	948.14
650.787	1123.54
651.234	1404.44
651.682	1810.84
652.129	2470.64
652.576	3539.54
653.023	5280.94
653.47	7331.44
653.917	9242.94
654.363	10830.74
654.81	12235.64
655.257	11660.64
655.704	7540.04
656.151	4420.54
656.598	2825.44
657.044	2011.74
657.491	1540.64
657.938	1226.24
658.385	1021.14
658.831	888.34
659.278	797.24
659.724	702.24
660.171	653.74
660.618	588.54
661.064	554.54
661.511	539.54
661.957	525.74
662.404	511.74
662.85	517.04
663.296	497.74
663.743	459.54
664.189	439.94
664.635	440.94
665.082	431.54
665.528	430.14
665.974	433.04
666.42	410.14
666.867	408.54
667.313	394.44
667.759	386.24
668.205	399.74
668.651	398.24
669.097	393.94
669.543	411.24
669.989	390.04
670.435	363.44
670.881	357.34
671.327	360.54
671.773	384.04
672.219	396.04
672.665	438.44
673.11	473.44
673.556	501.64
674.002	549.24
674.448	530.44
674.893	446.44
675.339	382.24
675.785	352.74
676.23	336.94
676.676	324.74
677.122	314.24
677.567	307.84
678.013	297.64
678.458	286.14
678.904	286.94
679.349	281.14
679.794	283.54
680.24	285.34
680.685	277.94
681.131	280.64
681.576	283.24
682.021	284.54
682.466	285.74
682.912	276.74
683.357	280.64
683.802	305.54
684.247	331.64
684.692	370.74
685.137	400.24
685.583	437.74
686.028	464.14
686.473	425.54
686.918	358.24
687.363	337.64
687.807	323.54
688.252	291.94
688.697	282.64
689.142	272.44
689.587	266.84
690.032	260.04
690.477	265.54
690.921	284.44
691.366	299.44
691.811	318.54
692.255	346.74
692.7	365.04
693.145	400.44
693.589	542.04
694.034	888.44
694.478	1219.64
694.923	1425.94
695.367	1895.64
695.812	982.14
696.256	399.64
696.701	301.44
697.145	269.74
697.59	271.14
698.034	255.34
698.478	271.34
698.922	258.84
699.367	261.34
699.811	272.94
700.255	280.94
700.699	315.64
701.143	337.64
701.588	385.64
702.032	409.74
702.476	416.04
702.92	387.64
703.364	393.34
703.808	496.44
704.252	795.44
704.696	1156.14
705.14	1374.04
705.584	1767.34
706.027	870.04
706.471	417.64
706.915	312.24
707.359	282.24
707.803	261.14
708.246	244.94
708.69	247.44
709.134	255.64
709.577	247.64
710.021	255.24
710.465	236.94
710.908	241.54
711.352	241.34
711.795	253.84
712.239	281.74
712.682	299.54
713.126	336.54
713.569	372.84
714.012	300.44
714.456	263.04
714.899	240.54
715.342	228.24
715.786	217.04
716.229	200.24
716.672	202.24
717.115	197.84
717.558	202.64
718.002	195.74
718.445	208.44
718.888	231.34
719.331	234.94
719.774	240.74
720.217	246.94
720.66	223.84
721.103	218.44
721.546	203.94
721.989	196.34
722.432	183.84
722.874	192.44
723.317	181.64
723.76	180.54
724.203	206.64
724.645	252.44
725.088	351.14
725.531	456.54
725.974	526.04
726.416	447.34
726.859	247.14
727.301	199.24
727.744	190.34
728.187	186.14
728.629	199.44
729.071	189.14
729.514	210.54
729.956	214.54
730.399	221.64
730.841	228.64
731.283	214.34
731.726	207.04
732.168	215.04
732.61	202.24
733.053	216.94
733.495	241.24
733.937	270.94
734.379	311.64
734.821	338.64
735.263	421.54
735.705	654.54
736.148	1215.84
736.59	2043.64
737.032	2531.94
737.474	2063.64
737.916	655.04
738.357	340.94
738.799	263.94
739.241	241.14
739.683	229.64
740.125	232.04
740.567	236.94
741.008	258.34
741.45	257.04
741.892	244.44
742.334	279.34
742.775	285.74
743.217	273.94
743.658	209.34
744.1	202.04
744.542	206.54
744.983	247.14
745.425	271.04
745.866	283.24
746.307	226.34
746.749	224.74
747.19	252.34
747.632	352.64
748.073	664.34
748.514	1440.74
748.956	2310.14
749.397	2874.74
749.838	2384.34
750.279	2464.24
750.72	1220.44
751.162	447.34
751.603	266.94
752.044	198.44
752.485	177.44
752.926	168.94
753.367	168.44
753.808	151.84
754.249	152.84
754.69	142.34
755.131	148.34
755.572	143.94
756.013	131.54
756.453	138.24
756.894	150.44
757.335	149.94
757.776	154.74
758.216	155.04
758.657	156.44
759.098	162.94
759.538	174.34
759.979	211.14
760.42	284.54
760.86	528.74
761.301	1397.44
761.741	3489.64
762.182	5439.54
762.622	3809.64
763.063	1068.74
