Data from 20171114-ORNL-Ar_H_NY_Subt18_08-04-49-287.txt Node
Date: Tue Nov 14 08:04:49 EST 2017
User: Ender
Spectrometer: HR+D1039
Trigger mode: 0
Integration Time (sec): 2.730000E-2
Scans to average: 10
Electric dark correction enabled: true
Nonlinearity correction enabled: false
Boxcar width: 0
XAxis mode: Wavelengths
Number of Pixels in Spectrum: 2048
>>>>>Begin Spectral Data<<<<<
187.836	-8.9
188.309	-8.9
188.782	-8.9
189.255	2.8
189.728	-5.7
190.201	0.6
190.674	1.1
191.147	5.2
191.619	-3.3
192.092	6.9
192.565	2.4
193.038	1
193.511	-0.1
193.984	3.6
194.456	0.7
194.929	-2.7
195.402	-5.7
195.874	2.1
196.347	-3.6
196.82	-8.3
197.292	3
197.765	0.5
198.237	-6.4
198.71	-0.7
199.182	-1.8
199.655	-0.4
200.127	0.6
200.6	-3.6
201.072	-4
201.544	-5.7
202.017	-5
202.489	2.4
202.961	2.1
203.433	-3.7
203.906	-3
204.378	-4
204.85	1.9
205.322	-5.2
205.794	-1.8
206.266	-3.3
206.739	-5.1
207.211	4.4
207.683	-7.5
208.155	-5.4
208.627	-6
209.099	-4
209.57	-10
210.042	-3.3
210.514	2.9
210.986	-2.4
211.458	-7.9
211.93	-6.5
212.402	-3.5
212.873	2.1
213.345	-2.8
213.817	-7.9
214.288	-5
214.76	-7.6
215.232	0.5
215.703	-0.5
216.175	-4
216.646	-5.7
217.118	-8.1
217.589	-4.5
218.061	-3.1
218.532	-4.3
219.004	-7.2
219.475	-1.4
219.946	-5.1
220.418	-4.7
220.889	1.5
221.36	3.2
221.832	-5.3
222.303	-10.8
222.774	0
223.245	-11.1
223.717	-8.4
224.188	-3.8
224.659	-13.1
225.13	-5.4
225.601	-2.4
226.072	-2.4
226.543	-0.6
227.014	-0.9
227.485	1.8
227.956	-4.1
228.427	2.1
228.898	-3.3
229.369	1.4
229.839	-7.1
230.31	-7.2
230.781	1.6
231.252	-4.5
231.722	3
232.193	-9
232.664	1.6
233.135	1.4
233.605	0.5
234.076	-4.7
234.546	3
235.017	4.6
235.487	1.3
235.958	-4.9
236.428	-1.7
236.899	10.8
237.369	5.7
237.84	-4.8
238.31	4
238.78	2.2
239.251	-3.9
239.721	4.7
240.191	1.8
240.662	-1
241.132	1.2
241.602	-4
242.072	3.9
242.542	3.1
243.013	-0.8
243.483	1.9
243.953	1.8
244.423	3.4
244.893	1.3
245.363	5
245.833	-0.3
246.303	-0.7
246.773	7.3
247.243	0.4
247.712	5.1
248.182	7.3
248.652	7.2
249.122	-2.7
249.592	8.8
250.061	23.6
250.531	33.7
251.001	18.8
251.471	17.6
251.94	18.7
252.41	11
252.879	2.7
253.349	15.7
253.818	7.4
254.288	11.4
254.757	7.4
255.227	2.9
255.696	6.7
256.166	5.7
256.635	13.1
257.105	9
257.574	6.8
258.043	7.5
258.513	10.4
258.982	17.9
259.451	5.7
259.92	16.1
260.389	10.4
260.859	22.8
261.328	14.9
261.797	16.9
262.266	9.5
262.735	10.2
263.204	7
263.673	2
264.142	14.3
264.611	1.1
265.08	-3.1
265.549	4
266.018	6.5
266.487	3.1
266.955	4.8
267.424	-0.8
267.893	7
268.362	4.4
268.83	4.4
269.299	6.7
269.768	7.1
270.236	5.4
270.705	0.8
271.174	6.7
271.642	6.5
272.111	14.3
272.579	12.9
273.048	25.3
273.516	29.1
273.985	24.6
274.453	27.2
274.922	16.6
275.39	8.4
275.858	3.2
276.327	12.7
276.795	16.7
277.263	12
277.731	34.9
278.2	54.8
278.668	63.9
279.136	56.2
279.604	19.9
280.072	17.7
280.54	18.6
281.008	9.4
281.477	17.1
281.945	14.5
282.413	15.8
282.881	17.6
283.348	10.5
283.816	18.9
284.284	11.9
284.752	24.8
285.22	16.3
285.688	12.6
286.156	22.1
286.623	48.4
287.091	57
287.559	34.1
288.026	18.3
288.494	21.9
288.962	3.5
289.429	12.1
289.897	16.4
290.364	16.6
290.832	29.4
291.3	19.7
291.767	19.1
292.234	21.4
292.702	15.4
293.169	21.5
293.637	22.2
294.104	20.4
294.571	7.4
295.039	14
295.506	16.7
295.973	21
296.44	15.1
296.908	23.1
297.375	18.5
297.842	22.1
298.309	20.5
298.776	9.9
299.243	16.6
299.71	10.8
300.177	16.2
300.644	25.4
301.111	17.4
301.578	26
302.045	21.2
302.512	24.2
302.979	24.8
303.446	25.3
303.913	17.1
304.379	21.5
304.846	21.9
305.313	29.3
305.78	24.9
306.246	26.6
306.713	23.1
307.18	26.9
307.646	23.6
308.113	33
308.579	27.1
309.046	25
309.512	24.8
309.979	17.8
310.445	23.7
310.912	30
311.378	38.1
311.845	34.4
312.311	32
312.777	34.2
313.244	35.9
313.71	42.2
314.176	32.5
314.642	30
315.109	31.7
315.575	31.4
316.041	42.6
316.507	32.2
316.973	39.1
317.439	38
317.905	36.9
318.371	36.9
318.837	33.6
319.303	33.2
319.769	36.6
320.235	24.6
320.701	34.5
321.167	34.9
321.633	36.8
322.099	37.6
322.564	46
323.03	46.6
323.496	43.3
323.962	40.8
324.427	34.4
324.893	48.6
325.359	40.3
325.824	41.3
326.29	30.3
326.755	37.1
327.221	46.5
327.686	33
328.152	42.2
328.617	43.8
329.083	49.1
329.548	52.5
330.014	50.3
330.479	44
330.944	44.7
331.41	48.6
331.875	44.9
332.34	38.5
332.805	43.6
333.271	46.8
333.736	44.3
334.201	54.4
334.666	50
335.131	56.6
335.596	54.3
336.061	45.8
336.526	45.9
336.991	43.5
337.456	61
337.921	48
338.386	46
338.851	44.1
339.316	41.7
339.781	53.3
340.246	48.9
340.711	44.2
341.175	54.3
341.64	41.8
342.105	55
342.569	54.8
343.034	56.8
343.499	52.8
343.963	52.5
344.428	61.1
344.893	62.7
345.357	65.6
345.822	57.8
346.286	69.8
346.751	76
347.215	71.9
347.679	71.2
348.144	94.4
348.608	80.5
349.073	67.7
349.537	78.4
350.001	79.6
350.465	90.3
350.93	77.9
351.394	81
351.858	64.5
352.322	87.2
352.786	87.5
353.25	96.3
353.715	109
354.179	99.8
354.643	117.1
355.107	121.5
355.571	102.2
356.035	99.9
356.498	117.1
356.962	124.8
357.426	135.5
357.89	120.4
358.354	91.8
358.818	79.7
359.281	78.6
359.745	73.8
360.209	72.6
360.673	77.3
361.136	79.5
361.6	82.3
362.064	83.9
362.527	85.4
362.991	82.9
363.454	80.9
363.918	74.9
364.381	75.6
364.845	74.7
365.308	83.5
365.772	83.2
366.235	83
366.698	82.3
367.162	80.2
367.625	88
368.088	80.8
368.552	88.4
369.015	85.5
369.478	99.9
369.941	99.4
370.404	96.8
370.867	95.1
371.331	98.5
371.794	114.5
372.257	104.7
372.72	115
373.183	102.6
373.646	98.6
374.109	93.6
374.572	96.2
375.035	105.1
375.497	97.5
375.96	98.1
376.423	99.8
376.886	101.5
377.349	109
377.811	99
378.274	103.3
378.737	101
379.199	102.4
379.662	98.4
380.125	114.7
380.587	110.2
381.05	120.8
381.512	124
381.975	131.7
382.437	130.2
382.9	122.7
383.362	127.3
383.825	134.5
384.287	148.3
384.75	135
385.212	129.7
385.674	135.4
386.136	126.1
386.599	119.3
387.061	123
387.523	122.9
387.985	132.5
388.447	137.9
388.91	133
389.372	143
389.834	141.9
390.296	135.8
390.758	146.3
391.22	155.3
391.682	191.7
392.144	283.1
392.606	219.9
393.068	162.4
393.529	164.6
393.991	144.2
394.453	145.3
394.915	146.4
395.377	179.1
395.838	199.6
396.3	148.6
396.762	133.4
397.224	126.1
397.685	128
398.147	121.9
398.608	129.1
399.07	124.6
399.531	124.4
399.993	131.6
400.454	146
400.916	139.5
401.377	128.9
401.839	146.4
402.3	140.4
402.762	151.6
403.223	161.2
403.684	159.8
404.145	149.1
404.607	149.1
405.068	157.2
405.529	155.7
405.99	177.7
406.451	164.8
406.913	163.5
407.374	154
407.835	158.8
408.296	158.1
408.757	161.2
409.218	177.7
409.679	169
410.14	168.2
410.601	171.1
411.062	174.4
411.522	171.3
411.983	172.1
412.444	165.2
412.905	175
413.366	170.6
413.826	180.9
414.287	201.3
414.748	247.8
415.208	233.4
415.669	203
416.13	193.1
416.59	187.2
417.051	205.8
417.511	202.8
417.972	222
418.432	235.4
418.893	271.9
419.353	234.9
419.814	188.2
420.274	176.8
420.734	174.1
421.195	182.3
421.655	192.6
422.115	175.8
422.576	175
423.036	180.5
423.496	193.7
423.956	196.1
424.416	212.3
424.876	246.1
425.336	240.3
425.797	249
426.257	239.2
426.717	220.3
427.177	218
427.637	208.6
428.097	217.3
428.556	234.5
429.016	258.4
429.476	240.5
429.936	259.6
430.396	259.9
430.856	273.2
431.315	297.2
431.775	327.2
432.235	356.8
432.694	328.8
433.154	336.7
433.614	362.8
434.073	309
434.533	266.8
434.993	254.2
435.452	274.2
435.912	280.7
436.371	278.3
436.83	260
437.29	257
437.749	232.8
438.209	227.9
438.668	257.9
439.127	275.9
439.587	250.2
440.046	239.3
440.505	244.2
440.964	258.3
441.424	303.9
441.883	293.5
442.342	244.1
442.801	210.2
443.26	207.1
443.719	205.4
444.178	196.9
444.637	193
445.096	200.3
445.555	208.8
446.014	207.3
446.473	208.1
446.932	217.9
447.391	205.7
447.849	212.6
448.308	207.4
448.767	205.2
449.226	226.5
449.685	218.8
450.143	237.8
450.602	221.5
451.061	210.7
451.519	209.8
451.978	218.6
452.436	213.4
452.895	222.9
453.353	238
453.812	224.2
454.27	219.8
454.729	218.6
455.187	223
455.646	230.4
456.104	224.7
456.562	240.9
457.021	248.6
457.479	249.9
457.937	260.6
458.395	239.7
458.854	231.7
459.312	233.3
459.77	257.4
460.228	246.5
460.686	226.8
461.144	232.4
461.602	224.7
462.06	225.6
462.518	235.1
462.976	233.4
463.434	233
463.892	236.8
464.35	249.7
464.808	266.9
465.266	247.9
465.724	251.4
466.181	252.3
466.639	245
467.097	264.7
467.555	278.4
468.012	285.5
468.47	292.2
468.928	306.8
469.385	317.9
469.843	313.7
470.3	326.3
470.758	338
471.215	358.9
471.673	378.2
472.13	378.1
472.588	391.8
473.045	340.4
473.503	348.6
473.96	368.4
474.417	370.2
474.875	400.3
475.332	441.5
475.789	435.5
476.246	436.7
476.704	449.8
477.161	476.6
477.618	494.2
478.075	523.2
478.532	569.4
478.989	639.7
479.446	753.4
479.903	728.8
480.36	754.9
480.817	806.8
481.274	916.4
481.731	992.2
482.188	1085.7
482.645	1217.3
483.102	1311.8
483.558	1447.5
484.015	1508.4
484.472	1485.5
484.929	1445.2
485.385	1388.6
485.842	1346.7
486.299	1282.7
486.755	1218.3
487.212	1021.3
487.668	871.7
488.125	798.8
488.582	726.5
489.038	702.2
489.494	669.4
489.951	638.3
490.407	623.1
490.864	600.6
491.32	598.1
491.776	600
492.233	602.9
492.689	568
493.145	562.1
493.602	558.8
494.058	574.6
494.514	571.5
494.97	600.4
495.426	618.5
495.882	585.8
496.338	563
496.794	577.7
497.251	570.6
497.707	598.1
498.163	592.5
498.618	598.5
499.074	608.8
499.53	634.7
499.986	629.4
500.442	604.9
500.898	597.8
501.354	576
501.809	592.6
502.265	596
502.721	615.8
503.177	627.7
503.632	622.6
504.088	629
504.543	663.4
504.999	656.4
505.455	611.6
505.91	585.2
506.366	593.2
506.821	589.6
507.277	581.7
507.732	574.2
508.187	581.3
508.643	594.1
509.098	588.6
509.553	613.6
510.009	623.7
510.464	618
510.919	633.2
511.375	646.2
511.83	651.3
512.285	678.4
512.74	700.6
513.195	722.9
513.65	717.4
514.105	716.1
514.56	724.6
515.015	735.8
515.47	749.5
515.925	743.8
516.38	734
516.835	739.1
517.29	739.8
517.745	720.4
518.2	704.2
518.655	688
519.109	689.5
519.564	689.7
520.019	680
520.474	676.4
520.928	670.6
521.383	674.2
521.838	659.4
522.292	664.3
522.747	648.8
523.201	656.7
523.656	651.2
524.11	632.2
524.565	635.8
525.019	641.4
525.474	657
525.928	650.9
526.382	647.9
526.837	645.6
527.291	641.9
527.745	648.6
528.2	648.3
528.654	641.8
529.108	637.5
529.562	653.3
530.016	644.5
530.47	641
530.925	635.2
531.379	639.1
531.833	651
532.287	651.6
532.741	648.9
533.195	654.5
533.649	667.2
534.103	678
534.556	654.5
535.01	660.7
535.464	652
535.918	669.5
536.372	668
536.826	666.5
537.279	661.7
537.733	663.5
538.187	662.9
538.64	656.3
539.094	665.1
539.548	677.4
540.001	667
540.455	669.1
540.908	670.6
541.362	677.1
541.815	694.5
542.269	695.9
542.722	698.5
543.175	700.7
543.629	710.3
544.082	725.1
544.536	729.3
544.989	714.9
545.442	731.5
545.895	721.1
546.349	727.6
546.802	729.2
547.255	729
547.708	737.8
548.161	753.8
548.614	754.4
549.067	757.8
549.52	752.2
549.973	756.3
550.426	744.4
550.879	727.5
551.332	742.3
551.785	741.5
552.238	735.9
552.691	757.7
553.144	767.3
553.596	772.4
554.049	782.1
554.502	822.3
554.955	827.2
555.407	827.3
555.86	828.3
556.313	815.3
556.765	805.7
557.218	811.3
557.67	815.4
558.123	802.2
558.576	801.6
559.028	799.7
559.48	807
559.933	803.9
560.385	769.6
560.838	734.4
561.29	714.9
561.742	717.9
562.195	696.3
562.647	697.4
563.099	704.3
563.551	699.6
564.004	719
564.456	712.7
564.908	691.2
565.36	688.2
565.812	664.8
566.264	656.6
566.716	658.5
567.168	653.1
567.62	666.9
568.072	643.5
568.524	622
568.976	628.3
569.428	610.3
569.88	610.6
570.332	626
570.784	614.9
571.235	618.6
571.687	625.3
572.139	634
572.59	643.4
573.042	637.3
573.494	649.8
573.945	635.5
574.397	622.1
574.849	627.8
575.3	632.2
575.752	627.9
576.203	610.4
576.655	628.9
577.106	604.5
577.557	599
578.009	601
578.46	606.1
578.912	597.8
579.363	603.9
579.814	596.9
580.265	604.3
580.717	598.9
581.168	613.6
581.619	608.6
582.07	604.8
582.521	596.4
582.972	606.1
583.423	605
583.875	608.1
584.326	634
584.777	669.4
585.227	744.9
585.678	829.2
586.129	913
586.58	969
587.031	1046.9
587.482	1212
587.933	1396.7
588.384	1203.1
588.834	879.9
589.285	724.3
589.736	713.8
590.186	693.8
590.637	693.6
591.088	671.8
591.538	661.1
591.989	650.2
592.439	644.6
592.89	652.8
593.34	639
593.791	631.3
594.241	628.3
594.692	636.2
595.142	630.1
595.593	624.8
596.043	632.7
596.493	637.7
596.943	631.8
597.394	636.4
597.844	646.9
598.294	653.1
598.744	669.4
599.195	688.2
599.645	728.5
600.095	763.3
600.545	806.2
600.995	855
601.445	911.3
601.895	970.1
602.345	1013.7
602.795	993.2
603.245	956.9
603.695	905.4
604.145	862.8
604.594	805.8
605.044	756.5
605.494	708.6
605.944	665.7
606.393	658.5
606.843	650.3
607.293	647.8
607.743	640.1
608.192	656.3
608.642	668.9
609.091	687
609.541	684.7
609.99	690.6
610.44	680.5
610.889	636.5
611.339	612.2
611.788	605.5
612.238	617.6
612.687	640.9
613.136	637.7
613.586	652.4
614.035	658.9
614.484	664.3
614.933	671.1
615.383	674.2
615.832	654.8
616.281	636.7
616.73	605.2
617.179	590.7
617.628	577.3
618.077	564
618.526	548.4
618.975	539.7
619.424	550.7
619.873	543.9
620.322	547.1
620.771	535.6
621.22	535
621.669	527.2
622.118	518.8
622.567	511.1
623.015	498.9
623.464	499.6
623.913	492.9
624.361	492.6
624.81	481.5
625.259	482.5
625.707	481.6
626.156	491
626.604	494
627.053	492
627.501	495.7
627.95	497.8
628.398	502.6
628.847	506.4
629.295	503
629.744	500.1
630.192	506
630.64	497.6
631.089	502.2
631.537	508.1
631.985	516.2
632.433	533.4
632.881	537.8
633.33	571.4
633.778	550
634.226	502.8
634.674	507.6
635.122	503.2
635.57	524.3
636.018	545.4
636.466	505.7
636.914	487.1
637.362	500.1
637.81	502.1
638.258	500.9
638.705	509.5
639.153	524.2
639.601	528.2
640.049	559.6
640.497	590.4
640.944	607
641.392	563.1
641.84	531.1
642.287	504.4
642.735	494.5
643.182	501.1
643.63	504.6
644.078	503.2
644.525	515.8
644.973	518.3
645.42	529.5
645.867	537.7
646.315	558.4
646.762	579.7
647.21	591.3
647.657	610.6
648.104	648.6
648.551	677.3
648.999	730.5
649.446	793.9
649.893	879.8
650.34	1005
650.787	1197.3
651.234	1482.1
651.682	1925.7
652.129	2634.4
652.576	3784
653.023	5647.7
653.47	7767.6
653.917	9809.7
654.363	11453.5
654.81	12874.1
655.257	12203.7
655.704	7920
656.151	4664.3
656.598	3008.3
657.044	2126.5
657.491	1642.4
657.938	1306
658.385	1092.6
658.831	952.9
659.278	844.1
659.724	746.1
660.171	687.2
660.618	626.4
661.064	593.5
661.511	582.4
661.957	557.9
662.404	553
662.85	559.1
663.296	534
663.743	485.4
664.189	469.6
664.635	457
665.082	453.8
665.528	452.7
665.974	445.4
666.42	444.5
666.867	436.1
667.313	419.7
667.759	411.7
668.205	410.1
668.651	419
669.097	421.4
669.543	430.7
669.989	402.7
670.435	389.9
670.881	387.7
671.327	379.9
671.773	399.6
672.219	419.3
672.665	466.6
673.11	503.8
673.556	546.9
674.002	576.9
674.448	566.2
674.893	470.3
675.339	411.7
675.785	375.5
676.23	360.1
676.676	333.8
677.122	319.8
677.567	313.2
678.013	312.4
678.458	305.4
678.904	309.1
679.349	295.5
679.794	305.7
680.24	293.1
680.685	290.8
681.131	291.8
681.576	292.7
682.021	294.6
682.466	302.2
682.912	291.6
683.357	294.1
683.802	321.9
684.247	351.6
684.692	382.4
685.137	422.9
685.583	463.1
686.028	482.3
686.473	448.3
686.918	379.4
687.363	358.5
687.807	341.8
688.252	313.4
688.697	303.5
689.142	289.3
689.587	277.8
690.032	270.3
690.477	281.8
690.921	306.6
691.366	329.7
691.811	339.3
692.255	366
692.7	392
693.145	420.8
693.589	573.8
694.034	940.6
694.478	1291.5
694.923	1503.3
695.367	1984.2
695.812	1030.4
696.256	430.7
696.701	309.2
697.145	290.7
697.59	276.3
698.034	272.6
698.478	273.6
698.922	277.9
699.367	281.4
699.811	287.5
700.255	295.7
700.699	321.4
701.143	355.6
701.588	407.2
702.032	443.6
702.476	435.7
702.92	414.6
703.364	409.9
703.808	533.8
704.252	866.3
704.696	1217.1
705.14	1432.1
705.584	1847
706.027	907.4
706.471	442.8
706.915	335.2
707.359	293
707.803	268.5
708.246	269.6
708.69	260.2
709.134	264.6
709.577	262.3
710.021	267.9
710.465	258.5
710.908	252.7
711.352	249.1
711.795	260.7
712.239	289.1
712.682	320.9
713.126	344.9
713.569	400.4
714.012	317.7
714.456	274
714.899	256.9
715.342	230.8
715.786	221
716.229	221.2
716.672	223.2
717.115	205.9
717.558	212.1
718.002	212.1
718.445	219.9
718.888	240
719.331	248.6
719.774	257.4
720.217	256.3
720.66	237.9
721.103	229.3
721.546	216.7
721.989	218.4
722.432	199.8
722.874	198.4
723.317	193.2
723.76	203
724.203	220.7
724.645	266.2
725.088	370.1
725.531	473.6
725.974	548.2
726.416	460.7
726.859	259.5
727.301	207.2
727.744	205.5
728.187	194
728.629	194.9
729.071	198.2
729.514	216.9
729.956	224.2
730.399	237.5
730.841	251.1
731.283	231.4
731.726	219.7
732.168	213.6
732.61	221.4
733.053	237.3
733.495	263.9
733.937	293.7
734.379	330
734.821	365.3
735.263	452.7
735.705	682.7
736.148	1286.1
736.59	2158.1
737.032	2635.6
737.474	2139.1
737.916	683.7
738.357	362.6
738.799	274
739.241	252.1
739.683	234.6
740.125	242.2
740.567	247.6
741.008	266.6
741.45	263.7
741.892	260.9
742.334	293.9
742.775	305.1
743.217	287.9
743.658	227.1
744.1	215.5
744.542	221
744.983	260.6
745.425	284.9
745.866	296.7
746.307	235.2
746.749	234
747.19	273.2
747.632	370
748.073	705.3
748.514	1519.7
748.956	2413.4
749.397	3024.1
749.838	2504.4
750.279	2560
750.72	1279.3
751.162	467.4
751.603	264.4
752.044	208.6
752.485	179.3
752.926	188.3
753.367	160.9
753.808	160.7
754.249	155.1
754.69	156.4
755.131	149.5
755.572	150.3
756.013	153.7
756.453	146.1
756.894	151.8
757.335	155.9
757.776	163.2
758.216	161
758.657	163
759.098	170.5
759.538	185.6
759.979	223
760.42	311
760.86	565.7
761.301	1464.5
761.741	3680.7
762.182	5605.6
762.622	3929.2
763.063	1109.2
763.503	451.4
763.943	286.7
764.384	282.7
764.824	350
765.264	390.5
765.705	260
766.145	171.8
766.585	153.1
767.025	151.2
767.465	153.5
767.906	213.2
768.346	272.6
768.786	291.1
769.226	216.3
769.666	261.4
770.106	501.1
770.546	1273.6
770.986	2263.9
771.426	2042.7
771.866	674.9
772.306	277.9
772.745	180.5
773.185	146.2
773.625	147.6
774.065	140.2
774.505	166.4
774.944	251.1
775.384	569.7
775.824	1066.6
776.263	1068.1
776.703	444
777.142	185.1
777.582	132.6
778.021	116.6
778.461	123.4
778.9	120.6
779.34	110.3
779.779	100.3
780.219	96
780.658	86.4
781.097	90.2
781.537	98.8
781.976	93.1
782.415	91
782.855	91.4
783.294	87.3
783.733	92.4
784.172	90.5
784.611	88.1
785.05	87.2
785.489	92.7
785.928	101.4
786.367	101.4
786.806	101.7
787.245	104.9
787.684	115
788.123	126.1
788.562	113.7
789.001	110.8
789.44	103.9
789.879	94
790.317	95.8
790.756	99
791.195	106.9
791.634	123.1
792.072	170.4
792.511	299.6
792.95	823.2
793.388	1814.5
793.827	1694.7
794.265	574.1
794.704	232.8
795.142	148.6
795.581	126.1
796.019	120.2
796.458	109.3
796.896	104.8
797.334	111
797.773	123
798.211	180.3
798.649	353.9
799.087	849.4
799.526	1342.2
799.964	1688.3
800.402	1747.7
800.84	647.4
801.278	250.8
801.716	155.1
802.154	128.8
802.592	125.4
803.03	115.3
803.468	109.6
803.906	117.9
804.344	121.5
804.782	109.4
805.22	113.2
805.658	111
806.096	124.1
806.533	124.4
806.971	146.1
807.409	184.3
807.847	256.3
808.284	532.7
808.722	1528
809.16	2821
809.597	2584.5
