Data from 20171114-ORNL-Ar_H_NY_Subt18_08-03-43-227.txt Node
Date: Tue Nov 14 08:03:43 EST 2017
User: Ender
Spectrometer: HR+D1039
Trigger mode: 0
Integration Time (sec): 2.730000E-2
Scans to average: 10
Electric dark correction enabled: true
Nonlinearity correction enabled: false
Boxcar width: 0
XAxis mode: Wavelengths
Number of Pixels in Spectrum: 2048
>>>>>Begin Spectral Data<<<<<
187.836	-4.96
188.309	-4.96
188.782	-4.96
189.255	2.04
189.728	0.34
190.201	1.84
190.674	-0.36
191.147	5.54
191.619	-11.56
192.092	3.14
192.565	0.64
193.038	1.94
193.511	-3.56
193.984	3.54
194.456	2.74
194.929	0.94
195.402	3.44
195.874	-5.66
196.347	3.74
196.82	-7.46
197.292	5.64
197.765	-0.16
198.237	-6.16
198.71	-1.96
199.182	-5.46
199.655	3.24
200.127	-1.86
200.6	-5.06
201.072	-1.86
201.544	-5.66
202.017	-6.06
202.489	0.34
202.961	-0.46
203.433	-11.26
203.906	-5.36
204.378	-12.86
204.85	-3.36
205.322	-8.96
205.794	-1.86
206.266	0.74
206.739	-3.86
207.211	0.94
207.683	-6.56
208.155	3.34
208.627	-7.36
209.099	-6.46
209.57	-8.66
210.042	-6.26
210.514	-6.36
210.986	-2.66
211.458	-7.96
211.93	-3.56
212.402	2.14
212.873	-3.76
213.345	-9.56
213.817	-9.26
214.288	-3.26
214.76	-10.76
215.232	-2.76
215.703	-3.46
216.175	-9.46
216.646	-0.46
217.118	-4.16
217.589	-1.06
218.061	-7.36
218.532	-4.86
219.004	-3.16
219.475	-8.96
219.946	-5.96
220.418	-3.26
220.889	3.84
221.36	-2.36
221.832	-1.86
222.303	-10.36
222.774	1.64
223.245	-9.36
223.717	-5.16
224.188	-7.46
224.659	-2.26
225.13	-3.76
225.601	-5.36
226.072	3.34
226.543	-2.96
227.014	-0.26
227.485	-6.26
227.956	-3.86
228.427	-1.76
228.898	-0.56
229.369	1.74
229.839	-3.06
230.31	-3.96
230.781	-1.56
231.252	-5.46
231.722	-10.16
232.193	-5.46
232.664	-0.06
233.135	-2.36
233.605	-6.66
234.076	-5.86
234.546	3.04
235.017	3.74
235.487	0.84
235.958	-2.16
236.428	-7.26
236.899	-3.96
237.369	-7.36
237.84	-2.36
238.31	-2.36
238.78	-10.66
239.251	-4.76
239.721	-2.86
240.191	-2.16
240.662	-6.46
241.132	-4.76
241.602	-8.26
242.072	-4.26
242.542	5.94
243.013	-7.76
243.483	-1.96
243.953	1.54
244.423	-7.86
244.893	-7.16
245.363	0.74
245.833	1.54
246.303	-1.46
246.773	7.54
247.243	-5.26
247.712	-5.16
248.182	-0.66
248.652	-0.26
249.122	-2.96
249.592	-2.06
250.061	1.24
250.531	9.04
251.001	0.94
251.471	4.74
251.94	3.34
252.41	2.64
252.879	-9.16
253.349	4.94
253.818	5.04
254.288	-1.56
254.757	-1.66
255.227	-3.16
255.696	0.34
256.166	3.24
256.635	0.54
257.105	-1.86
257.574	2.64
258.043	-2.46
258.513	-3.56
258.982	-1.66
259.451	1.24
259.92	1.44
260.389	0.24
260.859	1.84
261.328	6.84
261.797	6.84
262.266	-2.46
262.735	4.24
263.204	-2.06
263.673	-0.46
264.142	4.34
264.611	-7.26
265.08	-1.76
265.549	-8.06
266.018	4.54
266.487	-10.06
266.955	-4.26
267.424	-5.96
267.893	3.74
268.362	-4.06
268.83	-5.26
269.299	5.24
269.768	1.44
270.236	-1.26
270.705	-9.56
271.174	0.34
271.642	0.44
272.111	0.54
272.579	0.04
273.048	0.94
273.516	0.14
273.985	2.44
274.453	8.44
274.922	11.64
275.39	4.34
275.858	-5.46
276.327	7.14
276.795	9.34
277.263	-2.76
277.731	8.94
278.2	-2.46
278.668	0.74
279.136	6.04
279.604	2.54
280.072	1.34
280.54	10.54
281.008	2.54
281.477	11.44
281.945	7.64
282.413	6.24
282.881	12.54
283.348	-3.86
283.816	6.64
284.284	8.14
284.752	12.14
285.22	-0.96
285.688	6.44
286.156	13.34
286.623	9.34
287.091	3.84
287.559	4.34
288.026	4.44
288.494	5.74
288.962	1.54
289.429	-0.26
289.897	16.74
290.364	8.24
290.832	6.44
291.3	5.74
291.767	9.74
292.234	16.44
292.702	10.54
293.169	11.04
293.637	13.64
294.104	11.14
294.571	-0.46
295.039	8.34
295.506	4.54
295.973	9.04
296.44	7.94
296.908	3.94
297.375	11.24
297.842	8.94
298.309	11.54
298.776	3.64
299.243	13.44
299.71	3.74
300.177	13.44
300.644	14.84
301.111	14.24
301.578	15.44
302.045	9.54
302.512	16.14
302.979	19.44
303.446	19.44
303.913	11.44
304.379	8.04
304.846	19.04
305.313	18.54
305.78	12.64
306.246	15.94
306.713	21.14
307.18	19.34
307.646	19.94
308.113	16.34
308.579	11.14
309.046	21.34
309.512	18.44
309.979	13.54
310.445	16.94
310.912	22.34
311.378	22.54
311.845	24.74
312.311	23.14
312.777	29.04
313.244	27.74
313.71	25.54
314.176	23.14
314.642	10.74
315.109	14.94
315.575	23.24
316.041	31.24
316.507	25.74
316.973	26.14
317.439	26.24
317.905	30.34
318.371	32.64
318.837	25.54
319.303	24.44
319.769	19.64
320.235	24.54
320.701	24.04
321.167	27.44
321.633	22.84
322.099	27.74
322.564	33.04
323.03	27.54
323.496	34.74
323.962	34.84
324.427	26.34
324.893	34.84
325.359	29.34
325.824	31.74
326.29	30.94
326.755	37.94
327.221	33.84
327.686	34.64
328.152	35.64
328.617	37.24
329.083	42.24
329.548	43.54
330.014	38.84
330.479	30.84
330.944	35.94
331.41	33.44
331.875	39.94
332.34	35.94
332.805	36.54
333.271	37.84
333.736	32.04
334.201	40.04
334.666	42.24
335.131	42.94
335.596	39.54
336.061	42.44
336.526	32.94
336.991	40.24
337.456	49.64
337.921	41.84
338.386	34.94
338.851	42.94
339.316	37.74
339.781	42.84
340.246	44.74
340.711	42.24
341.175	43.14
341.64	34.64
342.105	46.94
342.569	47.34
343.034	50.64
343.499	53.14
343.963	49.04
344.428	57.64
344.893	52.44
345.357	52.64
345.822	54.94
346.286	64.24
346.751	65.34
347.215	58.04
347.679	54.04
348.144	76.74
348.608	74.94
349.073	63.94
349.537	68.44
350.001	67.34
350.465	84.44
350.93	70.34
351.394	73.64
351.858	64.34
352.322	78.44
352.786	78.44
353.25	81.94
353.715	91.94
354.179	82.24
354.643	104.64
355.107	109.24
355.571	93.34
356.035	87.74
356.498	93.34
356.962	101.24
357.426	107.54
357.89	101.94
358.354	82.64
358.818	81.64
359.281	79.74
359.745	76.94
360.209	76.74
360.673	80.64
361.136	80.54
361.6	84.64
362.064	82.54
362.527	83.04
362.991	92.04
363.454	83.44
363.918	81.74
364.381	83.54
364.845	79.84
365.308	89.84
365.772	89.64
366.235	89.64
366.698	81.64
367.162	87.74
367.625	84.94
368.088	90.24
368.552	93.34
369.015	91.44
369.478	98.84
369.941	98.84
370.404	93.24
370.867	100.64
371.331	99.74
371.794	99.64
372.257	104.04
372.72	102.34
373.183	104.44
373.646	92.64
374.109	101.64
374.572	99.44
375.035	101.44
375.497	103.24
375.96	108.84
376.423	104.54
376.886	111.84
377.349	114.14
377.811	104.04
378.274	112.34
378.737	107.04
379.199	107.24
379.662	113.84
380.125	106.24
380.587	115.24
381.05	108.74
381.512	126.14
381.975	126.04
382.437	127.74
382.9	120.34
383.362	128.94
383.825	139.34
384.287	128.94
384.75	123.64
385.212	130.04
385.674	137.94
386.136	132.94
386.599	122.54
387.061	131.24
387.523	125.84
387.985	134.54
388.447	135.64
388.91	142.54
389.372	137.94
389.834	135.24
390.296	132.24
390.758	141.94
391.22	140.64
391.682	149.14
392.144	155.04
392.606	149.34
393.068	156.34
393.529	159.64
393.991	149.24
394.453	140.34
394.915	148.14
395.377	139.04
395.838	140.84
396.3	143.54
396.762	152.24
397.224	145.44
397.685	138.14
398.147	148.44
398.608	145.34
399.07	142.84
399.531	143.64
399.993	151.14
400.454	168.44
400.916	151.74
401.377	153.24
401.839	155.94
402.3	170.74
402.762	181.44
403.223	193.74
403.684	179.54
404.145	182.34
404.607	176.14
405.068	175.64
405.529	180.44
405.99	186.54
406.451	190.04
406.913	192.24
407.374	186.04
407.835	176.94
408.296	184.74
408.757	180.64
409.218	196.64
409.679	195.44
410.14	189.94
410.601	192.24
411.062	195.84
411.522	199.04
411.983	186.14
412.444	192.24
412.905	196.04
413.366	197.14
413.826	215.14
414.287	244.64
414.748	285.94
415.208	281.64
415.669	237.44
416.13	230.34
416.59	230.04
417.051	243.64
417.511	253.14
417.972	268.44
418.432	283.04
418.893	333.64
419.353	283.94
419.814	224.64
420.274	208.94
420.734	205.44
421.195	219.84
421.655	208.34
422.115	210.14
422.576	211.34
423.036	219.54
423.496	224.94
423.956	235.04
424.416	247.64
424.876	285.04
425.336	279.74
425.797	288.24
426.257	274.34
426.717	249.84
427.177	248.54
427.637	243.44
428.097	247.84
428.556	254.34
429.016	286.74
429.476	275.14
429.936	291.44
430.396	298.64
430.856	299.84
431.315	327.14
431.775	354.34
432.235	389.44
432.694	362.54
433.154	380.64
433.614	388.64
434.073	351.04
434.533	298.24
434.993	273.24
435.452	287.34
435.912	286.64
436.371	294.94
436.83	280.54
437.29	268.94
437.749	263.04
438.209	253.64
438.668	277.54
439.127	282.14
439.587	272.44
440.046	257.44
440.505	273.64
440.964	280.84
441.424	313.24
441.883	304.14
442.342	268.14
442.801	240.54
443.26	239.14
443.719	236.04
444.178	235.44
444.637	229.34
445.096	238.24
445.555	241.34
446.014	246.14
446.473	248.54
446.932	249.64
447.391	244.74
447.849	247.44
448.308	233.14
448.767	241.04
449.226	251.34
449.685	255.44
450.143	271.14
450.602	259.74
451.061	243.34
451.519	246.14
451.978	241.14
452.436	238.14
452.895	248.14
453.353	267.44
453.812	259.24
454.27	252.54
454.729	247.54
455.187	245.74
455.646	253.84
456.104	258.94
456.562	263.84
457.021	272.34
457.479	263.34
457.937	277.24
458.395	275.54
458.854	264.64
459.312	265.84
459.77	278.94
460.228	274.04
460.686	258.74
461.144	263.04
461.602	256.04
462.06	264.84
462.518	268.34
462.976	266.14
463.434	267.84
463.892	279.34
464.35	279.44
464.808	289.94
465.266	276.94
465.724	280.04
466.181	290.54
466.639	286.44
467.097	303.04
467.555	306.54
468.012	317.24
468.47	311.54
468.928	325.44
469.385	343.54
469.843	350.44
470.3	357.74
470.758	363.64
471.215	379.44
471.673	394.54
472.13	403.94
472.588	417.14
473.045	381.64
473.503	395.34
473.96	403.14
474.417	412.64
474.875	438.44
475.332	460.74
475.789	460.34
476.246	465.84
476.704	479.54
477.161	504.64
477.618	519.04
478.075	541.94
478.532	592.84
478.989	659.34
479.446	730.34
479.903	726.54
480.36	759.24
480.817	796.14
481.274	888.14
481.731	977.24
482.188	1050.84
482.645	1163.74
483.102	1251.34
483.558	1339.34
484.015	1400.24
484.472	1384.34
484.929	1339.24
485.385	1303.34
485.842	1267.54
486.299	1231.34
486.755	1185.34
487.212	1019.34
487.668	899.44
488.125	822.54
488.582	768.14
489.038	717.04
489.494	688.64
489.951	658.24
490.407	666.64
490.864	643.44
491.32	623.84
491.776	616.54
492.233	630.14
492.689	605.14
493.145	590.04
493.602	588.24
494.058	595.04
494.514	592.14
494.97	603.04
495.426	611.04
495.882	603.64
496.338	588.34
496.794	604.54
497.251	585.14
497.707	607.34
498.163	593.74
498.618	599.04
499.074	601.04
499.53	628.24
499.986	621.34
500.442	603.64
500.898	592.34
501.354	586.04
501.809	596.44
502.265	600.14
502.721	602.94
503.177	614.64
503.632	620.24
504.088	612.94
504.543	635.14
504.999	636.44
505.455	610.54
505.91	609.54
506.366	613.64
506.821	596.84
507.277	599.74
507.732	605.54
508.187	615.24
508.643	614.94
509.098	616.54
509.553	633.94
510.009	640.84
510.464	638.74
510.919	655.54
511.375	653.54
511.83	662.44
512.285	670.54
512.74	694.34
513.195	715.34
513.65	703.74
514.105	700.74
514.56	706.94
515.015	730.14
515.47	734.34
515.925	716.24
516.38	725.84
516.835	721.24
517.29	712.14
517.745	717.24
518.2	703.24
518.655	697.94
519.109	685.34
519.564	683.04
520.019	672.34
520.474	672.04
520.928	665.74
521.383	658.94
521.838	644.44
522.292	654.24
522.747	652.34
523.201	650.24
523.656	640.04
524.11	639.44
524.565	644.74
525.019	636.94
525.474	641.94
525.928	624.54
526.382	637.94
526.837	634.14
527.291	638.24
527.745	628.94
528.2	630.14
528.654	615.34
529.108	622.24
529.562	624.84
530.016	617.24
530.47	613.24
530.925	612.64
531.379	620.84
531.833	628.04
532.287	620.44
532.741	618.94
533.195	618.24
533.649	629.74
534.103	631.24
534.556	624.94
535.01	617.84
535.464	615.64
535.918	634.64
536.372	630.24
536.826	625.54
537.279	620.14
537.733	617.24
538.187	629.44
538.64	624.54
539.094	634.94
539.548	646.94
540.001	631.14
540.455	639.44
540.908	647.04
541.362	641.64
541.815	660.64
542.269	662.74
542.722	664.74
543.175	672.94
543.629	663.54
544.082	692.34
544.536	685.34
544.989	684.34
545.442	696.64
545.895	693.84
546.349	692.74
546.802	687.14
547.255	697.14
547.708	699.64
548.161	704.54
548.614	705.44
549.067	713.44
549.52	706.24
549.973	692.24
550.426	686.64
550.879	679.24
551.332	690.84
551.785	695.54
552.238	688.64
552.691	700.24
553.144	714.64
553.596	719.14
554.049	724.44
554.502	752.64
554.955	766.84
555.407	761.44
555.86	753.64
556.313	738.74
556.765	740.84
557.218	737.84
557.67	730.64
558.123	727.34
558.576	734.44
559.028	742.14
559.48	737.54
559.933	736.64
560.385	710.54
560.838	700.04
561.29	657.34
561.742	650.74
562.195	649.64
562.647	645.04
563.099	654.14
563.551	650.74
564.004	650.34
564.456	638.94
564.908	629.14
565.36	612.14
565.812	605.04
566.264	597.74
566.716	593.94
567.168	585.54
567.62	586.64
568.072	572.84
568.524	572.04
568.976	568.94
569.428	553.14
569.88	557.84
570.332	560.64
570.784	556.84
571.235	564.64
571.687	568.44
572.139	569.84
572.59	573.44
573.042	586.04
573.494	582.34
573.945	575.94
574.397	556.34
574.849	557.94
575.3	556.94
575.752	556.14
576.203	548.44
576.655	553.14
577.106	543.34
577.557	533.64
578.009	542.14
578.46	529.64
578.912	524.24
579.363	530.94
579.814	537.44
580.265	527.94
580.717	536.04
581.168	535.14
581.619	535.54
582.07	537.24
582.521	537.54
582.972	521.14
583.423	530.64
583.875	534.64
584.326	527.04
584.777	550.04
585.227	559.24
585.678	573.84
586.129	582.04
586.58	586.54
587.031	610.24
587.482	629.14
587.933	648.84
588.384	641.54
588.834	623.44
589.285	609.34
589.736	613.14
590.186	611.44
590.637	599.84
591.088	586.74
591.538	577.04
591.989	569.14
592.439	565.64
592.89	567.64
593.34	550.44
593.791	546.04
594.241	542.24
594.692	545.74
595.142	542.24
595.593	536.44
596.043	533.24
596.493	539.64
596.943	540.64
597.394	562.14
597.844	558.64
598.294	567.94
598.744	579.34
599.195	598.44
599.645	618.14
600.095	652.24
600.545	702.64
600.995	733.74
601.445	764.34
601.895	829.74
602.345	865.64
602.795	845.64
603.245	806.94
603.695	780.44
604.145	738.84
604.594	695.44
605.044	661.24
605.494	612.74
605.944	581.44
606.393	572.44
606.843	553.44
607.293	549.34
607.743	544.74
608.192	553.44
608.642	558.44
609.091	570.24
609.541	572.44
609.99	569.34
610.44	558.74
610.889	532.74
611.339	521.14
611.788	513.64
612.238	520.34
612.687	529.54
613.136	525.64
613.586	528.64
614.035	530.14
614.484	532.94
614.933	534.94
615.383	542.24
615.832	524.24
616.281	520.24
616.73	506.84
617.179	495.04
617.628	479.34
618.077	472.34
618.526	457.34
618.975	451.34
619.424	466.94
619.873	448.34
620.322	461.24
620.771	445.04
621.22	455.14
621.669	440.84
622.118	435.64
622.567	431.34
623.015	422.24
623.464	412.54
623.913	412.94
624.361	407.14
624.81	404.24
625.259	415.84
625.707	416.24
626.156	422.14
626.604	418.84
627.053	417.84
627.501	420.94
627.95	417.64
628.398	421.44
628.847	410.74
629.295	414.04
629.744	420.74
630.192	423.24
630.64	419.24
631.089	402.24
631.537	400.24
631.985	377.64
632.433	390.34
632.881	377.94
633.33	383.84
633.778	377.74
634.226	375.04
634.674	392.24
635.122	388.34
635.57	394.04
636.018	403.34
636.466	414.94
636.914	400.94
637.362	418.44
637.81	415.84
638.258	424.94
638.705	414.44
639.153	444.34
639.601	440.94
640.049	455.34
640.497	485.74
640.944	499.34
641.392	472.84
641.84	447.34
642.287	427.44
642.735	400.24
643.182	411.14
643.63	414.04
644.078	418.14
644.525	414.04
644.973	416.94
645.42	427.24
645.867	443.34
646.315	454.54
646.762	460.24
647.21	491.44
647.657	502.74
648.104	525.84
648.551	533.64
648.999	579.04
649.446	620.44
649.893	677.44
650.34	765.54
650.787	899.94
651.234	1109.24
651.682	1409.04
652.129	1883.54
652.576	2652.24
653.023	3838.34
653.47	5286.04
653.917	6731.14
654.363	7840.54
654.81	8873.24
655.257	8425.64
655.704	5637.74
656.151	3371.64
656.598	2213.44
657.044	1588.94
657.491	1230.34
657.938	999.64
658.385	830.24
658.831	729.94
659.278	653.54
659.724	581.94
660.171	538.14
660.618	488.54
661.064	467.94
661.511	456.94
661.957	444.04
662.404	423.74
662.85	437.94
663.296	422.84
663.743	390.94
664.189	377.24
664.635	376.24
665.082	362.04
665.528	371.64
665.974	352.04
666.42	360.44
666.867	353.84
667.313	323.24
667.759	328.64
668.205	316.14
668.651	311.44
669.097	311.24
669.543	308.54
669.989	308.34
670.435	316.74
670.881	311.14
671.327	317.84
671.773	324.44
672.219	353.94
672.665	383.74
673.11	410.44
673.556	444.84
674.002	473.54
674.448	458.54
674.893	389.44
675.339	347.64
675.785	319.64
676.23	300.24
676.676	281.14
677.122	271.34
677.567	261.74
678.013	255.84
678.458	255.24
678.904	248.44
679.349	250.54
679.794	241.34
680.24	246.84
680.685	246.24
681.131	246.14
681.576	244.04
682.021	241.64
682.466	244.04
682.912	241.84
683.357	247.14
683.802	264.64
684.247	288.44
684.692	318.74
685.137	344.84
685.583	377.24
686.028	400.14
686.473	366.14
686.918	306.94
687.363	294.54
687.807	279.74
688.252	261.24
688.697	243.54
689.142	240.54
689.587	231.04
690.032	218.94
690.477	238.24
690.921	238.94
691.366	268.24
691.811	276.54
692.255	304.94
692.7	325.94
693.145	351.84
693.589	463.94
694.034	755.24
694.478	1052.14
694.923	1230.94
695.367	1653.04
695.812	870.94
696.256	355.84
696.701	255.44
697.145	245.54
697.59	225.94
698.034	222.84
698.478	228.24
698.922	222.14
699.367	225.34
699.811	228.14
700.255	239.74
700.699	260.34
701.143	288.64
701.588	316.34
702.032	358.74
702.476	358.04
702.92	340.34
703.364	336.94
703.808	431.54
704.252	687.84
704.696	988.34
705.14	1176.04
705.584	1524.44
706.027	763.54
706.471	364.94
706.915	273.64
707.359	241.84
707.803	217.94
708.246	210.04
708.69	217.94
709.134	217.54
709.577	219.64
710.021	226.04
710.465	209.24
710.908	201.54
711.352	204.74
711.795	213.94
712.239	237.74
712.682	258.54
713.126	291.64
713.569	318.04
714.012	254.44
714.456	206.94
714.899	206.04
715.342	183.54
715.786	176.94
716.229	176.44
716.672	173.44
717.115	170.34
717.558	164.54
718.002	172.54
718.445	179.44
718.888	195.94
719.331	199.24
719.774	211.14
720.217	209.14
720.66	197.94
721.103	192.54
721.546	167.34
721.989	178.84
722.432	159.24
722.874	163.94
723.317	158.24
723.76	152.24
724.203	180.84
724.645	209.14
725.088	294.34
725.531	385.84
725.974	446.14
726.416	384.44
726.859	210.74
727.301	169.84
727.744	162.04
728.187	161.54
728.629	163.24
729.071	165.04
729.514	178.64
729.956	181.64
730.399	192.74
730.841	200.44
731.283	193.14
731.726	185.94
732.168	178.64
732.61	185.74
733.053	194.84
733.495	207.94
733.937	241.24
734.379	272.34
734.821	300.14
735.263	356.64
735.705	545.44
736.148	1035.84
736.59	1750.44
737.032	2213.54
737.474	1828.24
737.916	588.04
738.357	303.24
738.799	227.34
739.241	207.74
739.683	196.04
740.125	207.34
740.567	215.84
741.008	228.94
741.45	227.84
741.892	224.44
742.334	247.94
742.775	268.14
743.217	253.64
743.658	188.74
744.1	179.54
744.542	190.74
744.983	236.74
745.425	269.84
745.866	274.74
746.307	198.24
746.749	195.94
747.19	207.94
747.632	294.94
748.073	564.34
748.514	1221.94
748.956	1953.64
749.397	2460.64
749.838	2079.64
750.279	2158.84
750.72	1094.54
751.162	387.04
751.603	229.44
752.044	175.14
752.485	139.64
752.926	145.84
753.367	140.74
753.808	132.14
754.249	131.84
754.69	130.94
755.131	119.84
755.572	121.24
756.013	118.64
756.453	124.14
756.894	125.14
757.335	126.74
757.776	130.54
758.216	131.54
758.657	139.54
759.098	142.64
759.538	155.14
759.979	180.44
760.42	257.14
760.86	465.34
761.301	1177.54
761.741	2992.94
762.182	4767.04
762.622	3402.34
763.063	964.74
763.503	381.44
