Data from 20171114-ORNL-Ar_H_NY_Subt18_08-04-49-014.txt Node
Date: Tue Nov 14 08:04:49 EST 2017
User: Ender
Spectrometer: HR+D1039
Trigger mode: 0
Integration Time (sec): 2.730000E-2
Scans to average: 10
Electric dark correction enabled: true
Nonlinearity correction enabled: false
Boxcar width: 0
XAxis mode: Wavelengths
Number of Pixels in Spectrum: 2048
>>>>>Begin Spectral Data<<<<<
187.836	-5.66
188.309	-5.66
188.782	-5.66
189.255	-0.76
189.728	-6.76
190.201	4.54
190.674	-3.76
191.147	4.14
191.619	-6.26
192.092	0.64
192.565	6.24
193.038	4.34
193.511	6.24
193.984	-0.36
194.456	2.24
194.929	-3.86
195.402	-1.26
195.874	0.34
196.347	3.54
196.82	-3.76
197.292	9.44
197.765	-2.36
198.237	-5.86
198.71	4.84
199.182	-2.56
199.655	5.44
200.127	1.14
200.6	0.94
201.072	-0.86
201.544	0.64
202.017	-1.86
202.489	3.64
202.961	-2.16
203.433	-2.76
203.906	-2.26
204.378	-2.36
204.85	-1.46
205.322	-7.56
205.794	1.84
206.266	-2.46
206.739	-8.26
207.211	3.44
207.683	-5.76
208.155	1.14
208.627	-6.26
209.099	-1.66
209.57	-9.16
210.042	1.24
210.514	-4.26
210.986	-0.16
211.458	-7.96
211.93	-3.36
212.402	-1.16
212.873	-3.86
213.345	-3.86
213.817	-8.66
214.288	2.44
214.76	-8.46
215.232	1.44
215.703	-0.86
216.175	0.14
216.646	1.24
217.118	-6.36
217.589	0.64
218.061	-0.76
218.532	-3.26
219.004	-3.76
219.475	-3.56
219.946	-5.16
220.418	-3.56
220.889	10.54
221.36	3.44
221.832	-1.96
222.303	-6.76
222.774	0.54
223.245	-8.26
223.717	2.54
224.188	-1.76
224.659	-6.96
225.13	1.34
225.601	-2.26
226.072	2.74
226.543	1.94
227.014	-1.66
227.485	-2.46
227.956	-3.26
228.427	2.54
228.898	0.94
229.369	6.94
229.839	1.74
230.31	-4.06
230.781	9.34
231.252	1.94
231.722	-4.96
232.193	-0.56
232.664	0.34
233.135	4.74
233.605	-2.56
234.076	-0.76
234.546	5.34
235.017	7.14
235.487	8.94
235.958	-1.26
236.428	-1.56
236.899	12.04
237.369	8.94
237.84	3.24
238.31	11.84
238.78	8.54
239.251	5.64
239.721	10.74
240.191	4.14
240.662	2.54
241.132	2.54
241.602	-2.76
242.072	-0.56
242.542	5.54
243.013	2.44
243.483	4.54
243.953	9.24
244.423	4.94
244.893	1.94
245.363	8.34
245.833	5.74
246.303	-0.36
246.773	9.74
247.243	7.64
247.712	6.54
248.182	12.34
248.652	13.84
249.122	7.04
249.592	14.14
250.061	27.04
250.531	44.34
251.001	16.44
251.471	24.14
251.94	23.34
252.41	12.54
252.879	5.44
253.349	11.74
253.818	10.84
254.288	8.04
254.757	12.54
255.227	6.24
255.696	10.44
256.166	8.84
256.635	12.74
257.105	12.84
257.574	9.24
258.043	8.54
258.513	16.94
258.982	22.04
259.451	19.44
259.92	23.34
260.389	14.24
260.859	15.24
261.328	13.04
261.797	23.94
262.266	10.54
262.735	19.14
263.204	15.04
263.673	2.74
264.142	10.24
264.611	0.64
265.08	5.94
265.549	3.54
266.018	9.84
266.487	-0.06
266.955	0.54
267.424	4.24
267.893	8.34
268.362	3.54
268.83	9.04
269.299	17.44
269.768	14.44
270.236	12.54
270.705	9.74
271.174	11.14
271.642	14.14
272.111	15.14
272.579	19.74
273.048	30.34
273.516	33.44
273.985	29.54
274.453	32.24
274.922	22.54
275.39	11.84
275.858	8.04
276.327	13.64
276.795	21.04
277.263	12.84
277.731	33.94
278.2	58.24
278.668	67.04
279.136	52.24
279.604	26.44
280.072	20.94
280.54	13.24
281.008	15.84
281.477	19.44
281.945	11.64
282.413	17.34
282.881	19.34
283.348	14.64
283.816	15.74
284.284	18.64
284.752	31.64
285.22	16.74
285.688	23.04
286.156	26.04
286.623	48.94
287.091	58.34
287.559	29.14
288.026	23.74
288.494	19.84
288.962	11.74
289.429	16.14
289.897	23.44
290.364	22.94
290.832	22.04
291.3	19.84
291.767	21.44
292.234	20.84
292.702	17.64
293.169	19.44
293.637	32.64
294.104	22.74
294.571	16.14
295.039	15.84
295.506	20.54
295.973	21.04
296.44	19.54
296.908	20.64
297.375	30.24
297.842	26.54
298.309	25.54
298.776	22.24
299.243	29.54
299.71	14.64
300.177	23.34
300.644	25.74
301.111	23.74
301.578	31.74
302.045	24.04
302.512	32.84
302.979	32.84
303.446	29.94
303.913	26.14
304.379	24.24
304.846	28.94
305.313	22.44
305.78	21.54
306.246	28.14
306.713	33.34
307.18	28.84
307.646	32.04
308.113	34.44
308.579	29.84
309.046	28.14
309.512	32.14
309.979	22.74
310.445	30.54
310.912	27.04
311.378	34.54
311.845	30.84
312.311	32.24
312.777	37.24
313.244	34.84
313.71	41.34
314.176	39.04
314.642	32.84
315.109	40.24
315.575	40.94
316.041	42.24
316.507	35.44
316.973	41.14
317.439	39.64
317.905	41.44
318.371	40.04
318.837	41.94
319.303	35.24
319.769	33.34
320.235	37.54
320.701	35.24
321.167	41.44
321.633	39.94
322.099	49.14
322.564	49.84
323.03	40.84
323.496	45.34
323.962	44.14
324.427	41.64
324.893	46.94
325.359	39.64
325.824	40.54
326.29	42.64
326.755	43.64
327.221	46.14
327.686	43.34
328.152	53.04
328.617	48.94
329.083	50.64
329.548	58.34
330.014	52.04
330.479	43.54
330.944	42.34
331.41	44.34
331.875	50.44
332.34	49.74
332.805	43.64
333.271	50.24
333.736	46.24
334.201	52.34
334.666	59.14
335.131	56.24
335.596	47.74
336.061	58.34
336.526	44.54
336.991	53.34
337.456	66.04
337.921	50.44
338.386	52.44
338.851	44.74
339.316	45.64
339.781	48.84
340.246	58.34
340.711	51.04
341.175	53.04
341.64	54.74
342.105	55.54
342.569	63.84
343.034	66.64
343.499	68.64
343.963	54.64
344.428	64.34
344.893	66.24
345.357	63.34
345.822	67.94
346.286	73.24
346.751	73.44
347.215	74.24
347.679	80.04
348.144	102.24
348.608	90.64
349.073	67.84
349.537	78.14
350.001	84.64
350.465	93.74
350.93	80.24
351.394	83.34
351.858	80.44
352.322	91.24
352.786	89.84
353.25	101.84
353.715	113.84
354.179	98.24
354.643	125.94
355.107	127.44
355.571	104.34
356.035	105.74
356.498	121.74
356.962	131.34
357.426	133.24
357.89	118.64
358.354	96.84
358.818	90.64
359.281	81.04
359.745	82.34
360.209	82.54
360.673	78.64
361.136	80.34
361.6	84.74
362.064	87.54
362.527	93.24
362.991	88.94
363.454	91.24
363.918	76.14
364.381	75.44
364.845	82.64
365.308	87.24
365.772	84.34
366.235	82.64
366.698	84.94
367.162	83.54
367.625	85.24
368.088	89.34
368.552	93.34
369.015	90.84
369.478	100.74
369.941	100.64
370.404	99.94
370.867	104.74
371.331	105.94
371.794	118.74
372.257	116.14
372.72	113.44
373.183	110.94
373.646	103.84
374.109	105.04
374.572	112.94
375.035	105.94
375.497	110.04
375.96	108.64
376.423	105.64
376.886	112.34
377.349	105.34
377.811	99.54
378.274	108.64
378.737	110.94
379.199	111.94
379.662	114.94
380.125	116.84
380.587	123.44
381.05	122.74
381.512	124.44
381.975	128.14
382.437	134.24
382.9	128.54
383.362	130.34
383.825	140.44
384.287	144.74
384.75	138.54
385.212	139.24
385.674	143.14
386.136	135.14
386.599	128.04
387.061	124.24
387.523	120.44
387.985	130.44
388.447	136.34
388.91	142.14
389.372	155.14
389.834	148.14
390.296	148.04
390.758	145.24
391.22	167.54
391.682	204.24
392.144	281.14
392.606	226.44
393.068	169.44
393.529	170.14
393.991	154.34
394.453	148.64
394.915	150.74
395.377	188.64
395.838	206.74
396.3	155.54
396.762	137.64
397.224	135.74
397.685	131.04
398.147	131.44
398.608	129.54
399.07	121.74
399.531	136.14
399.993	146.74
400.454	148.64
400.916	136.34
401.377	143.94
401.839	150.84
402.3	144.14
402.762	161.44
403.223	171.54
403.684	167.04
404.145	157.14
404.607	159.44
405.068	156.74
405.529	162.54
405.99	185.94
406.451	172.94
406.913	166.44
407.374	160.94
407.835	159.64
408.296	169.14
408.757	164.34
409.218	181.74
409.679	173.24
410.14	171.54
410.601	176.04
411.062	181.34
411.522	183.54
411.983	178.24
412.444	175.04
412.905	178.24
413.366	177.24
413.826	192.24
414.287	209.74
414.748	247.94
415.208	242.94
415.669	210.94
416.13	198.94
416.59	196.04
417.051	205.14
417.511	211.04
417.972	235.74
418.432	242.64
418.893	283.64
419.353	244.24
419.814	198.94
420.274	178.54
420.734	181.34
421.195	194.54
421.655	192.94
422.115	188.94
422.576	184.04
423.036	188.14
423.496	203.74
423.956	211.14
424.416	220.34
424.876	255.34
425.336	253.84
425.797	249.94
426.257	249.84
426.717	231.24
427.177	232.14
427.637	219.44
428.097	225.84
428.556	243.54
429.016	264.14
429.476	251.24
429.936	269.24
430.396	265.84
430.856	280.94
431.315	306.84
431.775	335.54
432.235	372.14
432.694	340.84
433.154	362.14
433.614	379.24
434.073	326.34
434.533	275.44
434.993	263.04
435.452	273.44
435.912	284.24
436.371	275.74
436.83	275.64
437.29	259.84
437.749	236.94
438.209	234.74
438.668	266.24
439.127	280.94
439.587	263.44
440.046	244.44
440.505	252.54
440.964	269.74
441.424	310.94
441.883	302.04
442.342	256.24
442.801	220.04
443.26	215.74
443.719	213.54
444.178	209.94
444.637	204.04
445.096	215.94
445.555	215.14
446.014	214.44
446.473	224.34
446.932	222.64
447.391	214.84
447.849	221.84
448.308	213.14
448.767	215.34
449.226	231.04
449.685	228.54
450.143	232.64
450.602	229.94
451.061	225.54
451.519	222.34
451.978	225.44
452.436	218.74
452.895	234.14
453.353	241.74
453.812	235.34
454.27	236.64
454.729	228.14
455.187	236.64
455.646	235.84
456.104	241.84
456.562	255.44
457.021	260.94
457.479	250.14
457.937	267.34
458.395	252.84
458.854	234.44
459.312	253.64
459.77	264.94
460.228	240.24
460.686	230.84
461.144	238.44
461.602	234.54
462.06	230.34
462.518	244.04
462.976	246.14
463.434	253.04
463.892	255.74
464.35	270.14
464.808	280.14
465.266	262.64
465.724	262.14
466.181	260.54
466.639	259.94
467.097	283.44
467.555	293.14
468.012	296.54
468.47	303.54
468.928	315.64
469.385	325.94
469.843	337.24
470.3	341.14
470.758	358.64
471.215	369.84
471.673	389.44
472.13	385.94
472.588	401.44
473.045	366.14
473.503	363.54
473.96	376.64
474.417	384.64
474.875	417.64
475.332	453.34
475.789	449.44
476.246	448.64
476.704	466.64
477.161	487.04
477.618	504.14
478.075	539.54
478.532	591.54
478.989	654.44
479.446	771.14
479.903	740.84
480.36	779.84
480.817	818.24
481.274	918.14
481.731	1025.34
482.188	1111.24
482.645	1247.74
483.102	1344.14
483.558	1496.14
484.015	1543.84
484.472	1520.74
484.929	1460.84
485.385	1413.24
485.842	1376.54
486.299	1323.34
486.755	1245.34
487.212	1054.94
487.668	888.64
488.125	816.04
488.582	745.74
489.038	724.84
489.494	684.44
489.951	665.84
490.407	643.34
490.864	625.54
491.32	617.44
491.776	617.04
492.233	621.74
492.689	593.24
493.145	578.44
493.602	569.94
494.058	581.34
494.514	595.14
494.97	606.04
495.426	625.14
495.882	601.24
496.338	587.74
496.794	610.64
497.251	591.34
497.707	618.34
498.163	614.54
498.618	613.94
499.074	625.94
499.53	639.74
499.986	649.14
500.442	628.64
500.898	608.54
501.354	599.44
501.809	609.84
502.265	615.34
502.721	628.84
503.177	629.74
503.632	639.04
504.088	651.04
504.543	686.44
504.999	679.74
505.455	638.04
505.91	609.24
506.366	607.14
506.821	593.44
507.277	599.94
507.732	593.24
508.187	598.44
508.643	613.34
509.098	605.94
509.553	624.74
510.009	642.54
510.464	644.54
510.919	660.04
511.375	661.04
511.83	675.54
512.285	692.04
512.74	718.14
513.195	746.94
513.65	732.64
514.105	734.04
514.56	734.94
515.015	765.24
515.47	771.34
515.925	753.44
516.38	754.04
516.835	767.04
517.29	758.74
517.745	743.14
518.2	731.74
518.655	714.54
519.109	719.24
519.564	715.04
520.019	707.74
520.474	694.04
520.928	694.24
521.383	691.74
521.838	678.44
522.292	684.94
522.747	682.34
523.201	671.94
523.656	663.14
524.11	661.74
524.565	659.84
525.019	662.04
525.474	669.14
525.928	660.24
526.382	656.04
526.837	656.84
527.291	672.54
527.745	668.94
528.2	659.94
528.654	659.44
529.108	650.44
529.562	666.54
530.016	660.54
530.47	651.24
530.925	654.44
531.379	657.54
531.833	665.84
532.287	665.34
532.741	670.84
533.195	673.34
533.649	689.24
534.103	684.04
534.556	670.04
535.01	673.14
535.464	671.24
535.918	682.34
536.372	683.24
536.826	686.64
537.279	667.44
537.733	681.14
538.187	675.54
538.64	674.84
539.094	680.04
539.548	696.04
540.001	688.54
540.455	684.64
540.908	693.34
541.362	704.64
541.815	701.24
542.269	717.44
542.722	720.14
543.175	718.34
543.629	728.04
544.082	755.44
544.536	745.54
544.989	736.44
545.442	753.14
545.895	750.64
546.349	748.74
546.802	743.84
547.255	747.14
547.708	759.44
548.161	775.84
548.614	772.24
549.067	782.64
549.52	766.14
549.973	769.94
550.426	760.44
550.879	745.64
551.332	753.94
551.785	751.94
552.238	753.84
552.691	769.24
553.144	786.04
553.596	797.94
554.049	815.24
554.502	835.94
554.955	855.54
555.407	852.84
555.86	850.84
556.313	832.94
556.765	818.64
557.218	830.14
557.67	831.04
558.123	820.34
558.576	818.84
559.028	825.84
559.48	834.74
559.933	831.94
560.385	780.74
560.838	763.94
561.29	736.94
561.742	736.94
562.195	719.64
562.647	720.24
563.099	728.34
563.551	718.04
564.004	734.34
564.456	730.44
564.908	703.54
565.36	698.94
565.812	687.04
566.264	674.64
566.716	684.34
567.168	670.44
567.62	676.94
568.072	653.94
568.524	644.34
568.976	647.34
569.428	631.24
569.88	634.14
570.332	633.54
570.784	634.74
571.235	628.14
571.687	644.84
572.139	649.84
572.59	671.74
573.042	669.64
573.494	654.24
573.945	655.04
574.397	645.54
574.849	645.44
575.3	647.04
575.752	640.34
576.203	631.14
576.655	645.54
577.106	628.54
577.557	626.94
578.009	618.24
578.46	612.44
578.912	622.14
579.363	618.74
579.814	615.74
580.265	617.24
580.717	621.94
581.168	609.54
581.619	620.64
582.07	630.04
582.521	628.34
582.972	622.14
583.423	627.24
583.875	631.94
584.326	654.84
584.777	692.14
585.227	761.54
585.678	842.34
586.129	929.04
586.58	993.14
587.031	1067.74
587.482	1228.64
587.933	1400.04
588.384	1210.94
588.834	898.14
589.285	738.34
589.736	721.54
590.186	712.94
590.637	706.94
591.088	677.14
591.538	679.54
591.989	674.84
592.439	669.34
592.89	658.94
593.34	650.34
593.791	652.04
594.241	644.34
594.692	651.34
595.142	650.64
595.593	636.84
596.043	646.74
596.493	656.94
596.943	641.84
597.394	663.74
597.844	657.84
598.294	669.54
598.744	680.04
599.195	707.64
599.645	746.54
600.095	783.04
600.545	835.04
600.995	884.94
601.445	923.64
601.895	986.14
602.345	1040.74
602.795	1006.44
603.245	978.04
603.695	923.04
604.145	881.04
604.594	832.64
605.044	777.64
605.494	733.74
605.944	688.74
606.393	677.64
606.843	667.74
607.293	665.54
607.743	656.64
608.192	670.14
608.642	694.94
609.091	707.04
609.541	704.74
609.99	697.64
610.44	701.44
610.889	658.24
611.339	635.24
611.788	616.44
612.238	637.74
612.687	654.74
613.136	652.94
613.586	661.94
614.035	658.54
614.484	686.44
614.933	688.34
615.383	685.34
615.832	672.54
616.281	654.34
616.73	628.84
617.179	602.64
617.628	599.14
618.077	575.44
618.526	565.64
618.975	550.74
619.424	552.84
619.873	557.84
620.322	557.54
620.771	550.94
621.22	546.34
621.669	546.04
622.118	530.84
622.567	525.54
623.015	517.24
623.464	508.14
623.913	504.74
624.361	502.74
624.81	506.34
625.259	497.84
625.707	504.54
626.156	504.84
626.604	503.94
627.053	507.04
627.501	507.04
627.95	513.54
628.398	519.74
628.847	517.34
629.295	511.24
629.744	513.44
630.192	511.44
630.64	513.14
631.089	504.64
631.537	523.54
631.985	522.44
632.433	539.14
632.881	541.84
633.33	596.14
633.778	573.04
634.226	512.54
634.674	505.64
635.122	515.04
635.57	543.94
636.018	570.84
636.466	527.84
636.914	498.64
637.362	507.34
637.81	515.64
638.258	515.84
638.705	511.24
639.153	542.04
639.601	543.74
640.049	573.74
640.497	602.24
640.944	627.14
641.392	568.34
641.84	535.54
642.287	517.84
642.735	517.44
643.182	515.54
643.63	513.64
644.078	515.54
644.525	526.74
644.973	530.34
645.42	532.84
645.867	546.04
646.315	564.64
646.762	588.24
647.21	621.84
647.657	640.24
648.104	664.84
648.551	680.84
648.999	741.84
649.446	807.54
649.893	889.54
650.34	1027.94
650.787	1215.34
651.234	1516.24
651.682	1983.04
652.129	2699.54
652.576	3872.74
653.023	5733.24
653.47	7900.34
653.917	9971.54
654.363	11647.94
654.81	13034.84
655.257	12361.74
655.704	8034.44
656.151	4744.54
656.598	3080.84
657.044	2175.54
657.491	1668.24
657.938	1334.84
658.385	1103.24
658.831	966.54
659.278	852.24
659.724	767.14
660.171	705.14
660.618	640.54
661.064	613.04
661.511	596.74
661.957	582.94
662.404	565.84
662.85	566.24
663.296	549.94
663.743	497.44
664.189	480.94
664.635	473.84
665.082	459.44
665.528	468.74
665.974	459.84
666.42	450.94
666.867	453.64
667.313	430.74
667.759	428.54
668.205	423.64
668.651	428.74
669.097	431.64
669.543	446.94
669.989	417.44
670.435	397.24
670.881	397.44
671.327	394.54
671.773	410.94
672.219	434.94
672.665	481.84
673.11	512.74
673.556	550.74
674.002	591.34
674.448	574.64
674.893	479.64
675.339	422.04
675.785	390.74
676.23	375.84
676.676	342.04
677.122	350.44
677.567	335.74
678.013	324.94
678.458	309.04
678.904	313.64
679.349	302.54
679.794	315.94
680.24	312.44
680.685	313.94
681.131	303.04
681.576	312.34
682.021	305.64
682.466	305.74
682.912	313.24
683.357	300.74
683.802	330.84
684.247	363.74
684.692	403.04
685.137	433.24
685.583	473.44
686.028	495.94
686.473	454.94
686.918	382.94
687.363	364.24
687.807	348.24
688.252	318.44
688.697	316.04
689.142	299.04
689.587	293.84
690.032	290.64
690.477	305.44
690.921	307.04
691.366	335.24
691.811	361.04
692.255	371.34
692.7	406.14
693.145	438.14
693.589	599.24
694.034	960.14
694.478	1315.94
694.923	1522.54
695.367	2003.64
695.812	1053.74
696.256	432.94
696.701	322.84
697.145	301.74
697.59	288.84
698.034	276.64
698.478	289.64
698.922	292.64
699.367	290.44
699.811	300.34
700.255	316.34
700.699	333.14
701.143	369.14
701.588	415.34
702.032	442.54
702.476	445.44
702.92	428.54
703.364	433.34
703.808	541.74
704.252	885.94
704.696	1243.04
705.14	1472.34
705.584	1886.74
706.027	929.54
706.471	462.04
706.915	346.34
707.359	307.14
707.803	285.04
708.246	266.04
708.69	268.64
709.134	277.44
709.577	278.14
710.021	281.24
710.465	270.04
710.908	261.54
711.352	260.14
711.795	271.64
712.239	307.84
712.682	335.44
713.126	364.04
713.569	411.94
714.012	327.74
714.456	279.04
714.899	264.44
715.342	239.74
715.786	227.94
716.229	223.74
716.672	223.94
717.115	213.74
717.558	222.04
718.002	220.04
718.445	227.04
718.888	253.74
719.331	254.44
719.774	265.14
720.217	264.54
720.66	245.04
721.103	235.34
721.546	218.44
721.989	218.14
722.432	198.94
722.874	207.74
723.317	198.74
723.76	206.94
724.203	226.84
724.645	277.04
725.088	382.94
725.531	495.44
725.974	561.94
726.416	478.74
726.859	271.34
727.301	213.74
727.744	211.04
728.187	209.14
728.629	204.64
729.071	208.84
729.514	223.64
729.956	232.04
730.399	243.14
730.841	245.64
731.283	238.74
731.726	230.64
732.168	229.84
732.61	232.24
733.053	241.34
733.495	270.04
733.937	295.84
734.379	347.74
734.821	371.94
735.263	465.14
735.705	692.04
736.148	1337.74
736.59	2223.94
737.032	2716.04
737.474	2211.24
737.916	706.84
738.357	372.14
738.799	285.14
739.241	254.24
739.683	250.64
740.125	254.04
740.567	260.14
741.008	276.64
741.45	278.24
741.892	275.24
742.334	305.84
742.775	314.24
743.217	300.44
743.658	234.44
744.1	219.44
744.542	230.94
744.983	266.74
745.425	306.84
745.866	302.94
746.307	246.74
746.749	247.44
747.19	285.94
747.632	385.14
748.073	734.14
748.514	1572.94
748.956	2468.94
749.397	3082.34
749.838	2568.94
750.279	2623.34
750.72	1313.44
751.162	477.84
751.603	277.24
752.044	220.24
752.485	191.94
752.926	181.24
753.367	172.64
753.808	169.04
754.249	162.14
754.69	162.74
755.131	160.24
755.572	165.44
756.013	161.14
756.453	165.54
756.894	161.24
757.335	167.54
757.776	166.84
758.216	173.34
758.657	171.94
759.098	174.44
759.538	191.94
759.979	230.84
760.42	313.74
760.86	584.64
761.301	1519.64
761.741	3766.14
762.182	5722.24
762.622	4028.24
