Data from 20171114-ORNL-Ar_H_NY_Subt18_08-09-20-411.txt Node
Date: Tue Nov 14 08:09:20 EST 2017
User: Ender
Spectrometer: HR+D1039
Trigger mode: 0
Integration Time (sec): 2.730000E-2
Scans to average: 10
Electric dark correction enabled: true
Nonlinearity correction enabled: false
Boxcar width: 0
XAxis mode: Wavelengths
Number of Pixels in Spectrum: 2048
>>>>>Begin Spectral Data<<<<<
187.836	-6.49
188.309	-6.49
188.782	-6.49
189.255	-3.19
189.728	-0.39
190.201	8.01
190.674	2.41
191.147	-0.39
191.619	-13.59
192.092	0.11
192.565	6.01
193.038	5.21
193.511	2.91
193.984	1.91
194.456	-2.09
194.929	2.61
195.402	-2.39
195.874	-0.59
196.347	-1.39
196.82	-5.39
197.292	2.21
197.765	4.21
198.237	-9.49
198.71	4.31
199.182	-5.19
199.655	2.21
200.127	3.11
200.6	-1.49
201.072	-1.39
201.544	-7.49
202.017	1.01
202.489	-0.39
202.961	-1.59
203.433	-7.99
203.906	-7.19
204.378	-6.19
204.85	-9.09
205.322	-9.19
205.794	0.11
206.266	-7.39
206.739	-11.29
207.211	1.81
207.683	-8.69
208.155	-6.39
208.627	-10.39
209.099	-5.49
209.57	-9.19
210.042	-5.79
210.514	-5.59
210.986	-7.99
211.458	-6.29
211.93	-4.79
212.402	-4.69
212.873	-7.59
213.345	-13.89
213.817	-12.89
214.288	-3.79
214.76	-13.59
215.232	-3.09
215.703	-6.29
216.175	-3.99
216.646	-9.79
217.118	-6.79
217.589	-6.79
218.061	-1.29
218.532	-7.09
219.004	-4.59
219.475	-3.79
219.946	-8.79
220.418	-11.39
220.889	0.01
221.36	-0.79
221.832	-10.69
222.303	-6.39
222.774	0.11
223.245	-10.19
223.717	-7.99
224.188	-2.09
224.659	-6.79
225.13	-3.79
225.601	-8.19
226.072	0.61
226.543	0.71
227.014	-1.49
227.485	-2.29
227.956	-8.09
228.427	-5.49
228.898	-3.89
229.369	3.21
229.839	0.41
230.31	-10.99
230.781	-3.09
231.252	-4.89
231.722	-10.29
232.193	-10.39
232.664	-4.99
233.135	-5.69
233.605	-9.89
234.076	-12.09
234.546	-2.79
235.017	2.01
235.487	-4.09
235.958	-11.99
236.428	-3.59
236.899	-6.59
237.369	-5.19
237.84	-5.99
238.31	-5.49
238.78	-3.49
239.251	-11.59
239.721	-6.69
240.191	-7.29
240.662	-5.39
241.132	-5.69
241.602	-5.59
242.072	-3.19
242.542	-4.19
243.013	-8.79
243.483	-0.09
243.953	-4.69
244.423	-0.89
244.893	-12.49
245.363	-2.09
245.833	-1.49
246.303	-6.89
246.773	5.91
247.243	1.01
247.712	-2.89
248.182	0.01
248.652	1.41
249.122	-11.99
249.592	3.91
250.061	1.11
250.531	5.31
251.001	-5.39
251.471	-1.49
251.94	6.11
252.41	-7.99
252.879	-8.39
253.349	2.71
253.818	7.91
254.288	-5.39
254.757	-1.59
255.227	-9.99
255.696	-2.19
256.166	-1.19
256.635	-0.09
257.105	-0.39
257.574	-2.99
258.043	-6.19
258.513	-0.39
258.982	3.61
259.451	-9.19
259.92	-2.89
260.389	-2.29
260.859	2.31
261.328	3.51
261.797	-3.59
262.266	-4.59
262.735	6.31
263.204	-0.89
263.673	-7.29
264.142	0.71
264.611	-7.99
265.08	-7.09
265.549	-4.79
266.018	-1.09
266.487	-11.39
266.955	-10.79
267.424	-10.29
267.893	-0.29
268.362	-3.79
268.83	-1.69
269.299	4.31
269.768	3.81
270.236	4.31
270.705	-5.19
271.174	-0.29
271.642	1.61
272.111	-5.29
272.579	-2.39
273.048	2.51
273.516	-3.99
273.985	6.41
274.453	-0.09
274.922	11.61
275.39	1.81
275.858	-6.99
276.327	-0.09
276.795	10.71
277.263	3.01
277.731	2.51
278.2	4.81
278.668	2.21
279.136	6.81
279.604	-1.99
280.072	0.41
280.54	4.81
281.008	4.01
281.477	1.61
281.945	2.21
282.413	8.21
282.881	3.91
283.348	3.31
283.816	2.91
284.284	4.81
284.752	10.81
285.22	5.61
285.688	4.61
286.156	5.21
286.623	4.21
287.091	5.11
287.559	5.41
288.026	6.21
288.494	6.31
288.962	-0.79
289.429	4.91
289.897	12.91
290.364	5.41
290.832	7.31
291.3	4.01
291.767	9.41
292.234	4.61
292.702	0.81
293.169	12.01
293.637	11.51
294.104	9.51
294.571	-1.49
295.039	3.11
295.506	3.11
295.973	10.11
296.44	7.11
296.908	1.21
297.375	3.61
297.842	12.51
298.309	8.11
298.776	5.31
299.243	14.81
299.71	2.81
300.177	17.01
300.644	14.11
301.111	7.91
301.578	12.01
302.045	2.31
302.512	7.81
302.979	17.61
303.446	16.21
303.913	8.81
304.379	11.61
304.846	16.71
305.313	17.11
305.78	15.71
306.246	10.71
306.713	13.21
307.18	13.71
307.646	16.21
308.113	15.41
308.579	11.61
309.046	18.41
309.512	17.41
309.979	12.31
310.445	16.21
310.912	18.11
311.378	17.51
311.845	16.81
312.311	22.81
312.777	22.01
313.244	20.01
313.71	27.71
314.176	15.01
314.642	18.91
315.109	16.81
315.575	22.01
316.041	22.01
316.507	16.21
316.973	23.71
317.439	14.91
317.905	19.61
318.371	20.41
318.837	23.71
319.303	20.31
319.769	22.51
320.235	20.11
320.701	22.51
321.167	30.91
321.633	22.81
322.099	19.71
322.564	27.01
323.03	23.21
323.496	24.61
323.962	28.21
324.427	28.41
324.893	27.81
325.359	20.01
325.824	25.81
326.29	23.71
326.755	21.51
327.221	30.51
327.686	27.41
328.152	31.81
328.617	28.91
329.083	29.21
329.548	40.81
330.014	28.71
330.479	28.51
330.944	25.11
331.41	26.31
331.875	33.81
332.34	32.11
332.805	30.21
333.271	27.71
333.736	30.21
334.201	35.91
334.666	36.71
335.131	38.21
335.596	40.01
336.061	32.51
336.526	30.11
336.991	32.91
337.456	44.71
337.921	35.11
338.386	32.51
338.851	30.01
339.316	36.91
339.781	35.11
340.246	41.31
340.711	32.41
341.175	38.11
341.64	30.81
342.105	40.91
342.569	41.21
343.034	42.91
343.499	38.11
343.963	38.81
344.428	50.21
344.893	51.51
345.357	49.71
345.822	52.11
346.286	49.41
346.751	53.31
347.215	53.11
347.679	54.61
348.144	74.61
348.608	61.01
349.073	59.21
349.537	59.31
350.001	62.01
350.465	65.01
350.93	54.71
351.394	58.21
351.858	51.61
352.322	72.21
352.786	62.21
353.25	77.21
353.715	78.51
354.179	71.61
354.643	92.41
355.107	83.71
355.571	81.81
356.035	72.61
356.498	87.21
356.962	81.81
357.426	93.61
357.89	88.81
358.354	71.51
358.818	66.31
359.281	67.21
359.745	65.31
360.209	64.41
360.673	61.71
361.136	66.91
361.6	71.01
362.064	61.91
362.527	66.41
362.991	77.91
363.454	63.71
363.918	59.81
364.381	60.51
364.845	65.71
365.308	71.71
365.772	71.91
366.235	70.91
366.698	72.11
367.162	68.61
367.625	70.51
368.088	76.31
368.552	71.61
369.015	71.81
369.478	79.61
369.941	77.31
370.404	73.61
370.867	81.41
371.331	82.81
371.794	89.21
372.257	83.11
372.72	84.01
373.183	88.11
373.646	77.01
374.109	77.71
374.572	84.81
375.035	92.21
375.497	88.21
375.96	87.21
376.423	84.81
376.886	94.31
377.349	89.71
377.811	84.01
378.274	85.31
378.737	94.01
379.199	88.31
379.662	92.91
380.125	93.91
380.587	90.61
381.05	92.71
381.512	100.61
381.975	95.71
382.437	108.71
382.9	98.31
383.362	100.61
383.825	118.41
384.287	112.21
384.75	107.61
385.212	105.41
385.674	117.91
386.136	113.61
386.599	108.91
387.061	107.31
387.523	106.81
387.985	111.11
388.447	118.51
388.91	112.71
389.372	109.41
389.834	114.71
390.296	111.41
390.758	111.41
391.22	117.41
391.682	125.91
392.144	133.31
392.606	128.81
393.068	126.21
393.529	139.21
393.991	125.71
394.453	125.01
394.915	121.21
395.377	122.21
395.838	115.81
396.3	121.31
396.762	123.91
397.224	127.01
397.685	129.11
398.147	124.71
398.608	123.01
399.07	118.71
399.531	129.81
399.993	130.31
400.454	139.31
400.916	133.31
401.377	135.81
401.839	135.21
402.3	138.11
402.762	151.21
403.223	165.91
403.684	155.41
404.145	150.31
404.607	151.21
405.068	145.91
405.529	160.61
405.99	167.81
406.451	161.01
406.913	166.61
407.374	153.41
407.835	151.01
408.296	159.11
408.757	163.01
409.218	176.31
409.679	168.61
410.14	172.81
410.601	165.41
411.062	166.01
411.522	164.81
411.983	161.71
412.444	171.91
412.905	170.21
413.366	170.31
413.826	183.91
414.287	209.11
414.748	255.41
415.208	236.21
415.669	210.91
416.13	204.21
416.59	198.41
417.051	209.81
417.511	210.21
417.972	230.31
418.432	237.61
418.893	284.91
419.353	243.91
419.814	195.41
420.274	175.41
420.734	180.01
421.195	189.61
421.655	181.81
422.115	184.11
422.576	187.61
423.036	196.11
423.496	198.71
423.956	212.51
424.416	222.81
424.876	254.71
425.336	248.91
425.797	249.61
426.257	247.81
426.717	224.81
427.177	219.41
427.637	214.11
428.097	229.21
428.556	230.81
429.016	257.91
429.476	250.61
429.936	252.01
430.396	267.31
430.856	268.41
431.315	291.51
431.775	319.91
432.235	354.61
432.694	330.21
433.154	341.81
433.614	356.61
434.073	322.31
434.533	277.91
434.993	265.21
435.452	272.91
435.912	276.41
436.371	265.31
436.83	262.61
437.29	249.01
437.749	246.01
438.209	232.11
438.668	262.81
439.127	274.81
439.587	255.01
440.046	237.71
440.505	251.01
440.964	258.81
441.424	308.91
441.883	289.31
442.342	249.11
442.801	215.01
443.26	219.01
443.719	221.91
444.178	218.51
444.637	212.41
445.096	221.11
445.555	218.31
446.014	223.01
446.473	230.91
446.932	229.51
447.391	227.91
447.849	228.71
448.308	222.41
448.767	222.31
449.226	231.81
449.685	237.11
450.143	250.11
450.602	235.81
451.061	226.91
451.519	231.61
451.978	233.91
452.436	233.31
452.895	243.81
453.353	251.31
453.812	237.11
454.27	238.41
454.729	242.21
455.187	242.21
455.646	242.81
456.104	246.41
456.562	255.21
457.021	260.51
457.479	265.21
457.937	269.51
458.395	263.31
458.854	243.91
459.312	258.31
459.77	270.41
460.228	253.81
460.686	245.91
461.144	251.21
461.602	248.21
462.06	243.11
462.518	255.21
462.976	263.21
463.434	258.51
463.892	267.21
464.35	279.81
464.808	286.21
465.266	270.61
465.724	271.51
466.181	277.91
466.639	276.81
467.097	289.51
467.555	299.21
468.012	304.61
468.47	309.11
468.928	330.61
469.385	341.01
469.843	350.71
470.3	353.11
470.758	363.51
471.215	378.51
471.673	408.41
472.13	408.51
472.588	418.51
473.045	371.31
473.503	385.11
473.96	398.11
474.417	403.11
474.875	430.91
475.332	476.81
475.789	456.11
476.246	467.51
476.704	480.11
477.161	494.41
477.618	514.01
478.075	552.31
478.532	607.21
478.989	664.61
479.446	768.91
479.903	744.91
480.36	780.71
480.817	815.01
481.274	914.81
481.731	1000.31
482.188	1063.21
482.645	1188.31
483.102	1275.81
483.558	1388.61
484.015	1434.51
484.472	1404.61
484.929	1356.51
485.385	1331.11
485.842	1296.21
486.299	1248.61
486.755	1212.41
487.212	1030.21
487.668	890.91
488.125	810.71
488.582	754.31
489.038	725.41
489.494	699.61
489.951	675.81
490.407	664.11
490.864	645.21
491.32	630.91
491.776	633.61
492.233	645.71
492.689	607.01
493.145	601.51
493.602	600.01
494.058	611.61
494.514	620.11
494.97	633.81
495.426	649.71
495.882	624.31
496.338	597.21
496.794	627.71
497.251	619.61
497.707	624.21
498.163	627.51
498.618	636.41
499.074	627.51
499.53	665.61
499.986	661.81
500.442	655.41
500.898	614.91
501.354	621.01
501.809	626.31
502.265	626.01
502.721	635.11
503.177	642.41
503.632	648.21
504.088	650.01
504.543	669.21
504.999	689.31
505.455	656.81
505.91	649.71
506.366	643.61
506.821	640.01
507.277	640.01
507.732	634.11
508.187	650.21
508.643	644.31
509.098	652.01
509.553	678.51
510.009	673.11
510.464	686.51
510.919	700.91
511.375	707.11
511.83	708.51
512.285	736.91
512.74	762.51
513.195	784.71
513.65	767.11
514.105	767.81
514.56	775.41
515.015	787.61
515.47	804.01
515.925	781.41
516.38	782.91
516.835	798.21
517.29	793.21
517.745	784.71
518.2	778.31
518.655	763.31
519.109	750.21
519.564	752.21
520.019	737.11
520.474	734.01
520.928	728.61
521.383	723.61
521.838	717.11
522.292	724.21
522.747	730.51
523.201	714.51
523.656	707.21
524.11	701.61
524.565	704.61
525.019	705.61
525.474	715.71
525.928	709.61
526.382	707.11
526.837	712.41
527.291	715.01
527.745	710.61
528.2	707.11
528.654	701.61
529.108	704.61
529.562	705.51
530.016	700.01
530.47	692.41
530.925	693.01
531.379	703.61
531.833	708.51
532.287	708.51
532.741	711.31
533.195	711.81
533.649	715.41
534.103	725.71
534.556	709.91
535.01	716.61
535.464	710.01
535.918	717.71
536.372	727.31
536.826	726.81
537.279	716.91
537.733	715.51
538.187	726.51
538.64	718.71
539.094	734.01
539.548	736.51
540.001	725.41
540.455	727.61
540.908	740.41
541.362	739.71
541.815	767.51
542.269	771.71
542.722	773.21
543.175	789.71
543.629	795.71
544.082	806.11
544.536	805.81
544.989	806.11
545.442	803.61
545.895	818.21
546.349	808.11
546.802	802.91
547.255	819.61
547.708	817.11
548.161	830.01
548.614	836.81
549.067	850.11
549.52	836.21
549.973	841.01
550.426	834.11
550.879	810.51
551.332	819.01
551.785	819.41
552.238	827.81
552.691	837.01
553.144	858.41
553.596	861.91
554.049	880.61
554.502	923.11
554.955	933.91
555.407	918.21
555.86	921.21
556.313	919.11
556.765	897.61
557.218	902.61
557.67	898.01
558.123	884.21
558.576	896.51
559.028	901.21
559.48	913.71
559.933	893.01
560.385	856.31
560.838	837.61
561.29	813.71
561.742	814.41
562.195	794.81
562.647	786.51
563.099	793.01
563.551	795.11
564.004	808.71
564.456	800.71
564.908	768.51
565.36	758.61
565.812	741.61
566.264	733.61
566.716	736.81
567.168	731.61
567.62	727.11
568.072	714.01
568.524	704.01
568.976	703.91
569.428	690.01
569.88	688.01
570.332	702.01
570.784	704.51
571.235	699.31
571.687	712.91
572.139	723.31
572.59	732.21
573.042	722.41
573.494	733.91
573.945	716.71
574.397	708.61
574.849	704.21
575.3	704.91
575.752	708.61
576.203	695.51
576.655	707.41
577.106	687.91
577.557	680.11
578.009	692.91
578.46	693.31
578.912	684.21
579.363	675.51
579.814	695.31
580.265	689.81
580.717	694.01
581.168	683.21
581.619	691.11
582.07	695.51
582.521	697.41
582.972	689.61
583.423	697.81
583.875	689.51
584.326	700.01
584.777	706.41
585.227	731.21
585.678	738.91
586.129	758.51
586.58	769.91
587.031	781.71
587.482	822.61
587.933	845.41
588.384	826.41
588.834	800.01
589.285	796.71
589.736	801.71
590.186	788.31
590.637	803.81
591.088	769.81
591.538	755.61
591.989	755.91
592.439	742.11
592.89	729.51
593.34	727.41
593.791	731.11
594.241	722.41
594.692	719.51
595.142	712.71
595.593	724.01
596.043	721.21
596.493	735.61
596.943	727.31
597.394	736.21
597.844	738.71
598.294	763.31
598.744	781.51
599.195	806.01
599.645	852.61
600.095	895.71
600.545	944.31
600.995	1002.21
601.445	1061.31
601.895	1124.21
602.345	1165.31
602.795	1154.61
603.245	1103.91
603.695	1052.11
604.145	988.51
604.594	944.71
605.044	891.01
605.494	823.31
605.944	786.21
606.393	771.11
606.843	758.71
607.293	757.41
607.743	764.21
608.192	768.11
608.642	780.51
609.091	783.91
609.541	792.21
609.99	785.61
610.44	782.11
610.889	743.01
611.339	723.41
611.788	711.21
612.238	718.71
612.687	723.21
613.136	725.01
613.586	731.21
614.035	713.91
614.484	723.51
614.933	727.51
615.383	724.41
615.832	726.31
616.281	722.51
616.73	698.01
617.179	677.01
617.628	661.11
618.077	657.11
618.526	635.31
618.975	632.41
619.424	636.31
619.873	623.91
620.322	630.31
620.771	623.41
621.22	617.61
621.669	613.31
622.118	605.41
622.567	604.21
623.015	587.91
623.464	589.11
623.913	582.41
624.361	572.81
624.81	570.81
625.259	569.51
625.707	573.91
626.156	572.01
626.604	584.21
627.053	583.81
627.501	586.11
627.95	591.11
628.398	591.91
628.847	592.41
629.295	596.51
629.744	581.21
630.192	586.51
630.64	577.91
631.089	566.61
631.537	555.11
631.985	542.31
632.433	547.41
632.881	535.91
633.33	543.41
633.778	540.01
634.226	535.71
634.674	547.91
635.122	555.31
635.57	565.91
636.018	585.21
636.466	586.91
636.914	579.51
637.362	589.21
637.81	593.41
638.258	606.11
638.705	602.31
639.153	631.51
639.601	642.51
640.049	665.81
640.497	691.21
640.944	728.31
641.392	677.11
641.84	637.91
642.287	596.01
642.735	578.01
643.182	586.41
643.63	578.71
644.078	577.91
644.525	591.31
644.973	597.41
645.42	606.41
645.867	639.71
646.315	655.71
646.762	682.11
647.21	707.61
647.657	727.51
648.104	757.81
648.551	774.81
648.999	838.01
649.446	918.41
649.893	998.61
650.34	1134.91
650.787	1360.11
651.234	1651.91
651.682	2156.21
652.129	2946.71
652.576	4178.31
653.023	6105.51
653.47	8184.81
653.917	10113.51
654.363	11556.01
654.81	12664.81
655.257	11998.01
655.704	7939.81
656.151	4805.21
656.598	3138.61
657.044	2265.31
657.491	1758.01
657.938	1420.31
658.385	1210.21
658.831	1050.51
659.278	944.51
659.724	840.71
660.171	782.31
660.618	720.31
661.064	678.31
661.511	671.81
661.957	659.41
662.404	649.91
662.85	649.71
663.296	643.31
663.743	573.01
664.189	553.21
664.635	547.31
665.082	542.01
665.528	546.11
665.974	532.81
666.42	527.21
666.867	529.31
667.313	506.61
667.759	485.21
668.205	470.51
668.651	463.31
669.097	464.81
669.543	460.71
669.989	461.11
670.435	462.71
670.881	465.31
671.327	469.31
671.773	484.61
672.219	516.91
672.665	568.51
673.11	620.71
673.556	655.51
674.002	695.81
674.448	688.51
674.893	579.71
675.339	501.61
675.785	467.51
676.23	438.21
676.676	421.41
677.122	403.01
677.567	390.01
678.013	384.81
678.458	379.61
678.904	371.71
679.349	367.01
679.794	372.11
680.24	376.81
680.685	362.71
681.131	366.01
681.576	368.91
682.021	370.71
682.466	369.91
682.912	365.91
683.357	373.61
683.802	400.91
684.247	433.71
684.692	483.41
685.137	523.31
685.583	566.61
686.028	585.71
686.473	555.71
686.918	468.81
687.363	424.91
687.807	413.41
688.252	391.51
688.697	378.71
689.142	348.01
689.587	345.81
690.032	345.51
690.477	361.61
690.921	368.81
691.366	408.61
691.811	420.11
692.255	454.21
692.7	488.91
693.145	543.71
693.589	763.11
694.034	1243.21
694.478	1653.41
694.923	1823.81
695.367	2373.91
695.812	1266.91
696.256	534.71
696.701	394.11
697.145	363.11
697.59	342.31
698.034	341.91
698.478	347.11
698.922	340.91
699.367	340.41
699.811	364.71
700.255	372.01
700.699	409.51
701.143	454.11
701.588	500.11
702.032	545.41
702.476	539.11
702.92	517.71
703.364	523.31
703.808	703.51
704.252	1131.21
704.696	1573.21
705.14	1757.91
705.584	2230.11
706.027	1123.21
706.471	559.71
706.915	420.41
707.359	364.11
707.803	336.21
708.246	318.11
708.69	329.11
709.134	335.21
709.577	329.71
710.021	333.91
710.465	324.81
710.908	319.11
711.352	315.71
711.795	339.51
712.239	376.51
712.682	410.21
713.126	432.51
713.569	476.81
714.012	373.81
714.456	325.01
714.899	300.91
715.342	290.51
715.786	276.91
716.229	268.71
716.672	264.41
717.115	271.71
717.558	263.81
718.002	259.81
718.445	278.81
718.888	305.51
719.331	310.41
719.774	314.21
720.217	313.91
720.66	300.61
721.103	276.31
721.546	255.91
721.989	259.21
722.432	247.21
722.874	248.61
723.317	246.31
723.76	252.81
724.203	272.41
724.645	346.21
725.088	482.41
725.531	603.91
725.974	682.01
726.416	572.71
726.859	318.01
727.301	260.91
727.744	254.11
728.187	246.91
728.629	255.01
729.071	259.11
729.514	276.61
729.956	279.81
730.399	298.21
730.841	313.31
731.283	293.61
731.726	279.61
732.168	276.31
732.61	283.61
733.053	306.21
733.495	338.71
733.937	375.61
734.379	421.61
734.821	461.71
735.263	593.51
735.705	938.31
736.148	1764.51
736.59	2802.41
737.032	3196.51
737.474	2623.01
737.916	876.61
738.357	462.51
738.799	345.31
739.241	312.21
739.683	301.51
740.125	314.71
740.567	310.01
741.008	336.31
741.45	338.11
741.892	340.11
742.334	368.51
742.775	380.71
743.217	372.91
743.658	294.31
744.1	271.21
744.542	282.71
744.983	342.31
745.425	365.61
745.866	365.21
746.307	295.31
746.749	294.11
747.19	357.71
747.632	504.21
748.073	1002.61
748.514	2081.51
748.956	3093.71
749.397	3904.21
749.838	3206.21
750.279	3110.71
750.72	1592.41
751.162	596.21
751.603	344.91
752.044	267.81
752.485	224.01
752.926	217.11
753.367	210.51
753.808	207.31
754.249	200.31
754.69	196.11
755.131	199.01
755.572	192.21
756.013	187.71
756.453	191.41
756.894	203.11
757.335	203.21
757.776	207.41
758.216	209.71
758.657	212.81
759.098	218.71
759.538	241.11
759.979	294.31
760.42	412.41
760.86	808.71
761.301	2116.11
761.741	4899.31
762.182	6733.21
762.622	4781.21
763.063	1417.21
