Data from 20171114-ORNL-Ar_H_NY_Subt18_08-06-54-583.txt Node
Date: Tue Nov 14 08:06:54 EST 2017
User: Ender
Spectrometer: HR+D1039
Trigger mode: 0
Integration Time (sec): 2.730000E-2
Scans to average: 10
Electric dark correction enabled: true
Nonlinearity correction enabled: false
Boxcar width: 0
XAxis mode: Wavelengths
Number of Pixels in Spectrum: 2048
>>>>>Begin Spectral Data<<<<<
187.836	-8.49
188.309	-8.49
188.782	-8.49
189.255	-1.49
189.728	-2.79
190.201	8.11
190.674	-0.49
191.147	4.61
191.619	-3.29
192.092	4.11
192.565	5.31
193.038	-0.79
193.511	1.91
193.984	-0.79
194.456	-2.79
194.929	0.91
195.402	-7.59
195.874	3.61
196.347	-5.79
196.82	-9.49
197.292	2.71
197.765	-2.49
198.237	-11.19
198.71	2.11
199.182	-3.49
199.655	-1.99
200.127	-0.09
200.6	-4.39
201.072	-3.39
201.544	-7.49
202.017	-0.79
202.489	1.01
202.961	-2.89
203.433	-4.09
203.906	-5.29
204.378	-6.09
204.85	-3.69
205.322	-8.99
205.794	-4.49
206.266	-2.29
206.739	-9.89
207.211	5.01
207.683	-10.79
208.155	-9.69
208.627	-9.59
209.099	-5.39
209.57	-7.89
210.042	-6.59
210.514	-10.29
210.986	-4.49
211.458	-5.69
211.93	-4.49
212.402	1.31
212.873	-11.89
213.345	-6.89
213.817	-11.59
214.288	-8.09
214.76	-12.19
215.232	-6.39
215.703	-7.39
216.175	-4.39
216.646	-4.89
217.118	-4.39
217.589	-1.69
218.061	1.61
218.532	-8.89
219.004	-5.49
219.475	-11.59
219.946	-0.09
220.418	-7.29
220.889	1.81
221.36	1.61
221.832	-5.99
222.303	-10.29
222.774	-0.79
223.245	-8.59
223.717	-7.39
224.188	-4.39
224.659	-11.19
225.13	-7.39
225.601	-6.49
226.072	-2.09
226.543	1.61
227.014	-3.09
227.485	0.51
227.956	-9.59
228.427	0.81
228.898	-5.89
229.369	4.21
229.839	-6.69
230.31	-11.29
230.781	-3.49
231.252	-6.29
231.722	-6.19
232.193	-12.19
232.664	-8.99
233.135	-5.29
233.605	0.21
234.076	-9.89
234.546	-7.09
235.017	1.51
235.487	-7.09
235.958	-4.99
236.428	-9.89
236.899	3.61
237.369	-3.39
237.84	-7.99
238.31	-2.29
238.78	-2.59
239.251	-8.39
239.721	-6.49
240.191	-4.99
240.662	-12.49
241.132	-3.79
241.602	-6.99
242.072	-1.49
242.542	-1.29
243.013	-3.99
243.483	-1.29
243.953	1.11
244.423	0.01
244.893	-7.19
245.363	3.21
245.833	-9.79
246.303	-3.89
246.773	1.31
247.243	-2.29
247.712	-4.29
248.182	1.21
248.652	1.11
249.122	-14.29
249.592	-4.09
250.061	-2.69
250.531	14.61
251.001	-1.09
251.471	8.01
251.94	6.01
252.41	-5.29
252.879	-9.79
253.349	4.41
253.818	7.61
254.288	-2.59
254.757	6.81
255.227	-9.49
255.696	-2.49
256.166	-7.79
256.635	3.21
257.105	3.61
257.574	-5.59
258.043	0.01
258.513	-6.79
258.982	2.31
259.451	-9.99
259.92	0.21
260.389	3.21
260.859	8.21
261.328	6.31
261.797	1.61
262.266	-4.79
262.735	4.21
263.204	3.41
263.673	-1.89
264.142	-0.19
264.611	-12.59
265.08	-3.59
265.549	2.71
266.018	-0.59
266.487	-3.99
266.955	-3.99
267.424	0.11
267.893	0.61
268.362	-2.69
268.83	-0.99
269.299	0.91
269.768	-2.39
270.236	-2.69
270.705	3.01
271.174	-2.99
271.642	3.91
272.111	-1.09
272.579	5.21
273.048	-3.89
273.516	0.31
273.985	4.31
274.453	-0.59
274.922	3.21
275.39	2.21
275.858	-2.09
276.327	5.61
276.795	11.91
277.263	0.41
277.731	10.31
278.2	6.41
278.668	8.11
279.136	4.41
279.604	1.01
280.072	9.41
280.54	2.91
281.008	5.41
281.477	5.91
281.945	3.21
282.413	6.91
282.881	13.71
283.348	5.21
283.816	5.91
284.284	7.81
284.752	12.41
285.22	7.21
285.688	11.41
286.156	11.01
286.623	20.01
287.091	10.31
287.559	10.31
288.026	12.11
288.494	13.21
288.962	-1.99
289.429	-0.19
289.897	8.61
290.364	8.41
290.832	9.11
291.3	8.01
291.767	14.91
292.234	9.71
292.702	12.71
293.169	10.31
293.637	18.21
294.104	13.31
294.571	2.31
295.039	5.61
295.506	10.11
295.973	15.01
296.44	11.01
296.908	13.11
297.375	6.21
297.842	10.41
298.309	6.11
298.776	4.31
299.243	16.71
299.71	15.31
300.177	16.11
300.644	11.71
301.111	13.51
301.578	13.31
302.045	12.81
302.512	14.31
302.979	15.01
303.446	12.01
303.913	13.31
304.379	11.81
304.846	20.11
305.313	16.81
305.78	16.51
306.246	23.61
306.713	18.61
307.18	20.21
307.646	19.21
308.113	22.91
308.579	15.11
309.046	21.31
309.512	24.61
309.979	12.51
310.445	20.11
310.912	20.41
311.378	34.81
311.845	22.21
312.311	21.81
312.777	19.01
313.244	28.31
313.71	31.91
314.176	28.71
314.642	23.01
315.109	17.81
315.575	30.31
316.041	24.01
316.507	28.61
316.973	30.31
317.439	25.71
317.905	33.41
318.371	28.21
318.837	26.61
319.303	21.91
319.769	30.91
320.235	24.61
320.701	26.41
321.167	33.71
321.633	26.81
322.099	31.11
322.564	31.71
323.03	33.01
323.496	31.81
323.962	29.71
324.427	34.31
324.893	38.31
325.359	28.41
325.824	31.01
326.29	36.81
326.755	27.41
327.221	41.01
327.686	30.51
328.152	37.51
328.617	32.91
329.083	36.81
329.548	42.91
330.014	44.21
330.479	27.01
330.944	34.61
331.41	36.31
331.875	37.41
332.34	39.61
332.805	31.71
333.271	37.01
333.736	34.81
334.201	41.41
334.666	38.21
335.131	45.51
335.596	46.21
336.061	40.51
336.526	35.11
336.991	42.11
337.456	49.61
337.921	37.51
338.386	43.11
338.851	39.91
339.316	44.51
339.781	43.61
340.246	44.51
340.711	47.71
341.175	45.91
341.64	37.71
342.105	40.61
342.569	49.51
343.034	51.51
343.499	51.51
343.963	51.01
344.428	53.01
344.893	52.31
345.357	50.31
345.822	60.01
346.286	55.01
346.751	61.51
347.215	53.41
347.679	60.21
348.144	83.31
348.608	64.11
349.073	62.91
349.537	64.41
350.001	74.71
350.465	72.41
350.93	74.31
351.394	69.01
351.858	71.51
352.322	74.81
352.786	67.41
353.25	88.71
353.715	94.61
354.179	91.61
354.643	107.71
355.107	107.71
355.571	92.11
356.035	87.01
356.498	103.81
356.962	98.61
357.426	104.41
357.89	89.11
358.354	78.11
358.818	72.71
359.281	71.71
359.745	60.41
360.209	66.51
360.673	66.41
361.136	71.31
361.6	75.41
362.064	67.51
362.527	78.51
362.991	84.61
363.454	71.11
363.918	62.51
364.381	70.61
364.845	77.41
365.308	81.11
365.772	82.51
366.235	73.41
366.698	78.81
367.162	73.71
367.625	77.71
368.088	82.31
368.552	81.71
369.015	79.11
369.478	90.11
369.941	91.41
370.404	79.31
370.867	90.91
371.331	93.41
371.794	96.31
372.257	88.51
372.72	99.71
373.183	100.51
373.646	88.21
374.109	86.51
374.572	89.81
375.035	96.21
375.497	91.01
375.96	99.11
376.423	94.01
376.886	107.01
377.349	97.51
377.811	90.01
378.274	99.71
378.737	94.21
379.199	102.01
379.662	99.01
380.125	107.21
380.587	104.61
381.05	100.11
381.512	113.71
381.975	120.11
382.437	110.81
382.9	114.21
383.362	115.91
383.825	121.61
384.287	121.61
384.75	114.21
385.212	113.11
385.674	118.81
386.136	126.71
386.599	111.11
387.061	113.61
387.523	115.71
387.985	119.11
388.447	129.41
388.91	117.91
389.372	122.81
389.834	123.71
390.296	124.21
390.758	128.61
391.22	133.81
391.682	144.51
392.144	147.21
392.606	145.41
393.068	134.31
393.529	148.51
393.991	130.61
394.453	127.91
394.915	130.71
395.377	131.61
395.838	140.21
396.3	130.31
396.762	142.41
397.224	123.61
397.685	126.71
398.147	124.31
398.608	124.71
399.07	128.81
399.531	130.61
399.993	139.91
400.454	146.91
400.916	140.01
401.377	142.21
401.839	143.61
402.3	143.21
402.762	156.41
403.223	165.61
403.684	161.61
404.145	158.31
404.607	150.21
405.068	163.11
405.529	161.51
405.99	178.81
406.451	171.31
406.913	169.11
407.374	162.61
407.835	155.71
408.296	161.71
408.757	168.31
409.218	184.91
409.679	168.11
410.14	169.61
410.601	168.01
411.062	179.91
411.522	178.01
411.983	177.61
412.444	171.11
412.905	176.81
413.366	182.51
413.826	193.21
414.287	219.41
414.748	268.21
415.208	254.41
415.669	214.11
416.13	203.01
416.59	206.41
417.051	211.41
417.511	219.61
417.972	236.21
418.432	253.91
418.893	286.41
419.353	250.51
419.814	205.51
420.274	182.81
420.734	184.61
421.195	196.21
421.655	188.71
422.115	191.41
422.576	193.51
423.036	195.21
423.496	209.41
423.956	218.11
424.416	233.21
424.876	264.81
425.336	258.71
425.797	263.81
426.257	250.81
426.717	240.81
427.177	227.51
427.637	219.61
428.097	237.11
428.556	247.41
429.016	277.31
429.476	258.81
429.936	267.91
430.396	270.71
430.856	288.61
431.315	308.01
431.775	348.51
432.235	372.71
432.694	345.51
433.154	359.01
433.614	381.11
434.073	331.01
434.533	276.51
434.993	263.21
435.452	275.31
435.912	293.41
436.371	282.21
436.83	276.21
437.29	263.91
437.749	244.31
438.209	246.61
438.668	269.81
439.127	282.51
439.587	257.51
440.046	249.01
440.505	261.81
440.964	282.01
441.424	315.21
441.883	306.01
442.342	258.61
442.801	229.11
443.26	221.61
443.719	226.11
444.178	226.51
444.637	221.61
445.096	230.61
445.555	227.51
446.014	227.51
446.473	234.01
446.932	235.11
447.391	230.51
447.849	227.01
448.308	221.91
448.767	223.61
449.226	239.71
449.685	252.71
450.143	256.01
450.602	239.01
451.061	230.21
451.519	245.21
451.978	234.81
452.436	243.71
452.895	243.71
453.353	255.01
453.812	245.51
454.27	246.51
454.729	249.51
455.187	251.61
455.646	248.71
456.104	253.61
456.562	264.01
457.021	269.51
457.479	271.91
457.937	284.11
458.395	272.41
458.854	257.71
459.312	263.11
459.77	289.51
460.228	259.11
460.686	254.71
461.144	261.01
461.602	253.21
462.06	247.21
462.518	261.81
462.976	267.01
463.434	264.61
463.892	272.41
464.35	283.61
464.808	294.91
465.266	267.51
465.724	282.81
466.181	282.51
466.639	274.11
467.097	294.31
467.555	311.31
468.012	319.01
468.47	308.11
468.928	337.31
469.385	350.71
469.843	360.91
470.3	357.61
470.758	378.21
471.215	383.21
471.673	418.01
472.13	416.71
472.588	426.61
473.045	386.91
473.503	395.11
473.96	412.71
474.417	412.91
474.875	448.21
475.332	490.61
475.789	481.61
476.246	477.31
476.704	490.41
477.161	522.71
477.618	528.91
478.075	569.71
478.532	622.81
478.989	694.01
479.446	803.81
479.903	771.11
480.36	798.71
480.817	851.61
481.274	934.51
481.731	1029.01
482.188	1119.21
482.645	1239.81
483.102	1332.51
483.558	1447.51
484.015	1479.01
484.472	1462.61
484.929	1413.21
485.385	1372.11
485.842	1345.21
486.299	1304.81
486.755	1245.01
487.212	1073.31
487.668	905.71
488.125	853.81
488.582	783.41
489.038	745.31
489.494	726.91
489.951	684.51
490.407	673.81
490.864	653.31
491.32	655.91
491.776	658.31
492.233	663.51
492.689	627.21
493.145	621.11
493.602	619.41
494.058	631.71
494.514	631.81
494.97	650.11
495.426	667.11
495.882	631.31
496.338	643.71
496.794	643.51
497.251	637.11
497.707	656.41
498.163	647.61
498.618	667.51
499.074	669.01
499.53	701.01
499.986	685.01
500.442	668.61
500.898	642.71
501.354	632.51
501.809	649.21
502.265	654.91
502.721	655.61
503.177	665.31
503.632	665.01
504.088	666.11
504.543	699.51
504.999	714.81
505.455	681.21
505.91	664.31
506.366	662.01
506.821	663.31
507.277	655.01
507.732	661.21
508.187	650.71
508.643	665.61
509.098	672.11
509.553	684.01
510.009	695.91
510.464	710.01
510.919	730.91
511.375	715.31
511.83	742.21
512.285	749.11
512.74	800.81
513.195	807.81
513.65	789.81
514.105	790.01
514.56	798.81
515.015	826.81
515.47	822.11
515.925	811.41
516.38	812.41
516.835	824.91
517.29	808.91
517.745	802.81
518.2	797.21
518.655	790.21
519.109	777.81
519.564	767.51
520.019	764.11
520.474	751.41
520.928	753.61
521.383	745.11
521.838	736.41
522.292	734.21
522.747	742.81
523.201	732.61
523.656	719.21
524.11	718.11
524.565	724.51
525.019	725.31
525.474	731.51
525.928	731.01
526.382	724.41
526.837	722.61
527.291	732.61
527.745	731.41
528.2	730.51
528.654	721.71
529.108	721.51
529.562	712.71
530.016	708.01
530.47	717.21
530.925	724.21
531.379	720.11
531.833	726.31
532.287	727.31
532.741	728.21
533.195	729.31
533.649	736.31
534.103	744.61
534.556	732.21
535.01	734.11
535.464	728.61
535.918	749.01
536.372	757.21
536.826	747.01
537.279	736.21
537.733	741.81
538.187	745.61
538.64	737.21
539.094	746.81
539.548	761.41
540.001	744.81
540.455	753.31
540.908	755.71
541.362	766.51
541.815	779.41
542.269	784.51
542.722	783.61
543.175	803.51
543.629	809.51
544.082	818.91
544.536	818.71
544.989	810.81
545.442	826.01
545.895	821.71
546.349	832.71
546.802	827.31
547.255	827.71
547.708	841.01
548.161	845.31
548.614	843.51
549.067	859.51
549.52	851.61
549.973	849.51
550.426	840.51
550.879	830.71
551.332	831.71
551.785	844.81
552.238	840.81
552.691	864.91
553.144	875.01
553.596	889.11
554.049	898.51
554.502	928.71
554.955	947.81
555.407	940.51
555.86	946.71
556.313	929.61
556.765	937.01
557.218	926.81
557.67	924.51
558.123	914.11
558.576	917.21
559.028	916.21
559.48	933.91
559.933	906.01
560.385	886.21
560.838	857.01
561.29	817.31
561.742	821.71
562.195	797.11
562.647	798.51
563.099	813.61
563.551	810.81
564.004	823.91
564.456	807.01
564.908	792.51
565.36	778.51
565.812	759.91
566.264	748.11
566.716	752.11
567.168	733.31
567.62	742.91
568.072	735.61
568.524	730.41
568.976	718.21
569.428	706.51
569.88	716.61
570.332	710.01
570.784	720.61
571.235	719.91
571.687	732.51
572.139	736.01
572.59	743.71
573.042	745.01
573.494	743.31
573.945	741.41
574.397	715.01
574.849	720.51
575.3	724.81
575.752	722.21
576.203	709.11
576.655	710.31
577.106	708.91
577.557	695.61
578.009	700.21
578.46	702.51
578.912	692.01
579.363	692.41
579.814	693.91
580.265	692.61
580.717	696.41
581.168	706.31
581.619	710.01
582.07	708.81
582.521	705.01
582.972	693.91
583.423	696.41
583.875	695.61
584.326	704.21
584.777	721.11
585.227	753.21
585.678	772.11
586.129	792.71
586.58	812.61
587.031	839.91
587.482	878.81
587.933	930.11
588.384	892.61
588.834	826.11
589.285	810.11
589.736	811.61
590.186	793.41
590.637	787.71
591.088	776.21
591.538	765.01
591.989	758.31
592.439	753.81
592.89	741.41
593.34	728.41
593.791	727.11
594.241	716.21
594.692	724.11
595.142	719.71
595.593	716.41
596.043	726.21
596.493	719.81
596.943	729.51
597.394	745.61
597.844	747.41
598.294	760.41
598.744	778.41
599.195	809.51
599.645	844.11
600.095	887.51
600.545	950.71
600.995	1001.11
601.445	1059.81
601.895	1139.41
602.345	1193.21
602.795	1154.81
603.245	1117.01
603.695	1049.51
604.145	999.61
604.594	948.51
605.044	897.91
605.494	834.91
605.944	780.91
606.393	776.01
606.843	745.51
607.293	756.01
607.743	755.41
608.192	766.31
608.642	772.61
609.091	780.51
609.541	777.81
609.99	778.21
610.44	785.71
610.889	743.81
611.339	726.01
611.788	707.31
612.238	712.01
612.687	726.61
613.136	722.71
613.586	739.01
614.035	721.41
614.484	744.21
614.933	735.51
615.383	732.31
615.832	740.61
616.281	729.01
616.73	696.91
617.179	680.11
617.628	665.51
618.077	651.41
618.526	635.51
618.975	640.21
619.424	626.61
619.873	633.81
620.322	645.31
620.771	622.71
621.22	622.61
621.669	611.61
622.118	611.21
622.567	601.91
623.015	584.71
623.464	588.51
623.913	574.91
624.361	572.01
624.81	569.21
625.259	576.61
625.707	570.61
626.156	574.71
626.604	586.31
627.053	585.61
627.501	582.51
627.95	576.11
628.398	596.41
628.847	583.61
629.295	589.31
629.744	589.91
630.192	580.41
630.64	570.01
631.089	561.61
631.537	558.11
631.985	547.41
632.433	547.41
632.881	543.91
633.33	556.71
633.778	554.71
634.226	538.91
634.674	555.61
635.122	554.61
635.57	566.51
636.018	575.51
636.466	569.21
636.914	567.51
637.362	582.81
637.81	592.61
638.258	598.61
638.705	600.81
639.153	632.11
639.601	644.51
640.049	665.51
640.497	698.51
640.944	720.91
641.392	660.31
641.84	629.31
642.287	599.11
642.735	580.61
643.182	589.91
643.63	578.01
644.078	572.61
644.525	588.91
644.973	596.41
645.42	603.41
645.867	622.71
646.315	662.41
646.762	669.11
647.21	694.81
647.657	726.11
648.104	755.71
648.551	774.11
648.999	826.71
649.446	906.01
649.893	983.81
650.34	1135.11
650.787	1334.91
651.234	1645.31
651.682	2111.11
652.129	2871.41
652.576	4087.21
653.023	5919.21
653.47	8066.81
653.917	10081.61
654.363	11573.61
654.81	12801.31
655.257	12155.11
655.704	8029.21
656.151	4824.01
656.598	3174.21
657.044	2277.81
657.491	1782.01
657.938	1426.61
658.385	1197.31
658.831	1041.81
659.278	943.61
659.724	837.11
660.171	775.61
660.618	725.91
661.064	687.81
661.511	667.71
661.957	656.61
662.404	653.51
662.85	646.71
663.296	627.91
663.743	571.71
664.189	547.01
664.635	549.61
665.082	531.91
665.528	536.91
665.974	525.81
666.42	521.71
666.867	510.91
667.313	494.51
667.759	464.51
668.205	460.91
668.651	464.31
669.097	459.81
669.543	459.31
669.989	451.01
670.435	451.91
670.881	460.31
671.327	467.21
671.773	481.21
672.219	506.91
672.665	570.41
673.11	602.41
673.556	643.51
674.002	692.61
674.448	674.21
674.893	567.91
675.339	496.41
675.785	449.41
676.23	433.31
676.676	407.81
677.122	397.91
677.567	388.41
678.013	382.41
678.458	380.31
678.904	378.21
679.349	362.21
679.794	365.11
680.24	363.01
680.685	355.31
681.131	359.11
681.576	357.51
682.021	363.61
682.466	359.11
682.912	351.91
683.357	367.51
683.802	394.11
684.247	422.81
684.692	471.21
685.137	508.71
685.583	556.71
686.028	576.31
686.473	537.81
686.918	458.51
687.363	429.41
687.807	405.41
688.252	380.81
688.697	368.71
689.142	343.11
689.587	348.61
690.032	333.31
690.477	364.51
690.921	362.31
691.366	394.21
691.811	414.91
692.255	447.41
692.7	479.11
693.145	529.11
693.589	735.31
694.034	1192.71
694.478	1601.71
694.923	1799.01
695.367	2356.21
695.812	1237.21
696.256	515.11
696.701	384.21
697.145	358.11
697.59	332.71
698.034	330.01
698.478	337.21
698.922	330.51
699.367	330.51
699.811	346.71
700.255	350.81
700.699	395.11
701.143	432.11
701.588	488.81
702.032	533.71
702.476	531.51
702.92	504.71
703.364	516.11
703.808	658.51
704.252	1079.81
704.696	1525.01
705.14	1746.91
705.584	2213.61
706.027	1104.11
706.471	540.61
706.915	399.81
707.359	364.11
707.803	327.61
708.246	317.71
708.69	322.81
709.134	322.81
709.577	317.61
710.021	326.71
710.465	319.11
710.908	301.41
711.352	306.11
711.795	322.41
712.239	369.21
712.682	395.21
713.126	430.91
713.569	465.11
714.012	364.31
714.456	311.01
714.899	298.21
715.342	284.71
715.786	265.81
716.229	261.41
716.672	258.61
717.115	254.31
717.558	258.71
718.002	262.91
718.445	270.11
718.888	292.91
719.331	302.81
719.774	315.41
720.217	317.01
720.66	288.41
721.103	277.61
721.546	261.21
721.989	257.81
722.432	234.81
722.874	241.41
723.317	233.51
723.76	238.71
724.203	266.31
724.645	331.11
725.088	458.71
725.531	588.01
725.974	666.01
726.416	568.91
726.859	322.81
727.301	254.51
727.744	244.71
728.187	237.21
728.629	248.21
729.071	255.11
729.514	265.11
729.956	284.81
730.399	293.51
730.841	295.91
731.283	282.91
731.726	271.21
732.168	262.91
732.61	270.81
733.053	294.71
733.495	313.71
733.937	365.61
734.379	414.51
734.821	457.41
735.263	566.51
735.705	875.11
736.148	1640.41
736.59	2699.01
737.032	3197.51
737.474	2601.61
737.916	857.21
738.357	450.21
738.799	338.61
739.241	306.71
739.683	294.61
740.125	308.41
740.567	311.01
741.008	322.91
741.45	329.81
741.892	329.11
742.334	356.11
742.775	375.21
743.217	356.21
743.658	280.91
744.1	263.11
744.542	273.71
744.983	324.71
745.425	355.21
745.866	366.11
746.307	285.01
746.749	280.21
747.19	331.71
747.632	473.71
748.073	921.61
748.514	1943.01
748.956	2973.21
749.397	3742.51
749.838	3090.31
750.279	3088.11
750.72	1558.51
751.162	568.81
751.603	339.71
752.044	257.51
752.485	219.71
752.926	217.91
753.367	206.01
753.808	199.91
754.249	189.51
754.69	189.01
755.131	188.41
755.572	185.81
756.013	185.11
756.453	183.81
756.894	200.51
757.335	192.11
757.776	204.21
758.216	199.61
758.657	200.61
759.098	204.51
759.538	228.31
759.979	277.71
760.42	390.51
760.86	739.91
761.301	1923.81
761.741	4657.71
762.182	6718.91
762.622	4747.01
763.063	1373.11
