Data from 20171114-ORNL-Ar_H_NY_Subt18_08-07-58-459.txt Node
Date: Tue Nov 14 08:07:58 EST 2017
User: Ender
Spectrometer: HR+D1039
Trigger mode: 0
Integration Time (sec): 2.730000E-2
Scans to average: 10
Electric dark correction enabled: true
Nonlinearity correction enabled: false
Boxcar width: 0
XAxis mode: Wavelengths
Number of Pixels in Spectrum: 2048
>>>>>Begin Spectral Data<<<<<
187.836	-7.15
188.309	-7.15
188.782	-7.15
189.255	0.35
189.728	-1.05
190.201	3.35
190.674	1.45
191.147	4.45
191.619	-6.55
192.092	-2.65
192.565	0.35
193.038	-0.75
193.511	2.65
193.984	4.05
194.456	-2.25
194.929	0.45
195.402	-2.45
195.874	5.75
196.347	-3.45
196.82	-9.15
197.292	4.85
197.765	-0.15
198.237	-10.25
198.71	-0.65
199.182	-1.75
199.655	-0.55
200.127	1.95
200.6	-4.25
201.072	-1.05
201.544	-3.45
202.017	-3.95
202.489	0.25
202.961	-5.15
203.433	-1.95
203.906	-11.15
204.378	-6.35
204.85	-8.25
205.322	-6.25
205.794	-3.65
206.266	-9.35
206.739	-6.95
207.211	4.25
207.683	-6.55
208.155	-9.35
208.627	-3.15
209.099	-2.85
209.57	-8.95
210.042	-6.75
210.514	-2.25
210.986	0.65
211.458	-9.05
211.93	0.55
212.402	3.55
212.873	-6.65
213.345	-8.95
213.817	-10.75
214.288	-6.85
214.76	-10.65
215.232	-3.15
215.703	-5.55
216.175	-3.65
216.646	-5.45
217.118	-0.35
217.589	-5.25
218.061	2.35
218.532	-8.05
219.004	-12.15
219.475	-1.35
219.946	-2.25
220.418	-6.95
220.889	-0.35
221.36	-4.15
221.832	-3.65
222.303	-8.55
222.774	-1.45
223.245	-7.05
223.717	-6.65
224.188	-2.45
224.659	-9.05
225.13	1.15
225.601	-1.85
226.072	-0.65
226.543	3.45
227.014	-1.45
227.485	-6.65
227.956	-10.85
228.427	-3.25
228.898	-3.55
229.369	-0.25
229.839	-5.15
230.31	-8.75
230.781	5.95
231.252	-3.45
231.722	0.15
232.193	-5.15
232.664	-0.05
233.135	0.65
233.605	-5.35
234.076	-4.35
234.546	-0.45
235.017	5.15
235.487	2.15
235.958	-2.15
236.428	-6.55
236.899	0.55
237.369	-1.05
237.84	-8.95
238.31	3.45
238.78	3.85
239.251	4.65
239.721	-2.15
240.191	1.75
240.662	-2.25
241.132	0.85
241.602	0.85
242.072	1.55
242.542	5.95
243.013	-2.35
243.483	7.15
243.953	0.15
244.423	-0.15
244.893	-2.25
245.363	-2.45
245.833	-1.45
246.303	0.85
246.773	10.05
247.243	-0.25
247.712	1.55
248.182	1.95
248.652	6.35
249.122	-9.75
249.592	11.55
250.061	19.65
250.531	27.65
251.001	7.05
251.471	13.35
251.94	17.55
252.41	5.95
252.879	-0.65
253.349	7.25
253.818	11.65
254.288	2.95
254.757	7.15
255.227	8.35
255.696	-1.15
256.166	8.25
256.635	0.45
257.105	11.55
257.574	3.15
258.043	7.95
258.513	4.35
258.982	12.85
259.451	9.05
259.92	14.95
260.389	11.15
260.859	18.15
261.328	9.85
261.797	15.45
262.266	7.05
262.735	13.65
263.204	8.15
263.673	2.05
264.142	1.85
264.611	-3.45
265.08	-8.55
265.549	-1.85
266.018	1.05
266.487	1.25
266.955	-2.45
267.424	4.05
267.893	4.55
268.362	-0.95
268.83	4.05
269.299	11.25
269.768	8.25
270.236	6.55
270.705	2.35
271.174	3.05
271.642	7.05
272.111	7.15
272.579	12.05
273.048	15.25
273.516	18.85
273.985	23.65
274.453	22.55
274.922	16.65
275.39	8.75
275.858	7.05
276.327	5.95
276.795	18.35
277.263	12.55
277.731	25.35
278.2	49.55
278.668	48.95
279.136	40.45
279.604	15.95
280.072	11.65
280.54	11.45
281.008	10.55
281.477	13.35
281.945	11.75
282.413	11.05
282.881	16.45
283.348	8.35
283.816	9.35
284.284	13.05
284.752	15.55
285.22	7.25
285.688	14.25
286.156	19.15
286.623	42.05
287.091	51.25
287.559	21.85
288.026	14.15
288.494	13.95
288.962	10.15
289.429	10.45
289.897	12.75
290.364	13.95
290.832	13.45
291.3	13.65
291.767	15.35
292.234	17.75
292.702	11.75
293.169	13.25
293.637	21.65
294.104	16.85
294.571	8.45
295.039	10.55
295.506	9.35
295.973	13.85
296.44	12.95
296.908	13.15
297.375	13.25
297.842	20.45
298.309	14.95
298.776	3.25
299.243	18.55
299.71	11.55
300.177	24.85
300.644	24.35
301.111	23.25
301.578	18.55
302.045	16.45
302.512	19.05
302.979	27.95
303.446	21.05
303.913	18.25
304.379	17.25
304.846	25.05
305.313	23.25
305.78	18.85
306.246	18.25
306.713	25.85
307.18	24.15
307.646	25.95
308.113	25.75
308.579	24.05
309.046	25.25
309.512	26.35
309.979	17.85
310.445	25.55
310.912	26.55
311.378	26.25
311.845	26.45
312.311	30.85
312.777	29.85
313.244	30.95
313.71	30.55
314.176	25.85
314.642	24.95
315.109	29.55
315.575	30.65
316.041	37.25
316.507	31.35
316.973	38.35
317.439	32.55
317.905	39.65
318.371	36.95
318.837	31.35
319.303	33.15
319.769	30.95
320.235	31.35
320.701	33.85
321.167	39.05
321.633	31.85
322.099	32.65
322.564	41.05
323.03	34.45
323.496	33.35
323.962	35.55
324.427	33.15
324.893	35.85
325.359	40.65
325.824	36.05
326.29	33.45
326.755	40.15
327.221	39.95
327.686	34.75
328.152	47.85
328.617	40.25
329.083	45.15
329.548	45.95
330.014	45.05
330.479	35.55
330.944	36.65
331.41	41.75
331.875	37.15
332.34	41.65
332.805	42.05
333.271	41.65
333.736	37.35
334.201	44.65
334.666	50.35
335.131	52.15
335.596	49.35
336.061	48.25
336.526	37.35
336.991	48.45
337.456	50.15
337.921	43.15
338.386	39.45
338.851	48.85
339.316	42.35
339.781	50.15
340.246	45.05
340.711	48.15
341.175	47.75
341.64	42.75
342.105	48.95
342.569	55.85
343.034	54.05
343.499	49.95
343.963	47.95
344.428	60.15
344.893	55.65
345.357	55.65
345.822	59.15
346.286	61.45
346.751	67.55
347.215	70.15
347.679	69.55
348.144	93.35
348.608	81.05
349.073	66.35
349.537	71.85
350.001	77.75
350.465	87.65
350.93	74.95
351.394	75.05
351.858	68.75
352.322	82.25
352.786	84.15
353.25	97.75
353.715	106.25
354.179	93.95
354.643	113.05
355.107	122.85
355.571	109.25
356.035	97.55
356.498	112.35
356.962	118.15
357.426	126.65
357.89	118.35
358.354	86.55
358.818	80.65
359.281	75.25
359.745	72.25
360.209	73.85
360.673	73.95
361.136	74.65
361.6	79.45
362.064	73.65
362.527	79.05
362.991	90.95
363.454	70.75
363.918	73.15
364.381	75.85
364.845	76.95
365.308	87.85
365.772	84.65
366.235	86.05
366.698	78.45
367.162	87.75
367.625	79.45
368.088	87.65
368.552	90.55
369.015	89.65
369.478	99.65
369.941	95.35
370.404	87.95
370.867	102.65
371.331	103.15
371.794	115.55
372.257	111.75
372.72	115.45
373.183	111.45
373.646	104.25
374.109	99.25
374.572	102.55
375.035	100.25
375.497	99.35
375.96	105.95
376.423	102.75
376.886	110.25
377.349	109.75
377.811	99.85
378.274	100.85
378.737	104.95
379.199	111.65
379.662	115.15
380.125	114.05
380.587	118.45
381.05	122.35
381.512	124.15
381.975	130.95
382.437	121.25
382.9	125.75
383.362	125.55
383.825	141.45
384.287	145.15
384.75	137.15
385.212	131.65
385.674	146.05
386.136	132.25
386.599	129.35
387.061	125.05
387.523	122.95
387.985	132.65
388.447	145.65
388.91	142.25
389.372	160.15
389.834	149.35
390.296	147.65
390.758	154.35
391.22	173.15
391.682	215.15
392.144	299.05
392.606	237.65
393.068	170.05
393.529	167.45
393.991	151.55
394.453	142.85
394.915	153.05
395.377	189.35
395.838	217.65
396.3	151.05
396.762	136.65
397.224	129.45
397.685	136.15
398.147	133.55
398.608	129.15
399.07	125.75
399.531	135.35
399.993	140.65
400.454	152.35
400.916	145.05
401.377	144.75
401.839	146.35
402.3	149.65
402.762	165.35
403.223	178.65
403.684	169.85
404.145	163.15
404.607	163.75
405.068	167.55
405.529	162.15
405.99	189.25
406.451	169.75
406.913	169.35
407.374	162.25
407.835	147.05
408.296	160.65
408.757	167.85
409.218	186.75
409.679	176.35
410.14	179.95
410.601	179.15
411.062	180.35
411.522	187.45
411.983	194.35
412.444	176.85
412.905	181.75
413.366	181.15
413.826	184.85
414.287	214.25
414.748	256.95
415.208	240.55
415.669	214.55
416.13	199.25
416.59	201.55
417.051	214.05
417.511	218.15
417.972	235.95
418.432	239.55
418.893	276.65
419.353	243.15
419.814	193.75
420.274	182.35
420.734	183.05
421.195	197.05
421.655	202.85
422.115	191.65
422.576	193.75
423.036	193.35
423.496	209.75
423.956	214.95
424.416	227.95
424.876	265.05
425.336	253.35
425.797	258.15
426.257	261.15
426.717	241.15
427.177	225.35
427.637	220.75
428.097	231.75
428.556	247.35
429.016	267.35
429.476	268.55
429.936	276.55
430.396	274.85
430.856	293.35
431.315	325.15
431.775	347.85
432.235	384.55
432.694	354.35
433.154	365.95
433.614	388.35
434.073	335.55
434.533	287.05
434.993	274.55
435.452	286.85
435.912	298.05
436.371	285.75
436.83	275.35
437.29	264.35
437.749	246.15
438.209	244.85
438.668	273.65
439.127	285.55
439.587	261.05
440.046	246.55
440.505	261.25
440.964	281.25
441.424	318.25
441.883	317.65
442.342	264.45
442.801	218.25
443.26	217.35
443.719	213.75
444.178	217.75
444.637	211.85
445.096	209.25
445.555	225.65
446.014	227.55
446.473	225.95
446.932	226.75
447.391	224.15
447.849	228.25
448.308	218.55
448.767	219.75
449.226	233.45
449.685	235.95
450.143	243.55
450.602	232.95
451.061	221.95
451.519	228.95
451.978	227.05
452.436	229.95
452.895	238.35
453.353	246.85
453.812	235.15
454.27	232.35
454.729	243.95
455.187	236.05
455.646	245.35
456.104	246.55
456.562	261.25
457.021	265.35
457.479	260.65
457.937	273.55
458.395	264.05
458.854	244.25
459.312	250.05
459.77	268.15
460.228	250.25
460.686	236.75
461.144	245.45
461.602	241.65
462.06	236.65
462.518	245.45
462.976	255.35
463.434	256.45
463.892	262.85
464.35	273.65
464.808	286.95
465.266	269.05
465.724	267.65
466.181	273.05
466.639	263.25
467.097	285.55
467.555	294.55
468.012	302.95
468.47	307.75
468.928	322.85
469.385	331.05
469.843	342.55
470.3	351.65
470.758	359.55
471.215	379.65
471.673	410.85
472.13	407.75
472.588	412.75
473.045	368.45
473.503	383.15
473.96	385.05
474.417	398.85
474.875	418.25
475.332	469.45
475.789	448.45
476.246	471.95
476.704	481.75
477.161	505.65
477.618	515.25
478.075	558.15
478.532	611.65
478.989	683.25
479.446	794.75
479.903	761.35
480.36	802.85
480.817	859.55
481.274	962.45
481.731	1060.65
482.188	1139.35
482.645	1271.35
483.102	1384.65
483.558	1525.75
484.015	1577.65
484.472	1558.45
484.929	1497.85
485.385	1450.35
485.842	1414.95
486.299	1327.45
486.755	1285.45
487.212	1083.05
487.668	916.65
488.125	847.15
488.582	765.35
489.038	734.65
489.494	703.15
489.951	676.25
490.407	660.65
490.864	635.75
491.32	632.35
491.776	640.45
492.233	643.75
492.689	597.35
493.145	596.75
493.602	602.75
494.058	601.05
494.514	606.75
494.97	636.05
495.426	637.45
495.882	613.55
496.338	607.65
496.794	618.35
497.251	600.65
497.707	625.75
498.163	627.45
498.618	623.65
499.074	627.75
499.53	660.95
499.986	666.55
500.442	649.55
500.898	620.85
501.354	615.45
501.809	633.25
502.265	646.75
502.721	657.15
503.177	670.25
503.632	655.85
504.088	663.45
504.543	697.65
504.999	697.45
505.455	647.15
505.91	612.65
506.366	620.85
506.821	617.65
507.277	613.75
507.732	617.95
508.187	616.95
508.643	621.55
509.098	618.65
509.553	639.45
510.009	648.75
510.464	652.75
510.919	679.45
511.375	682.45
511.83	688.85
512.285	705.95
512.74	740.55
513.195	763.25
513.65	757.35
514.105	744.25
514.56	750.45
515.015	772.35
515.47	793.45
515.925	766.35
516.38	775.25
516.835	782.05
517.29	766.25
517.745	754.85
518.2	759.55
518.655	732.15
519.109	716.55
519.564	720.35
520.019	711.25
520.474	704.85
520.928	715.45
521.383	707.15
521.838	689.15
522.292	700.25
522.747	696.85
523.201	692.95
523.656	686.85
524.11	681.55
524.565	685.65
525.019	676.15
525.474	691.35
525.928	686.35
526.382	682.65
526.837	678.25
527.291	679.65
527.745	687.25
528.2	682.15
528.654	679.85
529.108	670.05
529.562	676.45
530.016	681.45
530.47	676.95
530.925	679.15
531.379	682.15
531.833	696.55
532.287	687.45
532.741	686.25
533.195	681.85
533.649	694.75
534.103	703.05
534.556	697.95
535.01	695.85
535.464	681.25
535.918	698.45
536.372	699.25
536.826	707.75
537.279	688.45
537.733	696.55
538.187	703.85
538.64	700.85
539.094	705.95
539.548	715.65
540.001	707.35
540.455	716.15
540.908	729.45
541.362	724.35
541.815	738.15
542.269	743.55
542.722	745.65
543.175	761.75
543.629	756.65
544.082	774.05
544.536	774.25
544.989	774.55
545.442	773.95
545.895	776.15
546.349	773.15
546.802	776.15
547.255	774.05
547.708	794.65
548.161	799.35
548.614	797.15
549.067	812.05
549.52	802.35
549.973	797.75
550.426	789.55
550.879	780.05
551.332	777.85
551.785	782.75
552.238	786.05
552.691	810.35
553.144	811.65
553.596	828.65
554.049	842.75
554.502	871.45
554.955	892.25
555.407	899.85
555.86	873.45
556.313	875.55
556.765	863.75
557.218	861.55
557.67	872.55
558.123	854.25
558.576	861.65
559.028	854.65
559.48	857.85
559.933	853.35
560.385	814.55
560.838	792.85
561.29	763.65
561.742	775.15
562.195	751.55
562.647	750.05
563.099	763.15
563.551	763.25
564.004	772.25
564.456	760.35
564.908	743.05
565.36	734.05
565.812	720.35
566.264	715.45
566.716	714.65
567.168	695.65
567.62	712.35
568.072	690.85
568.524	685.45
568.976	676.95
569.428	664.55
569.88	660.65
570.332	673.05
570.784	676.95
571.235	670.85
571.687	670.75
572.139	680.95
572.59	697.85
573.042	693.45
573.494	697.75
573.945	690.55
574.397	670.25
574.849	668.95
575.3	678.75
575.752	671.15
576.203	664.85
576.655	669.75
577.106	657.75
577.557	667.95
578.009	662.85
578.46	661.65
578.912	653.15
579.363	659.75
579.814	651.35
580.265	657.95
580.717	653.15
581.168	659.05
581.619	661.65
582.07	668.75
582.521	667.15
582.972	661.45
583.423	661.35
583.875	670.15
584.326	688.25
584.777	737.05
585.227	811.85
585.678	908.05
586.129	1001.55
586.58	1082.65
587.031	1153.65
587.482	1292.05
587.933	1487.65
588.384	1294.25
588.834	973.05
589.285	799.35
589.736	780.05
590.186	770.85
590.637	748.65
591.088	729.95
591.538	729.95
591.989	714.65
592.439	719.35
592.89	713.05
593.34	707.85
593.791	699.75
594.241	694.25
594.692	706.45
595.142	685.65
595.593	692.65
596.043	696.45
596.493	708.95
596.943	709.95
597.394	717.65
597.844	698.45
598.294	714.95
598.744	742.65
599.195	764.35
599.645	808.05
600.095	844.45
600.545	908.35
600.995	957.55
601.445	1010.75
601.895	1073.25
602.345	1119.25
602.795	1099.15
603.245	1048.85
603.695	996.95
604.145	948.35
604.594	894.35
605.044	838.75
605.494	774.75
605.944	732.25
606.393	730.95
606.843	716.65
607.293	724.95
607.743	723.75
608.192	741.05
608.642	752.25
609.091	760.45
609.541	768.85
609.99	765.05
610.44	766.35
610.889	721.45
611.339	698.65
611.788	673.65
612.238	690.85
612.687	718.05
613.136	711.75
613.586	735.55
614.035	725.45
614.484	754.05
614.933	754.65
615.383	744.15
615.832	733.95
616.281	723.05
616.73	671.15
617.179	653.15
617.628	638.25
618.077	629.35
618.526	611.15
618.975	612.25
619.424	606.45
619.873	605.85
620.322	611.45
620.771	596.45
621.22	593.25
621.669	594.65
622.118	579.95
622.567	577.05
623.015	571.05
623.464	563.85
623.913	550.75
624.361	545.85
624.81	558.95
625.259	548.85
625.707	549.25
626.156	549.75
626.604	563.25
627.053	557.55
627.501	552.75
627.95	559.45
628.398	568.65
628.847	560.05
629.295	573.45
629.744	570.05
630.192	557.45
630.64	568.15
631.089	569.15
631.537	581.85
631.985	586.35
632.433	596.75
632.881	614.55
633.33	662.15
633.778	645.15
634.226	563.55
634.674	568.35
635.122	583.25
635.57	593.65
636.018	620.35
636.466	581.25
636.914	556.45
637.362	560.65
637.81	565.35
638.258	577.75
638.705	572.95
639.153	594.65
639.601	621.25
640.049	635.25
640.497	664.65
640.944	684.05
641.392	638.95
641.84	601.35
642.287	573.45
642.735	562.05
643.182	567.75
643.63	566.75
644.078	569.55
644.525	586.45
644.973	596.15
645.42	607.55
645.867	626.45
646.315	636.95
646.762	650.95
647.21	682.95
647.657	705.65
648.104	737.95
648.551	771.05
648.999	839.75
649.446	912.85
649.893	998.75
650.34	1155.55
650.787	1388.85
651.234	1734.55
651.682	2256.65
652.129	3103.45
652.576	4542.65
653.023	6675.75
653.47	9076.35
653.917	11280.85
654.363	12925.35
654.81	14227.05
655.257	13564.55
655.704	8878.45
656.151	5214.75
656.598	3371.55
657.044	2404.65
657.491	1846.25
657.938	1474.65
658.385	1235.45
658.831	1065.95
659.278	945.75
659.724	855.15
660.171	779.65
660.618	718.15
661.064	686.65
661.511	662.15
661.957	645.15
662.404	639.15
662.85	646.25
663.296	618.95
663.743	563.45
664.189	531.55
664.635	529.65
665.082	522.75
665.528	515.15
665.974	510.45
666.42	504.05
666.867	497.85
667.313	484.35
667.759	472.25
668.205	477.45
668.651	487.05
669.097	483.95
669.543	501.75
669.989	467.15
670.435	451.55
670.881	443.65
671.327	444.05
671.773	465.65
672.219	493.35
672.665	538.65
673.11	569.35
673.556	619.55
674.002	656.95
674.448	633.05
674.893	541.25
675.339	466.85
675.785	441.65
676.23	412.35
676.676	382.45
677.122	382.95
677.567	362.85
678.013	355.35
678.458	349.85
678.904	355.15
679.349	338.65
679.794	349.15
680.24	339.15
680.685	340.25
681.131	336.25
681.576	340.95
682.021	347.55
682.466	339.55
682.912	343.35
683.357	344.55
683.802	375.35
684.247	409.25
684.692	451.25
685.137	499.65
685.583	524.85
686.028	561.15
686.473	506.55
686.918	435.45
687.363	404.95
687.807	386.85
688.252	360.05
688.697	342.65
689.142	329.15
689.587	323.35
690.032	327.65
690.477	335.95
690.921	348.05
691.366	377.35
691.811	391.75
692.255	418.75
692.7	461.45
693.145	492.45
693.589	704.15
694.034	1136.35
694.478	1529.85
694.923	1699.65
695.367	2205.25
695.812	1163.75
696.256	494.95
696.701	368.15
697.145	342.95
697.59	318.55
698.034	314.75
698.478	327.25
698.922	329.65
699.367	316.45
699.811	331.95
700.255	353.35
700.699	388.45
701.143	418.05
701.588	471.45
702.032	508.15
702.476	500.55
702.92	484.15
703.364	491.65
703.808	633.95
704.252	1042.85
704.696	1445.45
705.14	1626.65
705.584	2076.65
706.027	1037.05
706.471	512.85
706.915	388.55
707.359	339.75
707.803	318.05
708.246	303.15
708.69	306.95
709.134	312.15
709.577	313.85
710.021	309.05
710.465	308.25
710.908	306.35
711.352	306.25
711.795	315.25
712.239	347.65
712.682	379.95
713.126	410.25
713.569	455.65
714.012	365.85
714.456	322.45
714.899	295.45
715.342	269.65
715.786	268.75
716.229	250.55
716.672	252.15
717.115	243.65
717.558	246.05
718.002	255.35
718.445	262.45
718.888	281.55
719.331	291.45
719.774	307.25
720.217	298.35
720.66	281.55
721.103	261.25
721.546	250.25
721.989	240.85
722.432	230.65
722.874	235.45
723.317	223.55
723.76	231.25
724.203	254.25
724.645	320.45
725.088	446.65
725.531	562.55
725.974	625.05
726.416	528.15
726.859	302.35
727.301	239.05
727.744	229.85
728.187	233.95
728.629	233.45
729.071	237.75
729.514	254.95
729.956	264.35
730.399	276.65
730.841	284.05
731.283	264.25
731.726	273.45
732.168	250.85
732.61	263.65
733.053	289.85
733.495	317.15
733.937	347.45
734.379	391.35
734.821	434.55
735.263	533.55
735.705	845.95
736.148	1594.95
736.59	2554.55
737.032	2985.25
737.474	2414.85
737.916	797.55
738.357	422.65
738.799	326.15
739.241	300.05
739.683	286.35
740.125	281.55
740.567	287.45
741.008	312.65
741.45	312.55
741.892	311.75
742.334	344.55
742.775	353.05
743.217	329.55
743.658	264.65
744.1	251.05
744.542	253.05
744.983	309.95
745.425	336.75
745.866	331.35
746.307	281.35
746.749	272.45
747.19	319.15
747.632	459.85
748.073	899.65
748.514	1870.25
748.956	2797.05
749.397	3518.05
749.838	2925.85
750.279	2880.75
750.72	1462.05
751.162	543.65
751.603	313.95
752.044	254.75
752.485	214.65
752.926	202.05
753.367	203.05
753.808	193.55
754.249	185.45
754.69	190.85
755.131	183.35
755.572	189.35
756.013	178.95
756.453	178.65
756.894	181.85
757.335	188.95
757.776	192.45
758.216	191.65
758.657	196.25
759.098	194.95
759.538	222.65
759.979	271.75
760.42	374.15
760.86	718.55
761.301	1866.55
761.741	4427.95
762.182	6226.75
