Data from 20171114-ORNL-Ar_H_NY_Subt18_08-07-05-775.txt Node
Date: Tue Nov 14 08:07:05 EST 2017
User: Ender
Spectrometer: HR+D1039
Trigger mode: 0
Integration Time (sec): 2.730000E-2
Scans to average: 10
Electric dark correction enabled: true
Nonlinearity correction enabled: false
Boxcar width: 0
XAxis mode: Wavelengths
Number of Pixels in Spectrum: 2048
>>>>>Begin Spectral Data<<<<<
187.836	2.04
188.309	2.04
188.782	2.04
189.255	1.84
189.728	-3.66
190.201	4.54
190.674	3.94
191.147	1.44
191.619	-9.16
192.092	-2.26
192.565	4.74
193.038	-2.06
193.511	3.74
193.984	-5.56
194.456	-0.76
194.929	4.14
195.402	1.74
195.874	-4.66
196.347	-0.16
196.82	-6.36
197.292	5.54
197.765	-4.46
198.237	-1.66
198.71	2.94
199.182	-2.56
199.655	3.74
200.127	3.84
200.6	0.44
201.072	-2.96
201.544	-5.46
202.017	2.54
202.489	6.34
202.961	0.24
203.433	-1.46
203.906	-11.66
204.378	-6.06
204.85	-4.76
205.322	-10.76
205.794	3.04
206.266	-6.56
206.739	-6.26
207.211	-1.66
207.683	-6.76
208.155	-2.16
208.627	-5.66
209.099	-5.96
209.57	-3.26
210.042	-7.36
210.514	-4.86
210.986	-5.56
211.458	-7.46
211.93	-3.76
212.402	-2.26
212.873	-0.76
213.345	-11.76
213.817	-12.36
214.288	-6.46
214.76	-7.86
215.232	2.24
215.703	-1.46
216.175	-0.26
216.646	-5.76
217.118	-5.66
217.589	1.24
218.061	-5.96
218.532	-7.16
219.004	-3.66
219.475	-3.06
219.946	-3.76
220.418	-11.86
220.889	4.74
221.36	-2.26
221.832	-3.46
222.303	-8.56
222.774	3.14
223.245	-3.36
223.717	-1.86
224.188	1.74
224.659	-0.96
225.13	-10.76
225.601	2.04
226.072	3.44
226.543	0.74
227.014	-1.86
227.485	0.44
227.956	-1.36
228.427	-2.86
228.898	-0.36
229.369	-0.46
229.839	-5.16
230.31	-5.36
230.781	0.94
231.252	-1.56
231.722	-2.66
232.193	-0.56
232.664	-5.36
233.135	-0.96
233.605	1.24
234.076	-0.46
234.546	1.04
235.017	2.34
235.487	0.64
235.958	-4.56
236.428	-6.36
236.899	-6.96
237.369	-3.36
237.84	-7.26
238.31	1.04
238.78	-5.06
239.251	-7.26
239.721	-6.86
240.191	-4.96
240.662	2.74
241.132	3.14
241.602	-6.66
242.072	0.74
242.542	5.64
243.013	-4.36
243.483	2.64
243.953	-2.66
244.423	2.74
244.893	-2.16
245.363	-0.56
245.833	4.24
246.303	-0.56
246.773	1.04
247.243	-2.36
247.712	-0.86
248.182	6.04
248.652	1.94
249.122	-7.76
249.592	-1.06
250.061	1.74
250.531	8.14
251.001	-4.26
251.471	6.64
251.94	6.24
252.41	-3.66
252.879	-0.76
253.349	6.74
253.818	5.54
254.288	3.54
254.757	3.34
255.227	-0.66
255.696	-3.36
256.166	2.84
256.635	4.24
257.105	3.84
257.574	-6.66
258.043	-2.56
258.513	-4.86
258.982	6.64
259.451	1.54
259.92	2.24
260.389	-7.26
260.859	8.34
261.328	4.84
261.797	1.14
262.266	-5.56
262.735	3.04
263.204	-3.76
263.673	-4.66
264.142	7.04
264.611	-9.16
265.08	-2.26
265.549	-2.46
266.018	-3.46
266.487	-3.36
266.955	-5.66
267.424	-5.86
267.893	10.54
268.362	0.34
268.83	2.54
269.299	10.84
269.768	2.24
270.236	1.54
270.705	-3.86
271.174	0.44
271.642	-2.56
272.111	2.24
272.579	-3.06
273.048	0.64
273.516	7.74
273.985	5.54
274.453	4.24
274.922	11.04
275.39	0.74
275.858	1.44
276.327	6.14
276.795	9.54
277.263	5.44
277.731	10.34
278.2	4.94
278.668	9.94
279.136	3.94
279.604	3.64
280.072	10.74
280.54	8.04
281.008	8.24
281.477	14.64
281.945	4.94
282.413	7.14
282.881	12.94
283.348	5.64
283.816	14.14
284.284	7.14
284.752	16.54
285.22	9.64
285.688	6.74
286.156	9.24
286.623	10.94
287.091	8.44
287.559	18.54
288.026	9.84
288.494	10.84
288.962	-3.26
289.429	5.34
289.897	15.34
290.364	12.24
290.832	17.54
291.3	10.84
291.767	19.64
292.234	14.14
292.702	4.94
293.169	6.14
293.637	12.34
294.104	9.84
294.571	0.44
295.039	1.44
295.506	9.54
295.973	14.74
296.44	10.24
296.908	13.84
297.375	7.84
297.842	15.64
298.309	17.94
298.776	8.54
299.243	12.94
299.71	6.34
300.177	12.64
300.644	19.84
301.111	13.64
301.578	18.04
302.045	8.14
302.512	23.94
302.979	25.34
303.446	16.74
303.913	8.44
304.379	15.74
304.846	21.64
305.313	18.84
305.78	18.94
306.246	14.84
306.713	19.34
307.18	22.34
307.646	18.84
308.113	19.64
308.579	13.64
309.046	19.64
309.512	20.84
309.979	13.74
310.445	23.64
310.912	23.04
311.378	27.74
311.845	18.34
312.311	22.54
312.777	26.94
313.244	32.34
313.71	30.04
314.176	18.84
314.642	18.64
315.109	26.74
315.575	30.54
316.041	36.24
316.507	20.64
316.973	29.74
317.439	29.44
317.905	31.54
318.371	32.34
318.837	24.94
319.303	26.64
319.769	27.84
320.235	31.84
320.701	28.04
321.167	32.74
321.633	22.84
322.099	28.74
322.564	36.44
323.03	27.64
323.496	34.84
323.962	30.94
324.427	30.24
324.893	35.74
325.359	34.24
325.824	28.54
326.29	32.24
326.755	35.74
327.221	38.84
327.686	36.84
328.152	37.04
328.617	38.14
329.083	40.44
329.548	41.74
330.014	39.84
330.479	30.74
330.944	36.34
331.41	42.64
331.875	38.34
332.34	40.04
332.805	42.04
333.271	37.64
333.736	34.34
334.201	47.64
334.666	44.64
335.131	50.94
335.596	48.54
336.061	42.94
336.526	37.04
336.991	47.34
337.456	48.34
337.921	43.94
338.386	35.64
338.851	37.54
339.316	41.54
339.781	44.34
340.246	47.04
340.711	45.64
341.175	49.04
341.64	39.44
342.105	49.44
342.569	49.94
343.034	54.74
343.499	45.64
343.963	43.54
344.428	55.14
344.893	55.24
345.357	49.54
345.822	55.24
346.286	60.84
346.751	61.94
347.215	55.24
347.679	63.94
348.144	79.84
348.608	76.24
349.073	60.94
349.537	61.54
350.001	69.94
350.465	82.34
350.93	66.44
351.394	71.94
351.858	61.64
352.322	84.44
352.786	76.74
353.25	84.44
353.715	87.84
354.179	81.34
354.643	110.34
355.107	106.64
355.571	88.04
356.035	83.94
356.498	95.34
356.962	97.74
357.426	106.44
357.89	94.14
358.354	78.14
358.818	77.94
359.281	71.94
359.745	66.24
360.209	67.84
360.673	68.84
361.136	68.14
361.6	79.94
362.064	78.04
362.527	76.94
362.991	76.94
363.454	72.14
363.918	71.54
364.381	71.34
364.845	76.14
365.308	76.64
365.772	78.64
366.235	83.44
366.698	69.04
367.162	79.64
367.625	73.64
368.088	80.64
368.552	86.64
369.015	82.24
369.478	87.04
369.941	90.54
370.404	90.24
370.867	94.84
371.331	96.24
371.794	96.44
372.257	92.44
372.72	104.54
373.183	104.64
373.646	88.74
374.109	88.74
374.572	91.04
375.035	95.94
375.497	101.84
375.96	96.74
376.423	98.94
376.886	111.04
377.349	107.14
377.811	99.24
378.274	102.34
378.737	102.14
379.199	100.44
379.662	109.14
380.125	106.94
380.587	103.64
381.05	101.34
381.512	110.34
381.975	121.24
382.437	113.84
382.9	111.24
383.362	118.24
383.825	122.94
384.287	122.44
384.75	119.04
385.212	113.44
385.674	124.04
386.136	122.74
386.599	111.74
387.061	114.54
387.523	113.74
387.985	118.34
388.447	125.24
388.91	122.34
389.372	119.34
389.834	127.54
390.296	120.74
390.758	122.14
391.22	132.94
391.682	144.14
392.144	149.54
392.606	137.84
393.068	133.44
393.529	147.94
393.991	140.04
394.453	129.54
394.915	127.84
395.377	125.04
395.838	135.24
396.3	130.34
396.762	138.94
397.224	135.24
397.685	127.64
398.147	126.64
398.608	125.84
399.07	140.44
399.531	133.84
399.993	144.14
400.454	145.24
400.916	142.14
401.377	138.94
401.839	147.34
402.3	147.64
402.762	165.24
403.223	174.04
403.684	162.74
404.145	161.54
404.607	155.94
405.068	161.44
405.529	161.94
405.99	178.74
406.451	173.44
406.913	170.84
407.374	165.94
407.835	162.04
408.296	165.94
408.757	169.54
409.218	183.84
409.679	176.74
410.14	171.74
410.601	182.94
411.062	184.14
411.522	177.44
411.983	178.04
412.444	177.94
412.905	185.44
413.366	189.44
413.826	204.14
414.287	225.04
414.748	274.24
415.208	256.74
415.669	218.74
416.13	211.84
416.59	208.44
417.051	224.74
417.511	228.04
417.972	251.54
418.432	257.14
418.893	298.54
419.353	258.74
419.814	215.14
420.274	193.74
420.734	190.94
421.195	202.54
421.655	199.84
422.115	198.04
422.576	198.54
423.036	205.24
423.496	218.04
423.956	231.54
424.416	237.34
424.876	277.94
425.336	267.84
425.797	265.64
426.257	257.04
426.717	239.14
427.177	238.34
427.637	226.94
428.097	238.94
428.556	248.24
429.016	271.44
429.476	260.94
429.936	264.74
430.396	284.64
430.856	284.14
431.315	308.64
431.775	339.54
432.235	383.14
432.694	348.24
433.154	358.54
433.614	381.64
434.073	336.14
434.533	289.14
434.993	278.04
435.452	279.24
435.912	291.14
436.371	286.04
436.83	281.64
437.29	269.44
437.749	253.64
438.209	247.64
438.668	272.14
439.127	289.54
439.587	275.54
440.046	249.74
440.505	265.94
440.964	283.04
441.424	322.64
441.883	308.44
442.342	260.84
442.801	241.84
443.26	238.94
443.719	241.64
444.178	230.44
444.637	224.94
445.096	241.74
445.555	232.14
446.014	245.94
446.473	239.04
446.932	250.24
447.391	235.14
447.849	238.14
448.308	230.04
448.767	237.14
449.226	246.74
449.685	259.64
450.143	264.34
450.602	250.24
451.061	244.44
451.519	244.14
451.978	249.54
452.436	245.14
452.895	251.14
453.353	260.04
453.812	250.24
454.27	251.34
454.729	248.94
455.187	252.24
455.646	263.44
456.104	266.04
456.562	270.74
457.021	287.14
457.479	271.94
457.937	284.24
458.395	276.94
458.854	262.84
459.312	272.64
459.77	290.14
460.228	275.74
460.686	264.54
461.144	269.94
461.602	258.84
462.06	260.94
462.518	270.04
462.976	279.84
463.434	274.94
463.892	275.14
464.35	290.74
464.808	302.94
465.266	286.74
465.724	289.44
466.181	294.44
466.639	293.24
467.097	313.44
467.555	324.64
468.012	324.24
468.47	325.64
468.928	355.24
469.385	363.84
469.843	363.44
470.3	368.24
470.758	383.44
471.215	408.94
471.673	428.64
472.13	432.34
472.588	437.94
473.045	384.24
473.503	400.34
473.96	417.24
474.417	431.04
474.875	460.04
475.332	500.24
475.789	486.64
476.246	488.14
476.704	518.24
477.161	528.84
477.618	545.04
478.075	579.64
478.532	642.14
478.989	708.04
479.446	813.44
479.903	779.04
480.36	817.14
480.817	848.74
481.274	971.74
481.731	1049.94
482.188	1125.64
482.645	1256.64
483.102	1336.94
483.558	1462.14
484.015	1506.14
484.472	1478.34
484.929	1436.74
485.385	1403.84
485.842	1361.64
486.299	1309.84
486.755	1280.54
487.212	1084.94
487.668	937.94
488.125	859.34
488.582	801.34
489.038	766.34
489.494	731.24
489.951	722.94
490.407	695.74
490.864	668.24
491.32	677.94
491.776	670.64
492.233	680.44
492.689	640.74
493.145	637.54
493.602	630.14
494.058	655.14
494.514	653.04
494.97	675.24
495.426	684.14
495.882	643.74
496.338	641.24
496.794	652.54
497.251	654.24
497.707	660.84
498.163	664.24
498.618	663.14
499.074	673.24
499.53	698.04
499.986	698.24
500.442	680.04
500.898	653.84
501.354	655.54
501.809	659.04
502.265	653.04
502.721	669.64
503.177	672.64
503.632	669.94
504.088	684.54
504.543	702.34
504.999	715.64
505.455	694.34
505.91	668.54
506.366	680.74
506.821	679.74
507.277	674.94
507.732	670.54
508.187	667.34
508.643	673.24
509.098	678.14
509.553	703.24
510.009	712.44
510.464	719.14
510.919	734.54
511.375	743.24
511.83	762.54
512.285	767.74
512.74	795.24
513.195	824.94
513.65	810.14
514.105	803.84
514.56	817.44
515.015	835.74
515.47	843.94
515.925	829.04
516.38	828.44
516.835	834.54
517.29	820.64
517.745	820.94
518.2	803.24
518.655	793.64
519.109	784.54
519.564	796.24
520.019	777.94
520.474	775.84
520.928	770.94
521.383	759.04
521.838	755.84
522.292	744.44
522.747	751.64
523.201	750.24
523.656	746.84
524.11	738.24
524.565	740.44
525.019	738.84
525.474	749.34
525.928	737.84
526.382	730.74
526.837	741.44
527.291	743.74
527.745	737.74
528.2	741.04
528.654	739.04
529.108	721.94
529.562	727.54
530.016	739.74
530.47	732.94
530.925	731.74
531.379	737.34
531.833	746.14
532.287	746.64
532.741	746.14
533.195	744.24
533.649	754.24
534.103	755.04
534.556	742.34
535.01	751.34
535.464	752.24
535.918	757.04
536.372	766.64
536.826	768.94
537.279	751.94
537.733	755.54
538.187	753.34
538.64	757.14
539.094	750.74
539.548	767.44
540.001	786.54
540.455	771.64
540.908	778.64
541.362	789.24
541.815	798.64
542.269	811.74
542.722	818.74
543.175	822.14
543.629	810.14
544.082	825.14
544.536	836.74
544.989	844.74
545.442	851.14
545.895	847.24
546.349	846.04
546.802	843.64
547.255	844.44
547.708	860.14
548.161	861.94
548.614	869.54
549.067	887.44
549.52	877.94
549.973	874.14
550.426	857.94
550.879	846.74
551.332	852.84
551.785	862.64
552.238	868.94
552.691	876.64
553.144	896.94
553.596	902.64
554.049	924.74
554.502	952.94
554.955	970.44
555.407	961.34
555.86	949.24
556.313	950.74
556.765	938.74
557.218	939.34
557.67	933.84
558.123	922.84
558.576	922.54
559.028	941.04
559.48	936.54
559.933	933.94
560.385	887.24
560.838	864.64
561.29	837.54
561.742	835.54
562.195	814.84
562.647	820.34
563.099	819.94
563.551	819.74
564.004	843.64
564.456	828.44
564.908	803.94
565.36	785.54
565.812	781.04
566.264	773.94
566.716	758.94
567.168	742.64
567.62	755.74
568.072	745.34
568.524	737.24
568.976	739.64
569.428	718.44
569.88	723.34
570.332	719.54
570.784	721.54
571.235	734.74
571.687	740.24
572.139	751.84
572.59	754.54
573.042	763.14
573.494	769.34
573.945	746.74
574.397	739.34
574.849	740.14
575.3	736.44
575.752	735.74
576.203	718.94
576.655	728.94
577.106	722.64
577.557	711.94
578.009	716.74
578.46	702.14
578.912	701.74
579.363	702.14
579.814	714.04
580.265	708.74
580.717	713.34
581.168	709.04
581.619	717.74
582.07	728.04
582.521	716.94
582.972	722.74
583.423	714.74
583.875	717.84
584.326	718.74
584.777	731.94
585.227	756.64
585.678	773.84
586.129	777.94
586.58	801.34
587.031	812.24
587.482	851.14
587.933	872.04
588.384	856.94
588.834	818.54
589.285	817.64
589.736	814.14
590.186	813.54
590.637	812.94
591.088	792.64
591.538	779.44
591.989	764.94
592.439	768.34
592.89	760.84
593.34	751.44
593.791	748.64
594.241	732.04
594.692	738.94
595.142	736.64
595.593	742.64
596.043	747.54
596.493	744.04
596.943	742.24
597.394	750.64
597.844	760.74
598.294	779.84
598.744	802.04
599.195	825.04
599.645	872.24
600.095	907.54
600.545	959.74
600.995	1023.04
601.445	1080.34
601.895	1151.84
602.345	1194.14
602.795	1173.94
603.245	1140.94
603.695	1074.04
604.145	1015.04
604.594	967.64
605.044	901.34
605.494	842.44
605.944	803.14
606.393	783.54
606.843	762.04
607.293	764.54
607.743	765.84
608.192	786.04
608.642	798.84
609.091	793.84
609.541	798.44
609.99	809.44
610.44	800.84
610.889	755.24
611.339	720.54
611.788	719.04
612.238	726.34
612.687	727.94
613.136	730.84
613.586	742.14
614.035	731.64
614.484	750.34
614.933	739.84
615.383	737.34
615.832	737.74
616.281	734.74
616.73	706.24
617.179	687.84
617.628	672.74
618.077	665.44
618.526	653.74
618.975	640.14
619.424	639.84
619.873	644.34
620.322	645.04
620.771	635.04
621.22	635.44
621.669	628.14
622.118	615.14
622.567	614.64
623.015	604.84
623.464	594.74
623.913	589.34
624.361	586.44
624.81	583.44
625.259	583.04
625.707	585.14
626.156	593.94
626.604	600.04
627.053	597.24
627.501	589.54
627.95	597.84
628.398	607.74
628.847	594.94
629.295	601.24
629.744	607.34
630.192	586.84
630.64	583.84
631.089	578.34
631.537	559.54
631.985	554.04
632.433	559.24
632.881	552.04
633.33	553.34
633.778	545.04
634.226	547.94
634.674	562.14
635.122	568.94
635.57	581.04
636.018	594.14
636.466	588.54
636.914	579.84
637.362	591.04
637.81	604.44
638.258	608.54
638.705	608.54
639.153	641.24
639.601	653.44
640.049	662.94
640.497	712.94
640.944	734.94
641.392	674.74
641.84	642.04
642.287	607.54
642.735	592.24
643.182	591.94
643.63	596.34
644.078	584.74
644.525	602.94
644.973	606.04
645.42	622.34
645.867	632.74
646.315	656.84
646.762	675.84
647.21	714.84
647.657	726.24
648.104	760.14
648.551	778.34
648.999	842.34
649.446	919.54
649.893	1016.34
650.34	1152.14
650.787	1370.04
651.234	1669.64
651.682	2144.84
652.129	2913.84
652.576	4105.74
653.023	6019.44
653.47	8133.74
653.917	10118.04
654.363	11681.14
654.81	12905.34
655.257	12176.24
655.704	8069.24
656.151	4881.74
656.598	3214.94
657.044	2299.84
657.491	1786.34
657.938	1429.84
658.385	1216.14
658.831	1056.14
659.278	956.54
659.724	859.14
660.171	793.74
660.618	739.44
661.064	703.34
661.511	678.74
661.957	662.94
662.404	652.44
662.85	675.64
663.296	637.44
663.743	592.74
664.189	555.44
664.635	552.64
665.082	541.54
665.528	548.64
665.974	542.14
666.42	529.24
666.867	527.94
667.313	507.74
667.759	482.24
668.205	474.04
668.651	478.94
669.097	468.74
669.543	463.94
669.989	467.14
670.435	465.54
670.881	458.74
671.327	469.74
671.773	487.74
672.219	513.24
672.665	581.24
673.11	606.94
673.556	661.84
674.002	698.84
674.448	691.14
674.893	582.04
675.339	495.84
675.785	458.84
676.23	439.34
676.676	415.74
677.122	408.34
677.567	384.04
678.013	387.54
678.458	375.74
678.904	376.34
679.349	356.04
679.794	364.94
680.24	365.34
680.685	365.14
681.131	364.94
681.576	372.64
682.021	376.74
682.466	367.84
682.912	360.44
683.357	373.84
683.802	407.14
684.247	429.34
684.692	481.44
685.137	518.64
685.583	568.44
686.028	583.74
686.473	546.44
686.918	467.94
687.363	435.54
687.807	417.54
688.252	384.54
688.697	370.54
689.142	356.24
689.587	357.34
690.032	343.04
690.477	359.64
690.921	374.14
691.366	401.84
691.811	424.24
692.255	455.94
692.7	478.14
693.145	524.04
693.589	738.74
694.034	1199.94
694.478	1640.74
694.923	1833.34
695.367	2403.34
695.812	1254.34
696.256	520.34
696.701	384.24
697.145	359.34
697.59	343.24
698.034	329.74
698.478	338.14
698.922	339.54
699.367	339.24
699.811	352.34
700.255	361.74
700.699	397.94
701.143	445.64
701.588	499.54
702.032	544.74
702.476	536.04
702.92	522.14
703.364	526.34
703.808	689.74
704.252	1096.84
704.696	1553.44
705.14	1772.64
705.584	2251.94
706.027	1123.14
706.471	542.54
706.915	419.94
707.359	370.24
707.803	342.54
708.246	336.64
708.69	328.34
709.134	331.44
709.577	318.84
710.021	331.34
710.465	323.14
710.908	317.14
711.352	318.04
711.795	324.64
712.239	374.74
712.682	406.94
713.126	426.74
713.569	476.94
714.012	373.64
714.456	317.14
714.899	310.64
715.342	286.24
715.786	274.44
716.229	266.94
716.672	270.04
717.115	255.44
717.558	263.34
718.002	270.84
718.445	285.64
718.888	298.64
719.331	304.74
719.774	324.84
720.217	314.74
720.66	294.04
721.103	283.84
721.546	267.84
721.989	266.44
722.432	238.44
722.874	245.64
723.317	245.74
723.76	243.84
724.203	274.64
724.645	335.64
725.088	462.04
725.531	592.24
725.974	674.34
726.416	575.14
726.859	329.24
727.301	259.44
727.744	246.04
728.187	244.64
728.629	252.64
729.071	259.04
729.514	269.64
729.956	285.44
730.399	297.74
730.841	298.84
731.283	289.64
731.726	288.24
732.168	273.44
732.61	292.84
733.053	304.04
733.495	334.84
733.937	370.34
734.379	419.94
734.821	467.94
735.263	578.54
735.705	893.94
736.148	1678.74
736.59	2758.64
737.032	3244.14
737.474	2632.74
737.916	859.24
738.357	457.14
738.799	348.84
739.241	314.44
739.683	299.44
740.125	312.24
740.567	308.84
741.008	326.64
741.45	341.64
741.892	338.74
742.334	379.64
742.775	388.04
743.217	368.74
743.658	290.04
744.1	270.24
744.542	277.14
744.983	333.74
745.425	370.14
745.866	364.94
746.307	294.44
746.749	292.94
747.19	343.84
747.632	486.54
748.073	939.64
748.514	1998.44
748.956	3053.14
749.397	3810.84
749.838	3163.94
750.279	3155.24
750.72	1603.44
751.162	584.74
751.603	345.44
752.044	264.14
752.485	235.14
752.926	230.84
753.367	218.14
753.808	204.04
754.249	198.34
754.69	198.34
755.131	195.24
755.572	184.34
756.013	190.84
756.453	202.04
756.894	198.74
757.335	201.64
757.776	201.74
758.216	205.24
758.657	213.34
759.098	214.54
759.538	241.74
759.979	285.04
760.42	405.44
760.86	760.04
761.301	1945.84
761.741	4730.94
762.182	6838.74
762.622	4831.04
763.063	1394.14
763.503	575.34
