Data from 20171114-ORNL-Ar_H_NY_Subt18_08-07-42-900.txt Node
Date: Tue Nov 14 08:07:42 EST 2017
User: Ender
Spectrometer: HR+D1039
Trigger mode: 0
Integration Time (sec): 2.730000E-2
Scans to average: 10
Electric dark correction enabled: true
Nonlinearity correction enabled: false
Boxcar width: 0
XAxis mode: Wavelengths
Number of Pixels in Spectrum: 2048
>>>>>Begin Spectral Data<<<<<
187.836	-4.78
188.309	-4.78
188.782	-4.78
189.255	-1.98
189.728	1.82
190.201	7.42
190.674	6.52
191.147	2.92
191.619	-7.88
192.092	2.12
192.565	2.02
193.038	-2.18
193.511	0.92
193.984	3.82
194.456	-4.08
194.929	-0.18
195.402	-2.68
195.874	-3.88
196.347	-2.58
196.82	-5.48
197.292	1.72
197.765	-6.98
198.237	-12.08
198.71	-1.88
199.182	-2.88
199.655	-3.18
200.127	-1.48
200.6	-5.38
201.072	-7.58
201.544	-3.38
202.017	-5.28
202.489	1.72
202.961	-4.18
203.433	3.62
203.906	-5.58
204.378	-6.88
204.85	-5.78
205.322	-9.68
205.794	-3.08
206.266	-1.18
206.739	-6.48
207.211	1.52
207.683	-9.77
208.155	-11.18
208.627	-3.68
209.099	-6.68
209.57	-7.58
210.042	-1.28
210.514	-1.27
210.986	0.52
211.458	-13.88
211.93	1.12
212.402	1.92
212.873	-4.78
213.345	-13.48
213.817	-7.48
214.288	-7.58
214.76	-13.28
215.232	-6.27
215.703	-0.48
216.175	1.92
216.646	-3.38
217.118	-1.98
217.589	-4.68
218.061	-3.68
218.532	-4.48
219.004	-5.78
219.475	-2.08
219.946	-3.58
220.418	-8.77
220.889	-3.48
221.36	0.42
221.832	-7.48
222.303	-8.98
222.774	-0.48
223.245	-10.68
223.717	-1.78
224.188	-8.68
224.659	-5.98
225.13	-8.48
225.601	-5.98
226.072	-2.98
226.543	3.62
227.014	-2.08
227.485	-3.18
227.956	-4.58
228.427	-1.08
228.898	1.02
229.369	2.22
229.839	-2.08
230.31	-9.18
230.781	-0.18
231.252	-1.08
231.722	-2.88
232.193	0.02
232.664	-4.48
233.135	5.62
233.605	0.52
234.076	2.72
234.546	-3.08
235.017	-3.38
235.487	1.02
235.958	-7.68
236.428	5.82
236.899	2.73
237.369	4.42
237.84	-3.08
238.31	10.22
238.78	3.73
239.251	1.73
239.721	-0.68
240.191	-1.38
240.662	0.52
241.132	0.42
241.602	-1.48
242.072	-3.18
242.542	8.02
243.013	1.02
243.483	0.02
243.953	2.92
244.423	-2.68
244.893	-4.08
245.363	1.32
245.833	5.72
246.303	-1.68
246.773	6.02
247.243	4.22
247.712	7.02
248.182	3.82
248.652	3.92
249.122	-2.68
249.592	0.92
250.061	16.52
250.531	30.12
251.001	17.12
251.471	17.52
251.94	16.62
252.41	10.92
252.879	3.12
253.349	13.92
253.818	6.02
254.288	13.52
254.757	2.82
255.227	3.62
255.696	5.62
256.166	4.02
256.635	6.32
257.105	9.02
257.574	3.02
258.043	3.73
258.513	7.22
258.982	12.12
259.451	8.12
259.92	7.12
260.389	6.72
260.859	15.42
261.328	5.73
261.797	11.82
262.266	9.52
262.735	12.92
263.204	3.02
263.673	5.12
264.142	2.23
264.611	-4.78
265.08	-0.98
265.549	0.62
266.018	7.32
266.487	-2.38
266.955	1.22
267.424	-2.58
267.893	7.12
268.362	2.32
268.83	5.32
269.299	13.23
269.768	12.42
270.236	7.62
270.705	-1.28
271.174	4.52
271.642	9.52
272.111	13.12
272.579	11.42
273.048	22.22
273.516	26.62
273.985	23.22
274.453	23.62
274.922	23.12
275.39	16.02
275.858	0.02
276.327	11.42
276.795	11.92
277.263	7.72
277.731	26.72
278.2	49.62
278.668	51.12
279.136	45.22
279.604	16.32
280.072	11.62
280.54	8.22
281.008	1.52
281.477	14.52
281.945	5.92
282.413	14.02
282.881	13.12
283.348	9.52
283.816	18.52
284.284	14.42
284.752	18.52
285.22	16.12
285.688	17.12
286.156	16.82
286.623	43.12
287.091	48.52
287.559	25.52
288.026	8.12
288.494	19.22
288.962	6.92
289.429	6.42
289.897	13.52
290.364	10.22
290.832	23.82
291.3	12.52
291.767	15.42
292.234	19.22
292.702	13.02
293.169	15.73
293.637	18.82
294.104	19.42
294.571	7.22
295.039	12.42
295.506	12.22
295.973	15.72
296.44	19.72
296.908	17.62
297.375	15.02
297.842	19.42
298.309	11.22
298.776	10.02
299.243	22.72
299.71	7.82
300.177	16.42
300.644	16.72
301.111	17.52
301.578	21.82
302.045	18.12
302.512	24.62
302.979	20.62
303.446	19.72
303.913	22.92
304.379	13.72
304.846	20.32
305.313	22.92
305.78	19.62
306.246	20.32
306.713	27.42
307.18	17.73
307.646	28.22
308.113	27.12
308.579	24.22
309.046	30.12
309.512	29.62
309.979	21.52
310.445	22.42
310.912	28.92
311.378	31.12
311.845	26.92
312.311	27.32
312.777	25.52
313.244	27.12
313.71	34.02
314.176	26.92
314.642	24.82
315.109	28.02
315.575	28.82
316.041	33.82
316.507	28.62
316.973	39.12
317.439	34.42
317.905	29.82
318.371	35.92
318.837	30.82
319.303	33.62
319.769	27.23
320.235	34.62
320.701	32.42
321.167	36.12
321.633	28.82
322.099	32.22
322.564	35.82
323.03	32.42
323.496	34.02
323.962	31.52
324.427	38.72
324.893	38.12
325.359	37.62
325.824	31.42
326.29	35.32
326.755	41.22
327.221	33.62
327.686	39.02
328.152	41.02
328.617	41.42
329.083	45.52
329.548	53.72
330.014	49.42
330.479	38.12
330.944	41.12
331.41	35.32
331.875	43.52
332.34	40.22
332.805	42.82
333.271	40.62
333.736	38.82
334.201	45.52
334.666	48.22
335.131	49.12
335.596	46.02
336.061	48.22
336.526	38.72
336.991	47.12
337.456	51.32
337.921	49.22
338.386	41.12
338.851	45.62
339.316	43.42
339.781	41.12
340.246	46.12
340.711	45.12
341.175	49.12
341.64	41.42
342.105	48.82
342.569	44.52
343.034	54.42
343.499	58.92
343.963	53.73
344.428	61.62
344.893	60.32
345.357	62.52
345.822	53.52
346.286	67.02
346.751	70.73
347.215	66.42
347.679	63.32
348.144	88.62
348.608	71.92
349.073	66.52
349.537	79.52
350.001	69.12
350.465	79.42
350.93	79.12
351.394	72.52
351.858	69.23
352.322	79.62
352.786	77.23
353.25	98.62
353.715	105.22
354.179	90.32
354.643	116.82
355.107	111.72
355.571	101.02
356.035	95.12
356.498	108.62
356.962	116.02
357.426	121.12
357.89	109.32
358.354	83.62
358.818	82.12
359.281	71.92
359.745	75.82
360.209	76.92
360.673	74.62
361.136	77.52
361.6	78.82
362.064	80.02
362.527	77.02
362.991	87.62
363.454	78.22
363.918	74.52
364.381	68.72
364.845	79.92
365.308	82.82
365.772	78.62
366.235	92.12
366.698	79.12
367.162	83.42
367.625	78.02
368.088	88.62
368.552	88.22
369.015	89.92
369.478	91.02
369.941	98.52
370.404	90.62
370.867	101.62
371.331	106.92
371.794	110.42
372.257	103.32
372.72	118.02
373.183	104.82
373.646	99.62
374.109	98.92
374.572	106.32
375.035	102.22
375.497	111.62
375.96	102.02
376.423	103.32
376.886	108.23
377.349	102.12
377.811	92.12
378.274	100.12
378.737	105.42
379.199	106.23
379.662	109.12
380.125	118.32
380.587	114.82
381.05	117.82
381.512	130.42
381.975	128.12
382.437	123.82
382.9	126.52
383.362	130.92
383.825	139.52
384.287	146.72
384.75	136.42
385.212	141.22
385.674	138.72
386.136	135.62
386.599	122.42
387.061	130.02
387.523	129.42
387.985	129.52
388.447	145.62
388.91	139.52
389.372	157.02
389.834	150.02
390.296	139.42
390.758	148.72
391.22	166.32
391.682	207.82
392.144	300.22
392.606	227.72
393.068	160.02
393.529	162.82
393.991	157.02
394.453	150.02
394.915	154.72
395.377	194.82
395.838	211.42
396.3	155.82
396.762	138.12
397.224	134.52
397.685	119.42
398.147	131.62
398.608	126.82
399.07	125.12
399.531	128.02
399.993	135.82
400.454	153.52
400.916	147.42
401.377	144.73
401.839	147.22
402.3	146.92
402.762	162.32
403.223	177.42
403.684	164.72
404.145	156.12
404.607	156.52
405.068	155.82
405.529	163.42
405.99	183.02
406.451	169.72
406.913	171.02
407.374	160.72
407.835	163.52
408.296	164.02
408.757	174.82
409.218	181.62
409.679	178.23
410.14	166.23
410.601	174.02
411.062	182.62
411.522	194.92
411.983	189.12
412.444	172.32
412.905	179.12
413.366	175.02
413.826	190.02
414.287	213.72
414.748	260.72
415.208	235.12
415.669	215.22
416.13	200.92
416.59	197.82
417.051	212.52
417.511	217.52
417.972	232.73
418.432	238.83
418.893	282.83
419.353	243.12
419.814	195.32
420.274	177.42
420.734	170.32
421.195	195.52
421.655	189.92
422.115	196.92
422.576	188.42
423.036	201.92
423.496	205.62
423.956	211.02
424.416	232.12
424.876	258.52
425.336	251.52
425.797	259.52
426.257	253.32
426.717	242.52
427.177	233.72
427.637	226.12
428.097	237.02
428.556	248.02
429.016	270.92
429.476	262.92
429.936	268.82
430.396	276.02
430.856	291.52
431.315	315.42
431.775	350.52
432.235	379.62
432.694	354.02
433.154	362.62
433.614	390.12
434.073	335.73
434.533	280.32
434.993	267.12
435.452	282.32
435.912	284.62
436.371	287.32
436.83	281.52
437.29	271.52
437.749	248.33
438.209	237.12
438.668	265.42
439.127	279.83
439.587	264.02
440.046	244.02
440.505	264.12
440.964	270.02
441.424	319.52
441.883	303.73
442.342	254.43
442.801	226.72
443.26	221.52
443.719	219.52
444.178	217.42
444.637	215.73
445.096	222.52
445.555	221.52
446.014	223.23
446.473	226.52
446.932	234.73
447.391	223.72
447.849	228.92
448.308	211.02
448.767	219.62
449.226	229.92
449.685	234.92
450.143	250.22
450.602	240.62
451.061	224.72
451.519	230.82
451.978	237.22
452.436	224.72
452.895	238.82
453.353	253.92
453.812	238.93
454.27	240.82
454.729	231.02
455.187	237.72
455.646	239.02
456.104	242.42
456.562	254.23
457.021	270.32
457.479	262.82
457.937	275.12
458.395	262.12
458.854	249.12
459.312	254.62
459.77	273.52
460.228	253.02
460.686	242.92
461.144	246.42
461.602	235.23
462.06	241.92
462.518	249.82
462.976	258.62
463.434	256.12
463.892	256.22
464.35	276.12
464.808	276.83
465.266	261.42
465.724	270.93
466.181	268.92
466.639	265.72
467.097	289.92
467.555	302.83
468.012	300.72
468.47	305.92
468.928	324.52
469.385	340.23
469.843	348.32
470.3	353.02
470.758	362.02
471.215	375.32
471.673	420.32
472.13	402.73
472.588	413.72
473.045	367.02
473.503	383.93
473.96	394.52
474.417	406.12
474.875	430.02
475.332	472.42
475.789	458.62
476.246	467.82
476.704	479.52
477.161	501.92
477.618	524.72
478.075	555.32
478.532	613.52
478.989	688.62
479.446	797.93
479.903	777.43
480.36	806.72
480.817	858.62
481.274	955.62
481.731	1060.42
482.188	1159.12
482.645	1296.32
483.102	1402.72
483.558	1526.32
484.015	1595.12
484.472	1559.42
484.929	1512.52
485.385	1473.82
485.842	1419.72
486.299	1352.22
486.755	1283.42
487.212	1089.32
487.668	915.42
488.125	835.12
488.582	776.93
489.038	745.42
489.494	707.23
489.951	683.83
490.407	660.52
490.864	637.12
491.32	637.33
491.776	640.72
492.233	644.92
492.689	610.72
493.145	590.42
493.602	587.42
494.058	611.02
494.514	617.93
494.97	633.43
495.426	639.22
495.882	615.33
496.338	596.02
496.794	615.33
497.251	613.92
497.707	624.93
498.163	633.62
498.618	631.22
499.074	640.62
499.53	663.32
499.986	668.82
500.442	648.93
500.898	621.02
501.354	621.12
501.809	628.72
502.265	634.92
502.721	655.52
503.177	675.73
503.632	667.52
504.088	678.23
504.543	699.92
504.999	707.33
505.455	646.72
505.91	625.12
506.366	627.82
506.821	625.32
507.277	628.72
507.732	617.42
508.187	621.72
508.643	616.62
509.098	629.12
509.553	656.72
510.009	653.52
510.464	666.02
510.919	671.92
511.375	687.02
511.83	695.32
512.285	720.02
512.74	749.62
513.195	781.62
513.65	767.02
514.105	758.72
514.56	766.62
515.015	781.32
515.47	793.22
515.925	779.12
516.38	787.42
516.835	783.92
517.29	776.02
517.745	770.82
518.2	757.52
518.655	732.62
519.109	743.12
519.564	729.92
520.019	725.52
520.474	726.02
520.928	713.52
521.383	713.82
521.838	703.72
522.292	706.92
522.747	704.52
523.201	701.22
523.656	688.72
524.11	693.82
524.565	686.92
525.019	683.82
525.474	689.52
525.928	699.43
526.382	686.02
526.837	689.62
527.291	698.52
527.745	691.92
528.2	683.23
528.654	688.22
529.108	678.22
529.562	697.82
530.016	684.12
530.47	691.92
530.925	686.62
531.379	692.42
531.833	698.73
532.287	693.02
532.741	699.62
533.195	686.32
533.649	709.12
534.103	712.42
534.556	696.32
535.01	701.82
535.464	704.32
535.918	714.32
536.372	711.12
536.826	717.32
537.279	694.42
537.733	703.33
538.187	710.92
538.64	710.32
539.094	718.72
539.548	719.23
540.001	715.32
540.455	715.12
540.908	728.22
541.362	733.02
541.815	744.83
542.269	751.92
542.722	751.22
543.175	765.12
543.629	768.82
544.082	768.92
544.536	776.22
544.989	782.12
545.442	778.12
545.895	786.42
546.349	785.23
546.802	779.82
547.255	790.32
547.708	788.02
548.161	803.82
548.614	807.22
549.067	825.62
549.52	807.42
549.973	802.82
550.426	805.52
550.879	789.72
551.332	796.62
551.785	793.52
552.238	807.52
552.691	814.32
553.144	823.72
553.596	845.23
554.049	858.82
554.502	883.82
554.955	903.72
555.407	890.82
555.86	893.62
556.313	898.83
556.765	857.12
557.218	877.62
557.67	885.12
558.123	878.62
558.576	864.22
559.028	877.43
559.48	865.32
559.933	860.83
560.385	838.12
560.838	798.22
561.29	788.42
561.742	777.12
562.195	756.83
562.647	772.32
563.099	777.22
563.551	764.33
564.004	775.32
564.456	770.12
564.908	767.42
565.36	740.62
565.812	730.92
566.264	727.32
566.716	723.93
567.168	715.32
567.62	720.32
568.072	706.62
568.524	702.93
568.976	684.12
569.428	675.52
569.88	668.22
570.332	678.02
570.784	676.72
571.235	686.12
571.687	687.83
572.139	699.22
572.59	717.52
573.042	708.82
573.494	706.92
573.945	705.22
574.397	686.42
574.849	682.02
575.3	692.02
575.752	686.62
576.203	674.62
576.655	687.62
577.106	669.62
577.557	664.12
578.009	677.02
578.46	672.32
578.912	661.73
579.363	654.42
579.814	658.82
580.265	658.62
580.717	664.32
581.168	665.82
581.619	682.73
582.07	671.62
582.521	683.32
582.972	666.12
583.423	680.42
583.875	681.42
584.326	705.92
584.777	744.92
585.227	826.02
585.678	923.22
586.129	1000.22
586.58	1089.62
587.031	1165.12
587.482	1322.82
587.933	1514.62
588.384	1316.62
588.834	979.92
589.285	802.32
589.736	782.12
590.186	766.02
590.637	775.12
591.088	751.82
591.538	741.22
591.989	736.02
592.439	727.23
592.89	723.62
593.34	712.62
593.791	709.12
594.241	709.02
594.692	710.62
595.142	704.33
595.593	698.12
596.043	709.73
596.493	716.83
596.943	713.93
597.394	712.72
597.844	707.22
598.294	729.93
598.744	763.12
599.195	762.22
599.645	816.22
600.095	841.23
600.545	919.73
600.995	966.82
601.445	1023.62
601.895	1091.73
602.345	1148.02
602.795	1116.53
603.245	1058.72
603.695	1005.32
604.145	959.13
604.594	918.12
605.044	858.82
605.494	801.52
605.944	752.42
606.393	731.73
606.843	733.92
607.293	735.32
607.743	732.83
608.192	750.42
608.642	759.02
609.091	763.02
609.541	769.02
609.99	774.93
610.44	765.93
610.889	728.93
611.339	696.12
611.788	688.62
612.238	703.32
612.687	717.92
613.136	728.33
613.586	738.92
614.035	741.93
614.484	756.52
614.933	764.72
615.383	751.83
615.832	744.93
616.281	728.82
616.73	691.12
617.179	671.92
617.628	653.82
618.077	634.72
618.526	628.22
618.975	617.23
619.424	616.72
619.873	617.02
620.322	624.02
620.771	603.83
621.22	598.82
621.669	585.62
622.118	585.92
622.567	576.43
623.015	569.02
623.464	570.72
623.913	554.02
624.361	547.02
624.81	553.32
625.259	554.02
625.707	558.73
626.156	551.62
626.604	562.12
627.053	559.72
627.501	554.72
627.95	576.73
628.398	575.92
628.847	573.43
629.295	573.92
629.744	574.42
630.192	567.23
630.64	566.42
631.089	573.32
631.537	581.72
631.985	591.72
632.433	595.12
632.881	609.73
633.33	664.52
633.778	645.32
634.226	575.23
634.674	570.32
635.122	585.62
635.57	600.32
636.018	636.42
636.466	587.83
636.914	563.72
637.362	567.23
637.81	568.23
638.258	584.73
638.705	586.32
639.153	621.02
639.601	617.32
640.049	646.32
640.497	673.73
640.944	691.32
641.392	642.52
641.84	604.23
642.287	575.22
642.735	563.62
643.182	565.23
643.63	572.02
644.078	576.23
644.525	581.82
644.973	605.92
645.42	607.02
645.867	632.92
646.315	630.73
646.762	655.62
647.21	695.32
647.657	718.72
648.104	753.82
648.551	776.02
648.999	827.42
649.446	922.42
649.893	1020.82
650.34	1161.42
650.787	1402.62
651.234	1746.12
651.682	2282.72
652.129	3130.82
652.576	4514.93
653.023	6690.23
653.47	9144.83
653.917	11338.92
654.363	13022.53
654.81	14327.33
655.257	13635.53
655.704	8941.62
656.151	5281.62
656.598	3414.62
657.044	2421.62
657.491	1857.82
657.938	1486.82
658.385	1252.02
658.831	1072.42
659.278	969.52
659.724	844.92
660.171	784.92
660.618	726.42
661.064	690.82
661.511	672.12
661.957	662.82
662.404	639.62
662.85	656.32
663.296	629.42
663.743	568.42
664.189	543.42
664.635	527.02
665.082	532.92
665.528	528.82
665.974	523.82
666.42	513.73
666.867	510.82
667.313	486.72
667.759	483.52
668.205	482.62
668.651	489.82
669.097	492.92
669.543	500.82
669.989	476.32
670.435	451.93
670.881	449.73
671.327	447.22
671.773	467.92
672.219	490.72
672.665	546.02
673.11	578.22
673.556	627.72
674.002	670.33
674.448	656.42
674.893	546.02
675.339	478.02
675.785	434.62
676.23	419.52
676.676	386.62
677.122	383.82
677.567	378.32
678.013	367.82
678.458	354.52
678.904	364.43
679.349	354.12
679.794	352.02
680.24	350.02
680.685	350.02
681.131	349.72
681.576	349.12
682.021	356.72
682.466	338.92
682.912	349.42
683.357	345.92
683.802	379.52
684.247	410.52
684.692	452.23
685.137	496.12
685.583	539.92
686.028	566.12
686.473	511.02
686.918	450.12
687.363	417.73
687.807	393.73
688.252	364.02
688.697	356.82
689.142	333.22
689.587	332.82
690.032	329.62
690.477	345.32
690.921	351.62
691.366	382.22
691.811	401.92
692.255	432.33
692.7	460.62
693.145	508.62
693.589	702.62
694.034	1150.03
694.478	1540.12
694.923	1719.22
695.367	2243.32
695.812	1182.32
696.256	492.22
696.701	370.52
697.145	349.12
697.59	326.12
698.034	318.82
698.478	328.82
698.922	323.62
699.367	328.62
699.811	335.72
700.255	364.32
700.699	383.33
701.143	426.23
701.588	471.23
702.032	524.22
702.476	508.02
702.92	500.73
703.364	490.62
703.808	648.22
704.252	1051.53
704.696	1459.42
705.14	1669.02
705.584	2117.03
706.027	1060.92
706.471	524.12
706.915	403.32
707.359	348.22
707.803	321.22
708.246	307.32
708.69	313.73
709.134	309.62
709.577	312.83
710.021	322.23
710.465	305.92
710.908	303.02
711.352	298.42
711.795	303.82
712.239	353.02
712.682	385.22
713.126	424.42
713.569	457.82
714.012	372.22
714.456	323.02
714.899	302.33
715.342	271.12
715.786	263.02
716.229	255.32
716.672	253.12
717.115	248.62
717.558	253.82
718.002	260.42
718.445	261.42
718.888	285.02
719.331	293.02
719.774	314.32
720.217	303.72
720.66	289.12
721.103	267.52
721.546	250.82
721.989	258.22
722.432	227.52
722.874	240.12
723.317	230.83
723.76	241.02
724.203	262.42
724.645	318.92
725.088	452.52
725.531	566.23
725.974	637.82
726.416	538.12
726.859	307.52
727.301	246.42
727.744	243.43
728.187	227.23
728.629	239.12
729.071	246.83
729.514	258.62
729.956	275.02
730.399	285.92
730.841	289.32
731.283	275.12
731.726	268.93
732.168	260.72
732.61	269.42
733.053	281.93
733.495	319.43
733.937	359.32
734.379	398.22
734.821	440.83
735.263	549.73
735.705	858.62
736.148	1607.42
736.59	2595.93
737.032	3009.62
737.474	2448.43
737.916	798.42
738.357	424.12
738.799	325.22
739.241	298.02
739.683	293.42
740.125	287.52
740.567	299.52
741.008	312.82
741.45	311.02
741.892	318.42
742.334	346.32
742.775	357.52
743.217	344.92
743.658	272.82
744.1	255.62
744.542	264.42
744.983	310.52
745.425	335.52
745.866	342.32
746.307	290.62
746.749	289.83
747.19	330.52
747.632	466.02
748.073	901.23
748.514	1879.42
748.956	2847.72
749.397	3579.22
749.838	2965.62
750.279	2938.02
750.72	1478.82
751.162	539.52
751.603	322.42
752.044	255.92
752.485	220.83
752.926	211.62
753.367	209.12
753.808	192.12
754.249	193.32
754.69	183.32
755.131	183.52
755.572	187.12
756.013	186.52
756.453	184.22
756.894	188.73
757.335	197.43
757.776	189.32
758.216	195.02
758.657	199.02
759.098	203.33
759.538	227.72
759.979	269.82
760.42	380.33
760.86	720.02
761.301	1873.52
761.741	4500.93
762.182	6333.02
762.622	4453.93
