Data from 20171114-ORNL-Ar_H_NY_Subt18_08-05-23-682.txt Node
Date: Tue Nov 14 08:05:23 EST 2017
User: Ender
Spectrometer: HR+D1039
Trigger mode: 0
Integration Time (sec): 2.730000E-2
Scans to average: 10
Electric dark correction enabled: true
Nonlinearity correction enabled: false
Boxcar width: 0
XAxis mode: Wavelengths
Number of Pixels in Spectrum: 2048
>>>>>Begin Spectral Data<<<<<
187.836	-6.13
188.309	-6.13
188.782	-6.13
189.255	2.27
189.728	3.77
190.201	4.67
190.674	-0.33
191.147	-1.23
191.619	-5.03
192.092	1.57
192.565	-0.23
193.038	-0.43
193.511	-0.83
193.984	-1.73
194.456	-1.33
194.929	2.27
195.402	-0.43
195.874	3.07
196.347	-1.83
196.82	-4.23
197.292	4.57
197.765	-3.12
198.237	-8.23
198.71	-1.53
199.182	-2.03
199.655	2.47
200.127	-2.93
200.6	-3.33
201.072	0.47
201.544	-8.73
202.017	1.57
202.489	1.47
202.961	3.98
203.433	-2.63
203.906	-4.62
204.378	-6.02
204.85	-2.53
205.322	-4.33
205.794	-0.53
206.266	2.47
206.739	-5.33
207.211	-2.43
207.683	-6.02
208.155	-0.53
208.627	-6.03
209.099	-4.03
209.57	-5.52
210.042	-3.73
210.514	-1.43
210.986	1.17
211.458	-7.63
211.93	6.87
212.402	5.17
212.873	-4.43
213.345	-7.53
213.817	-8.53
214.288	-3.23
214.76	-6.13
215.232	3.88
215.703	-2.33
216.175	-6.13
216.646	-6.12
217.118	-7.03
217.589	-9.83
218.061	0.47
218.532	-2.52
219.004	3.97
219.475	-1.33
219.946	-0.53
220.418	-4.33
220.889	4.77
221.36	3.57
221.832	-3.43
222.303	-7.23
222.774	-0.43
223.245	-7.83
223.717	-4.13
224.188	-2.73
224.659	-7.23
225.13	-1.83
225.601	-0.13
226.072	1.88
226.543	1.07
227.014	2.47
227.485	1.17
227.956	-2.33
228.427	0.88
228.898	1.67
229.369	-0.83
229.839	-2.23
230.31	-0.73
230.781	6.07
231.252	2.27
231.722	-2.83
232.193	-3.12
232.664	-1.03
233.135	-3.63
233.605	-0.52
234.076	-1.13
234.546	4.97
235.017	5.77
235.487	2.57
235.958	1.67
236.428	-3.53
236.899	6.88
237.369	5.27
237.84	-0.43
238.31	6.37
238.78	3.67
239.251	-0.52
239.721	2.97
240.191	5.27
240.662	-3.52
241.132	3.97
241.602	5.47
242.072	3.17
242.542	9.38
243.013	0.47
243.483	6.27
243.953	7.07
244.423	7.17
244.893	-3.93
245.363	3.87
245.833	0.87
246.303	5.97
246.773	6.37
247.243	1.87
247.712	3.97
248.182	8.07
248.652	13.17
249.122	-1.93
249.592	16.87
250.061	20.07
250.531	39.48
251.001	24.77
251.471	29.37
251.94	25.57
252.41	8.27
252.879	5.67
253.349	15.27
253.818	10.97
254.288	5.57
254.757	4.57
255.227	8.48
255.696	2.07
256.166	8.17
256.635	4.67
257.105	20.17
257.574	1.47
258.043	6.57
258.513	17.97
258.982	14.07
259.451	1.37
259.92	10.97
260.389	14.17
260.859	18.67
261.328	16.07
261.797	16.77
262.266	13.77
262.735	13.07
263.204	-1.13
263.673	1.97
264.142	9.48
264.611	-0.83
265.08	-0.83
265.549	10.38
266.018	5.98
266.487	3.47
266.955	1.07
267.424	0.67
267.893	5.98
268.362	3.38
268.83	4.37
269.299	12.57
269.768	4.97
270.236	9.47
270.705	5.57
271.174	8.07
271.642	8.97
272.111	4.67
272.579	18.17
273.048	24.57
273.516	29.57
273.985	30.38
274.453	29.27
274.922	23.67
275.39	21.67
275.858	6.77
276.327	18.77
276.795	16.27
277.263	13.37
277.731	30.77
278.2	61.77
278.668	59.97
279.136	52.77
279.604	23.07
280.072	23.88
280.54	16.38
281.008	12.97
281.477	17.07
281.945	15.37
282.413	16.67
282.881	15.97
283.348	12.48
283.816	8.07
284.284	18.27
284.752	21.07
285.22	14.77
285.688	16.87
286.156	18.07
286.623	48.77
287.091	54.17
287.559	31.67
288.026	16.38
288.494	23.67
288.962	8.27
289.429	12.87
289.897	17.98
290.364	19.37
290.832	17.98
291.3	17.88
291.767	22.77
292.234	27.57
292.702	9.97
293.169	21.67
293.637	21.47
294.104	25.07
294.571	14.07
295.039	15.27
295.506	10.37
295.973	18.27
296.44	22.47
296.908	19.38
297.375	23.77
297.842	23.07
298.309	16.07
298.776	17.88
299.243	25.77
299.71	15.77
300.177	19.97
300.644	24.57
301.111	28.38
301.578	28.07
302.045	24.67
302.512	27.88
302.979	26.67
303.446	27.47
303.913	28.48
304.379	17.37
304.846	29.07
305.313	25.77
305.78	24.97
306.246	28.87
306.713	28.37
307.18	35.48
307.646	33.37
308.113	22.37
308.579	26.57
309.046	25.67
309.512	25.57
309.979	18.47
310.445	28.67
310.912	33.27
311.378	36.97
311.845	30.67
312.311	35.77
312.777	33.97
313.244	40.38
313.71	40.07
314.176	33.38
314.642	28.17
315.109	33.07
315.575	43.38
316.041	39.17
316.507	40.17
316.973	45.17
317.439	37.27
317.905	41.17
318.371	36.77
318.837	35.98
319.303	34.27
319.769	36.17
320.235	37.77
320.701	38.57
321.167	42.67
321.633	40.48
322.099	40.27
322.564	48.37
323.03	45.57
323.496	38.17
323.962	41.67
324.427	37.17
324.893	42.37
325.359	47.37
325.824	44.87
326.29	44.67
326.755	37.47
327.221	46.07
327.686	44.77
328.152	52.67
328.617	47.38
329.083	48.57
329.548	55.57
330.014	50.17
330.479	41.07
330.944	48.07
331.41	46.07
331.875	53.07
332.34	45.07
332.805	51.37
333.271	53.07
333.736	44.07
334.201	57.67
334.666	56.67
335.131	59.47
335.596	56.17
336.061	53.77
336.526	49.57
336.991	54.48
337.456	58.67
337.921	49.57
338.386	51.17
338.851	48.47
339.316	49.07
339.781	43.97
340.246	55.07
340.711	46.57
341.175	57.47
341.64	47.67
342.105	55.88
342.569	60.77
343.034	56.47
343.499	56.37
343.963	54.17
344.428	68.38
344.893	59.17
345.357	71.27
345.822	63.97
346.286	68.67
346.751	71.98
347.215	75.07
347.679	76.57
348.144	106.47
348.608	88.17
349.073	78.97
349.537	77.88
350.001	84.07
350.465	90.17
350.93	80.37
351.394	84.77
351.858	77.27
352.322	90.67
352.786	86.07
353.25	106.77
353.715	115.57
354.179	103.27
354.643	125.07
355.107	124.17
355.571	113.67
356.035	102.57
356.498	118.97
356.962	125.07
357.426	137.87
357.89	121.27
358.354	92.57
358.818	96.07
359.281	82.27
359.745	82.77
360.209	76.38
360.673	78.48
361.136	77.48
361.6	87.07
362.064	90.17
362.527	91.87
362.991	100.57
363.454	86.87
363.918	88.47
364.381	88.57
364.845	86.47
365.308	88.27
365.772	89.97
366.235	89.27
366.698	89.67
367.162	87.07
367.625	88.07
368.088	96.27
368.552	88.37
369.015	89.38
369.478	104.07
369.941	108.77
370.404	98.27
370.867	109.07
371.331	107.07
371.794	118.87
372.257	112.47
372.72	117.47
373.183	107.17
373.646	99.57
374.109	105.88
374.572	104.47
375.035	110.57
375.497	115.37
375.96	111.27
376.423	104.37
376.886	117.17
377.349	111.17
377.811	108.17
378.274	104.07
378.737	113.47
379.199	111.38
379.662	118.37
380.125	115.17
380.587	123.57
381.05	127.07
381.512	132.07
381.975	133.97
382.437	134.67
382.9	122.57
383.362	130.17
383.825	142.07
384.287	155.07
384.75	143.47
385.212	143.37
385.674	144.47
386.136	143.57
386.599	122.97
387.061	131.48
387.523	132.17
387.985	137.17
388.447	150.07
388.91	146.97
389.372	158.67
389.834	152.37
390.296	147.47
390.758	152.67
391.22	176.17
391.682	206.38
392.144	285.47
392.606	223.57
393.068	166.67
393.529	168.57
393.991	153.17
394.453	150.67
394.915	152.17
395.377	190.27
395.838	213.27
396.3	159.37
396.762	148.48
397.224	131.27
397.685	126.87
398.147	128.07
398.608	128.88
399.07	130.57
399.531	133.47
399.993	146.67
400.454	159.97
400.916	152.87
401.377	141.48
401.839	150.87
402.3	158.27
402.762	170.77
403.223	182.77
403.684	172.17
404.145	167.47
404.607	165.17
405.068	166.47
405.529	169.88
405.99	195.58
406.451	172.97
406.913	169.87
407.374	163.37
407.835	161.67
408.296	170.88
408.757	175.47
409.218	183.87
409.679	186.07
410.14	176.77
410.601	174.97
411.062	184.38
411.522	193.57
411.983	193.57
412.444	178.38
412.905	180.27
413.366	179.17
413.826	184.97
414.287	215.88
414.748	266.08
415.208	246.07
415.669	210.07
416.13	207.97
416.59	204.37
417.051	212.98
417.511	217.07
417.972	239.87
418.432	244.88
418.893	280.27
419.353	251.27
419.814	195.97
420.274	177.37
420.734	182.57
421.195	199.57
421.655	199.68
422.115	196.97
422.576	187.07
423.036	202.77
423.496	202.37
423.956	217.57
424.416	236.47
424.876	257.77
425.336	259.87
425.797	265.98
426.257	255.67
426.717	245.98
427.177	232.17
427.637	218.67
428.097	229.67
428.556	241.67
429.016	270.57
429.476	262.48
429.936	277.37
430.396	280.77
430.856	284.77
431.315	309.77
431.775	346.57
432.235	373.47
432.694	353.07
433.154	366.38
433.614	390.77
434.073	340.98
434.533	287.57
434.993	273.67
435.452	283.38
435.912	297.27
436.371	288.18
436.83	287.57
437.29	273.27
437.749	245.77
438.209	240.38
438.668	276.47
439.127	285.88
439.587	265.48
440.046	252.38
440.505	255.87
440.964	277.37
441.424	323.48
441.883	314.27
442.342	252.48
442.801	225.88
443.26	227.88
443.719	225.27
444.178	211.47
444.637	205.57
445.096	214.87
445.555	216.97
446.014	219.37
446.473	221.58
446.932	231.87
447.391	226.27
447.849	230.27
448.308	220.88
448.767	210.48
449.226	233.17
449.685	238.07
450.143	239.97
450.602	242.57
451.061	228.97
451.519	237.77
451.978	229.38
452.436	239.58
452.895	243.27
453.353	254.57
453.812	234.37
454.27	244.47
454.729	242.48
455.187	239.38
455.646	242.07
456.104	244.27
456.562	259.37
457.021	264.47
457.479	265.47
457.937	268.98
458.395	260.37
458.854	247.08
459.312	252.97
459.77	273.08
460.228	255.17
460.686	243.47
461.144	249.07
461.602	246.37
462.06	240.67
462.518	253.37
462.976	256.47
463.434	260.58
463.892	267.47
464.35	273.67
464.808	289.08
465.266	269.77
465.724	268.07
466.181	279.88
466.639	272.97
467.097	286.97
467.555	300.88
468.012	301.38
468.47	312.47
468.928	320.07
469.385	342.98
469.843	345.07
470.3	349.57
470.758	371.08
471.215	386.57
471.673	401.77
472.13	399.07
472.588	417.67
473.045	370.48
473.503	375.77
473.96	394.27
474.417	401.57
474.875	432.57
475.332	465.97
475.789	468.87
476.246	471.27
476.704	486.77
477.161	514.58
477.618	522.97
478.075	558.98
478.532	612.97
478.989	699.67
479.446	804.37
479.903	781.98
480.36	808.07
480.817	869.77
481.274	966.77
481.731	1078.07
482.188	1163.07
482.645	1293.38
483.102	1412.78
483.558	1539.77
484.015	1581.28
484.472	1569.17
484.929	1516.57
485.385	1475.47
485.842	1426.37
486.299	1363.07
486.755	1305.07
487.212	1095.57
487.668	930.97
488.125	853.47
488.582	787.27
489.038	749.57
489.494	719.67
489.951	687.58
490.407	679.48
490.864	651.77
491.32	644.38
491.776	638.58
492.233	655.77
492.689	612.47
493.145	607.17
493.602	598.77
494.058	617.67
494.514	609.98
494.97	642.77
495.426	647.47
495.882	627.38
496.338	614.08
496.794	632.58
497.251	629.47
497.707	636.27
498.163	634.47
498.618	656.87
499.074	651.58
499.53	668.27
499.986	680.77
500.442	655.98
500.898	630.87
501.354	625.97
501.809	632.37
502.265	641.77
502.721	668.27
503.177	676.87
503.632	656.47
504.088	677.07
504.543	716.77
504.999	709.67
505.455	657.57
505.91	632.58
506.366	632.57
506.821	632.87
507.277	624.37
507.732	626.67
508.187	626.67
508.643	641.17
509.098	634.08
509.553	657.57
510.009	659.67
510.464	670.38
510.919	684.17
511.375	701.77
511.83	712.27
512.285	712.87
512.74	766.58
513.195	791.97
513.65	777.57
514.105	764.07
514.56	771.57
515.015	796.77
515.47	809.08
515.925	799.98
516.38	800.57
516.835	796.38
517.29	786.27
517.745	776.48
518.2	763.07
518.655	746.87
519.109	746.87
519.564	752.07
520.019	737.57
520.474	717.98
520.928	724.57
521.383	718.07
521.838	718.57
522.292	728.27
522.747	703.47
523.201	705.17
523.656	691.77
524.11	691.98
524.565	688.97
525.019	688.67
525.474	709.77
525.928	704.48
526.382	699.67
526.837	700.77
527.291	699.27
527.745	696.87
528.2	697.17
528.654	682.27
529.108	682.67
529.562	690.38
530.016	687.98
530.47	689.07
530.925	702.88
531.379	703.17
531.833	706.67
532.287	700.37
532.741	699.48
533.195	704.57
533.649	705.27
534.103	727.97
534.556	710.27
535.01	717.07
535.464	707.88
535.918	724.57
536.372	723.67
536.826	718.67
537.279	708.37
537.733	708.38
538.187	718.88
538.64	709.87
539.094	720.58
539.548	727.87
540.001	721.07
540.455	723.77
540.908	727.97
541.362	741.17
541.815	745.08
542.269	750.57
542.722	762.38
543.175	767.77
543.629	765.57
544.082	782.67
544.536	786.58
544.989	776.37
545.442	788.88
545.895	784.87
546.349	789.98
546.802	774.67
547.255	785.38
547.708	803.97
548.161	811.27
548.614	817.17
549.067	815.88
549.52	811.97
549.973	803.38
550.426	793.27
550.879	791.88
551.332	791.77
551.785	805.88
552.238	803.27
552.691	812.68
553.144	820.87
553.596	843.37
554.049	856.57
554.502	882.57
554.955	899.57
555.407	900.47
555.86	901.17
556.313	885.77
556.765	879.57
557.218	872.07
557.67	877.07
558.123	871.77
558.576	868.57
559.028	870.57
559.48	881.07
559.933	863.97
560.385	836.77
560.838	797.67
561.29	775.07
561.742	785.48
562.195	761.97
562.647	759.27
563.099	770.17
563.551	764.47
564.004	768.67
564.456	766.48
564.908	756.77
565.36	740.07
565.812	720.57
566.264	718.37
566.716	713.77
567.168	703.57
567.62	707.27
568.072	693.38
568.524	679.48
568.976	687.67
569.428	670.27
569.88	665.17
570.332	662.57
570.784	671.47
571.235	685.57
571.687	690.88
572.139	701.47
572.59	691.67
573.042	706.57
573.494	694.57
573.945	699.17
574.397	671.67
574.849	690.17
575.3	686.27
575.752	677.17
576.203	669.27
576.655	675.47
577.106	651.67
577.557	653.07
578.009	669.37
578.46	656.57
578.912	648.37
579.363	664.38
579.814	663.47
580.265	662.77
580.717	662.67
581.168	666.88
581.619	662.68
582.07	661.98
582.521	666.17
582.972	659.77
583.423	665.27
583.875	668.88
584.326	689.37
584.777	730.48
585.227	799.88
585.678	877.97
586.129	961.47
586.58	1028.37
587.031	1109.67
587.482	1243.57
587.933	1431.37
588.384	1242.77
588.834	941.77
589.285	782.27
589.736	769.97
590.186	755.57
590.637	739.17
591.088	732.48
591.538	727.58
591.989	713.77
592.439	717.87
592.89	710.27
593.34	690.88
593.791	686.77
594.241	682.77
594.692	689.67
595.142	682.77
595.593	682.97
596.043	689.17
596.493	701.47
596.943	709.37
597.394	702.58
597.844	692.47
598.294	712.77
598.744	732.97
599.195	759.27
599.645	795.38
600.095	823.37
600.545	894.67
600.995	943.47
601.445	1003.87
601.895	1063.77
602.345	1102.57
602.795	1081.47
603.245	1048.78
603.695	991.47
604.145	932.07
604.594	888.98
605.044	840.57
605.494	777.17
605.944	741.88
606.393	723.77
606.843	709.67
607.293	713.27
607.743	709.08
608.192	722.17
608.642	730.58
609.091	740.87
609.541	738.27
609.99	748.48
610.44	743.87
610.889	703.77
611.339	683.87
611.788	660.98
612.238	678.27
612.687	685.77
613.136	696.77
613.586	718.67
614.035	712.68
614.484	731.27
614.933	730.07
615.383	727.67
615.832	713.98
616.281	698.77
616.73	664.17
617.179	639.98
617.628	630.37
618.077	614.17
618.526	604.27
618.975	608.17
619.424	599.87
619.873	590.87
620.322	595.67
620.771	588.97
621.22	579.47
621.669	572.57
622.118	563.17
622.567	552.57
623.015	552.27
623.464	549.88
623.913	539.37
624.361	529.47
624.81	531.77
625.259	544.68
625.707	538.37
626.156	545.88
626.604	549.67
627.053	537.17
627.501	550.97
627.95	555.68
628.398	563.87
628.847	545.37
629.295	555.17
629.744	550.17
630.192	546.67
630.64	545.37
631.089	545.77
631.537	549.88
631.985	560.67
632.433	571.77
632.881	591.27
633.33	625.87
633.778	610.47
634.226	549.87
634.674	542.48
635.122	556.37
635.57	573.57
636.018	606.38
636.466	566.88
636.914	535.97
637.362	550.68
637.81	551.98
638.258	556.37
638.705	551.07
639.153	575.97
639.601	603.67
640.049	616.17
640.497	636.57
640.944	675.17
641.392	618.38
641.84	591.07
642.287	566.58
642.735	542.77
643.182	555.27
643.63	549.38
644.078	556.68
644.525	574.07
644.973	570.57
645.42	587.27
645.867	594.17
646.315	607.18
646.762	639.18
647.21	661.57
647.657	690.47
648.104	716.88
648.551	742.88
648.999	801.88
649.446	878.97
649.893	973.78
650.34	1112.78
650.787	1315.67
651.234	1636.17
651.682	2127.37
652.129	2893.27
652.576	4187.38
653.023	6188.57
653.47	8504.98
653.917	10670.48
654.363	12411.78
654.81	13857.38
655.257	13151.58
655.704	8591.17
656.151	5063.57
656.598	3280.28
657.044	2336.07
657.491	1784.17
657.938	1431.27
658.385	1188.87
658.831	1031.58
659.278	923.77
659.724	820.98
660.171	763.17
660.618	687.77
661.064	659.18
661.511	636.08
661.957	630.87
662.404	626.47
662.85	624.37
663.296	592.17
663.743	536.57
664.189	516.77
664.635	509.67
665.082	499.38
665.528	507.57
665.974	494.97
666.42	485.17
666.867	483.17
667.313	477.77
667.759	452.17
668.205	454.48
668.651	464.68
669.097	460.57
669.543	472.67
669.989	447.88
670.435	426.27
670.881	419.48
671.327	428.27
671.773	448.37
672.219	470.17
672.665	520.87
673.11	552.27
673.556	593.88
674.002	631.38
674.448	629.77
674.893	532.47
675.339	450.67
675.785	409.88
676.23	401.37
676.676	376.77
677.122	363.98
677.567	349.88
678.013	354.27
678.458	345.17
678.904	343.18
679.349	327.97
679.794	346.27
680.24	335.87
680.685	329.88
681.131	326.57
681.576	337.77
682.021	333.97
682.466	328.27
682.912	328.17
683.357	322.88
683.802	351.07
684.247	384.57
684.692	431.67
685.137	468.97
685.583	517.17
686.028	533.97
686.473	492.27
686.918	414.37
687.363	388.77
687.807	367.17
688.252	345.77
688.697	332.37
689.142	318.97
689.587	316.77
690.032	303.67
690.477	327.17
690.921	327.07
691.366	360.07
691.811	384.98
692.255	413.47
692.7	430.58
693.145	475.07
693.589	641.87
694.034	1041.68
694.478	1445.17
694.923	1655.17
695.367	2166.67
695.812	1132.88
696.256	476.77
696.701	352.98
697.145	333.17
697.59	316.17
698.034	305.67
698.478	306.87
698.922	303.77
699.367	306.97
699.811	308.47
700.255	325.77
700.699	359.38
701.143	393.77
701.588	445.48
702.032	484.47
702.476	489.57
702.92	460.48
703.364	463.07
703.808	585.97
704.252	948.27
704.696	1351.87
705.14	1577.37
705.584	2015.07
706.027	997.97
706.471	488.17
706.915	376.57
707.359	323.38
707.803	308.17
708.246	285.77
708.69	289.27
709.134	290.27
709.577	280.58
710.021	299.48
710.465	287.77
710.908	281.47
711.352	280.17
711.795	295.37
712.239	325.97
712.682	363.17
713.126	395.17
713.569	442.17
714.012	354.58
714.456	308.77
714.899	280.97
715.342	258.77
715.786	241.17
716.229	246.98
716.672	239.27
717.115	235.08
717.558	233.98
718.002	239.67
718.445	249.88
718.888	271.98
719.331	274.37
719.774	290.57
720.217	289.07
720.66	266.07
721.103	254.07
721.546	236.48
721.989	236.97
722.432	215.08
722.874	221.37
723.317	211.97
723.76	222.38
724.203	243.27
724.645	295.38
725.088	410.17
725.531	533.98
725.974	598.07
726.416	518.67
726.859	290.27
727.301	230.67
727.744	216.48
728.187	217.77
728.629	228.47
729.071	229.58
729.514	242.57
729.956	257.27
730.399	265.57
730.841	270.77
731.283	256.68
731.726	249.27
732.168	246.47
732.61	252.77
733.053	270.37
733.495	292.48
733.937	330.68
734.379	371.77
734.821	412.08
735.263	497.77
735.705	760.67
736.148	1440.57
736.59	2398.47
737.032	2895.18
737.474	2350.07
737.916	763.77
738.357	404.88
738.799	308.57
739.241	283.97
739.683	268.87
740.125	275.17
740.567	277.88
741.008	301.17
741.45	296.08
741.892	293.47
742.334	325.57
742.775	340.27
743.217	321.37
743.658	251.17
744.1	243.68
744.542	246.17
744.983	284.88
745.425	316.37
745.866	326.47
746.307	265.67
746.749	258.38
747.19	303.57
747.632	419.48
748.073	801.87
748.514	1700.27
748.956	2682.88
749.397	3314.68
749.838	2781.88
750.279	2785.47
750.72	1408.37
751.162	507.88
751.603	301.87
752.044	224.98
752.485	200.27
752.926	198.17
753.367	183.97
753.808	186.37
754.249	174.57
754.69	176.47
755.131	177.97
755.572	175.57
756.013	170.47
756.453	172.88
756.894	169.48
757.335	173.98
757.776	182.57
758.216	191.97
758.657	183.98
759.098	197.17
759.538	204.17
759.979	246.47
760.42	340.47
760.86	647.88
761.301	1645.87
761.741	4066.18
762.182	6084.18
762.622	4296.48
