Data from 20171114-ORNL-Ar_H_NY_Subt18_08-04-09-978.txt Node
Date: Tue Nov 14 08:04:09 EST 2017
User: Ender
Spectrometer: HR+D1039
Trigger mode: 0
Integration Time (sec): 2.730000E-2
Scans to average: 10
Electric dark correction enabled: true
Nonlinearity correction enabled: false
Boxcar width: 0
XAxis mode: Wavelengths
Number of Pixels in Spectrum: 2048
>>>>>Begin Spectral Data<<<<<
187.836	-4.3
188.309	-4.3
188.782	-4.3
189.255	-0.2
189.728	-0.7
190.201	5.9
190.674	1.4
191.147	0.6
191.619	-6.5
192.092	3.8
192.565	6
193.038	-0.1
193.511	-0.6
193.984	-0.7
194.456	-8.6
194.929	2.9
195.402	-3.1
195.874	4.2
196.347	-2.9
196.82	-9.8
197.292	5.1
197.765	-0.5
198.237	-6
198.71	2
199.182	-1.3
199.655	3.6
200.127	7.5
200.6	-1.1
201.072	-0.3
201.544	-4.7
202.017	-7.3
202.489	0.3
202.961	-1.8
203.433	-4.2
203.906	-9.1
204.378	-9.3
204.85	-1.2
205.322	-7.5
205.794	-3.2
206.266	-7.7
206.739	-5.9
207.211	0.5
207.683	-14.6
208.155	-6.8
208.627	-10.8
209.099	-2.7
209.57	-7
210.042	-1.5
210.514	-4.8
210.986	1.8
211.458	-7.3
211.93	-3.8
212.402	-0.1
212.873	-3.6
213.345	-10.7
213.817	-9.1
214.288	-5.4
214.76	-7.8
215.232	-2
215.703	-2
216.175	-3.3
216.646	-7.3
217.118	-7
217.589	-2.7
218.061	-8.1
218.532	-7.2
219.004	2.6
219.475	-5.6
219.946	4.2
220.418	-8.9
220.889	5.2
221.36	2.2
221.832	-2.9
222.303	-7.5
222.774	-2
223.245	-10.1
223.717	-8.5
224.188	-3.8
224.659	-10.5
225.13	-6.4
225.601	-6.2
226.072	-4.9
226.543	-1.9
227.014	-3
227.485	-4.9
227.956	-6.5
228.427	0.2
228.898	-0.4
229.369	2.3
229.839	2.3
230.31	-5.1
230.781	3.4
231.252	-1.2
231.722	-4.8
232.193	-2.4
232.664	4
233.135	-1.7
233.605	-2.8
234.076	-5.2
234.546	0.9
235.017	1.8
235.487	1
235.958	1.4
236.428	0.2
236.899	2.1
237.369	2.5
237.84	-5.8
238.31	4.6
238.78	3.9
239.251	-0.6
239.721	0.9
240.191	1.5
240.662	-2.5
241.132	3.7
241.602	-7.2
242.072	2.1
242.542	7.7
243.013	-2.7
243.483	0
243.953	2.8
244.423	-2.7
244.893	-2.4
245.363	8.4
245.833	4.3
246.303	-0.2
246.773	1.8
247.243	4.3
247.712	-1
248.182	3.7
248.652	2.7
249.122	-3.4
249.592	10.8
250.061	17.2
250.531	25
251.001	9.1
251.471	19.3
251.94	13.8
252.41	5.2
252.879	-0.8
253.349	15.2
253.818	10
254.288	4.3
254.757	4.4
255.227	-0.5
255.696	-2.4
256.166	6.6
256.635	9.1
257.105	12.1
257.574	9.7
258.043	8.4
258.513	11.1
258.982	15.8
259.451	0.3
259.92	6.9
260.389	6.7
260.859	15.3
261.328	9
261.797	20.2
262.266	7.1
262.735	8.5
263.204	5.2
263.673	-6.8
264.142	5.7
264.611	-0.7
265.08	-1
265.549	0.9
266.018	8.5
266.487	1.8
266.955	-6.2
267.424	-3.1
267.893	0.5
268.362	4.5
268.83	1.2
269.299	2.3
269.768	4.3
270.236	-0.4
270.705	3
271.174	6.6
271.642	6.8
272.111	5.2
272.579	13.4
273.048	22.2
273.516	15.1
273.985	24
274.453	13.4
274.922	18.5
275.39	10.4
275.858	3.9
276.327	3.1
276.795	13.1
277.263	3.7
277.731	21.1
278.2	43.5
278.668	46.8
279.136	39.1
279.604	16.2
280.072	7.9
280.54	10.1
281.008	9.2
281.477	13.2
281.945	13.6
282.413	12.3
282.881	11.6
283.348	7.8
283.816	11.7
284.284	7.3
284.752	19.8
285.22	11.6
285.688	14.2
286.156	14.2
286.623	34.6
287.091	36.2
287.559	18.8
288.026	15.5
288.494	16.2
288.962	-1.3
289.429	8.4
289.897	14.6
290.364	14.8
290.832	12.4
291.3	17.2
291.767	19.5
292.234	12.7
292.702	12.1
293.169	20.7
293.637	18.2
294.104	14.6
294.571	4.9
295.039	9.2
295.506	6.4
295.973	16.7
296.44	8.9
296.908	17.5
297.375	15.5
297.842	13.7
298.309	8.7
298.776	14.3
299.243	12.4
299.71	9.1
300.177	18.1
300.644	13
301.111	13.8
301.578	12.4
302.045	11.8
302.512	16.6
302.979	17
303.446	14.7
303.913	10.4
304.379	11.7
304.846	20.7
305.313	21.8
305.78	14.7
306.246	21.1
306.713	23.9
307.18	24.4
307.646	21.7
308.113	21.4
308.579	21.2
309.046	20.9
309.512	22
309.979	15.8
310.445	25.3
310.912	19.7
311.378	26.6
311.845	23.3
312.311	27.5
312.777	22.8
313.244	22.5
313.71	33.6
314.176	20.8
314.642	19.6
315.109	20.1
315.575	20.8
316.041	34.2
316.507	27
316.973	30.9
317.439	24.8
317.905	30
318.371	25.5
318.837	24.5
319.303	23.5
319.769	28.2
320.235	30.8
320.701	29.2
321.167	23.7
321.633	30.8
322.099	36.5
322.564	36
323.03	29.4
323.496	30.8
323.962	32.7
324.427	28.9
324.893	27.7
325.359	27.6
325.824	29.4
326.29	29.6
326.755	31.3
327.221	23.7
327.686	29.2
328.152	36.9
328.617	31.6
329.083	40.1
329.548	41.8
330.014	36.7
330.479	31.7
330.944	36.5
331.41	38.7
331.875	40.2
332.34	37.6
332.805	35
333.271	35.1
333.736	35.5
334.201	47.2
334.666	45.1
335.131	42.9
335.596	40.2
336.061	40.2
336.526	29.8
336.991	40.6
337.456	48.2
337.921	37.4
338.386	31.1
338.851	40.4
339.316	37.1
339.781	44.4
340.246	42.1
340.711	41.8
341.175	43.4
341.64	37.6
342.105	44.9
342.569	42.3
343.034	46.1
343.499	44.8
343.963	38.4
344.428	53.9
344.893	50.6
345.357	52.8
345.822	54
346.286	45.4
346.751	63.2
347.215	51
347.679	60.8
348.144	72.2
348.608	66
349.073	55
349.537	54.7
350.001	65.8
350.465	64.9
350.93	63.6
351.394	61.9
351.858	55.4
352.322	71.6
352.786	70.2
353.25	74.7
353.715	87.4
354.179	76.3
354.643	99
355.107	96.2
355.571	85.6
356.035	74
356.498	99.6
356.962	98.5
357.426	101.5
357.89	90.9
358.354	71
358.818	68
359.281	67.8
359.745	59.4
360.209	64.2
360.673	63.6
361.136	64
361.6	70.9
362.064	71.9
362.527	73.6
362.991	75.3
363.454	72.6
363.918	64
364.381	71.4
364.845	71.1
365.308	71.5
365.772	74.8
366.235	70.9
366.698	70.7
367.162	66.8
367.625	72.1
368.088	71.6
368.552	75.9
369.015	70.3
369.478	85.4
369.941	83.1
370.404	79.7
370.867	88.4
371.331	91.5
371.794	95.1
372.257	95.3
372.72	101.9
373.183	88.6
373.646	87.5
374.109	93.2
374.572	95.4
375.035	86.9
375.497	94.1
375.96	87.4
376.423	88.5
376.886	89.1
377.349	90.1
377.811	84
378.274	94.7
378.737	86.2
379.199	90.8
379.662	94.9
380.125	98.4
380.587	101.6
381.05	101.9
381.512	106.3
381.975	113.6
382.437	115.6
382.9	107.6
383.362	120
383.825	109.3
384.287	122.9
384.75	117.3
385.212	121.2
385.674	119
386.136	115
386.599	107.9
387.061	108
387.523	108.1
387.985	112.4
388.447	122.7
388.91	116
389.372	134.6
389.834	129.2
390.296	117.9
390.758	133.4
391.22	139.3
391.682	180.1
392.144	250.2
392.606	199.9
393.068	138.4
393.529	146.5
393.991	131.4
394.453	130.4
394.915	135.6
395.377	164.6
395.838	180.7
396.3	134.8
396.762	124.2
397.224	110.9
397.685	107
398.147	108.2
398.608	104.4
399.07	107.6
399.531	117.3
399.993	121.1
400.454	130.6
400.916	120.3
401.377	123.3
401.839	126.3
402.3	132.6
402.762	139.9
403.223	150
403.684	147.1
404.145	141.3
404.607	135.6
405.068	134.6
405.529	138.8
405.99	161.1
406.451	148.4
406.913	146.8
407.374	139.9
407.835	140.4
408.296	140.9
408.757	151.6
409.218	162.1
409.679	151.2
410.14	145.8
410.601	152.3
411.062	166
411.522	168.4
411.983	159.7
412.444	156.5
412.905	159.9
413.366	156.2
413.826	165.9
414.287	188.4
414.748	221.2
415.208	213.6
415.669	182.7
416.13	181.8
416.59	177
417.051	177.7
417.511	187
417.972	201.5
418.432	215.7
418.893	248.8
419.353	220.2
419.814	173.3
420.274	161.2
420.734	154.8
421.195	168.9
421.655	166.1
422.115	169.4
422.576	160.8
423.036	168.9
423.496	183.7
423.956	186.3
424.416	204.3
424.876	223.9
425.336	223
425.797	227
426.257	217.1
426.717	204.9
427.177	196.6
427.637	190.3
428.097	205.3
428.556	211.2
429.016	236.1
429.476	220.5
429.936	230.9
430.396	239.8
430.856	250.6
431.315	263.8
431.775	298.4
432.235	313.1
432.694	296.6
433.154	308.3
433.614	325.7
434.073	279.8
434.533	236.3
434.993	223.7
435.452	237.5
435.912	251.8
436.371	242.6
436.83	236.7
437.29	231
437.749	210.4
438.209	210.4
438.668	225.2
439.127	241.6
439.587	225.7
440.046	210.5
440.505	218
440.964	234.4
441.424	263.9
441.883	255.3
442.342	219.4
442.801	192.5
443.26	190.7
443.719	189.5
444.178	187.6
444.637	181.7
445.096	184.4
445.555	193
446.014	198.6
446.473	189.7
446.932	201.7
447.391	189.3
447.849	195.8
448.308	181.3
448.767	186.9
449.226	205.5
449.685	210.3
450.143	216.9
450.602	202.5
451.061	194.9
451.519	201.2
451.978	198.4
452.436	201.5
452.895	207.8
453.353	210.1
453.812	204.3
454.27	209.7
454.729	204.4
455.187	209.1
455.646	207.7
456.104	210.3
456.562	222
457.021	222.4
457.479	217.3
457.937	228.3
458.395	227.7
458.854	209.7
459.312	215.4
459.77	224.3
460.228	212.1
460.686	213.3
461.144	215.4
461.602	208.1
462.06	206.3
462.518	216.2
462.976	218.2
463.434	218.9
463.892	228.8
464.35	235.5
464.808	247.3
465.266	230.5
465.724	234.2
466.181	228
466.639	238.8
467.097	246.3
467.555	253.8
468.012	258.6
468.47	272
468.928	281.2
469.385	290.5
469.843	290.7
470.3	289.4
470.758	304.4
471.215	321.4
471.673	337.9
472.13	341.4
472.588	348.4
473.045	315.8
473.503	324.4
473.96	343.5
474.417	353.5
474.875	373.4
475.332	388.4
475.789	397.9
476.246	401.8
476.704	425.8
477.161	428.2
477.618	442.9
478.075	475.5
478.532	512.8
478.989	584.2
479.446	669.8
479.903	658.2
480.36	692.9
480.817	748.3
481.274	842.1
481.731	927.4
482.188	1002.9
482.645	1133.4
483.102	1223.6
483.558	1334
484.015	1395.8
484.472	1377.5
484.929	1326.8
485.385	1282
485.842	1246.5
486.299	1188
486.755	1113.4
487.212	951.5
487.668	803.3
488.125	741
488.582	687.6
489.038	662.3
489.494	613.5
489.951	595.3
490.407	577.1
490.864	560.3
491.32	561.3
491.776	547
492.233	554
492.689	531.9
493.145	522.2
493.602	512.3
494.058	518.3
494.514	519.3
494.97	545.1
495.426	546.4
495.882	536.4
496.338	525.3
496.794	535
497.251	533.3
497.707	547.7
498.163	554.6
498.618	555.8
499.074	559.6
499.53	573
499.986	567
500.442	553.6
500.898	538.6
501.354	531.8
501.809	539.9
502.265	553.8
502.721	565.4
503.177	569.2
503.632	567.1
504.088	580.4
504.543	601.2
504.999	605
505.455	561.6
505.91	542.8
506.366	539.4
506.821	540
507.277	523.1
507.732	537.3
508.187	539.3
508.643	550.7
509.098	542.3
509.553	566.6
510.009	577.1
510.464	572.5
510.919	591.9
511.375	591.1
511.83	605.5
512.285	617
512.74	645.4
513.195	664.9
513.65	657.7
514.105	654.5
514.56	672.6
515.015	675.4
515.47	695
515.925	675.5
516.38	680.8
516.835	686.7
517.29	668.5
517.745	672.2
518.2	652.4
518.655	638.9
519.109	632.7
519.564	632.7
520.019	629.3
520.474	629
520.928	620.6
521.383	618.8
521.838	611.4
522.292	603.6
522.747	608.8
523.201	605.6
523.656	592
524.11	599
524.565	581.7
525.019	587.5
525.474	594.6
525.928	597.4
526.382	593.9
526.837	584.9
527.291	592.4
527.745	586
528.2	581.7
528.654	589.1
529.108	582
529.562	589.1
530.016	574.6
530.47	579.1
530.925	578.8
531.379	593.4
531.833	595.8
532.287	595
532.741	596.3
533.195	593
533.649	598.2
534.103	618.7
534.556	597.9
535.01	596.1
535.464	587.4
535.918	598.8
536.372	596.7
536.826	597.1
537.279	598.6
537.733	598
538.187	608.7
538.64	603.8
539.094	621.8
539.548	609.9
540.001	611.4
540.455	605.7
540.908	613.5
541.362	614.8
541.815	632.2
542.269	635.1
542.722	633.7
543.175	645.6
543.629	632.8
544.082	664
544.536	662.6
544.989	654.2
545.442	666.1
545.895	658.7
546.349	660.8
546.802	658
547.255	658.4
547.708	674.6
548.161	676.5
548.614	697.3
549.067	692.8
549.52	687.4
549.973	680.8
550.426	681.1
550.879	664.9
551.332	678.9
551.785	680.8
552.238	675
552.691	692.8
553.144	695
553.596	704.6
554.049	725.8
554.502	746.4
554.955	769.7
555.407	760.6
555.86	742.3
556.313	747.9
556.765	737
557.218	732.5
557.67	740.2
558.123	728.5
558.576	725.7
559.028	729.7
559.48	731.9
559.933	728.9
560.385	702.8
560.838	672.7
561.29	656.3
561.742	643.6
562.195	631.9
562.647	640.5
563.099	644.9
563.551	636.8
564.004	646.9
564.456	630.4
564.908	628.9
565.36	621.2
565.812	605.5
566.264	603.5
566.716	595.9
567.168	589.2
567.62	596.4
568.072	585.9
568.524	574.5
568.976	565.6
569.428	546.9
569.88	552.3
570.332	556
570.784	554.2
571.235	556.9
571.687	566.9
572.139	570.1
572.59	577.2
573.042	576.4
573.494	584.9
573.945	576.5
574.397	567
574.849	564
575.3	555.8
575.752	553.9
576.203	556.3
576.655	562
577.106	542.9
577.557	529.4
578.009	542.6
578.46	531.9
578.912	541.4
579.363	545.1
579.814	546.7
580.265	532.7
580.717	539.8
581.168	542.6
581.619	542.5
582.07	550.1
582.521	549.3
582.972	549
583.423	549.8
583.875	554.4
584.326	569.2
584.777	609.1
585.227	675.8
585.678	750.3
586.129	831.2
586.58	893.7
587.031	963.5
587.482	1113.9
587.933	1276.4
588.384	1106.4
588.834	800.2
589.285	655.7
589.736	638
590.186	625.1
590.637	622.1
591.088	596.8
591.538	600
591.989	583.6
592.439	587.7
592.89	578.6
593.34	566.7
593.791	576.2
594.241	557.1
594.692	567.2
595.142	560.5
595.593	569.2
596.043	561.6
596.493	575.2
596.943	572.8
597.394	580.3
597.844	566.7
598.294	573.3
598.744	594.2
599.195	611.3
599.645	648.4
600.095	684.2
600.545	731.8
600.995	761.7
601.445	808
601.895	867.1
602.345	911.5
602.795	886.4
603.245	848.3
603.695	813.3
604.145	750.1
604.594	725.3
605.044	683.2
605.494	639.8
605.944	593.1
606.393	582.7
606.843	578.3
607.293	580.9
607.743	574.1
608.192	582.8
608.642	594.6
609.091	601.9
609.541	612.7
609.99	607.1
610.44	603.2
610.889	567.2
611.339	561.6
611.788	543.2
612.238	546.7
612.687	568
613.136	564.5
613.586	581.7
614.035	568.1
614.484	592.8
614.933	594.3
615.383	593.3
615.832	586
616.281	569.8
616.73	545.5
617.179	519.9
617.628	517.1
618.077	504.4
618.526	496.1
618.975	481.3
619.424	480
619.873	476
620.322	487.5
620.771	471.9
621.22	468.5
621.669	467.5
622.118	464.8
622.567	457.8
623.015	442.7
623.464	441.3
623.913	437.1
624.361	426.7
624.81	436.1
625.259	431.9
625.707	429.8
626.156	432
626.604	453.1
627.053	442.7
627.501	434.6
627.95	443.9
628.398	457.2
628.847	446.1
629.295	441.4
629.744	450.4
630.192	446.9
630.64	449.9
631.089	432.7
631.537	442.8
631.985	445.5
632.433	463.8
632.881	471.7
633.33	499.4
633.778	496.8
634.226	436.5
634.674	438.8
635.122	443.5
635.57	463.1
636.018	477
636.466	457.6
636.914	438.6
637.362	448.8
637.81	442.9
638.258	439.5
638.705	441.2
639.153	469.6
639.601	475.3
640.049	487.3
640.497	517.7
640.944	534.2
641.392	498.4
641.84	474.2
642.287	455
642.735	441.4
643.182	439.6
643.63	446.9
644.078	447.8
644.525	455
644.973	461
645.42	468.5
645.867	477.2
646.315	489.9
646.762	510
647.21	529
647.657	550.8
648.104	581.3
648.551	597.3
648.999	634.4
649.446	701.7
649.893	766.5
650.34	885.4
650.787	1047.6
651.234	1312.5
651.682	1699
652.129	2306.7
652.576	3326.9
653.023	4927
653.47	6885.3
653.917	8647.6
654.363	10193.1
654.81	11510.8
655.257	10956.8
655.704	7109.1
656.151	4137.7
656.598	2681.1
657.044	1902.9
657.491	1452
657.938	1165.9
658.385	970.4
658.831	835
659.278	754
659.724	664.8
660.171	611.5
660.618	550.5
661.064	517.2
661.511	494.5
661.957	488.1
662.404	476.9
662.85	482.8
663.296	462.7
663.743	431
664.189	412.4
664.635	415.6
665.082	404.4
665.528	401.5
665.974	394.7
666.42	381.9
666.867	391.1
667.313	362.6
667.759	369.1
668.205	366.7
668.651	374.1
669.097	370.4
669.543	380.2
669.989	369.3
670.435	341.9
670.881	339.8
671.327	342.2
671.773	352.9
672.219	374.8
672.665	407.9
673.11	436.7
673.556	474
674.002	513
674.448	504.7
674.893	419.7
675.339	370.6
675.785	331.3
676.23	313.1
676.676	290.6
677.122	288.7
677.567	279.9
678.013	279.2
678.458	266.4
678.904	273.3
679.349	260.3
679.794	271.3
680.24	257.5
680.685	261.4
681.131	258.7
681.576	258.1
682.021	272.3
682.466	259.4
682.912	266.8
683.357	261.9
683.802	289.1
684.247	299.9
684.692	336.1
685.137	367.8
685.583	408.2
686.028	436
686.473	384.1
686.918	331.5
687.363	318.1
687.807	304.9
688.252	271.5
688.697	269.4
689.142	245.6
689.587	250.6
690.032	247.9
690.477	251.9
690.921	257.2
691.366	283.7
691.811	301.6
692.255	317
692.7	345.6
693.145	375.1
693.589	502.7
694.034	818.6
694.478	1140.5
694.923	1341.8
695.367	1763.5
695.812	913.7
696.256	370.8
696.701	276.4
697.145	265.1
697.59	244
698.034	238.1
698.478	245.2
698.922	249.8
699.367	241.1
699.811	251.9
700.255	265.3
700.699	288.9
701.143	314.3
701.588	360.5
702.032	395.5
702.476	392.7
702.92	363.8
703.364	364.8
703.808	454.4
704.252	752.4
704.696	1077.7
705.14	1280.6
705.584	1664.8
706.027	824.2
706.471	389.7
706.915	290.3
707.359	263.9
707.803	232.9
708.246	234.7
708.69	231.9
709.134	243.2
709.577	235.6
710.021	240.9
710.465	233.2
710.908	227.5
711.352	226.1
711.795	234.8
712.239	253.3
712.682	281.3
713.126	309.9
713.569	359.4
714.012	279.4
714.456	243.2
714.899	222
715.342	210
715.786	189.4
716.229	199.6
716.672	190.6
717.115	193.1
717.558	186.1
718.002	185.6
718.445	196.7
718.888	216.8
719.331	219.5
719.774	235.4
720.217	221.9
720.66	218
721.103	195.1
721.546	187.6
721.989	182.4
722.432	170.5
722.874	177.1
723.317	178.3
723.76	176.6
724.203	189
724.645	237.2
725.088	329
725.531	421.2
725.974	495.9
726.416	412.6
726.859	230.9
727.301	184.4
727.744	179.7
728.187	178.9
728.629	183.4
729.071	187.6
729.514	197.9
729.956	205.3
730.399	207.6
730.841	218.4
731.283	202.5
731.726	199.3
732.168	196.5
732.61	199.5
733.053	206.5
733.495	231.8
733.937	265.5
734.379	302.1
734.821	317.3
735.263	391.8
735.705	595.9
736.148	1135.3
736.59	1918.3
737.032	2378.7
737.474	1956.2
737.916	616.3
738.357	322.2
738.799	241.6
739.241	219.6
739.683	210.3
740.125	221.8
740.567	225.6
741.008	238.4
741.45	242
741.892	241.4
742.334	268.7
742.775	274.6
743.217	261.8
743.658	196.5
744.1	189.6
744.542	194.3
744.983	232.2
745.425	267.9
745.866	273
746.307	212.3
746.749	210.9
747.19	241.4
747.632	324.8
748.073	616.6
748.514	1352.7
748.956	2165.1
749.397	2702.5
749.838	2233.9
750.279	2310
750.72	1153.3
751.162	414.2
751.603	241.4
752.044	185.6
752.485	154.8
752.926	152.4
753.367	148.2
753.808	144
754.249	141
754.69	141.8
755.131	143.4
755.572	139.5
756.013	134.2
756.453	136.4
756.894	140
757.335	143.4
757.776	147.8
758.216	146.2
758.657	147.4
759.098	143.5
759.538	169.2
759.979	202.4
760.42	268.1
760.86	502.5
761.301	1309.5
761.741	3255.8
762.182	5110.5
762.622	3614.6
763.063	1008.1
763.503	404.1
763.943	257.1
764.384	260.9
764.824	320.7
765.264	358.5
765.705	248.4
766.145	160.9
766.585	140.1
767.025	134.3
767.465	139.4
767.906	183.4
768.346	245.5
768.786	266.3
769.226	197.4
769.666	234.9
770.106	440.8
770.546	1101.1
770.986	2037.5
771.426	1868
771.866	611.1
772.306	239.3
772.745	159.2
773.185	132.6
773.625	131.8
774.065	123.1
774.505	141
774.944	219.7
775.384	489.2
775.824	956.1
776.263	941.7
776.703	398.5
777.142	166
777.582	119
778.021	96.2
778.461	110.6
778.9	105.3
779.34	102.1
779.779	85.2
780.219	81.8
780.658	77.6
781.097	82.9
781.537	85.7
781.976	85
782.415	79.7
782.855	82.1
783.294	72.7
783.733	82
784.172	82.8
784.611	71.1
785.05	83.1
785.489	81.2
785.928	93
786.367	91.9
786.806	84.9
787.245	95.5
787.684	107.2
788.123	112
788.562	101.7
789.001	89.5
789.44	89.9
789.879	85
790.317	91.2
790.756	93.7
791.195	95.9
791.634	109.3
792.072	143.5
792.511	259.5
792.95	720.5
793.388	1641.8
793.827	1540.5
794.265	520.7
794.704	211.2
795.142	139.1
795.581	116.2
796.019	106.5
796.458	94.7
796.896	85.6
797.334	99.4
797.773	109.1
798.211	153.7
798.649	313.4
799.087	746.8
799.526	1214.2
799.964	1515.8
800.402	1607.2
800.84	586.1
801.278	227.6
801.716	137.9
802.154	114.4
802.592	109.9
803.03	103.4
803.468	98.6
803.906	108.1
804.344	119.6
804.782	108.8
805.22	92.9
805.658	92.4
806.096	109.9
806.533	118
806.971	128.1
807.409	158.6
807.847	227.4
808.284	467.8
808.722	1373.3
809.16	2563.4
