Data from 20171114-ORNL-Ar_H_NY_Subt18_08-05-46-612.txt Node
Date: Tue Nov 14 08:05:46 EST 2017
User: Ender
Spectrometer: HR+D1039
Trigger mode: 0
Integration Time (sec): 2.730000E-2
Scans to average: 10
Electric dark correction enabled: true
Nonlinearity correction enabled: false
Boxcar width: 0
XAxis mode: Wavelengths
Number of Pixels in Spectrum: 2048
>>>>>Begin Spectral Data<<<<<
187.836	-3.4
188.309	-3.4
188.782	-3.4
189.255	-1.1
189.728	-4
190.201	1
190.674	7.1
191.147	3.9
191.619	-8.4
192.092	0.3
192.565	4.9
193.038	-1.6
193.511	5.4
193.984	-2.9
194.456	-5.6
194.929	2.1
195.402	0.9
195.874	1.4
196.347	-2.4
196.82	-11.2
197.292	5.9
197.765	-4
198.237	-8.3
198.71	-1.9
199.182	-2.3
199.655	1.9
200.127	-0.2
200.6	-9
201.072	-5.3
201.544	-2.1
202.017	0.4
202.489	5.9
202.961	-6
203.433	-4.3
203.906	-2.9
204.378	-6.7
204.85	-7.6
205.322	-5.4
205.794	-1.8
206.266	-2
206.739	-7.9
207.211	0.1
207.683	-8.2
208.155	-7.7
208.627	-7.7
209.099	-5.7
209.57	-12.1
210.042	-6.7
210.514	-1
210.986	-4.4
211.458	-9.2
211.93	-6.1
212.402	0.3
212.873	-6.9
213.345	-8.2
213.817	-13.7
214.288	-7.2
214.76	-5.9
215.232	-5.2
215.703	-3.6
216.175	-3
216.646	-5
217.118	1.3
217.589	-4.5
218.061	-0.3
218.532	-5.9
219.004	0.9
219.475	-1.9
219.946	-2.1
220.418	-8
220.889	1.3
221.36	-2.3
221.832	-7.1
222.303	-7.1
222.774	-0.6
223.245	-8.8
223.717	-6.7
224.188	-1.6
224.659	-7.5
225.13	-8.6
225.601	-1.3
226.072	2.8
226.543	-2.7
227.014	4
227.485	-3.1
227.956	-8.3
228.427	-4.1
228.898	-0.3
229.369	0.6
229.839	-7.8
230.31	-7.2
230.781	3.7
231.252	-3.4
231.722	-6.2
232.193	-4.6
232.664	-2.1
233.135	0.8
233.605	-1.7
234.076	-3.8
234.546	-2.3
235.017	0.5
235.487	3.3
235.958	2.6
236.428	-6.8
236.899	3.5
237.369	1.1
237.84	0.2
238.31	8.1
238.78	4.6
239.251	-2
239.721	3.4
240.191	-0.2
240.662	5.6
241.132	3.2
241.602	-1.1
242.072	-1.3
242.542	7.4
243.013	3.5
243.483	-0.5
243.953	6.8
244.423	0
244.893	-8.6
245.363	6.2
245.833	1.5
246.303	0.1
246.773	7.6
247.243	0.8
247.712	3.2
248.182	11.1
248.652	5.4
249.122	3
249.592	15.6
250.061	18.4
250.531	34
251.001	16
251.471	18
251.94	21.3
252.41	4
252.879	-0
253.349	11.9
253.818	10.7
254.288	3.8
254.757	8.9
255.227	4.2
255.696	3
256.166	4.9
256.635	6.7
257.105	8.5
257.574	3.8
258.043	9.4
258.513	13.8
258.982	15.4
259.451	11.3
259.92	10.4
260.389	9.5
260.859	18.5
261.328	9.8
261.797	16.9
262.266	9
262.735	12.7
263.204	2.4
263.673	0.6
264.142	6.3
264.611	1.3
265.08	1.8
265.549	-3.1
266.018	1.3
266.487	-5.8
266.955	-5.1
267.424	3.3
267.893	5.1
268.362	4.2
268.83	10.3
269.299	11.2
269.768	5.3
270.236	5.2
270.705	1.6
271.174	5.7
271.642	9.8
272.111	12.2
272.579	17.6
273.048	24.9
273.516	32.2
273.985	28.7
274.453	26.8
274.922	16.9
275.39	10.4
275.858	0.7
276.327	16.4
276.795	18.9
277.263	7.8
277.731	27.3
278.2	59.9
278.668	62.3
279.136	47.9
279.604	20
280.072	18.1
280.54	13.9
281.008	11
281.477	8
281.945	12
282.413	14.3
282.881	14.8
283.348	11.6
283.816	19
284.284	20.9
284.752	24
285.22	12.7
285.688	16.2
286.156	19.4
286.623	42.1
287.091	55.8
287.559	34.6
288.026	19.7
288.494	17.7
288.962	3.7
289.429	14.5
289.897	20.3
290.364	13
290.832	18.2
291.3	14.2
291.767	20.2
292.234	20.9
292.702	13.7
293.169	17.6
293.637	25.7
294.104	24.6
294.571	14.1
295.039	12.2
295.506	8.7
295.973	16.7
296.44	15.1
296.908	23.5
297.375	12.6
297.842	23.1
298.309	20.4
298.776	20.8
299.243	18.5
299.71	13.8
300.177	22.7
300.644	22.6
301.111	19.5
301.578	18.8
302.045	18.5
302.512	24.6
302.979	26.7
303.446	27
303.913	17.7
304.379	21.8
304.846	26.1
305.313	27.4
305.78	21.1
306.246	24.3
306.713	25.8
307.18	24.7
307.646	27.3
308.113	28.5
308.579	19.4
309.046	26.8
309.512	27.3
309.979	19.2
310.445	24.5
310.912	29.5
311.378	35.3
311.845	27.6
312.311	30.9
312.777	37.3
313.244	28
313.71	34.1
314.176	29.4
314.642	34.1
315.109	36.3
315.575	37.7
316.041	38.3
316.507	34.7
316.973	41
317.439	31.7
317.905	38.7
318.371	33.5
318.837	39.9
319.303	34.4
319.769	34.8
320.235	29
320.701	40
321.167	42.9
321.633	36.3
322.099	35.9
322.564	44.5
323.03	40.1
323.496	39.1
323.962	45
324.427	39.3
324.893	41.4
325.359	40.6
325.824	37.8
326.29	38
326.755	37.6
327.221	38.6
327.686	34.6
328.152	44.9
328.617	42
329.083	52.5
329.548	51.6
330.014	48.4
330.479	39.1
330.944	40.8
331.41	47.5
331.875	50.3
332.34	42.9
332.805	38.8
333.271	45.8
333.736	44.3
334.201	55.1
334.666	53.4
335.131	52.1
335.596	52.6
336.061	51.1
336.526	41.8
336.991	47.4
337.456	51.8
337.921	49.6
338.386	41.5
338.851	43.9
339.316	48.5
339.781	42
340.246	47.5
340.711	47.4
341.175	51.9
341.64	51.9
342.105	50.8
342.569	56.9
343.034	63.7
343.499	59.3
343.963	50.6
344.428	61.1
344.893	66.8
345.357	64.4
345.822	60.6
346.286	65.9
346.751	73.8
347.215	73.6
347.679	77.6
348.144	96.5
348.608	88.5
349.073	67.8
349.537	73.9
350.001	81.3
350.465	89.7
350.93	82.1
351.394	86.7
351.858	70
352.322	82.9
352.786	83.4
353.25	108.5
353.715	115.4
354.179	108.4
354.643	120.5
355.107	124.9
355.571	98.7
356.035	105.7
356.498	119.4
356.962	121.9
357.426	130.6
357.89	124.4
358.354	95.3
358.818	81.1
359.281	75.6
359.745	80.5
360.209	71.8
360.673	78.4
361.136	85.8
361.6	86.5
362.064	83.2
362.527	87.6
362.991	88.1
363.454	81.9
363.918	73.1
364.381	83.2
364.845	81.2
365.308	82.4
365.772	80
366.235	77.3
366.698	80
367.162	83.3
367.625	87.2
368.088	87
368.552	93.2
369.015	88.4
369.478	95.8
369.941	101.2
370.404	93
370.867	106.4
371.331	99.6
371.794	111.3
372.257	113.1
372.72	114.2
373.183	108.8
373.646	105
374.109	104.7
374.572	103.7
375.035	105.3
375.497	112.6
375.96	103.3
376.423	104.6
376.886	115.4
377.349	108.7
377.811	100.9
378.274	105.2
378.737	106.4
379.199	110.2
379.662	110.2
380.125	115.3
380.587	116.6
381.05	116.2
381.512	130.5
381.975	131.5
382.437	127.9
382.9	126
383.362	135.9
383.825	142.1
384.287	146.9
384.75	139.5
385.212	138.2
385.674	136.2
386.136	133.8
386.599	127.7
387.061	127.6
387.523	127.1
387.985	137.4
388.447	150.6
388.91	138.4
389.372	148.1
389.834	145.8
390.296	144
390.758	154.2
391.22	172.4
391.682	210.8
392.144	291.3
392.606	232.5
393.068	167.5
393.529	163.2
393.991	150.8
394.453	145.3
394.915	149.5
395.377	192.6
395.838	214.2
396.3	153
396.762	147.5
397.224	126.8
397.685	122
398.147	131.2
398.608	125.9
399.07	124.4
399.531	133
399.993	139.6
400.454	155.9
400.916	138.1
401.377	147.5
401.839	148.9
402.3	146.1
402.762	164.3
403.223	172.4
403.684	164.4
404.145	157.6
404.607	163.6
405.068	164.7
405.529	162.8
405.99	186.6
406.451	175.7
406.913	168.6
407.374	168.3
407.835	163
408.296	167
408.757	171.6
409.218	179.5
409.679	176.3
410.14	178.6
410.601	182.7
411.062	179
411.522	191.1
411.983	184.8
412.444	168.4
412.905	180.8
413.366	186.5
413.826	199.4
414.287	217.7
414.748	253.7
415.208	243.8
415.669	205.3
416.13	204.3
416.59	209.7
417.051	211.3
417.511	217.7
417.972	236
418.432	247.4
418.893	285.3
419.353	246.4
419.814	202
420.274	178.8
420.734	175.3
421.195	199.7
421.655	206.3
422.115	191.6
422.576	188.2
423.036	198
423.496	213.2
423.956	217.6
424.416	229.3
424.876	261.8
425.336	256.4
425.797	259.1
426.257	239.8
426.717	240.6
427.177	232.2
427.637	221.6
428.097	231.8
428.556	244.4
429.016	270.1
429.476	269.5
429.936	270.3
430.396	274.2
430.856	294.9
431.315	311.7
431.775	351.6
432.235	379.8
432.694	347.6
433.154	361.2
433.614	389.9
434.073	341.4
434.533	282.9
434.993	272.8
435.452	279.2
435.912	297.1
436.371	294.7
436.83	284.7
437.29	273.1
437.749	245.9
438.209	246.9
438.668	269
439.127	289.7
439.587	264.8
440.046	245.2
440.505	257.3
440.964	282.1
441.424	319.2
441.883	305.8
442.342	261.7
442.801	220.3
443.26	215.8
443.719	220.5
444.178	218.1
444.637	206.4
445.096	221.7
445.555	223.7
446.014	221.3
446.473	224.6
446.932	230.7
447.391	219.5
447.849	226.4
448.308	221.5
448.767	224
449.226	242.6
449.685	239.1
450.143	249.1
450.602	234.8
451.061	224.4
451.519	238.9
451.978	231.1
452.436	237.7
452.895	241.6
453.353	250.7
453.812	237.4
454.27	242
454.729	238
455.187	234.7
455.646	252
456.104	237.3
456.562	255.3
457.021	262.9
457.479	254.5
457.937	266.5
458.395	261.1
458.854	252.2
459.312	253.6
459.77	277.6
460.228	255.3
460.686	240.9
461.144	240.9
461.602	242.3
462.06	235.9
462.518	248.7
462.976	252.7
463.434	252.9
463.892	258.1
464.35	273.4
464.808	289.3
465.266	266.1
465.724	273.9
466.181	270.4
466.639	263.8
467.097	281.5
467.555	293.8
468.012	296.1
468.47	302.2
468.928	329.7
469.385	336.8
469.843	353.4
470.3	343.8
470.758	361.9
471.215	374
471.673	407.9
472.13	415.3
472.588	404.4
473.045	372.3
473.503	371
473.96	389.5
474.417	405
474.875	429.3
475.332	472.3
475.789	459.1
476.246	462.5
476.704	476.9
477.161	504.6
477.618	522.8
478.075	561.3
478.532	610.7
478.989	685.9
479.446	807.3
479.903	771.1
480.36	803.7
480.817	857.1
481.274	962.2
481.731	1067.6
482.188	1162.1
482.645	1294.8
483.102	1404.6
483.558	1532.6
484.015	1585.7
484.472	1564.2
484.929	1517.2
485.385	1477.2
485.842	1433.3
486.299	1356.1
486.755	1302
487.212	1094.4
487.668	920.3
488.125	841.8
488.582	786.4
489.038	737.1
489.494	705.4
489.951	672.9
490.407	665.7
490.864	639.6
491.32	635.9
491.776	634.2
492.233	653.9
492.689	606.5
493.145	598.3
493.602	583.7
494.058	602.2
494.514	615.2
494.97	638.6
495.426	644.4
495.882	618
496.338	605.7
496.794	615.5
497.251	620.7
497.707	632.3
498.163	628.3
498.618	645.3
499.074	649.3
499.53	675.4
499.986	671.9
500.442	643.2
500.898	635.6
501.354	624.2
501.809	629.7
502.265	645
502.721	657.4
503.177	670.6
503.632	654.1
504.088	677.1
504.543	714
504.999	710.6
505.455	649.4
505.91	633.2
506.366	629.2
506.821	626.6
507.277	617.7
507.732	629.7
508.187	617.5
508.643	630.2
509.098	624.9
509.553	645.4
510.009	670
510.464	666.7
510.919	688.4
511.375	690.1
511.83	697.4
512.285	710.7
512.74	754.5
513.195	783.1
513.65	768.3
514.105	769.7
514.56	776.2
515.015	786.9
515.47	808.5
515.925	798.3
516.38	779.2
516.835	785.2
517.29	781.1
517.745	764.6
518.2	755.1
518.655	738.6
519.109	738.6
519.564	723.1
520.019	738.3
520.474	729.1
520.928	729.7
521.383	720.7
521.838	698.6
522.292	710
522.747	697.6
523.201	713.9
523.656	702.9
524.11	696.8
524.565	682.7
525.019	680.7
525.474	695.5
525.928	701.8
526.382	684.6
526.837	693.6
527.291	703.6
527.745	692.3
528.2	705.3
528.654	693.8
529.108	690.3
529.562	683.4
530.016	686.1
530.47	681.7
530.925	687.8
531.379	697.4
531.833	712.6
532.287	705.9
532.741	697.8
533.195	701.5
533.649	708.5
534.103	723.1
534.556	705.3
535.01	708.9
535.464	699.6
535.918	714.7
536.372	718.3
536.826	719.6
537.279	690.7
537.733	705.1
538.187	716.6
538.64	721
539.094	719.4
539.548	723.5
540.001	719.1
540.455	722.7
540.908	727.7
541.362	741.1
541.815	737.3
542.269	747
542.722	754.3
543.175	765.7
543.629	760.4
544.082	779.6
544.536	777.3
544.989	773.6
545.442	793.3
545.895	784
546.349	781.8
546.802	775.7
547.255	781.9
547.708	794.9
548.161	797.7
548.614	815.3
549.067	820.7
549.52	808.8
549.973	792.5
550.426	802.1
550.879	786.6
551.332	794.4
551.785	797.4
552.238	806.2
552.691	815.1
553.144	817.3
553.596	841.2
554.049	851.5
554.502	880.7
554.955	904
555.407	888.9
555.86	893.3
556.313	882.7
556.765	874.6
557.218	875.7
557.67	877
558.123	881.7
558.576	875.2
559.028	869.2
559.48	881.3
559.933	859.2
560.385	832.6
560.838	792.3
561.29	780.3
561.742	761.5
562.195	751.5
562.647	754.9
563.099	775.4
563.551	762.2
564.004	769.8
564.456	762
564.908	747.3
565.36	736.1
565.812	728.5
566.264	721
566.716	707.8
567.168	695
567.62	711.5
568.072	692.8
568.524	685.4
568.976	681.4
569.428	666.9
569.88	669
570.332	665.1
570.784	666.3
571.235	666.7
571.687	686.3
572.139	688.5
572.59	706.8
573.042	702.7
573.494	702.6
573.945	693.2
574.397	675.3
574.849	685.9
575.3	680.1
575.752	675.7
576.203	656.5
576.655	677.8
577.106	659.3
577.557	652.3
578.009	671.3
578.46	653.8
578.912	651.5
579.363	658.9
579.814	665.5
580.265	657
580.717	650.5
581.168	666.6
581.619	666
582.07	667.2
582.521	660.3
582.972	664.5
583.423	665.6
583.875	666.8
584.326	686.6
584.777	735.4
585.227	805.2
585.678	897.7
586.129	981.2
586.58	1038.9
587.031	1125.9
587.482	1271.7
587.933	1464.4
588.384	1270.7
588.834	947.7
589.285	784
589.736	762.4
590.186	759
590.637	748.7
591.088	733.6
591.538	721.2
591.989	727.2
592.439	716.1
592.89	711.5
593.34	696.1
593.791	695.8
594.241	686.5
594.692	696.8
595.142	683.4
595.593	675.3
596.043	686.8
596.493	694.2
596.943	697.6
597.394	715
597.844	700.7
598.294	721.1
598.744	731.8
599.195	761
599.645	793
600.095	836.1
600.545	884.9
600.995	938.5
601.445	993.7
601.895	1058.4
602.345	1112
602.795	1085.4
603.245	1031.3
603.695	992.3
604.145	932.3
604.594	884.1
605.044	847.6
605.494	776.5
605.944	738.7
606.393	713.7
606.843	710.4
607.293	720.5
607.743	714.3
608.192	724
608.642	740.4
609.091	743.3
609.541	750.7
609.99	753.6
610.44	753.1
610.889	705.9
611.339	686.9
611.788	671.8
612.238	690.5
612.687	707.1
613.136	704.8
613.586	716.7
614.035	718
614.484	730.7
614.933	740.7
615.383	733.7
615.832	724.8
616.281	709.3
616.73	673
617.179	649.6
617.628	634.4
618.077	617.6
618.526	602.8
618.975	601.7
619.424	595.8
619.873	590.8
620.322	595.8
620.771	600.5
621.22	590.8
621.669	582.3
622.118	568.3
622.567	560.5
623.015	547.6
623.464	554.4
623.913	545.9
624.361	533.5
624.81	534.8
625.259	556
625.707	536.5
626.156	537.1
626.604	555.4
627.053	541.4
627.501	544.2
627.95	555.1
628.398	565.8
628.847	546.8
629.295	551.3
629.744	549.8
630.192	554.4
630.64	552.5
631.089	547.3
631.537	560.2
631.985	565.5
632.433	580
632.881	582.4
633.33	640.9
633.778	611.1
634.226	539.4
634.674	554.1
635.122	570.1
635.57	570
636.018	613.4
636.466	564.7
636.914	545.5
637.362	555.1
637.81	549.5
638.258	557.9
638.705	552.5
639.153	590.8
639.601	598.4
640.049	622.6
640.497	652.6
640.944	661.2
641.392	617.2
641.84	592
642.287	571.2
642.735	545.4
643.182	549.6
643.63	553.9
644.078	554.8
644.525	565.5
644.973	571.6
645.42	586.2
645.867	594.3
646.315	627.3
646.762	636.1
647.21	672.6
647.657	687.1
648.104	726.2
648.551	753.6
648.999	812.1
649.446	881.7
649.893	977.3
650.34	1113.2
650.787	1336.6
651.234	1657
651.682	2164.6
652.129	2962.1
652.576	4261.4
653.023	6292.4
653.47	8627.8
653.917	10810.8
654.363	12531.4
654.81	13961.2
655.257	13272.1
655.704	8678.2
656.151	5123.5
656.598	3322.8
657.044	2349
657.491	1812.7
657.938	1451.5
658.385	1209.8
658.831	1046.4
659.278	938.5
659.724	825.2
660.171	755.3
660.618	697.4
661.064	667.4
661.511	640.7
661.957	624.9
662.404	626.3
662.85	629.7
663.296	594.6
663.743	536.6
664.189	516.5
664.635	514.5
665.082	505.7
665.528	503.9
665.974	499.8
666.42	495.3
666.867	485.9
667.313	472.6
667.759	472.2
668.205	465.1
668.651	465.8
669.097	461.2
669.543	475.5
669.989	457.9
670.435	435.6
670.881	425.9
671.327	434.1
671.773	444.9
672.219	466.3
672.665	519.9
673.11	554.9
673.556	598.7
674.002	645.3
674.448	644.8
674.893	526.2
675.339	452.7
675.785	428.7
676.23	401.6
676.676	377.1
677.122	370.2
677.567	356
678.013	352.4
678.458	339.7
678.904	346.3
679.349	331.6
679.794	333.6
680.24	334.6
680.685	334.5
681.131	320.3
681.576	334.8
682.021	336.5
682.466	331.5
682.912	335.3
683.357	327.6
683.802	358.3
684.247	393.9
684.692	428.7
685.137	472.7
685.583	513.7
686.028	537.8
686.473	503.7
686.918	432.4
687.363	389.7
687.807	372.7
688.252	352.5
688.697	338.1
689.142	318
689.587	311.6
690.032	309.2
690.477	324.4
690.921	326.6
691.366	365.8
691.811	379.7
692.255	414.8
692.7	438.1
693.145	472.2
693.589	652.8
694.034	1058.5
694.478	1460.8
694.923	1659.7
695.367	2161.7
695.812	1142.5
696.256	472.4
696.701	352.6
697.145	329.8
697.59	314.2
698.034	310.6
698.478	305.6
698.922	306.9
699.367	308.9
699.811	321.8
700.255	335.8
700.699	366.6
701.143	396.2
701.588	452.8
702.032	484.2
702.476	488.3
702.92	464.5
703.364	468.3
703.808	600.4
704.252	977.2
704.696	1366.2
705.14	1588.3
705.584	2034.5
706.027	1018.8
706.471	493.2
706.915	377.5
707.359	334.2
707.803	305.8
708.246	293.4
708.69	297.6
709.134	305.1
709.577	298.5
710.021	299.6
710.465	292.7
710.908	286.5
711.352	285.3
711.795	290.2
712.239	326.3
712.682	365.6
713.126	394.5
713.569	452
714.012	355.4
714.456	308.4
714.899	289.1
715.342	262
715.786	246.2
716.229	245.1
716.672	246.1
717.115	237.7
717.558	241.5
718.002	238.7
718.445	249.1
718.888	270.8
719.331	282.5
719.774	286.9
720.217	284.8
720.66	270.2
721.103	249
721.546	241.8
721.989	234.8
722.432	216.1
722.874	229.5
723.317	221.7
723.76	215.2
724.203	246
724.645	301.2
725.088	423
725.531	546.3
725.974	615.4
726.416	523.6
726.859	291.3
727.301	233.8
727.744	218
728.187	219.3
728.629	226.8
729.071	231.3
729.514	240.3
729.956	250.2
730.399	268.6
730.841	274.9
731.283	258.2
731.726	250.5
732.168	249
732.61	250.7
733.053	263.7
733.495	293.9
733.937	334.6
734.379	377.3
734.821	410.2
735.263	508.4
735.705	773.2
736.148	1465.4
736.59	2423.9
737.032	2911
737.474	2366.4
737.916	759.2
738.357	403
738.799	305
739.241	279.6
739.683	268.6
740.125	270.8
740.567	279.8
741.008	294.8
741.45	293.5
741.892	301.7
742.334	329.9
742.775	339.6
743.217	322.2
743.658	265.2
744.1	243.4
744.542	243.9
744.983	292.3
745.425	329.3
745.866	328.8
746.307	268.4
746.749	277
747.19	309
747.632	421.9
748.073	810.3
748.514	1734.7
748.956	2690.6
749.397	3371.6
749.838	2787.3
750.279	2808.5
750.72	1421.7
751.162	526.2
751.603	301.5
752.044	238.9
752.485	216.1
752.926	197.5
753.367	190.3
753.808	188.1
754.249	179.8
754.69	176.6
755.131	174.1
755.572	175
756.013	165.8
756.453	175.7
756.894	179.1
757.335	171.1
757.776	186.7
758.216	181.5
758.657	185.5
759.098	188
759.538	214.8
759.979	246.6
760.42	348.2
760.86	642.1
761.301	1669.2
761.741	4130.4
762.182	6130.8
762.622	4338.7
763.063	1238
763.503	522
763.943	329.8
764.384	320
764.824	381.4
765.264	407.3
765.705	289.8
766.145	193
766.585	179
767.025	168.8
767.465	177.7
767.906	226.7
768.346	300
768.786	315.9
769.226	246.9
769.666	298.7
770.106	569.5
770.546	1441.5
770.986	2505
771.426	2282.8
771.866	750
772.306	314.9
772.745	195.2
773.185	158.7
773.625	156.5
774.065	156.6
774.505	179.1
774.944	288.3
775.384	625.7
775.824	1146.7
776.263	1129.6
776.703	482.6
777.142	207.9
777.582	147.2
778.021	132.5
778.461	135.8
778.9	134
779.34	126.8
779.779	111.4
780.219	101.6
780.658	104.9
781.097	101.9
781.537	102.9
781.976	106.2
782.415	103.1
782.855	97.9
783.294	97.2
783.733	94.5
784.172	103.4
784.611	98.5
785.05	101.6
785.489	104.8
785.928	109.3
786.367	112.6
786.806	114.1
787.245	127
787.684	133.3
788.123	140.7
788.562	124.1
789.001	120.9
789.44	115.7
789.879	111.7
790.317	109.6
790.756	123.2
791.195	121.2
791.634	138
792.072	195.6
792.511	338.7
792.95	920.3
793.388	2020.7
793.827	1855.8
794.265	642.8
794.704	262.1
795.142	171.7
795.581	149.7
796.019	132.1
796.458	120.8
796.896	111.8
797.334	129.9
797.773	148.6
798.211	205.6
798.649	404.9
799.087	949.9
799.526	1490.3
799.964	1884.3
800.402	1918
800.84	720.9
801.278	286.3
801.716	175.3
802.154	139.1
802.592	139.3
803.03	131.5
803.468	123.6
803.906	131.6
804.344	146.7
804.782	128.3
805.22	129.8
805.658	122
806.096	140.9
806.533	149.5
