Data from 20171114-ORNL-Ar_H_NY_Subt18_08-07-42-627.txt Node
Date: Tue Nov 14 08:07:42 EST 2017
User: Ender
Spectrometer: HR+D1039
Trigger mode: 0
Integration Time (sec): 2.730000E-2
Scans to average: 10
Electric dark correction enabled: true
Nonlinearity correction enabled: false
Boxcar width: 0
XAxis mode: Wavelengths
Number of Pixels in Spectrum: 2048
>>>>>Begin Spectral Data<<<<<
187.836	-5.99
188.309	-5.99
188.782	-5.99
189.255	1.21
189.728	-0.49
190.201	6.41
190.674	4.71
191.147	4.41
191.619	-4.59
192.092	2.71
192.565	4.21
193.038	2.51
193.511	3.21
193.984	-2.59
194.456	-2.09
194.929	-1.79
195.402	-3.39
195.874	-8.39
196.347	-5.09
196.82	-3.09
197.292	7.31
197.765	3.21
198.237	-9.99
198.71	2.21
199.182	0.01
199.655	4.61
200.127	2.71
200.6	-0.09
201.072	-1.19
201.544	-8.19
202.017	-1.69
202.489	5.61
202.961	1.11
203.433	-4.19
203.906	-5.49
204.378	-3.89
204.85	-6.19
205.322	-10.19
205.794	-6.19
206.266	-6.39
206.739	-12.49
207.211	-1.89
207.683	-12.69
208.155	-6.69
208.627	-9.59
209.099	2.01
209.57	-12.39
210.042	-8.29
210.514	-2.79
210.986	0.91
211.458	-13.99
211.93	-3.89
212.402	1.11
212.873	-4.89
213.345	-11.99
213.817	-11.99
214.288	-4.79
214.76	-9.89
215.232	-5.99
215.703	-6.69
216.175	-5.39
216.646	-2.39
217.118	-7.09
217.589	-3.69
218.061	0.11
218.532	-8.99
219.004	-2.99
219.475	-3.79
219.946	-3.09
220.418	-6.79
220.889	6.61
221.36	2.31
221.832	-3.69
222.303	-9.99
222.774	2.11
223.245	-9.59
223.717	-9.99
224.188	-8.49
224.659	-9.09
225.13	-5.99
225.601	-4.49
226.072	1.81
226.543	0.61
227.014	-5.39
227.485	-5.29
227.956	-4.79
228.427	-3.59
228.898	-1.39
229.369	-0.39
229.839	-1.59
230.31	-5.89
230.781	0.21
231.252	0.31
231.722	-10.49
232.193	-4.89
232.664	-1.89
233.135	-3.39
233.605	-1.39
234.076	-7.69
234.546	1.41
235.017	2.81
235.487	-1.59
235.958	-1.49
236.428	-5.09
236.899	-1.79
237.369	9.81
237.84	-4.49
238.31	4.91
238.78	3.11
239.251	-3.89
239.721	3.11
240.191	0.41
240.662	-0.89
241.132	-2.59
241.602	-6.49
242.072	2.41
242.542	4.21
243.013	-3.09
243.483	2.31
243.953	4.71
244.423	-1.19
244.893	-2.99
245.363	5.01
245.833	-0.69
246.303	0.31
246.773	-1.19
247.243	-2.89
247.712	-4.99
248.182	3.31
248.652	5.31
249.122	-4.69
249.592	10.81
250.061	12.71
250.531	28.81
251.001	16.01
251.471	17.71
251.94	15.81
252.41	0.51
252.879	-0.49
253.349	14.01
253.818	5.01
254.288	2.01
254.757	2.21
255.227	1.21
255.696	-1.79
256.166	3.51
256.635	5.11
257.105	6.91
257.574	-0.39
258.043	4.31
258.513	8.91
258.982	9.51
259.451	2.91
259.92	10.61
260.389	12.01
260.859	11.91
261.328	11.01
261.797	14.71
262.266	7.41
262.735	2.71
263.204	-2.59
263.673	-3.19
264.142	4.31
264.611	-7.59
265.08	0.11
265.549	-2.19
266.018	4.51
266.487	1.21
266.955	2.61
267.424	3.41
267.893	6.81
268.362	0.71
268.83	-1.19
269.299	7.41
269.768	5.41
270.236	3.31
270.705	-0.89
271.174	5.81
271.642	2.41
272.111	8.61
272.579	17.31
273.048	15.81
273.516	21.01
273.985	24.31
274.453	20.11
274.922	16.51
275.39	4.21
275.858	1.01
276.327	7.11
276.795	18.31
277.263	5.71
277.731	21.01
278.2	46.31
278.668	47.41
279.136	45.91
279.604	10.41
280.072	11.91
280.54	10.41
281.008	12.01
281.477	15.51
281.945	7.41
282.413	10.01
282.881	11.91
283.348	6.91
283.816	10.21
284.284	9.31
284.752	20.21
285.22	11.41
285.688	9.81
286.156	17.61
286.623	39.51
287.091	47.01
287.559	24.01
288.026	16.81
288.494	16.61
288.962	1.01
289.429	7.21
289.897	18.31
290.364	11.31
290.832	12.81
291.3	12.41
291.767	18.21
292.234	18.41
292.702	13.51
293.169	15.91
293.637	22.41
294.104	12.91
294.571	4.71
295.039	6.81
295.506	6.21
295.973	12.61
296.44	13.31
296.908	15.51
297.375	16.11
297.842	17.21
298.309	14.11
298.776	12.61
299.243	14.51
299.71	8.81
300.177	21.31
300.644	19.61
301.111	18.31
301.578	12.61
302.045	15.41
302.512	19.11
302.979	16.01
303.446	23.71
303.913	19.51
304.379	18.51
304.846	21.71
305.313	20.21
305.78	15.91
306.246	21.41
306.713	18.51
307.18	29.71
307.646	26.21
308.113	29.01
308.579	17.11
309.046	21.01
309.512	21.11
309.979	11.71
310.445	18.81
310.912	30.71
311.378	31.41
311.845	27.11
312.311	25.81
312.777	28.41
313.244	30.11
313.71	34.01
314.176	25.91
314.642	33.31
315.109	27.51
315.575	28.41
316.041	38.61
316.507	22.01
316.973	33.61
317.439	26.11
317.905	27.31
318.371	28.11
318.837	32.21
319.303	28.21
319.769	34.51
320.235	29.81
320.701	30.71
321.167	36.91
321.633	32.41
322.099	40.41
322.564	37.11
323.03	39.41
323.496	33.81
323.962	33.81
324.427	28.21
324.893	47.51
325.359	31.41
325.824	29.51
326.29	32.71
326.755	37.61
327.221	32.31
327.686	33.41
328.152	36.01
328.617	37.31
329.083	42.11
329.548	45.91
330.014	44.11
330.479	35.91
330.944	35.11
331.41	34.01
331.875	34.51
332.34	36.41
332.805	34.71
333.271	41.41
333.736	44.01
334.201	47.61
334.666	52.21
335.131	45.71
335.596	48.81
336.061	45.51
336.526	38.71
336.991	43.61
337.456	50.61
337.921	40.21
338.386	37.71
338.851	38.51
339.316	40.21
339.781	46.71
340.246	41.21
340.711	39.31
341.175	41.01
341.64	43.41
342.105	44.51
342.569	48.81
343.034	52.21
343.499	46.61
343.963	39.81
344.428	49.41
344.893	46.71
345.357	53.21
345.822	54.51
346.286	59.01
346.751	58.91
347.215	65.71
347.679	65.31
348.144	85.81
348.608	76.81
349.073	67.01
349.537	67.31
350.001	71.11
350.465	81.91
350.93	73.31
351.394	73.51
351.858	60.61
352.322	81.11
352.786	73.21
353.25	94.61
353.715	100.41
354.179	91.11
354.643	112.21
355.107	108.51
355.571	101.01
356.035	87.41
356.498	111.41
356.962	112.91
357.426	118.91
357.89	106.61
358.354	85.11
358.818	75.41
359.281	74.51
359.745	69.81
360.209	69.81
360.673	69.41
361.136	67.11
361.6	76.31
362.064	79.11
362.527	79.01
362.991	78.91
363.454	73.51
363.918	63.61
364.381	69.71
364.845	73.41
365.308	76.71
365.772	77.91
366.235	80.51
366.698	77.21
367.162	76.91
367.625	77.71
368.088	77.71
368.552	78.91
369.015	74.61
369.478	91.41
369.941	95.91
370.404	85.81
370.867	92.21
371.331	100.51
371.794	100.31
372.257	102.31
372.72	103.11
373.183	99.81
373.646	91.91
374.109	96.81
374.572	98.51
375.035	102.41
375.497	98.71
375.96	99.61
376.423	92.41
376.886	101.11
377.349	104.01
377.811	88.61
378.274	90.41
378.737	100.81
379.199	102.91
379.662	103.91
380.125	111.31
380.587	107.01
381.05	114.91
381.512	121.41
381.975	125.11
382.437	115.81
382.9	118.81
383.362	120.41
383.825	130.31
384.287	135.51
384.75	129.71
385.212	127.51
385.674	127.41
386.136	126.71
386.599	122.41
387.061	114.61
387.523	118.31
387.985	119.41
388.447	133.91
388.91	136.71
389.372	151.01
389.834	150.11
390.296	139.71
390.758	154.21
391.22	161.21
391.682	203.81
392.144	291.01
392.606	218.71
393.068	152.41
393.529	161.11
393.991	145.51
394.453	132.81
394.915	146.81
395.377	181.41
395.838	208.41
396.3	152.51
396.762	133.21
397.224	127.01
397.685	118.31
398.147	121.41
398.608	118.71
399.07	120.81
399.531	123.91
399.993	132.31
400.454	140.11
400.916	140.21
401.377	134.51
401.839	133.11
402.3	140.31
402.762	155.31
403.223	172.01
403.684	162.51
404.145	149.11
404.607	143.61
405.068	151.21
405.529	165.11
405.99	177.81
406.451	159.41
406.913	164.91
407.374	159.31
407.835	152.81
408.296	149.81
408.757	162.61
409.218	180.21
409.679	169.21
410.14	170.61
410.601	165.01
411.062	173.91
411.522	179.91
411.983	180.91
412.444	162.01
412.905	164.61
413.366	169.51
413.826	183.41
414.287	205.61
414.748	242.01
415.208	234.61
415.669	199.61
416.13	193.81
416.59	184.31
417.051	200.11
417.511	213.41
417.972	222.21
418.432	241.81
418.893	278.21
419.353	239.51
419.814	187.71
420.274	176.11
420.734	175.41
421.195	189.31
421.655	185.11
422.115	180.81
422.576	179.11
423.036	191.21
423.496	199.61
423.956	201.51
424.416	222.91
424.876	246.61
425.336	245.21
425.797	247.21
426.257	254.11
426.717	230.81
427.177	218.81
427.637	207.71
428.097	222.81
428.556	229.81
429.016	261.71
429.476	251.41
429.936	257.21
430.396	270.31
430.856	281.91
431.315	300.81
431.775	338.31
432.235	359.31
432.694	331.01
433.154	341.11
433.614	377.11
434.073	316.91
434.533	272.71
434.993	263.81
435.452	265.81
435.912	286.11
436.371	274.31
436.83	271.41
437.29	260.01
437.749	243.51
438.209	233.41
438.668	254.31
439.127	281.51
439.587	252.41
440.046	235.41
440.505	252.91
440.964	266.81
441.424	311.01
441.883	298.11
442.342	247.51
442.801	212.01
443.26	211.21
443.719	208.71
444.178	208.11
444.637	200.41
445.096	220.21
445.555	203.41
446.014	213.81
446.473	212.31
446.932	219.81
447.391	213.71
447.849	219.91
448.308	208.91
448.767	210.71
449.226	224.11
449.685	229.91
450.143	243.11
450.602	232.01
451.061	217.51
451.519	225.51
451.978	219.31
452.436	220.11
452.895	225.11
453.353	240.71
453.812	236.81
454.27	230.31
454.729	234.21
455.187	228.41
455.646	233.21
456.104	241.31
456.562	249.21
457.021	256.81
457.479	255.01
457.937	259.11
458.395	252.01
458.854	237.91
459.312	240.91
459.77	262.71
460.228	243.21
460.686	234.01
461.144	242.01
461.602	235.51
462.06	231.01
462.518	243.91
462.976	243.91
463.434	244.71
463.892	252.51
464.35	267.01
464.808	267.41
465.266	253.31
465.724	253.61
466.181	255.71
466.639	255.81
467.097	274.21
467.555	285.31
468.012	283.11
468.47	300.61
468.928	311.11
469.385	327.61
469.843	341.11
470.3	335.01
470.758	349.71
471.215	373.21
471.673	390.41
472.13	399.11
472.588	405.01
473.045	366.51
473.503	360.81
473.96	377.71
474.417	390.91
474.875	414.51
475.332	464.81
475.789	447.81
476.246	443.31
476.704	472.41
477.161	490.41
477.618	511.41
478.075	549.11
478.532	592.41
478.989	666.31
479.446	777.01
479.903	741.81
480.36	782.41
480.817	830.61
481.274	935.71
481.731	1024.31
482.188	1118.01
482.645	1248.31
483.102	1354.41
483.558	1490.81
484.015	1541.21
484.472	1511.41
484.929	1469.81
485.385	1420.81
485.842	1383.01
486.299	1310.91
486.755	1254.71
487.212	1056.71
487.668	901.41
488.125	822.81
488.582	746.31
489.038	715.11
489.494	687.71
489.951	662.11
490.407	644.41
490.864	618.31
491.32	613.01
491.776	611.51
492.233	621.31
492.689	588.51
493.145	582.81
493.602	576.81
494.058	591.21
494.514	592.41
494.97	617.41
495.426	636.11
495.882	599.91
496.338	588.61
496.794	597.11
497.251	600.11
497.707	611.21
498.163	612.41
498.618	615.81
499.074	625.21
499.53	643.81
499.986	649.81
500.442	633.31
500.898	614.31
501.354	587.71
501.809	612.61
502.265	620.71
502.721	637.41
503.177	654.21
503.632	638.41
504.088	650.41
504.543	685.01
504.999	682.01
505.455	633.91
505.91	613.51
506.366	614.01
506.821	608.71
507.277	592.61
507.732	601.31
508.187	612.11
508.643	611.01
509.098	609.81
509.553	630.11
510.009	640.71
510.464	644.61
510.919	664.11
511.375	670.91
511.83	684.01
512.285	703.11
512.74	722.71
513.195	759.41
513.65	747.71
514.105	733.41
514.56	749.11
515.015	763.41
515.47	765.51
515.925	762.21
516.38	761.91
516.835	763.81
517.29	756.81
517.745	758.91
518.2	747.81
518.655	725.31
519.109	724.21
519.564	717.21
520.019	705.41
520.474	709.61
520.928	705.01
521.383	699.21
521.838	688.01
522.292	696.91
522.747	684.51
523.201	675.91
523.656	676.31
524.11	679.81
524.565	677.81
525.019	666.81
525.474	684.91
525.928	678.71
526.382	666.11
526.837	667.01
527.291	677.81
527.745	660.81
528.2	670.61
528.654	665.61
529.108	669.41
529.562	665.41
530.016	671.31
530.47	670.91
530.925	676.61
531.379	674.11
531.833	677.81
532.287	682.81
532.741	682.81
533.195	692.91
533.649	689.01
534.103	698.81
534.556	678.71
535.01	683.41
535.464	683.51
535.918	696.31
536.372	696.21
536.826	700.01
537.279	685.61
537.733	688.61
538.187	691.41
538.64	695.11
539.094	684.71
539.548	694.41
540.001	700.51
540.455	701.01
540.908	710.51
541.362	723.61
541.815	728.41
542.269	738.71
542.722	735.21
543.175	742.71
543.629	742.61
544.082	760.11
544.536	767.71
544.989	774.91
545.442	766.21
545.895	765.61
546.349	765.01
546.802	771.81
547.255	771.41
547.708	784.91
548.161	800.01
548.614	791.31
549.067	806.71
549.52	788.71
549.973	801.31
550.426	788.51
550.879	775.11
551.332	768.31
551.785	776.11
552.238	780.81
552.691	788.81
553.144	804.31
553.596	823.21
554.049	837.81
554.502	856.61
554.955	882.01
555.407	890.61
555.86	871.61
556.313	871.81
556.765	852.21
557.218	858.81
557.67	854.51
558.123	853.31
558.576	837.31
559.028	848.31
559.48	860.11
559.933	843.41
560.385	825.11
560.838	779.81
561.29	760.61
561.742	762.01
562.195	746.11
562.647	740.41
563.099	757.01
563.551	747.41
564.004	749.11
564.456	747.51
564.908	734.51
565.36	724.51
565.812	724.31
566.264	705.21
566.716	710.11
567.168	701.41
567.62	713.11
568.072	690.21
568.524	672.71
568.976	673.61
569.428	648.31
569.88	649.51
570.332	662.81
570.784	661.61
571.235	661.41
571.687	679.81
572.139	675.51
572.59	689.11
573.042	690.71
573.494	681.31
573.945	691.31
574.397	668.21
574.849	670.61
575.3	677.51
575.752	668.21
576.203	666.61
576.655	670.61
577.106	655.51
577.557	651.51
578.009	651.91
578.46	651.31
578.912	647.41
579.363	642.81
579.814	654.51
580.265	644.61
580.717	653.61
581.168	644.41
581.619	659.11
582.07	657.61
582.521	654.81
582.972	651.31
583.423	667.01
583.875	667.11
584.326	681.91
584.777	735.11
585.227	807.51
585.678	907.51
586.129	997.91
586.58	1064.41
587.031	1147.21
587.482	1280.41
587.933	1474.11
588.384	1274.61
588.834	956.31
589.285	794.21
589.736	756.21
590.186	764.11
590.637	756.81
591.088	722.51
591.538	718.11
591.989	719.11
592.439	706.71
592.89	695.61
593.34	692.41
593.791	693.11
594.241	686.01
594.692	694.41
595.142	685.91
595.593	682.91
596.043	692.01
596.493	702.01
596.943	697.41
597.394	700.91
597.844	701.11
598.294	712.11
598.744	732.71
599.195	756.41
599.645	800.21
600.095	832.41
600.545	886.11
600.995	946.41
601.445	995.71
601.895	1064.91
602.345	1110.71
602.795	1077.41
603.245	1034.91
603.695	989.81
604.145	935.81
604.594	898.11
605.044	845.61
605.494	776.61
605.944	730.41
606.393	721.31
606.843	705.71
607.293	712.51
607.743	713.01
608.192	731.71
608.642	748.91
609.091	756.31
609.541	756.41
609.99	746.11
610.44	760.31
610.889	704.21
611.339	695.71
611.788	670.41
612.238	681.41
612.687	701.21
613.136	713.61
613.586	726.61
614.035	719.81
614.484	743.91
614.933	741.61
615.383	733.71
615.832	726.81
616.281	709.91
616.73	672.71
617.179	655.01
617.628	639.11
618.077	624.21
618.526	607.91
618.975	589.41
619.424	599.01
619.873	598.51
620.322	602.71
620.771	588.71
621.22	590.21
621.669	583.81
622.118	573.21
622.567	571.41
623.015	561.51
623.464	553.41
623.913	550.81
624.361	535.31
624.81	534.91
625.259	539.61
625.707	542.01
626.156	543.81
626.604	562.61
627.053	553.61
627.501	553.41
627.95	551.51
628.398	570.01
628.847	554.01
629.295	562.81
629.744	562.91
630.192	555.61
630.64	545.51
631.089	552.91
631.537	566.41
631.985	574.21
632.433	590.51
632.881	599.91
633.33	649.91
633.778	628.11
634.226	564.51
634.674	556.71
635.122	576.51
635.57	579.21
636.018	619.91
636.466	574.11
636.914	556.11
637.362	564.51
637.81	567.21
638.258	570.41
638.705	570.01
639.153	595.01
639.601	595.61
640.049	624.81
640.497	654.71
640.944	686.31
641.392	627.01
641.84	600.31
642.287	574.51
642.735	558.71
643.182	562.81
643.63	573.31
644.078	569.71
644.525	584.11
644.973	580.41
645.42	593.01
645.867	608.11
646.315	627.61
646.762	663.41
647.21	677.21
647.657	707.21
648.104	736.61
648.551	761.01
648.999	823.01
649.446	910.91
649.893	995.61
650.34	1153.31
650.787	1381.21
651.234	1711.21
651.682	2234.01
652.129	3098.51
652.576	4461.01
653.023	6590.81
653.47	9017.51
653.917	11168.21
654.363	12833.51
654.81	14184.21
655.257	13445.01
655.704	8800.61
656.151	5207.51
656.598	3346.11
657.044	2382.81
657.491	1830.31
657.938	1470.81
658.385	1222.41
658.831	1060.21
659.278	942.61
659.724	843.51
660.171	772.91
660.618	717.81
661.064	679.51
661.511	658.11
661.957	639.61
662.404	630.21
662.85	644.61
663.296	607.81
663.743	546.31
664.189	527.01
664.635	521.11
665.082	513.21
665.528	520.21
665.974	506.31
666.42	500.51
666.867	500.01
667.313	489.31
667.759	475.41
668.205	467.31
668.651	472.71
669.097	481.31
669.543	492.01
669.989	462.01
670.435	440.51
670.881	436.91
671.327	436.61
671.773	460.21
672.219	486.91
672.665	529.31
673.11	572.81
673.556	612.21
674.002	652.31
674.448	642.21
674.893	536.91
675.339	459.11
675.785	424.51
676.23	412.61
676.676	389.81
677.122	370.81
677.567	369.31
678.013	361.01
678.458	352.41
678.904	347.11
679.349	342.71
679.794	343.21
680.24	345.81
680.685	346.01
681.131	341.41
681.576	341.91
682.021	346.21
682.466	340.21
682.912	340.21
683.357	345.31
683.802	374.01
684.247	403.51
684.692	449.41
685.137	487.01
685.583	520.71
686.028	544.51
686.473	505.11
686.918	432.61
687.363	410.71
687.807	388.51
688.252	360.51
688.697	340.61
689.142	326.41
689.587	328.51
690.032	320.61
690.477	329.71
690.921	339.71
691.366	372.71
691.811	388.11
692.255	423.71
692.7	451.31
693.145	494.41
693.589	690.21
694.034	1123.61
694.478	1514.11
694.923	1687.01
695.367	2199.01
695.812	1176.71
696.256	496.71
696.701	366.51
697.145	338.41
697.59	325.11
698.034	316.81
698.478	320.91
698.922	322.51
699.367	318.71
699.811	338.31
700.255	352.51
700.699	384.61
701.143	418.01
701.588	463.51
702.032	505.11
702.476	503.41
702.92	474.91
703.364	476.41
703.808	629.01
704.252	1042.51
704.696	1417.11
705.14	1617.21
705.584	2066.21
706.027	1033.51
706.471	519.21
706.915	389.51
707.359	343.51
707.803	311.61
708.246	307.11
708.69	306.61
709.134	304.21
709.577	305.01
710.021	318.61
710.465	298.41
710.908	293.21
711.352	295.81
711.795	308.11
712.239	345.21
712.682	376.61
713.126	413.81
713.569	458.51
714.012	360.91
714.456	315.41
714.899	294.61
715.342	273.61
715.786	259.41
716.229	254.41
716.672	248.31
717.115	248.21
717.558	250.21
718.002	244.91
718.445	252.91
718.888	274.21
719.331	288.31
719.774	302.21
720.217	300.31
720.66	279.41
721.103	266.81
721.546	251.11
721.989	242.21
722.432	221.81
722.874	234.01
723.317	232.61
723.76	233.71
724.203	255.41
724.645	320.81
725.088	437.81
725.531	550.11
725.974	621.61
726.416	533.11
726.859	305.81
727.301	239.71
727.744	235.81
728.187	222.41
728.629	226.51
729.071	238.81
729.514	256.51
729.956	268.81
730.399	278.71
730.841	277.71
731.283	265.21
731.726	257.91
732.168	252.01
732.61	264.81
733.053	291.51
733.495	314.31
733.937	349.11
734.379	396.21
734.821	424.71
735.263	537.21
735.705	830.81
736.148	1576.31
736.59	2526.31
737.032	2932.91
737.474	2404.31
737.916	780.91
738.357	416.91
738.799	316.21
739.241	292.11
739.683	281.31
740.125	290.41
740.567	292.91
741.008	304.81
741.45	310.11
741.892	304.91
742.334	344.31
742.775	356.51
743.217	331.91
743.658	260.41
744.1	252.81
744.542	255.51
744.983	302.11
745.425	336.51
745.866	339.41
746.307	271.91
746.749	269.41
747.19	322.71
747.632	463.51
748.073	886.01
748.514	1841.01
748.956	2783.71
749.397	3482.91
749.838	2894.91
750.279	2856.61
750.72	1446.71
751.162	536.41
751.603	315.81
752.044	248.51
752.485	212.71
752.926	205.01
753.367	203.61
753.808	198.61
754.249	187.91
754.69	181.81
755.131	179.21
755.572	177.51
756.013	179.11
756.453	180.31
756.894	185.01
757.335	194.31
757.776	189.11
758.216	198.41
758.657	194.41
759.098	197.71
759.538	227.51
759.979	260.51
760.42	374.11
760.86	699.71
761.301	1837.71
761.741	4371.71
762.182	6216.41
762.622	4345.81
