Data from 20171114-ORNL-Ar_H_NY_Subt18_08-09-26-963.txt Node
Date: Tue Nov 14 08:09:26 EST 2017
User: Ender
Spectrometer: HR+D1039
Trigger mode: 0
Integration Time (sec): 2.730000E-2
Scans to average: 10
Electric dark correction enabled: true
Nonlinearity correction enabled: false
Boxcar width: 0
XAxis mode: Wavelengths
Number of Pixels in Spectrum: 2048
>>>>>Begin Spectral Data<<<<<
187.836	0.72
188.309	0.72
188.782	0.72
189.255	1.92
189.728	-0.67
190.201	0.52
190.674	-1.38
191.147	3.92
191.619	-7.38
192.092	0.23
192.565	8.22
193.038	1.82
193.511	-4.48
193.984	-4.78
194.456	-1.98
194.929	0.23
195.402	-1.58
195.874	4.62
196.347	-3.88
196.82	-11.78
197.292	0.32
197.765	1.02
198.237	-8.88
198.71	1.62
199.182	3.42
199.655	2.72
200.127	4.42
200.6	0.32
201.072	-2.58
201.544	-10.27
202.017	-5.98
202.489	5.72
202.961	-1.58
203.433	-1.78
203.906	-6.58
204.378	-6.58
204.85	-4.08
205.322	-10.58
205.794	-0.08
206.266	-2.88
206.739	-12.98
207.211	3.23
207.683	-6.98
208.155	-3.68
208.627	-9.98
209.099	-4.98
209.57	-9.38
210.042	-6.18
210.514	-5.38
210.986	-3.77
211.458	-9.18
211.93	-5.38
212.402	1.22
212.873	-7.68
213.345	-11.98
213.817	-6.28
214.288	-1.68
214.76	-13.48
215.232	-2.77
215.703	0.42
216.175	-4.38
216.646	-5.18
217.118	-10.78
217.589	-5.17
218.061	-2.98
218.532	-10.88
219.004	-5.48
219.475	-4.77
219.946	-7.68
220.418	-9.17
220.889	8.02
221.36	-0.58
221.832	-6.18
222.303	-2.18
222.774	-4.58
223.245	-5.38
223.717	-1.68
224.188	-4.88
224.659	-10.08
225.13	-12.88
225.601	-5.68
226.072	1.42
226.543	-7.38
227.014	0.62
227.485	-1.98
227.956	-10.77
228.427	-5.98
228.898	5.82
229.369	7.02
229.839	-3.88
230.31	-10.38
230.781	3.12
231.252	-7.08
231.722	-8.68
232.193	-4.98
232.664	-4.58
233.135	-2.98
233.605	-5.58
234.076	-7.98
234.546	-7.78
235.017	-4.68
235.487	-3.78
235.958	-8.08
236.428	-10.88
236.899	-6.17
237.369	-4.58
237.84	-1.58
238.31	-0.18
238.78	-5.98
239.251	-8.27
239.721	-5.48
240.191	-9.38
240.662	-1.98
241.132	-0.88
241.602	-14.48
242.072	-4.28
242.542	-0.48
243.013	-8.38
243.483	-6.77
243.953	1.23
244.423	-0.58
244.893	-7.78
245.363	0.32
245.833	-8.28
246.303	-6.18
246.773	0.92
247.243	-2.78
247.712	-8.38
248.182	-4.88
248.652	0.52
249.122	-12.28
249.592	-3.08
250.061	-0.38
250.531	1.73
251.001	-4.17
251.471	1.22
251.94	0.92
252.41	5.23
252.879	-4.18
253.349	3.92
253.818	3.92
254.288	1.83
254.757	-0.38
255.227	-11.67
255.696	1.22
256.166	6.12
256.635	0.42
257.105	-0.98
257.574	1.32
258.043	-1.58
258.513	-8.58
258.982	-3.88
259.451	-7.68
259.92	-2.38
260.389	-1.38
260.859	6.42
261.328	-6.88
261.797	-0.08
262.266	-4.08
262.735	4.52
263.204	3.12
263.673	-6.18
264.142	0.92
264.611	-10.68
265.08	-5.68
265.549	-8.17
266.018	0.62
266.487	-9.18
266.955	-5.98
267.424	-4.27
267.893	-0.67
268.362	-6.27
268.83	-5.08
269.299	5.33
269.768	2.82
270.236	3.12
270.705	-3.68
271.174	-3.77
271.642	0.92
272.111	-6.77
272.579	4.12
273.048	2.12
273.516	-2.68
273.985	0.23
274.453	-0.68
274.922	9.12
275.39	0.82
275.858	-7.28
276.327	3.02
276.795	5.52
277.263	-2.18
277.731	10.62
278.2	9.52
278.668	4.92
279.136	8.62
279.604	3.52
280.072	10.02
280.54	5.42
281.008	7.72
281.477	10.12
281.945	3.82
282.413	4.92
282.881	10.23
283.348	2.33
283.816	6.32
284.284	9.52
284.752	12.42
285.22	5.02
285.688	5.72
286.156	0.02
286.623	7.22
287.091	7.82
287.559	4.12
288.026	2.23
288.494	4.52
288.962	-0.18
289.429	2.12
289.897	12.23
290.364	6.82
290.832	9.62
291.3	4.62
291.767	5.83
292.234	7.22
292.702	4.92
293.169	9.62
293.637	11.82
294.104	7.32
294.571	1.32
295.039	3.62
295.506	5.62
295.973	13.32
296.44	3.52
296.908	3.92
297.375	5.52
297.842	5.22
298.309	9.92
298.776	0.42
299.243	9.22
299.71	-1.18
300.177	10.32
300.644	15.32
301.111	11.33
301.578	11.52
302.045	11.42
302.512	12.82
302.979	16.52
303.446	10.52
303.913	12.33
304.379	5.32
304.846	19.12
305.313	20.92
305.78	12.42
306.246	17.52
306.713	16.62
307.18	17.52
307.646	15.72
308.113	11.22
308.579	9.52
309.046	13.92
309.512	18.92
309.979	9.32
310.445	21.42
310.912	15.62
311.378	20.82
311.845	26.42
312.311	19.92
312.777	18.12
313.244	20.12
313.71	27.52
314.176	15.92
314.642	20.82
315.109	18.42
315.575	26.62
316.041	27.12
316.507	20.02
316.973	18.92
317.439	18.62
317.905	20.33
318.371	23.82
318.837	21.42
319.303	21.02
319.769	17.42
320.235	23.12
320.701	19.12
321.167	22.82
321.633	15.33
322.099	27.82
322.564	33.32
323.03	28.62
323.496	27.23
323.962	30.23
324.427	28.32
324.893	33.62
325.359	28.02
325.824	23.02
326.29	26.12
326.755	27.22
327.221	24.02
327.686	27.22
328.152	36.42
328.617	32.82
329.083	39.92
329.548	38.12
330.014	34.92
330.479	27.92
330.944	28.52
331.41	34.82
331.875	27.62
332.34	30.42
332.805	34.12
333.271	37.32
333.736	23.02
334.201	35.92
334.666	35.92
335.131	40.52
335.596	39.92
336.061	32.52
336.526	26.22
336.991	31.73
337.456	41.52
337.921	31.02
338.386	32.12
338.851	34.22
339.316	30.92
339.781	32.92
340.246	38.52
340.711	30.02
341.175	34.32
341.64	35.02
342.105	36.42
342.569	42.92
343.034	50.92
343.499	39.62
343.963	43.23
344.428	46.33
344.893	49.42
345.357	47.72
345.822	51.72
346.286	52.42
346.751	58.92
347.215	50.22
347.679	57.73
348.144	70.32
348.608	64.32
349.073	52.12
349.537	51.12
350.001	53.52
350.465	65.02
350.93	57.72
351.394	71.12
351.858	59.12
352.322	67.73
352.786	65.23
353.25	77.22
353.715	80.82
354.179	72.82
354.643	90.73
355.107	100.22
355.571	80.32
356.035	74.72
356.498	88.52
356.962	84.12
357.426	91.62
357.89	87.82
358.354	74.02
358.818	69.72
359.281	59.12
359.745	60.02
360.209	56.92
360.673	66.83
361.136	63.12
361.6	64.12
362.064	66.12
362.527	67.52
362.991	78.42
363.454	60.62
363.918	57.12
364.381	69.02
364.845	65.02
365.308	69.22
365.772	70.82
366.235	76.42
366.698	68.82
367.162	71.22
367.625	74.32
368.088	70.32
368.552	74.52
369.015	74.52
369.478	74.82
369.941	86.72
370.404	75.22
370.867	88.02
371.331	86.42
371.794	89.12
372.257	79.82
372.72	95.72
373.183	85.42
373.646	79.02
374.109	85.83
374.572	84.92
375.035	85.92
375.497	90.42
375.96	88.42
376.423	86.92
376.886	100.52
377.349	95.32
377.811	89.62
378.274	88.73
378.737	88.72
379.199	91.42
379.662	92.82
380.125	99.83
380.587	87.92
381.05	96.02
381.512	97.62
381.975	108.82
382.437	108.23
382.9	100.02
383.362	107.32
383.825	108.92
384.287	115.52
384.75	100.72
385.212	110.52
385.674	118.92
386.136	116.12
386.599	104.62
387.061	108.42
387.523	107.52
387.985	112.12
388.447	118.02
388.91	109.12
389.372	118.42
389.834	120.12
390.296	114.52
390.758	116.72
391.22	117.32
391.682	134.72
392.144	145.82
392.606	132.22
393.068	123.92
393.529	135.72
393.991	128.23
394.453	117.32
394.915	124.82
395.377	121.12
395.838	127.72
396.3	132.82
396.762	125.62
397.224	124.52
397.685	121.12
398.147	124.02
398.608	114.62
399.07	127.42
399.531	127.02
399.993	133.12
400.454	139.72
400.916	138.92
401.377	138.12
401.839	145.52
402.3	134.82
402.762	159.72
403.223	165.82
403.684	154.42
404.145	153.62
404.607	146.02
405.068	155.02
405.529	160.12
405.99	170.62
406.451	150.62
406.913	164.32
407.374	155.42
407.835	154.82
408.296	156.23
408.757	165.02
409.218	176.22
409.679	164.52
410.14	156.52
410.601	165.62
411.062	172.23
411.522	169.62
411.983	166.92
412.444	165.32
412.905	174.73
413.366	173.42
413.826	184.72
414.287	210.43
414.748	259.93
415.208	237.52
415.669	211.32
416.13	202.92
416.59	196.02
417.051	212.72
417.511	212.72
417.972	224.72
418.432	246.12
418.893	282.12
419.353	250.33
419.814	199.52
420.274	186.72
420.734	173.82
421.195	191.42
421.655	190.12
422.115	189.22
422.576	187.72
423.036	190.02
423.496	206.92
423.956	211.03
424.416	221.12
424.876	257.12
425.336	248.52
425.797	257.22
426.257	240.92
426.717	236.42
427.177	223.93
427.637	218.92
428.097	225.22
428.556	236.62
429.016	260.02
429.476	250.62
429.936	261.62
430.396	265.52
430.856	271.02
431.315	293.92
431.775	331.92
432.235	362.92
432.694	330.92
433.154	341.02
433.614	365.62
434.073	315.92
434.533	273.42
434.993	251.12
435.452	278.92
435.912	282.22
436.371	269.33
436.83	270.42
437.29	252.82
437.749	241.43
438.209	236.23
438.668	267.02
439.127	273.02
439.587	253.62
440.046	235.73
440.505	255.22
440.964	253.32
441.424	302.92
441.883	299.22
442.342	245.33
442.801	224.02
443.26	218.12
443.719	223.32
444.178	223.32
444.637	209.12
445.096	218.42
445.555	220.92
446.014	226.42
446.473	228.02
446.932	228.33
447.391	231.32
447.849	236.33
448.308	228.93
448.767	220.83
449.226	235.92
449.685	235.12
450.143	252.23
450.602	235.72
451.061	224.73
451.519	231.22
451.978	231.23
452.436	235.52
452.895	235.22
453.353	245.22
453.812	238.53
454.27	240.82
454.729	243.92
455.187	235.82
455.646	245.02
456.104	248.82
456.562	267.42
457.021	266.02
457.479	262.32
457.937	272.72
458.395	270.12
458.854	251.02
459.312	256.93
459.77	271.62
460.228	258.22
460.686	243.12
461.144	254.52
461.602	248.72
462.06	245.02
462.518	254.12
462.976	258.32
463.434	260.43
463.892	258.82
464.35	275.42
464.808	286.12
465.266	264.82
465.724	270.03
466.181	282.02
466.639	269.02
467.097	292.73
467.555	296.23
468.012	305.73
468.47	313.12
468.928	330.52
469.385	344.22
469.843	343.92
470.3	350.53
470.758	369.02
471.215	380.92
471.673	391.32
472.13	409.92
472.588	425.62
473.045	376.72
473.503	382.42
473.96	398.92
474.417	415.12
474.875	431.22
475.332	472.82
475.789	456.12
476.246	467.42
476.704	484.83
477.161	499.82
477.618	514.73
478.075	554.12
478.532	610.23
478.989	665.32
479.446	776.83
479.903	745.03
480.36	775.62
480.817	818.92
481.274	905.12
481.731	1002.52
482.188	1064.82
482.645	1183.32
483.102	1283.12
483.558	1393.83
484.015	1427.42
484.472	1414.73
484.929	1372.23
485.385	1321.22
485.842	1302.03
486.299	1244.32
486.755	1203.82
487.212	1033.42
487.668	883.62
488.125	812.02
488.582	756.62
489.038	730.32
489.494	696.02
489.951	674.32
490.407	651.92
490.864	639.22
491.32	629.02
491.776	633.82
492.233	645.92
492.689	610.93
493.145	606.72
493.602	598.02
494.058	608.23
494.514	601.42
494.97	638.22
495.426	648.23
495.882	616.93
496.338	604.32
496.794	614.62
497.251	607.82
497.707	631.83
498.163	628.42
498.618	627.32
499.074	636.23
499.53	664.83
499.986	664.32
500.442	639.33
500.898	614.22
501.354	615.22
501.809	629.72
502.265	631.82
502.721	637.42
503.177	642.92
503.632	643.52
504.088	642.72
504.543	670.83
504.999	687.73
505.455	659.82
505.91	641.62
506.366	642.92
506.821	642.62
507.277	636.32
507.732	630.22
508.187	636.62
508.643	647.12
509.098	647.12
509.553	664.72
510.009	679.72
510.464	684.23
510.919	700.43
511.375	705.52
511.83	705.52
512.285	727.82
512.74	762.93
513.195	782.73
513.65	768.83
514.105	761.82
514.56	764.02
515.015	791.12
515.47	808.62
515.925	784.42
516.38	785.73
516.835	795.73
517.29	775.83
517.745	790.92
518.2	766.12
518.655	745.02
519.109	744.42
519.564	740.52
520.019	724.12
520.474	721.03
520.928	722.72
521.383	724.72
521.838	717.52
522.292	719.73
522.747	716.43
523.201	715.22
523.656	711.32
524.11	709.83
524.565	698.12
525.019	689.02
525.474	703.32
525.928	703.53
526.382	722.32
526.837	699.43
527.291	710.73
527.745	702.52
528.2	707.33
528.654	699.02
529.108	688.23
529.562	703.42
530.016	692.03
530.47	713.73
530.925	697.62
531.379	699.32
531.833	708.52
532.287	703.62
532.741	698.72
533.195	705.62
533.649	706.92
534.103	711.93
534.556	713.82
535.01	709.42
535.464	697.42
535.918	722.03
536.372	717.72
536.826	721.02
537.279	705.72
537.733	720.73
538.187	714.92
538.64	711.12
539.094	721.12
539.548	735.83
540.001	735.32
540.455	732.12
540.908	739.23
541.362	748.52
541.815	762.62
542.269	762.52
542.722	763.73
543.175	776.42
543.629	773.32
544.082	799.02
544.536	786.12
544.989	798.53
545.442	803.42
545.895	806.72
546.349	815.62
546.802	812.12
547.255	817.62
547.708	816.43
548.161	828.12
548.614	839.82
549.067	840.73
549.52	834.82
549.973	826.82
550.426	817.32
550.879	810.02
551.332	806.62
551.785	823.12
552.238	820.73
552.691	827.92
553.144	841.42
553.596	862.12
554.049	877.02
554.502	903.42
554.955	928.22
555.407	922.42
555.86	912.02
556.313	895.43
556.765	887.72
557.218	893.22
557.67	892.52
558.123	878.92
558.576	879.92
559.028	889.92
559.48	893.02
559.933	890.93
560.385	848.32
560.838	826.02
561.29	803.92
561.742	803.12
562.195	781.12
562.647	789.42
563.099	790.22
563.551	792.93
564.004	786.82
564.456	774.02
564.908	763.32
565.36	755.12
565.812	736.52
566.264	725.72
566.716	735.53
567.168	712.42
567.62	720.52
568.072	705.62
568.524	705.83
568.976	697.12
569.428	689.32
569.88	686.12
570.332	692.72
570.784	693.72
571.235	704.92
571.687	716.62
572.139	711.52
572.59	725.92
573.042	719.12
573.494	722.22
573.945	717.92
574.397	694.32
574.849	707.82
575.3	692.12
575.752	697.73
576.203	691.52
576.655	700.52
577.106	686.62
577.557	686.33
578.009	683.22
578.46	675.83
578.912	675.12
579.363	675.73
579.814	670.32
580.265	676.83
580.717	687.32
581.168	681.12
581.619	688.42
582.07	690.92
582.521	686.82
582.972	684.83
583.423	689.92
583.875	693.23
584.326	689.32
584.777	710.62
585.227	730.62
585.678	750.42
586.129	777.92
586.58	805.03
587.031	824.12
587.482	858.42
587.933	909.73
588.384	862.12
588.834	815.73
589.285	785.62
589.736	786.32
590.186	787.02
590.637	778.82
591.088	766.62
591.538	760.23
591.989	742.62
592.439	736.12
592.89	724.32
593.34	718.12
593.791	719.32
594.241	711.72
594.692	709.12
595.142	708.73
595.593	701.43
596.043	714.83
596.493	722.52
596.943	719.62
597.394	735.23
597.844	727.12
598.294	750.03
598.744	761.32
599.195	802.73
599.645	837.93
600.095	890.42
600.545	938.22
600.995	988.83
601.445	1048.42
601.895	1111.62
602.345	1146.53
602.795	1130.92
603.245	1089.62
603.695	1047.92
604.145	990.52
604.594	930.03
605.044	885.73
605.494	815.22
605.944	770.32
606.393	764.12
606.843	736.73
607.293	746.72
607.743	733.23
608.192	754.22
608.642	760.73
609.091	773.62
609.541	784.32
609.99	777.83
610.44	780.22
610.889	727.53
611.339	714.52
611.788	700.33
612.238	696.92
612.687	721.42
613.136	714.43
613.586	722.83
614.035	717.12
614.484	725.32
614.933	728.12
615.383	722.43
615.832	716.92
616.281	714.92
616.73	685.52
617.179	667.52
617.628	649.32
618.077	645.62
618.526	640.72
618.975	636.42
619.424	623.02
619.873	620.42
620.322	623.32
620.771	613.12
621.22	612.62
621.669	606.33
622.118	595.92
622.567	590.72
623.015	583.62
623.464	582.23
623.913	570.42
624.361	561.02
624.81	561.62
625.259	557.62
625.707	574.42
626.156	567.73
626.604	573.92
627.053	569.82
627.501	575.22
627.95	581.33
628.398	593.52
628.847	578.72
629.295	591.02
629.744	575.33
630.192	582.72
630.64	570.32
631.089	553.72
631.537	555.32
631.985	548.73
632.433	547.23
632.881	543.62
633.33	545.02
633.778	543.23
634.226	533.83
634.674	543.62
635.122	546.42
635.57	566.32
636.018	569.02
636.466	578.62
636.914	565.93
637.362	581.92
637.81	589.33
638.258	588.92
638.705	598.82
639.153	628.92
639.601	643.12
640.049	647.92
640.497	694.02
640.944	705.02
641.392	661.52
641.84	624.52
642.287	589.62
642.735	572.83
643.182	576.42
643.63	573.02
644.078	582.03
644.525	579.72
644.973	589.92
645.42	604.02
645.867	624.23
646.315	640.03
646.762	668.62
647.21	701.22
647.657	717.12
648.104	747.82
648.551	769.32
648.999	835.82
649.446	914.93
649.893	989.92
650.34	1132.83
650.787	1354.22
651.234	1674.62
651.682	2125.62
652.129	2944.22
652.576	4184.12
653.023	6098.72
653.47	8195.83
653.917	10075.23
654.363	11518.83
654.81	12636.93
655.257	11967.53
655.704	7918.73
656.151	4790.42
656.598	3149.43
657.044	2243.92
657.491	1763.02
657.938	1405.73
658.385	1188.03
658.831	1043.83
659.278	934.12
659.724	837.12
660.171	774.52
660.618	708.92
661.064	683.33
661.511	663.82
661.957	659.33
662.404	647.52
662.85	645.83
663.296	625.82
663.743	564.92
664.189	551.22
664.635	540.62
665.082	536.02
665.528	538.92
665.974	537.12
666.42	527.22
666.867	519.82
667.313	499.52
667.759	482.22
668.205	471.02
668.651	461.62
669.097	459.72
669.543	455.72
669.989	458.23
670.435	459.33
670.881	456.83
671.327	460.52
671.773	488.72
672.219	511.12
672.665	568.83
673.11	615.52
673.556	656.32
674.002	688.93
674.448	675.72
674.893	568.93
675.339	488.92
675.785	452.93
676.23	431.72
676.676	408.23
677.122	393.62
677.567	380.42
678.013	379.02
678.458	375.02
678.904	377.83
679.349	367.62
679.794	371.73
680.24	360.83
680.685	362.42
681.131	366.12
681.576	357.52
682.021	360.12
682.466	361.52
682.912	361.62
683.357	361.93
683.802	393.42
684.247	426.02
684.692	475.22
685.137	513.82
685.583	558.32
686.028	585.12
686.473	540.72
686.918	468.92
687.363	427.42
687.807	403.12
688.252	375.52
688.697	367.02
689.142	341.73
689.587	344.22
690.032	338.42
690.477	358.52
690.921	368.62
691.366	397.42
691.811	419.72
692.255	447.23
692.7	482.32
693.145	533.33
693.589	759.92
694.034	1230.72
694.478	1633.22
694.923	1805.52
695.367	2333.82
695.812	1256.92
696.256	524.72
696.701	376.92
697.145	356.82
697.59	342.92
698.034	330.72
698.478	341.22
698.922	332.03
699.367	330.82
699.811	338.73
700.255	362.33
700.699	395.32
701.143	439.83
701.588	495.72
702.032	536.43
702.476	537.03
702.92	518.83
703.364	526.22
703.808	700.62
704.252	1135.72
704.696	1554.62
705.14	1738.53
705.584	2190.82
706.027	1129.42
706.471	550.72
706.915	420.33
707.359	372.23
707.803	341.62
708.246	325.92
708.69	330.12
709.134	331.82
709.577	326.12
710.021	331.92
710.465	322.33
710.908	309.12
711.352	311.02
711.795	321.42
712.239	369.62
712.682	395.72
713.126	425.22
713.569	460.42
714.012	371.82
714.456	315.83
714.899	298.82
715.342	291.03
715.786	267.02
716.229	268.33
716.672	260.42
717.115	254.73
717.558	267.53
718.002	255.33
718.445	271.82
718.888	300.92
719.331	309.72
719.774	324.73
720.217	308.73
720.66	301.42
721.103	279.52
721.546	265.33
721.989	257.52
722.432	238.32
722.874	243.02
723.317	235.52
723.76	238.82
724.203	268.92
724.645	335.12
725.088	484.72
725.531	597.22
725.974	660.62
726.416	568.52
726.859	322.22
727.301	255.93
727.744	245.22
728.187	245.22
728.629	250.12
729.071	255.23
729.514	268.52
729.956	286.22
730.399	305.52
730.841	304.02
731.283	283.72
731.726	286.03
732.168	275.32
732.61	280.22
733.053	304.33
733.495	332.53
733.937	375.72
734.379	420.02
734.821	469.73
735.263	589.42
735.705	931.73
736.148	1758.92
736.59	2783.42
737.032	3156.92
737.474	2593.52
737.916	870.73
738.357	456.52
738.799	342.73
739.241	309.92
739.683	296.62
740.125	311.23
740.567	311.42
741.008	332.02
741.45	329.43
741.892	335.43
742.334	363.12
742.775	376.52
743.217	359.72
743.658	290.22
744.1	266.42
744.542	279.82
744.983	328.82
745.425	365.02
745.866	360.32
746.307	294.73
746.749	287.93
747.19	344.83
747.632	504.92
748.073	990.02
748.514	2046.73
748.956	3019.33
749.397	3808.32
749.838	3176.93
750.279	3064.03
750.72	1582.62
751.162	595.12
751.603	344.12
752.044	264.62
752.485	227.02
752.926	216.22
753.367	215.02
753.808	209.02
754.249	203.92
754.69	198.02
755.131	190.82
755.572	192.42
756.013	189.82
756.453	189.73
756.894	194.02
757.335	196.92
757.776	201.22
758.216	206.12
758.657	212.22
759.098	213.93
759.538	239.02
759.979	289.12
760.42	408.32
760.86	797.02
761.301	2082.62
761.741	4866.22
762.182	6651.92
762.622	4721.12
763.063	1393.02
763.503	572.52
