Data from 20171114-ORNL-Ar_H_NY_Subt18_08-07-13-691.txt Node
Date: Tue Nov 14 08:07:13 EST 2017
User: Ender
Spectrometer: HR+D1039
Trigger mode: 0
Integration Time (sec): 2.730000E-2
Scans to average: 10
Electric dark correction enabled: true
Nonlinearity correction enabled: false
Boxcar width: 0
XAxis mode: Wavelengths
Number of Pixels in Spectrum: 2048
>>>>>Begin Spectral Data<<<<<
187.836	-5.58
188.309	-5.58
188.782	-5.58
189.255	2.22
189.728	-6.28
190.201	7.82
190.674	3.82
191.147	3.42
191.619	-10.38
192.092	-1.78
192.565	3.12
193.038	4.02
193.511	-0.18
193.984	3.12
194.456	-0.78
194.929	3.62
195.402	-4.08
195.874	-2.18
196.347	2.02
196.82	-0.98
197.292	8.02
197.765	-2.08
198.237	-4.88
198.71	0.92
199.182	-0.38
199.655	0.82
200.127	-0.58
200.6	-4.18
201.072	-5.08
201.544	-3.18
202.017	-2.78
202.489	-1.48
202.961	-2.58
203.433	1.82
203.906	-6.88
204.378	-6.48
204.85	-1.58
205.322	-17.48
205.794	-3.38
206.266	-2.88
206.739	-9.58
207.211	2.52
207.683	-9.78
208.155	-6.08
208.627	-4.38
209.099	-1.48
209.57	-10.18
210.042	-5.18
210.514	-3.38
210.986	-1.68
211.458	-6.48
211.93	-3.48
212.402	-5.78
212.873	-8.18
213.345	-8.58
213.817	-10.48
214.288	-2.08
214.76	-7.98
215.232	-7.28
215.703	-6.68
216.175	-3.48
216.646	-5.98
217.118	-12.48
217.589	-2.58
218.061	-1.18
218.532	-6.28
219.004	2.22
219.475	-8.98
219.946	-5.28
220.418	-5.48
220.889	5.82
221.36	3.22
221.832	-6.28
222.303	-5.88
222.774	2.32
223.245	-10.18
223.717	-8.78
224.188	-4.58
224.659	-8.58
225.13	-7.18
225.601	-2.98
226.072	-0.08
226.543	-8.68
227.014	-0.78
227.485	-4.18
227.956	-11.18
228.427	-0.18
228.898	3.52
229.369	1.62
229.839	-8.48
230.31	-10.08
230.781	-4.18
231.252	-7.08
231.722	-5.78
232.193	-3.48
232.664	-5.18
233.135	-4.68
233.605	-3.08
234.076	-9.68
234.546	-0.68
235.017	-1.78
235.487	-2.28
235.958	-4.38
236.428	-9.38
236.899	0.22
237.369	5.02
237.84	-4.18
238.31	2.52
238.78	-3.68
239.251	-0.98
239.721	-6.08
240.191	-2.38
240.662	-1.08
241.132	-1.78
241.602	-4.08
242.072	-3.08
242.542	-0.58
243.013	-2.18
243.483	-0.08
243.953	-1.18
244.423	-0.88
244.893	-6.08
245.363	0.32
245.833	-3.78
246.303	-5.98
246.773	1.62
247.243	-2.08
247.712	-2.58
248.182	-1.08
248.652	-2.58
249.122	-9.78
249.592	0.12
250.061	0.42
250.531	2.42
251.001	-5.98
251.471	-2.98
251.94	8.62
252.41	0.82
252.879	-7.88
253.349	4.72
253.818	5.42
254.288	-0.48
254.757	2.22
255.227	-2.18
255.696	-0.58
256.166	4.72
256.635	0.92
257.105	-0.38
257.574	-0.98
258.043	5.02
258.513	-3.48
258.982	-0.78
259.451	-1.98
259.92	3.32
260.389	-3.48
260.859	9.62
261.328	-0.68
261.797	1.32
262.266	-2.28
262.735	7.62
263.204	3.72
263.673	0.72
264.142	-2.58
264.611	-4.78
265.08	0.52
265.549	-3.38
266.018	0.82
266.487	-10.68
266.955	-7.38
267.424	-4.68
267.893	2.22
268.362	-4.58
268.83	-0.78
269.299	-1.38
269.768	2.72
270.236	3.62
270.705	-4.18
271.174	-1.48
271.642	-10.78
272.111	-3.58
272.579	2.42
273.048	3.62
273.516	-5.88
273.985	-3.68
274.453	9.22
274.922	9.42
275.39	1.22
275.858	1.22
276.327	10.02
276.795	8.72
277.263	3.42
277.731	11.82
278.2	4.72
278.668	3.02
279.136	1.62
279.604	1.22
280.072	12.62
280.54	9.32
281.008	4.32
281.477	10.32
281.945	11.32
282.413	12.42
282.881	11.62
283.348	-3.58
283.816	6.52
284.284	2.72
284.752	17.82
285.22	7.52
285.688	11.32
286.156	7.32
286.623	13.02
287.091	1.72
287.559	12.82
288.026	6.42
288.494	3.62
288.962	3.62
289.429	7.82
289.897	14.02
290.364	6.52
290.832	9.82
291.3	8.82
291.767	10.62
292.234	10.52
292.702	8.42
293.169	2.92
293.637	13.02
294.104	18.52
294.571	7.32
295.039	10.82
295.506	7.32
295.973	8.02
296.44	7.22
296.908	17.52
297.375	7.52
297.842	10.42
298.309	12.32
298.776	9.02
299.243	12.92
299.71	7.42
300.177	10.52
300.644	12.92
301.111	12.02
301.578	16.82
302.045	14.62
302.512	19.62
302.979	16.62
303.446	11.72
303.913	13.42
304.379	12.82
304.846	19.42
305.313	21.62
305.78	19.22
306.246	16.22
306.713	18.52
307.18	12.02
307.646	18.82
308.113	14.42
308.579	13.22
309.046	18.52
309.512	21.52
309.979	12.92
310.445	14.02
310.912	20.82
311.378	29.52
311.845	25.62
312.311	22.22
312.777	23.32
313.244	26.42
313.71	31.02
314.176	26.22
314.642	15.92
315.109	28.42
315.575	31.62
316.041	29.82
316.507	23.92
316.973	27.92
317.439	27.42
317.905	27.32
318.371	31.02
318.837	27.02
319.303	31.42
319.769	28.82
320.235	21.92
320.701	28.82
321.167	31.12
321.633	25.22
322.099	31.22
322.564	38.22
323.03	30.42
323.496	25.42
323.962	31.02
324.427	35.92
324.893	33.12
325.359	29.42
325.824	36.02
326.29	30.92
326.755	29.02
327.221	34.02
327.686	36.52
328.152	40.22
328.617	33.02
329.083	32.02
329.548	42.52
330.014	34.22
330.479	34.02
330.944	32.92
331.41	35.42
331.875	40.12
332.34	40.02
332.805	36.32
333.271	32.42
333.736	31.42
334.201	39.02
334.666	43.02
335.131	47.92
335.596	46.02
336.061	44.72
336.526	33.92
336.991	41.72
337.456	45.92
337.921	42.32
338.386	35.82
338.851	39.12
339.316	43.02
339.781	41.62
340.246	40.72
340.711	38.22
341.175	41.02
341.64	30.02
342.105	40.62
342.569	49.32
343.034	51.52
343.499	48.92
343.963	41.82
344.428	57.52
344.893	51.22
345.357	51.22
345.822	49.62
346.286	57.32
346.751	57.02
347.215	52.02
347.679	65.02
348.144	72.92
348.608	65.82
349.073	59.22
349.537	64.32
350.001	57.42
350.465	71.82
350.93	67.82
351.394	73.92
351.858	66.32
352.322	70.92
352.786	68.32
353.25	81.62
353.715	85.62
354.179	86.12
354.643	103.32
355.107	105.42
355.571	90.32
356.035	85.72
356.498	91.32
356.962	93.12
357.426	103.32
357.89	92.92
358.354	77.12
358.818	75.82
359.281	72.02
359.745	66.82
360.209	68.12
360.673	65.82
361.136	68.72
361.6	76.82
362.064	75.92
362.527	79.32
362.991	87.12
363.454	69.72
363.918	72.52
364.381	66.42
364.845	71.72
365.308	73.52
365.772	82.12
366.235	76.42
366.698	77.12
367.162	81.42
367.625	77.12
368.088	79.02
368.552	83.02
369.015	80.02
369.478	83.02
369.941	87.32
370.404	81.42
370.867	87.82
371.331	95.02
371.794	96.52
372.257	87.22
372.72	92.62
373.183	84.22
373.646	81.82
374.109	84.52
374.572	83.32
375.035	91.62
375.497	98.02
375.96	97.82
376.423	96.02
376.886	97.52
377.349	97.02
377.811	95.12
378.274	98.72
378.737	96.62
379.199	97.52
379.662	98.02
380.125	101.52
380.587	99.02
381.05	100.52
381.512	103.82
381.975	109.02
382.437	107.02
382.9	112.72
383.362	116.32
383.825	119.22
384.287	115.22
384.75	111.32
385.212	121.02
385.674	127.02
386.136	124.72
386.599	116.02
387.061	113.02
387.523	111.72
387.985	112.82
388.447	124.12
388.91	119.72
389.372	125.22
389.834	124.32
390.296	122.42
390.758	118.02
391.22	121.32
391.682	133.92
392.144	138.52
392.606	133.42
393.068	135.52
393.529	147.72
393.991	130.62
394.453	125.92
394.915	119.22
395.377	128.42
395.838	127.22
396.3	131.32
396.762	135.72
397.224	133.02
397.685	129.02
398.147	130.32
398.608	122.12
399.07	128.42
399.531	136.22
399.993	142.12
400.454	148.32
400.916	143.82
401.377	139.12
401.839	150.62
402.3	148.22
402.762	169.32
403.223	170.82
403.684	160.82
404.145	160.02
404.607	158.82
405.068	162.22
405.529	162.52
405.99	172.12
406.451	171.82
406.913	162.72
407.374	160.42
407.835	159.02
408.296	164.52
408.757	165.52
409.218	174.32
409.679	174.92
410.14	176.02
410.601	177.12
411.062	176.62
411.522	174.42
411.983	173.72
412.444	171.52
412.905	176.52
413.366	181.12
413.826	203.12
414.287	225.42
414.748	262.02
415.208	253.82
415.669	206.12
416.13	207.42
416.59	209.92
417.051	222.12
417.511	225.22
417.972	242.33
418.432	250.82
418.893	298.42
419.353	258.83
419.814	206.92
420.274	185.32
420.734	185.52
421.195	196.42
421.655	189.22
422.115	197.92
422.576	195.52
423.036	200.82
423.496	208.52
423.956	215.22
424.416	233.22
424.876	269.42
425.336	262.82
425.797	261.32
426.257	257.62
426.717	242.12
427.177	232.32
427.637	223.62
428.097	231.22
428.556	250.02
429.016	268.42
429.476	258.02
429.936	281.42
430.396	272.32
430.856	285.72
431.315	305.92
431.775	344.62
432.235	374.52
432.694	348.12
433.154	357.73
433.614	382.22
434.073	328.52
434.533	283.22
434.993	266.42
435.452	278.82
435.912	284.82
436.371	288.33
436.83	277.42
437.29	265.22
437.749	246.62
438.209	249.12
438.668	264.12
439.127	282.12
439.587	260.92
440.046	251.92
440.505	262.33
440.964	277.22
441.424	313.42
441.883	304.42
442.342	257.83
442.801	223.02
443.26	223.32
443.719	224.82
444.178	221.82
444.637	217.42
445.096	224.22
445.555	231.62
446.014	232.32
446.473	231.23
446.932	239.12
447.391	234.82
447.849	241.42
448.308	231.23
448.767	230.52
449.226	249.42
449.685	248.22
450.143	258.82
450.602	245.42
451.061	236.82
451.519	241.83
451.978	244.82
452.436	242.52
452.895	257.42
453.353	251.72
453.812	251.33
454.27	250.62
454.729	250.52
455.187	251.52
455.646	256.62
456.104	258.73
456.562	264.32
457.021	275.62
457.479	263.62
457.937	276.42
458.395	277.32
458.854	256.02
459.312	260.73
459.77	282.23
460.228	269.32
460.686	251.92
461.144	261.12
461.602	255.92
462.06	256.22
462.518	266.82
462.976	271.02
463.434	273.23
463.892	277.42
464.35	289.32
464.808	298.02
465.266	281.32
465.724	285.22
466.181	290.62
466.639	283.32
467.097	304.62
467.555	309.42
468.012	320.32
468.47	326.62
468.928	342.62
469.385	356.42
469.843	357.92
470.3	365.72
470.758	378.92
471.215	407.02
471.673	422.82
472.13	424.02
472.588	427.02
473.045	388.92
473.503	396.22
473.96	411.22
474.417	423.52
474.875	446.62
475.332	484.52
475.789	478.42
476.246	481.52
476.704	501.42
477.161	526.92
477.618	537.72
478.075	579.12
478.532	629.42
478.989	687.52
479.446	796.33
479.903	769.62
480.36	808.42
480.817	855.42
481.274	940.02
481.731	1032.32
482.188	1110.62
482.645	1241.82
483.102	1329.03
483.558	1444.03
484.015	1479.62
484.472	1454.12
484.929	1416.42
485.385	1389.22
485.842	1354.52
486.299	1301.42
486.755	1264.12
487.212	1062.82
487.668	913.12
488.125	847.32
488.582	784.62
489.038	753.62
489.494	729.42
489.951	708.52
490.407	682.02
490.864	655.72
491.32	660.42
491.776	659.12
492.233	665.22
492.689	633.32
493.145	629.42
493.602	627.32
494.058	633.12
494.514	633.62
494.97	656.72
495.426	672.62
495.882	648.92
496.338	641.82
496.794	646.82
497.251	637.22
497.707	658.72
498.163	661.62
498.618	659.42
499.074	664.62
499.53	695.92
499.986	695.22
500.442	676.12
500.898	650.22
501.354	649.82
501.809	644.02
502.265	656.32
502.721	660.12
503.177	671.83
503.632	666.32
504.088	674.12
504.543	697.72
504.999	716.73
505.455	686.02
505.91	657.32
506.366	669.72
506.821	665.52
507.277	660.62
507.732	668.32
508.187	665.82
508.643	667.92
509.098	668.12
509.553	686.02
510.009	692.82
510.464	712.82
510.919	731.02
511.375	747.42
511.83	741.02
512.285	762.02
512.74	788.92
513.195	808.42
513.65	802.42
514.105	795.92
514.56	811.32
515.015	828.42
515.47	836.23
515.925	809.62
516.38	822.82
516.835	830.42
517.29	811.92
517.745	813.02
518.2	799.12
518.655	784.72
519.109	782.12
519.564	790.82
520.019	773.12
520.474	755.92
520.928	762.12
521.383	764.02
521.838	748.22
522.292	750.32
522.747	741.23
523.201	738.02
523.656	735.92
524.11	730.83
524.565	736.73
525.019	731.22
525.474	729.02
525.928	730.92
526.382	734.62
526.837	723.32
527.291	725.32
527.745	733.22
528.2	733.92
528.654	729.32
529.108	723.52
529.562	721.72
530.016	720.33
530.47	734.52
530.925	718.82
531.379	729.82
531.833	730.52
532.287	735.32
532.741	742.83
533.195	743.32
533.649	739.32
534.103	750.82
534.556	739.92
535.01	744.92
535.464	739.42
535.918	749.92
536.372	758.32
536.826	749.22
537.279	741.02
537.733	745.82
538.187	744.32
538.64	742.82
539.094	754.32
539.548	763.12
540.001	761.32
540.455	762.42
540.908	764.02
541.362	778.73
541.815	786.73
542.269	793.62
542.722	796.12
543.175	804.12
543.629	810.72
544.082	831.42
544.536	823.52
544.989	820.33
545.442	830.92
545.895	830.82
546.349	829.83
546.802	825.72
547.255	841.72
547.708	858.32
548.161	852.62
548.614	867.32
549.067	877.23
549.52	864.92
549.973	861.92
550.426	848.52
550.879	840.22
551.332	839.22
551.785	842.42
552.238	849.12
552.691	854.72
553.144	882.32
553.596	893.42
554.049	916.82
554.502	950.82
554.955	970.72
555.407	955.62
555.86	949.52
556.313	935.02
556.765	926.52
557.218	927.32
557.67	938.62
558.123	921.22
558.576	926.32
559.028	920.12
559.48	924.22
559.933	912.82
560.385	888.62
560.838	854.32
561.29	837.42
561.742	832.83
562.195	808.92
562.647	807.02
563.099	820.22
563.551	817.32
564.004	817.62
564.456	810.62
564.908	807.02
565.36	792.92
565.812	770.92
566.264	755.42
566.716	752.72
567.168	742.82
567.62	747.62
568.072	736.42
568.524	734.52
568.976	727.52
569.428	706.12
569.88	719.52
570.332	720.42
570.784	730.82
571.235	722.62
571.687	733.62
572.139	737.12
572.59	750.72
573.042	754.52
573.494	747.72
573.945	746.82
574.397	721.32
574.849	714.92
575.3	729.12
575.752	723.42
576.203	704.92
576.655	717.52
577.106	708.12
577.557	705.52
578.009	706.33
578.46	699.12
578.912	695.82
579.363	700.92
579.814	699.92
580.265	691.52
580.717	700.62
581.168	705.22
581.619	716.12
582.07	715.22
582.521	707.12
582.972	702.52
583.423	712.82
583.875	707.82
584.326	711.62
584.777	718.42
585.227	747.22
585.678	750.82
586.129	768.42
586.58	790.83
587.031	807.82
587.482	825.82
587.933	855.23
588.384	833.92
588.834	810.92
589.285	798.72
589.736	814.92
590.186	812.62
590.637	804.22
591.088	772.62
591.538	769.42
591.989	772.32
592.439	749.22
592.89	751.02
593.34	733.92
593.791	736.32
594.241	725.42
594.692	734.12
595.142	729.42
595.593	731.23
596.043	728.92
596.493	729.52
596.943	734.22
597.394	752.32
597.844	743.42
598.294	765.12
598.744	780.72
599.195	812.02
599.645	849.62
600.095	901.32
600.545	959.02
600.995	1016.22
601.445	1074.62
601.895	1145.22
602.345	1191.53
602.795	1171.12
603.245	1109.52
603.695	1054.42
604.145	1008.12
604.594	960.02
605.044	913.02
605.494	838.92
605.944	785.42
606.393	783.72
606.843	769.02
607.293	762.92
607.743	767.12
608.192	773.12
608.642	785.62
609.091	779.22
609.541	795.82
609.99	805.42
610.44	795.62
610.889	743.22
611.339	731.82
611.788	710.33
612.238	717.92
612.687	733.22
613.136	719.62
613.586	738.52
614.035	732.92
614.484	734.92
614.933	739.22
615.383	727.23
615.832	728.22
616.281	721.33
616.73	696.62
617.179	685.12
617.628	674.42
618.077	653.42
618.526	650.02
618.975	639.92
619.424	639.02
619.873	634.42
620.322	644.82
620.771	629.23
621.22	629.12
621.669	619.22
622.118	611.32
622.567	608.52
623.015	598.22
623.464	591.32
623.913	581.72
624.361	571.22
624.81	577.12
625.259	575.02
625.707	582.12
626.156	584.42
626.604	592.12
627.053	577.92
627.501	590.82
627.95	592.62
628.398	604.12
628.847	596.62
629.295	593.82
629.744	600.92
630.192	593.02
630.64	588.12
631.089	562.02
631.537	558.82
631.985	548.12
632.433	546.02
632.881	548.92
633.33	548.82
633.778	546.52
634.226	545.22
634.674	552.12
635.122	563.62
635.57	569.22
636.018	575.82
636.466	577.52
636.914	571.32
637.362	596.12
637.81	597.42
638.258	602.83
638.705	606.72
639.153	631.32
639.601	635.52
640.049	672.52
640.497	697.62
640.944	721.32
641.392	668.72
641.84	638.22
642.287	603.12
642.735	579.42
643.182	589.02
643.63	580.02
644.078	579.72
644.525	592.52
644.973	607.02
645.42	613.72
645.867	629.82
646.315	651.33
646.762	673.62
647.21	701.42
647.657	718.82
648.104	747.92
648.551	766.73
648.999	837.73
649.446	916.02
649.893	980.02
650.34	1133.72
650.787	1340.32
651.234	1669.03
651.682	2133.22
652.129	2885.02
652.576	4091.32
653.023	5971.32
653.47	8087.82
653.917	10026.52
654.363	11559.43
654.81	12762.83
655.257	12091.43
655.704	7995.63
656.151	4824.12
656.598	3169.43
657.044	2284.62
657.491	1767.12
657.938	1437.22
658.385	1193.62
658.831	1048.72
659.278	946.62
659.724	846.82
660.171	790.52
660.618	722.12
661.064	684.62
661.511	672.92
661.957	660.22
662.404	654.82
662.85	665.92
663.296	634.22
663.743	574.82
664.189	553.32
664.635	545.12
665.082	544.22
665.528	544.12
665.974	540.12
666.42	519.82
666.867	516.52
667.313	502.12
667.759	486.12
668.205	467.12
668.651	470.33
669.097	464.62
669.543	453.82
669.989	467.02
670.435	462.42
670.881	460.92
671.327	467.12
671.773	493.02
672.219	514.92
672.665	568.02
673.11	611.42
673.556	661.12
674.002	695.52
674.448	686.32
674.893	570.73
675.339	498.12
675.785	457.92
676.23	434.62
676.676	417.32
677.122	406.92
677.567	386.22
678.013	382.92
678.458	371.02
678.904	369.33
679.349	364.52
679.794	374.42
680.24	362.02
680.685	359.92
681.131	361.92
681.576	364.02
682.021	373.62
682.466	364.52
682.912	360.82
683.357	364.32
683.802	392.42
684.247	424.02
684.692	472.12
685.137	512.32
685.583	556.72
686.028	591.12
686.473	534.82
686.918	473.92
687.363	440.22
687.807	423.92
688.252	383.32
688.697	371.22
689.142	358.82
689.587	349.22
690.032	340.22
690.477	351.82
690.921	374.42
691.366	399.42
691.811	423.12
692.255	446.82
692.7	485.12
693.145	525.62
693.589	723.82
694.034	1190.62
694.478	1634.83
694.923	1840.22
695.367	2382.72
695.812	1257.42
696.256	519.32
696.701	383.32
697.145	358.12
697.59	342.92
698.034	330.92
698.478	332.92
698.922	335.22
699.367	335.82
699.811	355.62
700.255	368.83
700.699	396.52
701.143	446.12
701.588	503.42
702.032	527.92
702.476	534.52
702.92	519.12
703.364	510.92
703.808	667.42
704.252	1107.42
704.696	1538.42
705.14	1765.52
705.584	2239.62
706.027	1137.82
706.471	546.42
706.915	419.32
707.359	365.12
707.803	337.12
708.246	328.02
708.69	325.02
709.134	334.82
709.577	328.23
710.021	330.42
710.465	313.92
710.908	308.82
711.352	310.23
711.795	331.12
712.239	363.02
712.682	404.12
713.126	426.32
713.569	473.42
714.012	376.92
714.456	304.33
714.899	301.42
715.342	280.62
715.786	272.02
716.229	267.12
716.672	269.52
717.115	253.62
717.558	259.22
718.002	262.92
718.445	272.82
718.888	297.32
719.331	298.33
719.774	316.52
720.217	317.52
720.66	291.92
721.103	278.52
721.546	260.62
721.989	257.62
722.432	243.02
722.874	251.22
723.317	233.62
723.76	245.92
724.203	265.22
724.645	322.62
725.088	474.12
725.531	602.82
725.974	665.12
726.416	568.12
726.859	319.32
727.301	258.32
727.744	248.92
728.187	242.92
728.629	246.42
729.071	248.82
729.514	267.42
729.956	281.22
730.399	289.02
730.841	303.12
731.283	288.62
731.726	273.72
732.168	276.12
732.61	273.42
733.053	296.22
733.495	326.02
733.937	364.62
734.379	414.92
734.821	457.32
735.263	575.72
735.705	893.52
736.148	1686.43
736.59	2750.12
737.032	3215.72
737.474	2618.22
737.916	860.23
738.357	459.62
738.799	339.12
739.241	318.82
739.683	302.62
740.125	302.32
740.567	311.32
741.008	333.82
741.45	337.62
741.892	328.82
742.334	364.33
742.775	378.32
743.217	355.92
743.658	277.42
744.1	271.72
744.542	276.32
744.983	336.42
745.425	362.62
745.866	360.92
746.307	286.23
746.749	295.32
747.19	346.92
747.632	482.62
748.073	942.82
748.514	1988.12
748.956	3035.03
749.397	3793.33
749.838	3138.32
750.279	3106.03
750.72	1584.02
751.162	578.23
751.603	336.82
752.044	261.22
752.485	226.62
752.926	217.42
753.367	213.52
753.808	199.52
754.249	197.52
754.69	201.23
755.131	192.92
755.572	190.12
756.013	184.62
756.453	194.82
756.894	197.12
757.335	197.62
757.776	203.02
758.216	204.22
758.657	214.22
759.098	207.73
759.538	241.23
759.979	275.62
760.42	400.23
760.86	752.02
761.301	1961.02
761.741	4725.43
762.182	6775.23
762.622	4772.82
763.063	1385.03
