Data from 20171114-ORNL-Ar_H_NY_Subt18_08-08-08-559.txt Node
Date: Tue Nov 14 08:08:08 EST 2017
User: Ender
Spectrometer: HR+D1039
Trigger mode: 0
Integration Time (sec): 2.730000E-2
Scans to average: 10
Electric dark correction enabled: true
Nonlinearity correction enabled: false
Boxcar width: 0
XAxis mode: Wavelengths
Number of Pixels in Spectrum: 2048
>>>>>Begin Spectral Data<<<<<
187.836	-3.91
188.309	-3.91
188.782	-3.91
189.255	-4.91
189.728	-3.41
190.201	1.79
190.674	2.49
191.147	9.09
191.619	-8.61
192.092	1.49
192.565	11.49
193.038	0.09
193.511	1.79
193.984	-3.21
194.456	-3.01
194.929	0.79
195.402	0.59
195.874	-2.61
196.347	-2.01
196.82	-4.51
197.292	4.89
197.765	-1.61
198.237	-6.81
198.71	-0.61
199.182	-3.21
199.655	0.79
200.127	-1.21
200.6	-4.31
201.072	0.69
201.544	-0.81
202.017	-3.61
202.489	5.19
202.961	-1.21
203.433	0.49
203.906	-9.81
204.378	-7.91
204.85	-4.71
205.322	-11.81
205.794	-0.41
206.266	-6.41
206.739	-10.81
207.211	3.09
207.683	2.09
208.155	-7.61
208.627	-4.61
209.099	-2.81
209.57	-10.41
210.042	-3.51
210.514	-3.51
210.986	0.09
211.458	-5.01
211.93	-4.41
212.402	3.89
212.873	-7.41
213.345	-7.31
213.817	-12.81
214.288	-4.61
214.76	-13.81
215.232	0.09
215.703	0.59
216.175	-5.01
216.646	-9.21
217.118	-6.11
217.589	0.59
218.061	-2.41
218.532	-5.81
219.004	-1.81
219.475	-6.71
219.946	-2.01
220.418	-2.81
220.889	0.69
221.36	-0.51
221.832	-2.61
222.303	-1.61
222.774	2.99
223.245	-7.71
223.717	-3.71
224.188	-6.61
224.659	-9.51
225.13	-8.01
225.601	-6.11
226.072	-1.51
226.543	-0.61
227.014	2.19
227.485	-2.61
227.956	-5.71
228.427	-0.81
228.898	-3.91
229.369	2.09
229.839	-1.51
230.31	-3.91
230.781	5.99
231.252	-4.41
231.722	-3.11
232.193	-2.41
232.664	1.39
233.135	-2.61
233.605	-6.11
234.076	-6.61
234.546	0.89
235.017	3.49
235.487	-0.31
235.958	5.29
236.428	-5.41
236.899	-0.81
237.369	2.89
237.84	-2.31
238.31	4.89
238.78	7.59
239.251	-4.51
239.721	3.89
240.191	3.89
240.662	-2.01
241.132	0.39
241.602	-2.71
242.072	-1.61
242.542	3.59
243.013	-2.21
243.483	11.19
243.953	6.19
244.423	0.99
244.893	-5.11
245.363	2.79
245.833	2.19
246.303	-0.91
246.773	8.19
247.243	8.39
247.712	5.29
248.182	9.89
248.652	7.19
249.122	-4.81
249.592	15.49
250.061	19.19
250.531	34.99
251.001	15.99
251.471	20.39
251.94	14.49
252.41	3.99
252.879	2.89
253.349	13.89
253.818	7.59
254.288	7.49
254.757	7.99
255.227	6.09
255.696	-4.71
256.166	-0.31
256.635	10.99
257.105	12.59
257.574	9.59
258.043	3.09
258.513	6.29
258.982	18.39
259.451	6.29
259.92	13.59
260.389	17.39
260.859	21.09
261.328	14.59
261.797	18.29
262.266	7.49
262.735	10.39
263.204	3.79
263.673	2.09
264.142	4.69
264.611	-6.31
265.08	-3.61
265.549	-4.31
266.018	1.69
266.487	-2.61
266.955	0.89
267.424	-3.41
267.893	9.19
268.362	3.59
268.83	2.09
269.299	9.49
269.768	4.89
270.236	8.19
270.705	-3.51
271.174	10.49
271.642	10.09
272.111	5.09
272.579	15.09
273.048	17.49
273.516	25.79
273.985	25.19
274.453	25.89
274.922	22.99
275.39	10.29
275.858	-1.21
276.327	11.99
276.795	20.09
277.263	15.09
277.731	33.49
278.2	53.19
278.668	59.89
279.136	45.09
279.604	13.69
280.072	12.59
280.54	10.09
281.008	8.89
281.477	15.09
281.945	16.29
282.413	18.79
282.881	14.59
283.348	6.99
283.816	9.89
284.284	16.99
284.752	18.99
285.22	10.49
285.688	9.19
286.156	16.79
286.623	43.49
287.091	48.79
287.559	26.29
288.026	19.09
288.494	13.59
288.962	8.69
289.429	7.39
289.897	21.29
290.364	15.59
290.832	13.19
291.3	15.29
291.767	18.49
292.234	17.99
292.702	18.09
293.169	15.29
293.637	22.89
294.104	22.69
294.571	10.89
295.039	8.19
295.506	12.19
295.973	14.59
296.44	12.69
296.908	16.39
297.375	11.39
297.842	15.19
298.309	15.39
298.776	7.09
299.243	20.49
299.71	18.69
300.177	19.69
300.644	24.79
301.111	21.89
301.578	22.79
302.045	14.99
302.512	20.49
302.979	24.49
303.446	22.49
303.913	16.79
304.379	20.69
304.846	27.99
305.313	20.09
305.78	21.89
306.246	21.49
306.713	23.09
307.18	28.09
307.646	26.79
308.113	28.69
308.579	22.59
309.046	22.49
309.512	28.99
309.979	18.39
310.445	20.69
310.912	29.79
311.378	31.89
311.845	26.09
312.311	25.09
312.777	30.89
313.244	32.09
313.71	37.09
314.176	27.09
314.642	29.39
315.109	30.09
315.575	33.19
316.041	44.19
316.507	33.99
316.973	41.79
317.439	38.59
317.905	39.29
318.371	35.59
318.837	33.59
319.303	29.09
319.769	31.09
320.235	33.69
320.701	37.59
321.167	33.99
321.633	31.19
322.099	42.99
322.564	45.49
323.03	40.59
323.496	41.49
323.962	40.99
324.427	36.19
324.893	39.69
325.359	38.99
325.824	37.29
326.29	37.49
326.755	32.19
327.221	36.09
327.686	39.39
328.152	43.69
328.617	39.59
329.083	42.69
329.548	48.49
330.014	43.99
330.479	38.29
330.944	44.59
331.41	41.59
331.875	47.19
332.34	40.79
332.805	41.89
333.271	46.89
333.736	43.59
334.201	57.99
334.666	53.49
335.131	53.59
335.596	51.29
336.061	48.09
336.526	36.19
336.991	42.99
337.456	55.59
337.921	45.69
338.386	42.49
338.851	41.59
339.316	47.79
339.781	42.49
340.246	48.89
340.711	46.79
341.175	51.79
341.64	43.49
342.105	44.99
342.569	57.99
343.034	58.29
343.499	54.79
343.963	46.29
344.428	58.99
344.893	58.99
345.357	56.59
345.822	60.49
346.286	63.89
346.751	70.39
347.215	65.79
347.679	71.79
348.144	95.69
348.608	79.29
349.073	68.69
349.537	76.69
350.001	75.09
350.465	88.49
350.93	76.39
351.394	77.79
351.858	69.39
352.322	87.39
352.786	86.59
353.25	100.89
353.715	111.69
354.179	94.59
354.643	123.99
355.107	127.09
355.571	108.49
356.035	105.79
356.498	115.29
356.962	121.59
357.426	129.19
357.89	114.39
358.354	85.69
358.818	80.69
359.281	69.79
359.745	76.59
360.209	77.49
360.673	74.99
361.136	84.09
361.6	85.49
362.064	83.59
362.527	80.59
362.991	88.99
363.454	78.59
363.918	73.89
364.381	80.59
364.845	84.19
365.308	88.79
365.772	87.49
366.235	85.89
366.698	79.29
367.162	87.29
367.625	88.79
368.088	92.29
368.552	87.69
369.015	86.49
369.478	92.09
369.941	96.69
370.404	96.69
370.867	104.59
371.331	108.79
371.794	122.79
372.257	118.39
372.72	115.59
373.183	110.09
373.646	103.79
374.109	100.99
374.572	108.99
375.035	102.89
375.497	104.69
375.96	112.59
376.423	113.29
376.886	122.49
377.349	108.39
377.811	106.99
378.274	111.59
378.737	106.59
379.199	108.79
379.662	114.89
380.125	121.29
380.587	116.79
381.05	123.49
381.512	139.09
381.975	135.69
382.437	133.79
382.9	129.29
383.362	135.49
383.825	148.29
384.287	151.19
384.75	154.09
385.212	138.79
385.674	147.69
386.136	141.39
386.599	131.79
387.061	132.69
387.523	138.79
387.985	136.19
388.447	140.39
388.91	153.69
389.372	156.59
389.834	157.49
390.296	145.99
390.758	159.99
391.22	176.79
391.682	216.29
392.144	322.79
392.606	243.09
393.068	173.09
393.529	169.39
393.991	157.29
394.453	153.49
394.915	162.99
395.377	195.79
395.838	224.29
396.3	159.89
396.762	144.49
397.224	131.19
397.685	129.89
398.147	142.49
398.608	133.99
399.07	127.09
399.531	135.69
399.993	145.69
400.454	147.99
400.916	143.79
401.377	145.39
401.839	147.99
402.3	154.69
402.762	162.89
403.223	186.59
403.684	182.29
404.145	165.19
404.607	163.69
405.068	167.39
405.529	170.89
405.99	189.39
406.451	181.99
406.913	180.09
407.374	167.79
407.835	166.59
408.296	169.89
408.757	180.89
409.218	191.19
409.679	183.89
410.14	177.39
410.601	181.19
411.062	184.59
411.522	202.79
411.983	195.99
412.444	177.39
412.905	186.69
413.366	189.39
413.826	197.29
414.287	220.49
414.748	261.09
415.208	244.89
415.669	203.69
416.13	206.59
416.59	206.59
417.051	216.89
417.511	218.09
417.972	239.29
418.432	244.79
418.893	299.69
419.353	253.39
419.814	204.09
420.274	186.79
420.734	182.09
421.195	201.29
421.655	199.59
422.115	200.89
422.576	196.29
423.036	199.89
423.496	214.39
423.956	216.59
424.416	233.69
424.876	267.29
425.336	268.79
425.797	266.19
426.257	262.39
426.717	244.29
427.177	238.59
427.637	223.49
428.097	242.49
428.556	249.49
429.016	275.59
429.476	280.19
429.936	276.79
430.396	283.69
430.856	295.69
431.315	323.09
431.775	355.79
432.235	389.69
432.694	360.99
433.154	368.09
433.614	403.29
434.073	346.69
434.533	295.59
434.993	277.89
435.452	284.99
435.912	298.89
436.371	288.99
436.83	292.79
437.29	276.09
437.749	246.39
438.209	251.09
438.668	291.59
439.127	302.09
439.587	262.09
440.046	249.29
440.505	267.59
440.964	276.99
441.424	332.19
441.883	313.89
442.342	260.79
442.801	224.49
443.26	223.59
443.719	224.69
444.178	227.29
444.637	224.79
445.096	217.79
445.555	228.19
446.014	223.19
446.473	231.79
446.932	240.69
447.391	232.09
447.849	231.29
448.308	222.19
448.767	219.79
449.226	238.09
449.685	230.69
450.143	242.69
450.602	242.39
451.061	228.09
451.519	236.29
451.978	234.69
452.436	233.29
452.895	243.39
453.353	252.09
453.812	240.69
454.27	238.49
454.729	235.29
455.187	247.89
455.646	242.59
456.104	245.99
456.562	257.99
457.021	271.79
457.479	260.29
457.937	278.59
458.395	268.99
458.854	248.99
459.312	265.69
459.77	276.59
460.228	255.29
460.686	238.59
461.144	252.69
461.602	248.89
462.06	238.99
462.518	255.89
462.976	255.39
463.434	263.89
463.892	260.69
464.35	280.59
464.808	279.99
465.266	266.09
465.724	271.09
466.181	282.19
466.639	277.09
467.097	291.79
467.555	299.59
468.012	303.89
468.47	308.59
468.928	324.99
469.385	337.59
469.843	341.89
470.3	351.89
470.758	365.39
471.215	382.19
471.673	412.09
472.13	409.29
472.588	427.19
473.045	374.69
473.503	377.29
473.96	396.79
474.417	397.19
474.875	441.29
475.332	478.09
475.789	465.29
476.246	463.79
476.704	496.49
477.161	502.49
477.618	525.69
478.075	573.19
478.532	621.39
478.989	699.19
479.446	812.29
479.903	776.39
480.36	805.49
480.817	876.59
481.274	972.79
481.731	1077.49
482.188	1165.89
482.645	1315.19
483.102	1414.09
483.558	1561.49
484.015	1603.49
484.472	1584.29
484.929	1526.09
485.385	1477.39
485.842	1436.69
486.299	1368.99
486.755	1311.69
487.212	1103.99
487.668	921.89
488.125	847.99
488.582	781.69
489.038	745.39
489.494	714.09
489.951	687.89
490.407	665.29
490.864	645.59
491.32	652.59
491.776	640.39
492.233	648.69
492.689	606.99
493.145	604.69
493.602	600.89
494.058	617.99
494.514	610.99
494.97	638.79
495.426	639.19
495.882	619.99
496.338	612.79
496.794	614.69
497.251	612.29
497.707	625.49
498.163	630.89
498.618	635.19
499.074	649.49
499.53	667.99
499.986	671.49
500.442	652.29
500.898	633.89
501.354	619.39
501.809	630.79
502.265	644.59
502.721	657.39
503.177	669.59
503.632	661.49
504.088	679.59
504.543	710.49
504.999	714.19
505.455	656.29
505.91	628.39
506.366	624.49
506.821	613.59
507.277	629.39
507.732	629.39
508.187	627.49
508.643	628.39
509.098	633.69
509.553	656.49
510.009	655.19
510.464	672.89
510.919	683.69
511.375	691.79
511.83	700.99
512.285	717.69
512.74	755.49
513.195	778.99
513.65	779.09
514.105	775.09
514.56	765.99
515.015	789.99
515.47	804.89
515.925	780.99
516.38	784.29
516.835	785.09
517.29	779.99
517.745	769.49
518.2	755.39
518.655	742.69
519.109	737.99
519.564	733.09
520.019	728.39
520.474	712.19
520.928	715.69
521.383	708.39
521.838	697.99
522.292	708.69
522.747	705.99
523.201	714.39
523.656	694.69
524.11	684.99
524.565	696.09
525.019	691.69
525.474	701.59
525.928	694.09
526.382	686.69
526.837	695.59
527.291	685.19
527.745	691.79
528.2	688.99
528.654	672.79
529.108	689.89
529.562	676.79
530.016	689.59
530.47	679.29
530.925	690.39
531.379	696.39
531.833	697.09
532.287	691.29
532.741	697.09
533.195	701.59
533.649	709.39
534.103	719.29
534.556	702.59
535.01	699.39
535.464	695.29
535.918	712.69
536.372	704.49
536.826	704.69
537.279	690.99
537.733	697.99
538.187	707.09
538.64	709.29
539.094	723.59
539.548	729.29
540.001	724.89
540.455	707.99
540.908	722.09
541.362	747.79
541.815	750.69
542.269	755.39
542.722	759.79
543.175	761.49
543.629	762.99
544.082	780.89
544.536	785.69
544.989	782.29
545.442	791.59
545.895	781.59
546.349	786.99
546.802	785.19
547.255	794.19
547.708	798.39
548.161	812.99
548.614	815.49
549.067	828.79
549.52	814.49
549.973	800.39
550.426	793.09
550.879	780.09
551.332	789.29
551.785	797.09
552.238	797.79
552.691	816.79
553.144	829.59
553.596	829.99
554.049	857.09
554.502	888.39
554.955	902.89
555.407	909.19
555.86	891.49
556.313	881.59
556.765	878.09
557.218	865.59
557.67	872.99
558.123	860.69
558.576	867.59
559.028	871.09
559.48	874.79
559.933	864.79
560.385	842.39
560.838	808.09
561.29	776.29
561.742	776.29
562.195	759.49
562.647	769.19
563.099	772.39
563.551	768.09
564.004	773.29
564.456	764.99
564.908	769.89
565.36	746.49
565.812	717.89
566.264	728.09
566.716	716.59
567.168	707.89
567.62	721.59
568.072	707.49
568.524	699.99
568.976	689.49
569.428	668.79
569.88	676.09
570.332	675.69
570.784	674.79
571.235	677.79
571.687	694.19
572.139	689.59
572.59	704.19
573.042	704.39
573.494	714.79
573.945	697.79
574.397	684.19
574.849	687.09
575.3	693.09
575.752	677.29
576.203	665.69
576.655	687.19
577.106	663.19
577.557	666.59
578.009	669.19
578.46	667.89
578.912	658.99
579.363	661.69
579.814	661.29
580.265	654.49
580.717	662.69
581.168	664.89
581.619	679.29
582.07	677.49
582.521	672.29
582.972	661.89
583.423	664.99
583.875	681.79
584.326	697.39
584.777	753.09
585.227	842.69
585.678	932.99
586.129	1044.39
586.58	1126.09
587.031	1216.99
587.482	1373.29
587.933	1569.69
588.384	1346.29
588.834	1000.89
589.285	805.89
589.736	793.49
590.186	772.79
590.637	756.39
591.088	739.19
591.538	732.39
591.989	725.39
592.439	730.79
592.89	726.29
593.34	708.19
593.791	711.59
594.241	703.49
594.692	710.19
595.142	707.09
595.593	701.69
596.043	709.89
596.493	712.59
596.943	718.29
597.394	715.29
597.844	713.99
598.294	729.59
598.744	761.29
599.195	776.19
599.645	814.29
600.095	866.09
600.545	909.49
600.995	964.09
601.445	1031.09
601.895	1083.29
602.345	1135.69
602.795	1100.59
603.245	1060.39
603.695	1002.49
604.145	953.09
604.594	910.79
605.044	857.09
605.494	786.39
605.944	752.29
606.393	746.49
606.843	725.69
607.293	737.79
607.743	730.09
608.192	748.39
608.642	761.39
609.091	760.79
609.541	769.59
609.99	771.89
610.44	758.59
610.889	717.49
611.339	703.99
611.788	685.29
612.238	708.59
612.687	728.29
613.136	723.59
613.586	740.49
614.035	745.29
614.484	763.19
614.933	771.49
615.383	756.99
615.832	739.39
616.281	728.99
616.73	691.39
617.179	669.09
617.628	654.59
618.077	636.49
618.526	625.29
618.975	613.59
619.424	616.99
619.873	620.99
620.322	618.89
620.771	606.19
621.22	610.59
621.669	593.99
622.118	586.39
622.567	584.39
623.015	579.59
623.464	578.49
623.913	558.69
624.361	555.29
624.81	557.09
625.259	560.79
625.707	560.49
626.156	559.99
626.604	565.39
627.053	556.99
627.501	563.89
627.95	571.29
628.398	587.59
628.847	568.29
629.295	572.89
629.744	576.39
630.192	571.59
630.64	575.49
631.089	580.79
631.537	576.59
631.985	592.09
632.433	608.19
632.881	625.59
633.33	669.29
633.778	654.19
634.226	576.39
634.674	584.39
635.122	577.19
635.57	599.59
636.018	635.49
636.466	577.99
636.914	564.99
637.362	573.69
637.81	569.49
638.258	576.49
638.705	580.89
639.153	609.79
639.601	615.69
640.049	639.49
640.497	667.99
640.944	708.79
641.392	644.69
641.84	612.49
642.287	582.69
642.735	573.59
643.182	578.29
643.63	586.29
644.078	581.29
644.525	595.89
644.973	595.99
645.42	611.69
645.867	628.99
646.315	643.09
646.762	671.29
647.21	691.59
647.657	723.99
648.104	757.79
648.551	781.39
648.999	843.69
649.446	914.69
649.893	1012.99
650.34	1172.49
650.787	1415.69
651.234	1757.29
651.682	2294.59
652.129	3200.99
652.576	4588.89
653.023	6796.29
653.47	9332.19
653.917	11517.59
654.363	13224.89
654.81	14503.49
655.257	13809.09
655.704	9039.99
656.151	5346.29
656.598	3442.49
657.044	2438.69
657.491	1868.69
657.938	1500.59
658.385	1250.99
658.831	1088.29
659.278	970.09
659.724	860.99
660.171	793.89
660.618	731.19
661.064	694.69
661.511	671.29
661.957	668.09
662.404	648.99
662.85	648.59
663.296	630.79
663.743	568.79
664.189	542.79
664.635	537.89
665.082	534.29
665.528	534.09
665.974	522.19
666.42	506.49
666.867	507.99
667.313	495.49
667.759	476.89
668.205	493.19
668.651	495.39
669.097	491.99
669.543	510.39
669.989	475.69
670.435	448.09
670.881	448.69
671.327	450.69
671.773	469.49
672.219	497.39
672.665	545.59
673.11	588.09
673.556	636.09
674.002	663.49
674.448	647.29
674.893	550.59
675.339	472.79
675.785	437.29
676.23	419.49
676.676	387.19
677.122	387.99
677.567	367.29
678.013	369.79
678.458	363.79
678.904	356.09
679.349	352.79
679.794	346.89
680.24	352.79
680.685	348.09
681.131	352.89
681.576	357.99
682.021	348.89
682.466	349.99
682.912	349.19
683.357	358.79
683.802	385.29
684.247	415.19
684.692	458.89
685.137	491.69
685.583	534.79
686.028	553.39
686.473	519.49
686.918	451.29
687.363	416.29
687.807	386.79
688.252	367.49
688.697	353.69
689.142	335.29
689.587	329.49
690.032	326.19
690.477	346.59
690.921	355.29
691.366	386.79
691.811	402.09
692.255	431.69
692.7	464.29
693.145	508.59
693.589	713.79
694.034	1148.39
694.478	1544.79
694.923	1718.59
695.367	2238.79
695.812	1185.49
696.256	499.29
696.701	372.69
697.145	346.39
697.59	323.89
698.034	316.79
698.478	333.09
698.922	322.29
699.367	325.99
699.811	336.79
700.255	361.69
700.699	394.49
701.143	433.19
701.588	476.79
702.032	520.49
702.476	508.99
702.92	491.79
703.364	490.09
703.808	653.09
704.252	1052.49
704.696	1464.99
705.14	1651.79
705.584	2095.39
706.027	1054.79
706.471	524.39
706.915	390.39
707.359	341.99
707.803	321.79
708.246	309.69
708.69	304.79
709.134	314.79
709.577	308.49
710.021	317.59
710.465	312.49
710.908	300.19
711.352	302.79
711.795	319.59
712.239	347.29
712.682	385.69
713.126	414.09
713.569	463.19
714.012	364.59
714.456	327.39
714.899	298.69
715.342	278.09
715.786	269.99
716.229	258.69
716.672	249.49
717.115	251.39
717.558	259.49
718.002	250.29
718.445	268.99
718.888	290.99
719.331	293.09
719.774	312.69
720.217	303.99
720.66	288.69
721.103	272.09
721.546	257.39
721.989	246.89
722.432	234.39
722.874	241.59
723.317	238.19
723.76	236.79
724.203	263.89
724.645	319.39
725.088	452.39
725.531	577.49
725.974	633.19
726.416	546.79
726.859	301.49
727.301	246.69
727.744	246.39
728.187	231.19
728.629	235.19
729.071	247.99
729.514	259.09
729.956	268.49
730.399	273.39
730.841	292.59
731.283	271.49
731.726	261.19
732.168	267.29
732.61	259.29
733.053	282.79
733.495	315.19
733.937	351.79
734.379	392.59
734.821	440.39
735.263	556.59
735.705	851.79
736.148	1609.79
736.59	2586.89
737.032	2990.79
737.474	2419.69
737.916	806.89
738.357	432.89
738.799	324.09
739.241	299.19
739.683	280.79
740.125	296.89
740.567	304.29
741.008	317.09
741.45	318.09
741.892	313.29
742.334	345.59
742.775	353.89
743.217	337.89
743.658	270.89
744.1	259.19
744.542	266.99
744.983	301.49
745.425	342.29
745.866	330.89
746.307	285.19
746.749	287.09
747.19	333.99
747.632	463.89
748.073	915.29
748.514	1905.29
748.956	2838.39
749.397	3580.99
749.838	2936.29
750.279	2920.39
750.72	1476.29
751.162	538.49
751.603	320.49
752.044	248.49
752.485	215.29
752.926	209.29
753.367	194.89
753.808	189.99
754.249	192.79
754.69	184.99
755.131	179.39
755.572	187.89
756.013	185.79
756.453	192.89
756.894	187.59
757.335	183.69
757.776	192.09
758.216	194.29
758.657	199.69
759.098	199.99
759.538	228.59
759.979	273.39
760.42	383.19
760.86	723.39
761.301	1883.99
761.741	4485.79
762.182	6258.09
