Data from 20171114-ORNL-Ar_H_NY_Subt18_08-06-34-929.txt Node
Date: Tue Nov 14 08:06:34 EST 2017
User: Ender
Spectrometer: HR+D1039
Trigger mode: 0
Integration Time (sec): 2.730000E-2
Scans to average: 10
Electric dark correction enabled: true
Nonlinearity correction enabled: false
Boxcar width: 0
XAxis mode: Wavelengths
Number of Pixels in Spectrum: 2048
>>>>>Begin Spectral Data<<<<<
187.836	-2.17
188.309	-2.17
188.782	-2.17
189.255	5.73
189.728	0.83
190.201	2.43
190.674	2.33
191.147	0.13
191.619	-5.37
192.092	2.13
192.565	5.53
193.038	-0.87
193.511	0.73
193.984	2.33
194.456	-5.37
194.929	0.03
195.402	-5.57
195.874	-2.87
196.347	2.93
196.82	-8.57
197.292	9.13
197.765	-5.97
198.237	-9.67
198.71	0.83
199.182	-3.97
199.655	-1.37
200.127	0.83
200.6	-2.07
201.072	-3.57
201.544	-2.67
202.017	-3.07
202.489	1.43
202.961	0.13
203.433	-2.17
203.906	-1.67
204.378	-8.47
204.85	-6.37
205.322	-7.27
205.794	-2.17
206.266	-6.37
206.739	-5.47
207.211	5.93
207.683	-7.77
208.155	-8.77
208.627	-4.97
209.099	2.23
209.57	-6.87
210.042	-0.27
210.514	-2.27
210.986	0.43
211.458	-8.17
211.93	-0.37
212.402	4.83
212.873	-3.07
213.345	-4.37
213.817	-9.87
214.288	-2.27
214.76	-9.27
215.232	0.33
215.703	-1.67
216.175	-3.47
216.646	-1.57
217.118	-5.97
217.589	-4.47
218.061	1.03
218.532	-4.97
219.004	3.43
219.475	-5.37
219.946	-2.47
220.418	-4.17
220.889	3.93
221.36	-2.27
221.832	-7.17
222.303	-11.67
222.774	-1.97
223.245	-5.77
223.717	-5.67
224.188	-2.87
224.659	-4.27
225.13	-4.67
225.601	-5.57
226.072	5.23
226.543	-1.97
227.014	3.23
227.485	-2.57
227.956	-5.47
228.427	0.23
228.898	4.53
229.369	6.93
229.839	-4.27
230.31	-7.77
230.781	3.93
231.252	-1.47
231.722	-0.57
232.193	-2.97
232.664	0.73
233.135	-1.07
233.605	1.63
234.076	-2.67
234.546	2.83
235.017	1.33
235.487	0.93
235.958	-1.67
236.428	-2.07
236.899	6.13
237.369	6.73
237.84	-1.67
238.31	5.93
238.78	1.13
239.251	-1.37
239.721	6.93
240.191	0.63
240.662	-0.57
241.132	-0.37
241.602	-2.17
242.072	0.93
242.542	5.73
243.013	5.43
243.483	5.13
243.953	-3.07
244.423	-0.67
244.893	0.13
245.363	-0.37
245.833	2.73
246.303	2.23
246.773	16.53
247.243	2.43
247.712	0.03
248.182	5.23
248.652	4.33
249.122	-3.77
249.592	8.83
250.061	24.03
250.531	29.43
251.001	18.73
251.471	22.43
251.94	17.53
252.41	4.83
252.879	-0.27
253.349	15.23
253.818	6.83
254.288	2.43
254.757	4.13
255.227	3.93
255.696	1.13
256.166	0.83
256.635	10.23
257.105	10.63
257.574	3.93
258.043	4.63
258.513	10.93
258.982	16.33
259.451	5.83
259.92	14.03
260.389	10.83
260.859	12.33
261.328	8.83
261.797	15.03
262.266	6.63
262.735	12.23
263.204	8.63
263.673	6.33
264.142	3.53
264.611	-0.87
265.08	0.83
265.549	3.83
266.018	9.83
266.487	3.53
266.955	-3.97
267.424	-2.27
267.893	9.83
268.362	6.03
268.83	9.03
269.299	13.73
269.768	10.93
270.236	10.63
270.705	-1.77
271.174	2.13
271.642	11.23
272.111	6.83
272.579	13.93
273.048	21.03
273.516	30.13
273.985	21.33
274.453	27.33
274.922	16.73
275.39	7.93
275.858	3.63
276.327	12.63
276.795	16.73
277.263	10.53
277.731	27.73
278.2	55.43
278.668	55.73
279.136	45.73
279.604	22.13
280.072	16.93
280.54	14.73
281.008	6.43
281.477	15.43
281.945	18.83
282.413	13.03
282.881	11.73
283.348	7.23
283.816	13.13
284.284	15.43
284.752	22.13
285.22	13.83
285.688	10.43
286.156	21.93
286.623	45.03
287.091	47.73
287.559	28.93
288.026	15.03
288.494	20.83
288.962	7.63
289.429	14.63
289.897	20.63
290.364	14.53
290.832	10.63
291.3	15.23
291.767	17.23
292.234	18.83
292.702	13.93
293.169	19.53
293.637	23.33
294.104	24.73
294.571	12.73
295.039	11.13
295.506	12.63
295.973	24.33
296.44	18.43
296.908	17.33
297.375	20.53
297.842	16.63
298.309	16.93
298.776	13.83
299.243	17.63
299.71	12.53
300.177	27.23
300.644	22.83
301.111	22.03
301.578	23.43
302.045	15.23
302.512	23.83
302.979	26.33
303.446	22.23
303.913	19.43
304.379	19.63
304.846	25.03
305.313	27.83
305.78	27.73
306.246	27.33
306.713	26.63
307.18	27.53
307.646	26.93
308.113	33.83
308.579	20.23
309.046	28.53
309.512	27.53
309.979	17.23
310.445	25.53
310.912	29.53
311.378	31.93
311.845	33.03
312.311	29.33
312.777	35.93
313.244	34.83
313.71	38.83
314.176	31.63
314.642	33.93
315.109	36.73
315.575	31.53
316.041	35.93
316.507	34.33
316.973	42.73
317.439	31.63
317.905	39.93
318.371	41.63
318.837	30.63
319.303	27.43
319.769	41.33
320.235	35.33
320.701	42.23
321.167	40.13
321.633	34.33
322.099	37.63
322.564	47.93
323.03	40.73
323.496	40.73
323.962	44.03
324.427	40.03
324.893	38.43
325.359	36.63
325.824	37.53
326.29	39.03
326.755	38.63
327.221	47.43
327.686	41.53
328.152	45.63
328.617	43.73
329.083	48.23
329.548	49.53
330.014	54.43
330.479	39.13
330.944	44.03
331.41	41.93
331.875	43.93
332.34	46.63
332.805	45.63
333.271	47.23
333.736	45.63
334.201	54.93
334.666	49.33
335.131	53.93
335.596	48.33
336.061	51.83
336.526	43.13
336.991	45.33
337.456	55.53
337.921	45.83
338.386	45.33
338.851	45.33
339.316	44.83
339.781	44.73
340.246	54.83
340.711	47.83
341.175	47.03
341.64	40.93
342.105	51.73
342.569	59.73
343.034	61.83
343.499	56.93
343.963	54.13
344.428	65.73
344.893	56.53
345.357	60.93
345.822	64.73
346.286	66.23
346.751	76.23
347.215	65.93
347.679	74.03
348.144	106.73
348.608	86.13
349.073	76.03
349.537	77.93
350.001	76.83
350.465	81.83
350.93	82.03
351.394	81.73
351.858	75.63
352.322	88.33
352.786	85.53
353.25	101.83
353.715	111.73
354.179	103.93
354.643	121.43
355.107	130.53
355.571	107.63
356.035	102.23
356.498	117.03
356.962	129.83
357.426	134.03
357.89	114.33
358.354	93.83
358.818	83.83
359.281	84.23
359.745	75.23
360.209	80.83
360.673	73.43
361.136	79.33
361.6	86.13
362.064	83.53
362.527	90.53
362.991	91.83
363.454	82.73
363.918	82.83
364.381	79.93
364.845	89.83
365.308	84.43
365.772	85.83
366.235	89.83
366.698	86.53
367.162	87.73
367.625	86.93
368.088	93.53
368.552	98.33
369.015	87.73
369.478	98.53
369.941	101.43
370.404	97.63
370.867	103.33
371.331	107.53
371.794	122.03
372.257	114.03
372.72	120.53
373.183	109.93
373.646	100.93
374.109	96.63
374.572	106.53
375.035	107.13
375.497	116.23
375.96	107.73
376.423	106.53
376.886	114.23
377.349	112.73
377.811	106.73
378.274	102.43
378.737	108.33
379.199	116.33
379.662	119.43
380.125	116.53
380.587	121.23
381.05	122.03
381.512	124.73
381.975	139.53
382.437	133.13
382.9	124.63
383.362	131.83
383.825	138.63
384.287	146.73
384.75	138.73
385.212	138.93
385.674	134.73
386.136	135.93
386.599	132.23
387.061	132.23
387.523	127.13
387.985	138.43
388.447	146.63
388.91	144.13
389.372	163.33
389.834	157.43
390.296	152.63
390.758	161.43
391.22	182.63
391.682	215.23
392.144	314.83
392.606	241.83
393.068	168.73
393.529	169.93
393.991	158.03
394.453	155.53
394.915	158.73
395.377	204.33
395.838	224.53
396.3	166.23
396.762	145.13
397.224	138.53
397.685	138.73
398.147	132.53
398.608	130.83
399.07	135.83
399.531	140.03
399.993	146.43
400.454	160.83
400.916	147.53
401.377	152.33
401.839	157.93
402.3	157.53
402.762	169.43
403.223	185.93
403.684	167.13
404.145	160.93
404.607	164.03
405.068	169.83
405.529	179.53
405.99	196.43
406.451	179.13
406.913	178.93
407.374	167.33
407.835	169.13
408.296	171.43
408.757	176.53
409.218	193.63
409.679	180.33
410.14	178.53
410.601	187.43
411.062	191.23
411.522	200.23
411.983	188.83
412.444	181.93
412.905	184.93
413.366	184.53
413.826	192.83
414.287	216.63
414.748	271.73
415.208	248.63
415.669	212.03
416.13	207.43
416.59	203.03
417.051	222.13
417.511	218.73
417.972	235.83
418.432	253.03
418.893	296.33
419.353	259.93
419.814	199.13
420.274	185.03
420.734	183.23
421.195	199.53
421.655	203.53
422.115	202.03
422.576	195.93
423.036	206.83
423.496	207.93
423.956	220.73
424.416	239.23
424.876	268.33
425.336	269.23
425.797	274.73
426.257	263.83
426.717	243.23
427.177	243.33
427.637	230.83
428.097	242.63
428.556	254.33
429.016	276.33
429.476	273.03
429.936	284.93
430.396	280.53
430.856	306.33
431.315	324.73
431.775	364.93
432.235	388.43
432.694	363.03
433.154	375.63
433.614	403.73
434.073	351.63
434.533	297.83
434.993	274.13
435.452	289.33
435.912	298.43
436.371	293.73
436.83	290.93
437.29	265.13
437.749	250.83
438.209	252.83
438.668	278.13
439.127	295.43
439.587	276.63
440.046	258.93
440.505	262.43
440.964	285.83
441.424	333.03
441.883	324.63
442.342	267.83
442.801	233.83
443.26	224.93
443.719	228.93
444.178	224.13
444.637	219.33
445.096	226.63
445.555	232.33
446.014	233.63
446.473	233.03
446.932	239.23
447.391	233.23
447.849	241.73
448.308	225.23
448.767	228.53
449.226	242.23
449.685	241.33
450.143	257.23
450.602	241.93
451.061	229.63
451.519	241.73
451.978	235.13
452.436	238.53
452.895	242.23
453.353	257.53
453.812	243.43
454.27	240.83
454.729	240.13
455.187	240.13
455.646	255.73
456.104	255.83
456.562	267.93
457.021	268.83
457.479	266.63
457.937	278.83
458.395	271.03
458.854	253.83
459.312	260.83
459.77	280.93
460.228	257.53
460.686	245.23
461.144	264.23
461.602	255.33
462.06	245.53
462.518	256.53
462.976	261.13
463.434	262.13
463.892	268.63
464.35	281.53
464.808	301.03
465.266	277.93
465.724	282.63
466.181	284.23
466.639	276.43
467.097	293.73
467.555	307.73
468.012	310.13
468.47	319.33
468.928	338.93
469.385	350.43
469.843	355.63
470.3	348.63
470.758	370.73
471.215	397.93
471.673	416.93
472.13	419.73
472.588	430.73
473.045	376.43
473.503	378.63
473.96	403.23
474.417	420.23
474.875	445.13
475.332	489.23
475.789	475.43
476.246	482.43
476.704	497.83
477.161	514.03
477.618	542.23
478.075	566.23
478.532	624.83
478.989	708.23
479.446	819.43
479.903	781.93
480.36	817.53
480.817	891.43
481.274	991.73
481.731	1093.13
482.188	1183.13
482.645	1323.63
483.102	1429.23
483.558	1575.33
484.015	1628.53
484.472	1587.83
484.929	1546.03
485.385	1502.83
485.842	1452.73
486.299	1397.23
486.755	1339.03
487.212	1116.73
487.668	943.63
488.125	875.93
488.582	801.33
489.038	764.43
489.494	731.23
489.951	712.13
490.407	685.33
490.864	669.43
491.32	667.93
491.776	658.93
492.233	666.53
492.689	628.23
493.145	624.93
493.602	612.33
494.058	619.43
494.514	634.23
494.97	651.93
495.426	655.03
495.882	638.33
496.338	622.63
496.794	640.43
497.251	639.23
497.707	650.43
498.163	648.23
498.618	664.43
499.074	648.63
499.53	704.33
499.986	693.63
500.442	668.93
500.898	649.23
501.354	654.13
501.809	651.63
502.265	660.23
502.721	671.83
503.177	685.13
503.632	689.63
504.088	701.83
504.543	736.53
504.999	725.23
505.455	677.33
505.91	652.63
506.366	649.83
506.821	648.53
507.277	640.03
507.732	634.03
508.187	643.53
508.643	650.63
509.098	649.63
509.553	669.93
510.009	684.93
510.464	692.23
510.919	706.03
511.375	712.43
511.83	735.83
512.285	741.03
512.74	778.63
513.195	806.13
513.65	794.73
514.105	798.83
514.56	789.13
515.015	810.13
515.47	829.13
515.925	808.33
516.38	815.73
516.835	811.13
517.29	800.63
517.745	798.23
518.2	781.93
518.655	772.73
519.109	772.93
519.564	766.83
520.019	745.23
520.474	747.13
520.928	750.73
521.383	735.93
521.838	738.13
522.292	723.93
522.747	730.43
523.201	713.73
523.656	711.73
524.11	717.03
524.565	712.43
525.019	713.13
525.474	714.83
525.928	713.73
526.382	705.53
526.837	713.73
527.291	718.13
527.745	714.73
528.2	730.53
528.654	721.43
529.108	712.33
529.562	720.83
530.016	702.53
530.47	705.73
530.925	711.33
531.379	713.43
531.833	724.93
532.287	721.03
532.741	723.23
533.195	718.23
533.649	733.33
534.103	744.53
534.556	726.93
535.01	733.63
535.464	726.73
535.918	744.23
536.372	740.03
536.826	735.23
537.279	725.53
537.733	740.33
538.187	737.43
538.64	728.13
539.094	749.03
539.548	755.93
540.001	743.33
540.455	745.73
540.908	752.03
541.362	754.03
541.815	768.43
542.269	790.03
542.722	777.83
543.175	788.23
543.629	792.83
544.082	805.03
544.536	809.23
544.989	802.63
545.442	823.43
545.895	810.73
546.349	817.63
546.802	809.43
547.255	819.43
547.708	829.03
548.161	850.83
548.614	843.63
549.067	850.63
549.52	840.73
549.973	833.33
550.426	821.53
550.879	822.43
551.332	829.43
551.785	830.23
552.238	831.83
552.691	841.13
553.144	860.13
553.596	878.93
554.049	887.83
554.502	921.73
554.955	944.43
555.407	935.33
555.86	924.43
556.313	929.23
556.765	911.73
557.218	908.43
557.67	915.03
558.123	902.83
558.576	898.53
559.028	908.83
559.48	907.43
559.933	891.83
560.385	863.33
560.838	829.83
561.29	810.23
561.742	812.23
562.195	792.13
562.647	783.33
563.099	802.93
563.551	789.43
564.004	809.03
564.456	802.73
564.908	784.73
565.36	765.13
565.812	757.43
566.264	740.83
566.716	747.53
567.168	741.93
567.62	747.33
568.072	724.63
568.524	709.63
568.976	713.93
569.428	696.53
569.88	694.03
570.332	703.73
570.784	709.23
571.235	712.33
571.687	720.53
572.139	724.03
572.59	744.03
573.042	732.53
573.494	732.83
573.945	721.13
574.397	703.63
574.849	708.43
575.3	715.63
575.752	705.43
576.203	700.33
576.655	703.93
577.106	696.13
577.557	686.73
578.009	681.83
578.46	680.13
578.912	692.43
579.363	682.53
579.814	691.23
580.265	682.93
580.717	682.23
581.168	690.03
581.619	696.43
582.07	702.23
582.521	695.13
582.972	695.03
583.423	685.33
583.875	685.23
584.326	717.33
584.777	764.63
585.227	836.33
585.678	922.73
586.129	1001.23
586.58	1081.83
587.031	1153.53
587.482	1301.63
587.933	1469.93
588.384	1290.63
588.834	988.13
589.285	825.13
589.736	810.93
590.186	798.43
590.637	791.93
591.088	764.03
591.538	755.73
591.989	756.83
592.439	749.93
592.89	747.53
593.34	733.03
593.791	721.53
594.241	725.33
594.692	727.03
595.142	722.13
595.593	719.53
596.043	718.63
596.493	729.63
596.943	739.83
597.394	734.03
597.844	731.73
598.294	751.23
598.744	772.03
599.195	799.23
599.645	843.53
600.095	874.03
600.545	939.23
600.995	995.63
601.445	1057.13
601.895	1124.43
602.345	1178.83
602.795	1143.23
603.245	1094.83
603.695	1033.63
604.145	988.53
604.594	940.33
605.044	890.03
605.494	821.23
605.944	771.63
606.393	763.13
606.843	750.93
607.293	749.43
607.743	750.63
608.192	771.73
608.642	774.13
609.091	793.53
609.541	793.23
609.99	800.53
610.44	793.43
610.889	749.03
611.339	719.83
611.788	706.33
612.238	717.33
612.687	742.73
613.136	736.13
613.586	759.63
614.035	754.93
614.484	774.63
614.933	775.53
615.383	763.43
615.832	765.93
616.281	726.33
616.73	705.93
617.179	686.13
617.628	668.03
618.077	653.63
618.526	643.03
618.975	635.03
619.424	637.13
619.873	635.63
620.322	624.43
620.771	618.63
621.22	621.43
621.669	613.13
622.118	603.83
622.567	603.93
623.015	592.13
623.464	591.63
623.913	573.73
624.361	577.83
624.81	559.53
625.259	566.13
625.707	574.53
626.156	570.83
626.604	591.43
627.053	583.23
627.501	572.43
627.95	581.63
628.398	591.23
628.847	586.93
629.295	584.73
629.744	590.83
630.192	593.43
630.64	587.23
631.089	582.93
631.537	594.03
631.985	594.33
632.433	613.83
632.881	624.93
633.33	669.23
633.778	650.63
634.226	576.53
634.674	584.53
635.122	597.33
635.57	614.23
636.018	639.03
636.466	603.53
636.914	576.43
637.362	591.63
637.81	582.43
638.258	592.33
638.705	594.53
639.153	620.83
639.601	631.63
640.049	648.13
640.497	687.53
640.944	704.43
641.392	660.43
641.84	633.23
642.287	598.03
642.735	577.73
643.182	587.83
643.63	581.73
644.078	591.43
644.525	605.73
644.973	611.23
645.42	617.03
645.867	642.93
646.315	650.03
646.762	677.83
647.21	710.73
647.657	727.73
648.104	768.33
648.551	783.83
648.999	852.03
649.446	933.93
649.893	1023.53
650.34	1183.13
650.787	1420.03
651.234	1758.53
651.682	2295.23
652.129	3144.03
652.576	4532.63
653.023	6678.83
653.47	9131.33
653.917	11421.03
654.363	13174.23
654.81	14520.23
655.257	13809.03
655.704	9080.73
656.151	5339.73
656.598	3480.83
657.044	2448.63
657.491	1894.63
657.938	1514.43
658.385	1270.33
658.831	1107.13
659.278	979.93
659.724	869.03
660.171	813.73
660.618	740.43
661.064	712.03
661.511	677.63
661.957	669.23
662.404	655.83
662.85	662.83
663.296	629.33
663.743	570.63
664.189	550.93
664.635	539.73
665.082	533.33
665.528	548.63
665.974	528.53
666.42	532.53
666.867	513.63
667.313	500.83
667.759	484.93
668.205	487.03
668.651	488.63
669.097	482.63
669.543	503.43
669.989	469.23
670.435	454.23
670.881	455.53
671.327	455.33
671.773	472.63
672.219	496.33
672.665	555.33
673.11	599.03
673.556	651.63
674.002	687.43
674.448	670.03
674.893	557.53
675.339	484.33
675.785	447.53
676.23	433.63
676.676	401.23
677.122	393.13
677.567	378.03
678.013	377.53
678.458	364.03
678.904	370.83
679.349	355.03
679.794	361.13
680.24	362.93
680.685	360.73
681.131	355.33
681.576	357.03
682.021	363.93
682.466	353.43
682.912	359.03
683.357	359.73
683.802	389.23
684.247	425.83
684.692	466.83
685.137	509.23
685.583	544.33
686.028	579.83
686.473	530.63
686.918	454.93
687.363	426.13
687.807	410.83
688.252	366.73
688.697	365.73
689.142	348.63
689.587	338.83
690.032	335.03
690.477	349.73
690.921	359.73
691.366	385.53
691.811	406.53
692.255	437.43
692.7	472.93
693.145	508.83
693.589	713.13
694.034	1157.93
694.478	1570.13
694.923	1766.03
695.367	2289.03
695.812	1226.93
696.256	517.53
696.701	385.03
697.145	353.13
697.59	336.73
698.034	328.23
698.478	335.63
698.922	328.73
699.367	329.13
699.811	345.73
700.255	367.83
700.699	393.73
701.143	433.23
701.588	483.53
702.032	527.83
702.476	527.03
702.92	494.83
703.364	499.33
703.808	647.33
704.252	1049.33
704.696	1471.23
705.14	1718.43
705.584	2167.73
706.027	1071.23
706.471	522.13
706.915	394.73
707.359	355.53
707.803	325.23
708.246	317.93
708.69	322.63
709.134	320.93
709.577	319.13
710.021	325.43
710.465	310.33
710.908	313.43
711.352	307.53
711.795	325.13
712.239	364.13
712.682	389.13
713.126	424.53
713.569	474.43
714.012	378.53
714.456	325.83
714.899	308.73
715.342	279.43
715.786	268.63
716.229	263.53
716.672	262.03
717.115	253.73
717.558	251.23
718.002	259.23
718.445	272.03
718.888	295.03
719.331	300.23
719.774	313.83
720.217	307.13
720.66	289.13
721.103	271.43
721.546	260.83
721.989	257.13
722.432	240.13
722.874	248.33
723.317	236.33
723.76	240.23
724.203	260.13
724.645	319.93
725.088	466.53
725.531	576.53
725.974	660.53
726.416	557.53
726.859	310.93
727.301	259.03
727.744	246.23
728.187	238.13
728.629	241.93
729.071	248.73
729.514	260.73
729.956	277.13
730.399	286.43
730.841	298.93
731.283	278.63
731.726	275.53
732.168	263.23
732.61	270.63
733.053	287.43
733.495	316.13
733.937	358.63
734.379	407.03
734.821	441.43
735.263	552.73
735.705	837.43
736.148	1598.63
736.59	2617.83
737.032	3117.53
737.474	2508.93
737.916	807.33
738.357	447.33
738.799	330.83
739.241	300.13
739.683	290.23
740.125	295.53
740.567	296.83
741.008	315.33
741.45	318.53
741.892	320.93
742.334	355.13
742.775	367.53
743.217	344.93
743.658	273.23
744.1	254.53
744.542	270.03
744.983	313.43
745.425	347.13
745.866	357.63
746.307	295.63
746.749	291.23
747.19	326.13
747.632	470.43
748.073	897.63
748.514	1887.83
748.956	2906.43
749.397	3642.23
749.838	3021.03
750.279	3004.73
750.72	1512.53
751.162	553.93
751.603	324.93
752.044	254.23
752.485	221.23
752.926	216.13
753.367	205.63
753.808	191.43
754.249	188.83
754.69	193.53
755.131	184.23
755.572	184.83
756.013	181.73
756.453	189.83
756.894	193.53
757.335	197.03
757.776	199.93
758.216	201.13
758.657	200.83
759.098	205.63
759.538	229.63
759.979	273.63
760.42	377.63
760.86	710.53
761.301	1850.23
761.741	4468.43
762.182	6540.43
762.622	4589.03
