Data from 20171114-ORNL-Ar_H_NY_Subt18_08-04-41-098.txt Node
Date: Tue Nov 14 08:04:41 EST 2017
User: Ender
Spectrometer: HR+D1039
Trigger mode: 0
Integration Time (sec): 2.730000E-2
Scans to average: 10
Electric dark correction enabled: true
Nonlinearity correction enabled: false
Boxcar width: 0
XAxis mode: Wavelengths
Number of Pixels in Spectrum: 2048
>>>>>Begin Spectral Data<<<<<
187.836	-3.56
188.309	-3.56
188.782	-3.56
189.255	1.94
189.728	-0.16
190.201	5.64
190.674	3.74
191.147	2.84
191.619	-11.86
192.092	1.14
192.565	6.84
193.038	4.64
193.511	-3.56
193.984	1.04
194.456	-6.66
194.929	1.94
195.402	-4.16
195.874	0.14
196.347	-3.06
196.82	-5.06
197.292	6.54
197.765	-2.76
198.237	-6.86
198.71	0.94
199.182	-0.36
199.655	-3.96
200.127	1.44
200.6	-4.36
201.072	-0.46
201.544	-0.26
202.017	2.64
202.489	3.54
202.961	0.34
203.433	-2.46
203.906	-8.26
204.378	-3.56
204.85	0.24
205.322	-9.06
205.794	-5.06
206.266	-5.26
206.739	-7.26
207.211	2.74
207.683	-7.96
208.155	0.24
208.627	-5.66
209.099	-2.96
209.57	-5.66
210.042	-7.06
210.514	-7.36
210.986	0.14
211.458	-10.56
211.93	1.34
212.402	-1.96
212.873	-6.46
213.345	-8.56
213.817	-13.76
214.288	-3.86
214.76	-9.16
215.232	-4.36
215.703	-6.26
216.175	-0.36
216.646	-0.76
217.118	-4.96
217.589	-2.06
218.061	-4.56
218.532	-0.56
219.004	0.74
219.475	-1.86
219.946	-6.66
220.418	-4.06
220.889	-0.26
221.36	-0.16
221.832	-5.96
222.303	-11.96
222.774	-3.26
223.245	-9.06
223.717	-2.46
224.188	-5.86
224.659	-6.66
225.13	-6.86
225.601	-0.86
226.072	-0.66
226.543	0.84
227.014	1.64
227.485	4.54
227.956	-4.36
228.427	-2.26
228.898	5.34
229.369	1.24
229.839	0.24
230.31	-14.46
230.781	2.04
231.252	-5.36
231.722	-4.06
232.193	-3.66
232.664	-4.36
233.135	1.74
233.605	2.04
234.076	-2.96
234.546	-2.06
235.017	0.94
235.487	-1.46
235.958	-0.16
236.428	-3.86
236.899	4.24
237.369	5.44
237.84	-0.56
238.31	8.54
238.78	3.74
239.251	5.14
239.721	5.74
240.191	6.74
240.662	2.24
241.132	-1.76
241.602	0.94
242.072	8.04
242.542	11.24
243.013	3.24
243.483	16.84
243.953	2.84
244.423	1.14
244.893	-3.56
245.363	3.84
245.833	7.84
246.303	1.14
246.773	11.54
247.243	6.04
247.712	7.94
248.182	11.54
248.652	16.14
249.122	-0.86
249.592	14.54
250.061	28.44
250.531	33.74
251.001	17.04
251.471	32.74
251.94	22.64
252.41	10.34
252.879	12.74
253.349	15.94
253.818	14.74
254.288	12.44
254.757	-1.46
255.227	4.04
255.696	1.84
256.166	8.74
256.635	8.84
257.105	7.94
257.574	6.84
258.043	9.94
258.513	11.44
258.982	18.34
259.451	8.74
259.92	14.24
260.389	15.44
260.859	15.74
261.328	10.84
261.797	21.34
262.266	13.84
262.735	10.14
263.204	3.04
263.673	4.14
264.142	4.94
264.611	-2.76
265.08	-4.26
265.549	3.84
266.018	3.44
266.487	4.04
266.955	3.54
267.424	6.04
267.893	11.04
268.362	3.74
268.83	4.24
269.299	9.34
269.768	4.84
270.236	6.84
270.705	1.84
271.174	13.04
271.642	14.64
272.111	16.54
272.579	19.14
273.048	21.14
273.516	28.24
273.985	29.64
274.453	23.64
274.922	21.64
275.39	9.64
275.858	8.04
276.327	16.94
276.795	21.24
277.263	15.34
277.731	32.64
278.2	57.34
278.668	59.54
279.136	53.04
279.604	17.84
280.072	21.64
280.54	12.74
281.008	14.44
281.477	19.04
281.945	15.24
282.413	17.04
282.881	21.14
283.348	17.54
283.816	20.24
284.284	17.74
284.752	20.94
285.22	14.94
285.688	21.64
286.156	21.64
286.623	45.04
287.091	51.94
287.559	33.04
288.026	20.24
288.494	18.04
288.962	7.44
289.429	9.74
289.897	21.74
290.364	16.74
290.832	23.44
291.3	14.44
291.767	20.44
292.234	21.14
292.702	12.94
293.169	16.04
293.637	28.34
294.104	22.54
294.571	8.14
295.039	15.94
295.506	17.64
295.973	17.04
296.44	13.74
296.908	15.34
297.375	23.14
297.842	22.34
298.309	19.64
298.776	18.94
299.243	26.64
299.71	13.94
300.177	25.04
300.644	26.94
301.111	17.84
301.578	28.74
302.045	13.04
302.512	24.94
302.979	24.14
303.446	25.04
303.913	27.94
304.379	25.94
304.846	32.74
305.313	27.24
305.78	21.44
306.246	22.74
306.713	34.14
307.18	24.34
307.646	27.84
308.113	29.84
308.579	30.44
309.046	29.74
309.512	25.84
309.979	23.14
310.445	30.04
310.912	30.34
311.378	32.64
311.845	36.74
312.311	30.84
312.777	30.04
313.244	32.84
313.71	42.24
314.176	36.74
314.642	32.24
315.109	35.04
315.575	40.84
316.041	38.84
316.507	29.14
316.973	44.74
317.439	29.34
317.905	36.64
318.371	35.24
318.837	39.74
319.303	29.44
319.769	38.34
320.235	37.74
320.701	37.44
321.167	39.54
321.633	37.04
322.099	39.94
322.564	45.54
323.03	43.04
323.496	46.14
323.962	46.94
324.427	37.94
324.893	44.84
325.359	40.34
325.824	43.04
326.29	43.74
326.755	41.04
327.221	45.24
327.686	44.24
328.152	54.44
328.617	42.64
329.083	50.04
329.548	48.84
330.014	46.24
330.479	44.44
330.944	46.24
331.41	45.74
331.875	44.84
332.34	48.24
332.805	48.54
333.271	43.64
333.736	45.44
334.201	55.24
334.666	56.94
335.131	55.44
335.596	60.74
336.061	53.44
336.526	45.64
336.991	51.74
337.456	56.84
337.921	58.84
338.386	51.04
338.851	50.44
339.316	49.24
339.781	45.34
340.246	47.84
340.711	48.64
341.175	51.34
341.64	51.24
342.105	49.34
342.569	51.04
343.034	62.64
343.499	58.24
343.963	53.84
344.428	68.24
344.893	62.04
345.357	59.94
345.822	63.54
346.286	69.04
346.751	74.64
347.215	71.94
347.679	73.64
348.144	92.84
348.608	85.04
349.073	71.14
349.537	79.44
350.001	76.74
350.465	91.14
350.93	88.34
351.394	83.94
351.858	70.84
352.322	86.04
352.786	81.84
353.25	97.54
353.715	109.94
354.179	101.24
354.643	123.14
355.107	125.64
355.571	108.04
356.035	101.44
356.498	119.94
356.962	115.44
357.426	128.84
357.89	115.14
358.354	92.14
358.818	86.24
359.281	84.04
359.745	84.54
360.209	77.14
360.673	72.84
361.136	75.64
361.6	89.54
362.064	84.04
362.527	90.54
362.991	90.24
363.454	79.74
363.918	74.94
364.381	80.34
364.845	82.54
365.308	80.74
365.772	89.14
366.235	81.74
366.698	76.34
367.162	85.04
367.625	79.64
368.088	85.74
368.552	85.14
369.015	84.64
369.478	93.44
369.941	101.94
370.404	94.84
370.867	94.84
371.331	102.94
371.794	115.94
372.257	105.74
372.72	113.14
373.183	102.14
373.646	100.44
374.109	102.34
374.572	109.94
375.035	102.34
375.497	103.34
375.96	105.24
376.423	102.94
376.886	113.04
377.349	110.74
377.811	104.24
378.274	104.14
378.737	108.34
379.199	109.34
379.662	112.64
380.125	119.34
380.587	119.34
381.05	118.64
381.512	123.24
381.975	129.34
382.437	128.94
382.9	129.54
383.362	130.14
383.825	133.24
384.287	144.74
384.75	132.94
385.212	134.24
385.674	136.34
386.136	128.44
386.599	116.64
387.061	125.64
387.523	126.04
387.985	130.94
388.447	141.24
388.91	139.64
389.372	146.74
389.834	145.84
390.296	138.24
390.758	151.34
391.22	162.14
391.682	199.24
392.144	288.44
392.606	221.04
393.068	166.24
393.529	158.34
393.991	150.24
394.453	132.94
394.915	151.64
395.377	185.44
395.838	205.84
396.3	148.54
396.762	135.14
397.224	125.74
397.685	123.64
398.147	123.74
398.608	130.04
399.07	121.64
399.531	127.54
399.993	141.24
400.454	143.04
400.916	138.64
401.377	138.44
401.839	147.34
402.3	144.24
402.762	154.84
403.223	179.44
403.684	167.84
404.145	158.34
404.607	150.84
405.068	160.54
405.529	162.84
405.99	179.94
406.451	171.44
406.913	163.24
407.374	153.74
407.835	151.34
408.296	164.74
408.757	164.84
409.218	176.04
409.679	172.14
410.14	170.94
410.601	171.74
411.062	177.84
411.522	186.94
411.983	181.64
412.444	169.44
412.905	169.54
413.366	178.94
413.826	180.74
414.287	207.14
414.748	253.94
415.208	237.74
415.669	201.14
416.13	199.14
416.59	198.94
417.051	200.24
417.511	210.94
417.972	223.04
418.432	236.34
418.893	267.54
419.353	243.64
419.814	192.54
420.274	175.84
420.734	168.54
421.195	190.14
421.655	183.44
422.115	186.74
422.576	186.14
423.036	183.64
423.496	195.94
423.956	202.54
424.416	223.24
424.876	254.14
425.336	248.04
425.797	245.74
426.257	244.14
426.717	226.74
427.177	224.94
427.637	209.34
428.097	217.74
428.556	232.24
429.016	261.74
429.476	249.84
429.936	261.74
430.396	257.84
430.856	275.94
431.315	299.14
431.775	332.24
432.235	360.54
432.694	340.04
433.154	345.74
433.614	364.24
434.073	319.84
434.533	270.74
434.993	250.24
435.452	268.34
435.912	274.74
436.371	272.74
436.83	263.14
437.29	257.24
437.749	235.34
438.209	236.84
438.668	259.14
439.127	273.74
439.587	256.94
440.046	238.04
440.505	246.44
440.964	261.94
441.424	298.34
441.883	284.14
442.342	241.64
442.801	213.84
443.26	208.84
443.719	208.84
444.178	203.34
444.637	191.14
445.096	206.14
445.555	210.14
446.014	215.54
446.473	218.84
446.932	223.64
447.391	214.14
447.849	205.24
448.308	210.44
448.767	205.04
449.226	217.74
449.685	225.84
450.143	232.64
450.602	221.84
451.061	215.04
451.519	220.34
451.978	215.84
452.436	220.44
452.895	227.84
453.353	234.44
453.812	228.24
454.27	228.94
454.729	228.34
455.187	229.54
455.646	235.64
456.104	237.34
456.562	244.74
457.021	249.34
457.479	244.24
457.937	254.54
458.395	252.74
458.854	239.94
459.312	236.74
459.77	259.74
460.228	236.14
460.686	224.34
461.144	231.84
461.602	232.24
462.06	234.04
462.518	235.64
462.976	239.74
463.434	244.14
463.892	249.14
464.35	263.04
464.808	263.24
465.266	257.54
465.724	258.74
466.181	262.44
466.639	256.94
467.097	283.34
467.555	287.34
468.012	287.74
468.47	296.64
468.928	318.74
469.385	327.44
469.843	331.04
470.3	335.14
470.758	341.74
471.215	358.04
471.673	381.54
472.13	391.34
472.588	385.04
473.045	355.74
473.503	352.94
473.96	368.44
474.417	379.74
474.875	402.84
475.332	448.24
475.789	446.64
476.246	444.44
476.704	460.74
477.161	484.24
477.618	481.74
478.075	532.74
478.532	581.44
478.989	652.44
479.446	761.64
479.903	723.54
480.36	766.54
480.817	821.44
481.274	917.74
481.731	1026.64
482.188	1110.04
482.645	1240.64
483.102	1339.84
483.558	1473.04
484.015	1530.54
484.472	1500.54
484.929	1459.94
485.385	1409.74
485.842	1376.34
486.299	1307.04
486.755	1216.64
487.212	1051.64
487.668	880.94
488.125	816.34
488.582	752.64
489.038	717.44
489.494	679.24
489.951	645.14
490.407	636.64
490.864	617.64
491.32	611.64
491.776	606.14
492.233	609.04
492.689	573.54
493.145	576.24
493.602	567.04
494.058	578.54
494.514	581.64
494.97	598.74
495.426	619.34
495.882	589.84
496.338	586.14
496.794	590.84
497.251	582.64
497.707	596.64
498.163	608.94
498.618	609.84
499.074	607.84
499.53	643.14
499.986	645.34
500.442	609.54
500.898	601.24
501.354	591.64
501.809	602.14
502.265	604.04
502.721	626.04
503.177	633.64
503.632	631.74
504.088	637.24
504.543	670.24
504.999	661.14
505.455	630.24
505.91	597.34
506.366	600.64
506.821	596.04
507.277	592.34
507.732	596.24
508.187	589.04
508.643	593.64
509.098	600.54
509.553	619.74
510.009	627.44
510.464	621.94
510.919	658.84
511.375	661.34
511.83	669.44
512.285	678.34
512.74	717.34
513.195	747.44
513.65	729.24
514.105	720.04
514.56	732.94
515.015	753.94
515.47	757.34
515.925	752.24
516.38	748.94
516.835	754.34
517.29	737.34
517.745	734.94
518.2	729.94
518.655	714.24
519.109	699.24
519.564	702.44
520.019	691.94
520.474	690.04
520.928	685.44
521.383	688.64
521.838	671.04
522.292	664.74
522.747	668.64
523.201	670.84
523.656	654.94
524.11	654.64
524.565	641.24
525.019	649.14
525.474	664.54
525.928	667.24
526.382	650.84
526.837	659.74
527.291	664.54
527.745	654.94
528.2	664.54
528.654	652.14
529.108	643.64
529.562	642.54
530.016	633.44
530.47	649.84
530.925	645.14
531.379	659.64
531.833	667.94
532.287	668.24
532.741	657.84
533.195	668.54
533.649	667.84
534.103	671.24
534.556	670.54
535.01	677.24
535.464	669.14
535.918	672.74
536.372	675.34
536.826	679.64
537.279	654.94
537.733	664.84
538.187	670.44
538.64	668.54
539.094	672.14
539.548	677.64
540.001	681.14
540.455	674.14
540.908	680.74
541.362	690.04
541.815	695.24
542.269	706.14
542.722	710.24
543.175	714.54
543.629	721.94
544.082	743.34
544.536	732.34
544.989	726.34
545.442	736.74
545.895	741.34
546.349	731.14
546.802	735.74
547.255	736.14
547.708	740.14
548.161	752.34
548.614	759.94
549.067	775.34
549.52	758.34
549.973	755.24
550.426	751.44
550.879	738.44
551.332	736.54
551.785	752.94
552.238	744.34
552.691	754.84
553.144	765.44
553.596	786.04
554.049	800.34
554.502	830.04
554.955	854.84
555.407	841.54
555.86	839.44
556.313	836.64
556.765	815.54
557.218	828.14
557.67	820.04
558.123	809.74
558.576	807.44
559.028	804.94
559.48	816.14
559.933	810.34
560.385	775.64
560.838	751.34
561.29	723.54
561.742	720.14
562.195	707.34
562.647	708.24
563.099	702.24
563.551	714.44
564.004	731.04
564.456	714.64
564.908	704.44
565.36	687.94
565.812	678.64
566.264	666.84
566.716	662.04
567.168	659.74
567.62	671.84
568.072	646.04
568.524	636.84
568.976	629.54
569.428	613.74
569.88	619.64
570.332	621.24
570.784	624.24
571.235	625.74
571.687	638.24
572.139	641.84
572.59	645.44
573.042	654.14
573.494	653.64
573.945	653.34
574.397	626.14
574.849	641.14
575.3	627.54
575.752	625.94
576.203	618.34
576.655	627.94
577.106	611.34
577.557	600.64
578.009	607.14
578.46	606.04
578.912	603.04
579.363	612.64
579.814	605.84
580.265	610.64
580.717	608.54
581.168	613.34
581.619	625.24
582.07	617.14
582.521	618.14
582.972	617.34
583.423	613.24
583.875	621.54
584.326	638.44
584.777	682.84
585.227	744.74
585.678	839.04
586.129	916.04
586.58	989.84
587.031	1064.74
587.482	1220.04
587.933	1398.64
588.384	1195.84
588.834	891.84
589.285	735.74
589.736	705.34
590.186	705.64
590.637	692.64
591.088	673.64
591.538	667.04
591.989	663.64
592.439	653.04
592.89	662.84
593.34	644.74
593.791	643.94
594.241	636.44
594.692	641.84
595.142	620.84
595.593	634.74
596.043	639.14
596.493	638.94
596.943	651.54
597.394	653.54
597.844	633.54
598.294	656.24
598.744	675.14
599.195	701.54
599.645	736.44
600.095	772.24
600.545	826.64
600.995	869.14
601.445	924.74
601.895	980.64
602.345	1016.94
602.795	1006.34
603.245	956.84
603.695	910.94
604.145	863.54
604.594	810.84
605.044	774.64
605.494	718.84
605.944	671.24
606.393	668.24
606.843	654.54
607.293	652.04
607.743	657.64
608.192	671.64
608.642	672.64
609.091	690.94
609.541	685.74
609.99	691.54
610.44	679.54
610.889	641.14
611.339	613.44
611.788	618.84
612.238	635.94
612.687	642.74
613.136	634.94
613.586	665.04
614.035	658.44
614.484	666.94
614.933	670.34
615.383	663.14
615.832	648.94
616.281	649.54
616.73	608.84
617.179	597.14
617.628	580.94
618.077	565.44
618.526	558.74
618.975	558.44
619.424	544.44
619.873	546.84
620.322	550.34
620.771	538.84
621.22	538.74
621.669	516.84
622.118	523.24
622.567	521.14
623.015	506.54
623.464	512.84
623.913	499.94
624.361	488.14
624.81	485.44
625.259	491.34
625.707	489.24
626.156	494.54
626.604	503.14
627.053	495.14
627.501	495.74
627.95	509.14
628.398	506.44
628.847	491.44
629.295	502.54
629.744	508.34
630.192	503.64
630.64	505.14
631.089	498.44
631.537	512.04
631.985	513.34
632.433	526.04
632.881	535.84
633.33	584.64
633.778	557.04
634.226	492.44
634.674	498.64
635.122	506.64
635.57	516.54
636.018	545.84
636.466	515.44
636.914	489.84
637.362	511.44
637.81	509.94
638.258	507.64
638.705	497.84
639.153	537.34
639.601	538.54
640.049	561.64
640.497	588.74
640.944	613.04
641.392	566.44
641.84	539.94
642.287	516.04
642.735	497.24
643.182	505.84
643.63	503.44
644.078	503.04
644.525	521.44
644.973	514.64
645.42	527.64
645.867	546.74
646.315	558.64
646.762	571.24
647.21	608.04
647.657	615.94
648.104	659.34
648.551	670.34
648.999	740.44
649.446	794.54
649.893	881.44
650.34	998.74
650.787	1198.14
651.234	1497.14
651.682	1943.44
652.129	2645.24
652.576	3817.44
653.023	5666.04
653.47	7809.64
653.917	9879.74
654.363	11555.44
654.81	12964.34
655.257	12335.84
655.704	7966.34
656.151	4678.24
656.598	3035.94
657.044	2133.14
657.491	1646.04
657.938	1319.24
658.385	1093.44
658.831	944.94
659.278	849.74
659.724	746.54
660.171	698.64
660.618	636.54
661.064	605.54
661.511	577.84
661.957	568.64
662.404	558.34
662.85	558.44
663.296	546.34
663.743	489.14
664.189	469.84
664.635	464.94
665.082	461.44
665.528	453.54
665.974	449.84
666.42	441.34
666.867	443.94
667.313	425.54
667.759	410.44
668.205	421.54
668.651	424.54
669.097	426.04
669.543	436.14
669.989	411.14
670.435	384.04
670.881	390.94
671.327	387.54
671.773	413.64
672.219	427.44
672.665	469.04
673.11	496.34
673.556	545.54
674.002	582.74
674.448	569.74
674.893	473.74
675.339	412.14
675.785	377.44
676.23	360.04
676.676	339.74
677.122	318.44
677.567	319.64
678.013	318.34
678.458	306.64
678.904	307.94
679.349	298.14
679.794	300.94
680.24	296.74
680.685	302.54
681.131	302.34
681.576	298.44
682.021	295.64
682.466	300.44
682.912	295.14
683.357	303.84
683.802	320.04
684.247	350.24
684.692	380.34
685.137	419.54
685.583	464.84
686.028	485.44
686.473	442.84
686.918	389.54
687.363	361.94
687.807	338.34
688.252	317.54
688.697	298.04
689.142	291.24
689.587	282.54
690.032	280.14
690.477	290.64
690.921	300.74
691.366	326.94
691.811	340.94
692.255	377.94
692.7	394.54
693.145	426.74
693.589	579.84
694.034	949.04
694.478	1299.84
694.923	1512.94
695.367	1991.54
695.812	1024.34
696.256	425.94
696.701	319.24
697.145	291.94
697.59	283.64
698.034	268.74
698.478	284.84
698.922	276.84
699.367	283.24
699.811	289.84
700.255	306.24
700.699	327.04
701.143	358.04
701.588	408.74
702.032	448.04
702.476	442.94
702.92	420.74
703.364	410.34
703.808	530.54
704.252	857.44
704.696	1230.04
705.14	1443.74
705.584	1875.94
706.027	928.54
706.471	444.44
706.915	329.84
707.359	299.04
707.803	266.64
708.246	265.64
708.69	263.14
709.134	271.84
709.577	263.34
710.021	262.24
710.465	260.84
710.908	256.74
711.352	252.54
711.795	267.54
712.239	296.24
712.682	324.54
713.126	352.14
713.569	404.34
714.012	322.04
714.456	280.14
714.899	260.84
715.342	231.94
715.786	227.44
716.229	221.24
716.672	215.44
717.115	212.54
717.558	210.34
718.002	215.84
718.445	219.94
718.888	239.64
719.331	248.44
719.774	265.14
720.217	259.74
720.66	248.04
721.103	227.34
721.546	220.24
721.989	219.24
722.432	195.34
722.874	199.14
723.317	200.24
723.76	201.84
724.203	225.84
724.645	264.14
725.088	365.94
725.531	480.34
725.974	556.94
726.416	476.64
726.859	262.84
727.301	203.14
727.744	205.04
728.187	196.54
728.629	211.24
729.071	205.84
729.514	218.24
729.956	230.94
730.399	240.14
730.841	242.24
731.283	230.54
731.726	230.24
732.168	219.14
732.61	224.84
733.053	241.44
733.495	258.34
733.937	289.34
734.379	341.04
734.821	364.24
735.263	446.44
735.705	691.54
736.148	1284.04
736.59	2177.64
737.032	2671.44
737.474	2159.14
737.916	686.14
738.357	369.64
738.799	273.64
739.241	255.24
739.683	240.14
740.125	247.74
740.567	254.34
741.008	274.04
741.45	268.64
741.892	265.54
742.334	295.14
742.775	304.04
743.217	300.04
743.658	234.04
744.1	212.44
744.542	217.84
744.983	269.04
745.425	295.54
745.866	301.04
746.307	243.74
746.749	242.34
747.19	274.44
747.632	374.34
748.073	712.74
748.514	1533.84
748.956	2430.54
749.397	3030.54
749.838	2523.14
750.279	2593.74
750.72	1282.04
751.162	465.24
751.603	275.54
752.044	210.24
752.485	186.34
752.926	177.34
753.367	169.54
753.808	163.74
754.249	155.44
754.69	163.74
755.131	155.24
755.572	159.14
756.013	154.04
756.453	159.54
756.894	155.34
757.335	164.54
757.776	168.54
758.216	163.54
758.657	175.04
759.098	176.64
759.538	193.64
759.979	222.34
760.42	310.64
760.86	574.54
761.301	1480.04
761.741	3696.94
762.182	5685.84
762.622	3980.54
