Data from 20171114-ORNL-Ar_H_NY_Subt18_08-04-43-828.txt Node
Date: Tue Nov 14 08:04:43 EST 2017
User: Ender
Spectrometer: HR+D1039
Trigger mode: 0
Integration Time (sec): 2.730000E-2
Scans to average: 10
Electric dark correction enabled: true
Nonlinearity correction enabled: false
Boxcar width: 0
XAxis mode: Wavelengths
Number of Pixels in Spectrum: 2048
>>>>>Begin Spectral Data<<<<<
187.836	-4.89
188.309	-4.89
188.782	-4.89
189.255	1.11
189.728	0.21
190.201	9.31
190.674	0.11
191.147	4.91
191.619	-6.39
192.092	-1.59
192.565	-2.49
193.038	0.81
193.511	-1.99
193.984	1.91
194.456	0.21
194.929	-1.49
195.402	-1.29
195.874	1.51
196.347	-2.29
196.82	-6.09
197.292	5.41
197.765	-0.89
198.237	0.31
198.71	0.41
199.182	1.11
199.655	0.91
200.127	5.31
200.6	1.41
201.072	-5.09
201.544	-2.39
202.017	-4.69
202.489	8.31
202.961	5.41
203.433	-4.09
203.906	-3.39
204.378	-3.89
204.85	4.91
205.322	-9.79
205.794	-6.09
206.266	-3.59
206.739	-4.09
207.211	1.61
207.683	-8.09
208.155	-2.69
208.627	-5.99
209.099	-5.79
209.57	-7.69
210.042	-2.79
210.514	1.91
210.986	-0.59
211.458	-8.39
211.93	-3.99
212.402	6.51
212.873	-5.29
213.345	-13.79
213.817	-12.39
214.288	-1.49
214.76	-12.59
215.232	0.81
215.703	-6.09
216.175	0.41
216.646	-3.59
217.118	-12.79
217.589	-5.59
218.061	-6.29
218.532	-7.69
219.004	-3.99
219.475	-9.29
219.946	-4.99
220.418	-3.89
220.889	1.21
221.36	2.31
221.832	-2.79
222.303	-9.89
222.774	-0.09
223.245	-14.79
223.717	-6.99
224.188	0.21
224.659	-9.99
225.13	-4.29
225.601	2.11
226.072	-1.39
226.543	-0.99
227.014	2.41
227.485	0.21
227.956	0.61
228.427	1.61
228.898	0.41
229.369	5.01
229.839	-0.39
230.31	-6.39
230.781	-0.69
231.252	-7.69
231.722	-6.79
232.193	0.21
232.664	-2.39
233.135	6.91
233.605	1.01
234.076	-2.69
234.546	5.21
235.017	4.51
235.487	2.41
235.958	-2.19
236.428	-0.09
236.899	3.51
237.369	7.61
237.84	-0.79
238.31	4.61
238.78	5.61
239.251	4.01
239.721	5.61
240.191	2.41
240.662	3.61
241.132	2.31
241.602	-5.19
242.072	2.81
242.542	6.41
243.013	5.01
243.483	5.41
243.953	7.21
244.423	-0.99
244.893	0.51
245.363	0.61
245.833	10.01
246.303	-1.39
246.773	11.41
247.243	10.11
247.712	1.91
248.182	19.21
248.652	7.81
249.122	4.41
249.592	12.41
250.061	23.91
250.531	32.01
251.001	19.51
251.471	27.61
251.94	20.51
252.41	5.31
252.879	2.11
253.349	14.81
253.818	7.81
254.288	14.21
254.757	3.41
255.227	0.91
255.696	6.71
256.166	4.61
256.635	6.71
257.105	13.41
257.574	14.31
258.043	15.81
258.513	13.41
258.982	18.91
259.451	12.41
259.92	15.71
260.389	16.81
260.859	18.11
261.328	14.71
261.797	21.51
262.266	9.01
262.735	15.61
263.204	6.11
263.673	0.41
264.142	6.91
264.611	-0.49
265.08	7.91
265.549	6.51
266.018	12.41
266.487	-0.39
266.955	4.21
267.424	4.21
267.893	10.21
268.362	12.01
268.83	6.71
269.299	12.91
269.768	7.61
270.236	13.31
270.705	10.71
271.174	8.81
271.642	4.81
272.111	11.31
272.579	22.51
273.048	27.81
273.516	32.41
273.985	28.91
274.453	25.41
274.922	22.01
275.39	15.91
275.858	9.21
276.327	14.61
276.795	26.11
277.263	15.81
277.731	32.91
278.2	54.81
278.668	65.31
279.136	54.31
279.604	24.01
280.072	14.61
280.54	12.21
281.008	13.71
281.477	20.31
281.945	15.71
282.413	9.71
282.881	20.31
283.348	15.81
283.816	17.21
284.284	11.91
284.752	22.81
285.22	14.11
285.688	17.81
286.156	21.71
286.623	41.41
287.091	57.31
287.559	31.81
288.026	21.21
288.494	19.31
288.962	11.11
289.429	17.61
289.897	20.41
290.364	18.91
290.832	20.51
291.3	15.81
291.767	16.61
292.234	24.51
292.702	22.01
293.169	22.91
293.637	24.71
294.104	26.91
294.571	9.51
295.039	16.21
295.506	18.11
295.973	15.81
296.44	18.11
296.908	21.31
297.375	19.91
297.842	20.21
298.309	18.91
298.776	23.81
299.243	21.41
299.71	18.51
300.177	23.51
300.644	22.21
301.111	26.11
301.578	29.71
302.045	20.61
302.512	22.71
302.979	29.51
303.446	30.91
303.913	20.71
304.379	24.91
304.846	26.91
305.313	24.11
305.78	29.91
306.246	25.61
306.713	31.31
307.18	28.51
307.646	30.81
308.113	32.51
308.579	26.71
309.046	32.51
309.512	33.81
309.979	18.21
310.445	32.31
310.912	30.71
311.378	34.31
311.845	27.61
312.311	30.21
312.777	34.51
313.244	39.61
313.71	38.11
314.176	32.91
314.642	31.21
315.109	39.21
315.575	29.81
316.041	41.41
316.507	41.31
316.973	44.81
317.439	34.31
317.905	37.81
318.371	36.51
318.837	36.21
319.303	30.61
319.769	37.41
320.235	35.71
320.701	37.21
321.167	42.81
321.633	41.01
322.099	46.61
322.564	47.61
323.03	45.31
323.496	40.01
323.962	41.21
324.427	38.11
324.893	47.21
325.359	43.81
325.824	44.51
326.29	39.91
326.755	42.71
327.221	45.71
327.686	43.91
328.152	44.01
328.617	48.11
329.083	51.51
329.548	56.11
330.014	51.01
330.479	45.11
330.944	47.91
331.41	47.81
331.875	48.01
332.34	44.91
332.805	46.71
333.271	52.41
333.736	47.31
334.201	51.51
334.666	55.41
335.131	53.61
335.596	50.61
336.061	55.61
336.526	46.91
336.991	53.11
337.456	59.21
337.921	61.41
338.386	47.41
338.851	49.41
339.316	48.21
339.781	46.61
340.246	56.51
340.711	48.71
341.175	51.11
341.64	53.11
342.105	54.21
342.569	57.21
343.034	54.71
343.499	64.11
343.963	50.51
344.428	69.91
344.893	65.81
345.357	67.61
345.822	60.41
346.286	73.91
346.751	74.91
347.215	68.61
347.679	81.01
348.144	101.31
348.608	86.11
349.073	73.61
349.537	83.11
350.001	78.91
350.465	91.61
350.93	78.01
351.394	83.81
351.858	69.01
352.322	89.31
352.786	87.51
353.25	99.01
353.715	110.81
354.179	93.81
354.643	121.11
355.107	120.81
355.571	107.51
356.035	108.61
356.498	119.51
356.962	120.71
357.426	130.51
357.89	121.51
358.354	87.51
358.818	85.11
359.281	78.91
359.745	80.71
360.209	71.31
360.673	80.91
361.136	80.01
361.6	89.51
362.064	90.31
362.527	81.21
362.991	97.91
363.454	72.11
363.918	82.11
364.381	83.21
364.845	77.21
365.308	91.71
365.772	92.11
366.235	87.41
366.698	82.31
367.162	83.41
367.625	81.81
368.088	89.11
368.552	92.61
369.015	94.11
369.478	99.11
369.941	97.81
370.404	98.31
370.867	106.01
371.331	105.71
371.794	115.21
372.257	113.81
372.72	118.21
373.183	108.71
373.646	102.21
374.109	104.11
374.572	111.41
375.035	104.71
375.497	108.71
375.96	102.61
376.423	105.31
376.886	107.61
377.349	112.31
377.811	101.01
378.274	102.21
378.737	104.61
379.199	110.81
379.662	110.11
380.125	112.81
380.587	113.71
381.05	124.01
381.512	127.11
381.975	137.11
382.437	131.21
382.9	128.21
383.362	121.11
383.825	138.11
384.287	138.31
384.75	133.01
385.212	137.71
385.674	137.61
386.136	131.71
386.599	120.51
387.061	125.21
387.523	123.21
387.985	131.41
388.447	139.71
388.91	142.31
389.372	155.61
389.834	148.11
390.296	141.91
390.758	148.91
391.22	164.51
391.682	194.31
392.144	285.21
392.606	220.51
393.068	168.71
393.529	161.21
393.991	154.11
394.453	142.51
394.915	147.41
395.377	186.41
395.838	202.91
396.3	154.91
396.762	140.21
397.224	123.61
397.685	119.71
398.147	138.01
398.608	125.51
399.07	132.31
399.531	136.41
399.993	137.31
400.454	152.71
400.916	145.11
401.377	143.91
401.839	147.11
402.3	147.81
402.762	158.41
403.223	172.51
403.684	164.51
404.145	152.81
404.607	158.31
405.068	154.91
405.529	161.21
405.99	178.11
406.451	172.61
406.913	171.11
407.374	161.61
407.835	160.11
408.296	164.11
408.757	164.61
409.218	178.51
409.679	173.91
410.14	177.41
410.601	172.11
411.062	168.61
411.522	190.11
411.983	187.61
412.444	169.41
412.905	173.21
413.366	174.91
413.826	188.01
414.287	209.91
414.748	253.81
415.208	236.91
415.669	201.31
416.13	195.81
416.59	192.01
417.051	206.01
417.511	210.81
417.972	225.21
418.432	233.51
418.893	278.61
419.353	232.31
419.814	187.31
420.274	174.21
420.734	170.81
421.195	192.71
421.655	193.51
422.115	186.01
422.576	190.01
423.036	190.91
423.496	194.91
423.956	206.51
424.416	226.31
424.876	249.21
425.336	252.51
425.797	253.81
426.257	242.61
426.717	224.41
427.177	222.31
427.637	213.41
428.097	219.01
428.556	238.81
429.016	258.11
429.476	252.81
429.936	263.31
430.396	260.21
430.856	274.41
431.315	304.11
431.775	330.51
432.235	366.41
432.694	327.61
433.154	345.41
433.614	375.31
434.073	317.01
434.533	268.71
434.993	257.71
435.452	272.11
435.912	278.51
436.371	274.81
436.83	271.21
437.29	265.01
437.749	238.31
438.209	233.11
438.668	252.01
439.127	271.81
439.587	264.31
440.046	238.21
440.505	250.61
440.964	275.01
441.424	307.91
441.883	293.21
442.342	255.21
442.801	215.81
443.26	213.61
443.719	211.71
444.178	209.11
444.637	197.21
445.096	210.41
445.555	216.01
446.014	216.61
446.473	213.21
446.932	217.61
447.391	216.71
447.849	220.41
448.308	201.71
448.767	206.61
449.226	223.21
449.685	227.11
450.143	241.91
450.602	226.61
451.061	220.11
451.519	221.21
451.978	222.11
452.436	221.01
452.895	228.91
453.353	240.31
453.812	228.71
454.27	224.51
454.729	232.61
455.187	223.91
455.646	230.61
456.104	238.31
456.562	241.11
457.021	257.81
457.479	248.61
457.937	258.01
458.395	248.61
458.854	230.21
459.312	249.81
459.77	251.11
460.228	241.51
460.686	228.81
461.144	242.01
461.602	229.01
462.06	241.01
462.518	243.11
462.976	242.21
463.434	243.11
463.892	246.91
464.35	257.31
464.808	278.31
465.266	254.61
465.724	257.51
466.181	261.91
466.639	256.11
467.097	277.71
467.555	289.71
468.012	290.61
468.47	288.71
468.928	306.81
469.385	325.51
469.843	326.61
470.3	332.61
470.758	343.71
471.215	360.91
471.673	383.91
472.13	384.31
472.588	400.31
473.045	346.01
473.503	362.41
473.96	377.81
474.417	381.71
474.875	411.71
475.332	449.71
475.789	438.71
476.246	450.81
476.704	465.31
477.161	477.81
477.618	497.31
478.075	531.01
478.532	588.21
478.989	652.91
479.446	750.81
479.903	734.11
480.36	779.01
480.817	826.91
481.274	920.91
481.731	1016.91
482.188	1112.91
482.645	1247.81
483.102	1360.41
483.558	1488.41
484.015	1524.61
484.472	1510.21
484.929	1458.81
485.385	1400.71
485.842	1375.71
486.299	1312.81
486.755	1235.71
487.212	1050.51
487.668	884.81
488.125	819.21
488.582	744.81
489.038	716.11
489.494	683.11
489.951	654.61
490.407	643.51
490.864	622.41
491.32	615.41
491.776	609.21
492.233	604.71
492.689	585.91
493.145	571.01
493.602	567.51
494.058	571.01
494.514	580.71
494.97	608.11
495.426	620.31
495.882	596.41
496.338	573.51
496.794	603.51
497.251	592.51
497.707	612.01
498.163	607.41
498.618	615.31
499.074	620.31
499.53	640.91
499.986	652.31
500.442	614.21
500.898	600.01
501.354	588.11
501.809	605.01
502.265	614.81
502.721	623.91
503.177	644.71
503.632	619.11
504.088	643.91
504.543	667.71
504.999	676.61
505.455	626.81
505.91	592.81
506.366	590.01
506.821	598.61
507.277	595.41
507.732	589.01
508.187	585.61
508.643	599.01
509.098	599.21
509.553	623.41
510.009	629.31
510.464	636.01
510.919	647.31
511.375	655.61
511.83	662.31
512.285	691.31
512.74	723.91
513.195	744.71
513.65	742.11
514.105	721.71
514.56	737.61
515.015	757.71
515.47	770.31
515.925	750.81
516.38	745.81
516.835	760.11
517.29	742.11
517.745	728.41
518.2	727.71
518.655	708.01
519.109	702.51
519.564	706.21
520.019	694.61
520.474	687.91
520.928	692.31
521.383	683.81
521.838	673.11
522.292	683.01
522.747	673.41
523.201	664.41
523.656	660.01
524.11	653.41
524.565	658.31
525.019	644.71
525.474	665.71
525.928	659.91
526.382	661.71
526.837	658.61
527.291	666.41
527.745	652.21
528.2	666.91
528.654	651.51
529.108	649.51
529.562	644.31
530.016	647.81
530.47	664.11
530.925	653.51
531.379	657.21
531.833	668.81
532.287	659.41
532.741	663.61
533.195	663.41
533.649	668.51
534.103	685.11
534.556	665.21
535.01	661.91
535.464	670.21
535.918	674.41
536.372	676.41
536.826	675.71
537.279	669.01
537.733	669.71
538.187	677.41
538.64	675.31
539.094	683.41
539.548	679.31
540.001	678.61
540.455	685.31
540.908	676.71
541.362	693.81
541.815	705.81
542.269	704.81
542.722	709.81
543.175	714.11
543.629	717.61
544.082	742.01
544.536	741.41
544.989	735.81
545.442	746.11
545.895	737.71
546.349	738.31
546.802	738.41
547.255	754.91
547.708	758.21
548.161	762.91
548.614	775.31
549.067	784.31
549.52	764.11
549.973	763.91
550.426	750.01
550.879	740.31
551.332	749.61
551.785	750.91
552.238	757.51
552.691	765.31
553.144	777.31
553.596	779.41
554.049	789.71
554.502	841.71
554.955	843.51
555.407	855.41
555.86	844.91
556.313	834.61
556.765	825.91
557.218	830.41
557.67	826.11
558.123	815.31
558.576	812.91
559.028	815.71
559.48	821.11
559.933	808.91
560.385	776.11
560.838	748.81
561.29	730.31
561.742	724.41
562.195	709.11
562.647	712.41
563.099	717.21
563.551	713.31
564.004	729.21
564.456	720.51
564.908	708.81
565.36	681.11
565.812	678.91
566.264	673.61
566.716	669.61
567.168	657.31
567.62	667.91
568.072	652.11
568.524	636.71
568.976	643.21
569.428	624.71
569.88	618.71
570.332	626.91
570.784	626.11
571.235	625.21
571.687	646.31
572.139	653.91
572.59	654.71
573.042	649.41
573.494	656.01
573.945	657.01
574.397	636.41
574.849	630.31
575.3	633.31
575.752	624.21
576.203	628.61
576.655	630.41
577.106	624.81
577.557	615.61
578.009	618.01
578.46	613.61
578.912	609.21
579.363	614.31
579.814	613.51
580.265	616.01
580.717	605.31
581.168	609.51
581.619	618.21
582.07	621.81
582.521	621.81
582.972	608.11
583.423	625.81
583.875	627.91
584.326	644.91
584.777	690.71
585.227	760.11
585.678	837.91
586.129	924.21
586.58	989.71
587.031	1067.21
587.482	1221.11
587.933	1408.91
588.384	1209.51
588.834	897.81
589.285	737.91
589.736	717.21
590.186	712.01
590.637	704.51
591.088	682.11
591.538	669.91
591.989	668.81
592.439	664.81
592.89	656.61
593.34	650.51
593.791	638.81
594.241	644.91
594.692	645.41
595.142	635.21
595.593	624.61
596.043	638.01
596.493	638.81
596.943	649.61
597.394	654.01
597.844	647.91
598.294	663.21
598.744	676.71
599.195	702.51
599.645	738.61
600.095	784.61
600.545	833.51
600.995	869.31
601.445	930.51
601.895	984.81
602.345	1027.81
602.795	1013.51
603.245	963.71
603.695	913.71
604.145	861.71
604.594	829.11
605.044	788.61
605.494	714.81
605.944	681.51
606.393	671.51
606.843	651.71
607.293	670.31
607.743	657.71
608.192	667.41
608.642	683.41
609.091	695.61
609.541	696.71
609.99	687.11
610.44	683.31
610.889	644.91
611.339	623.51
611.788	613.51
612.238	631.71
612.687	655.51
613.136	639.11
613.586	658.11
614.035	656.11
614.484	686.41
614.933	678.91
615.383	670.51
615.832	663.91
616.281	648.41
616.73	615.41
617.179	597.81
617.628	583.11
618.077	570.91
618.526	553.31
618.975	552.01
619.424	551.91
619.873	542.51
620.322	558.81
620.771	544.41
621.22	542.41
621.669	534.51
622.118	524.41
622.567	519.51
623.015	509.51
623.464	512.21
623.913	502.51
624.361	494.81
624.81	496.61
625.259	490.91
625.707	497.11
626.156	489.01
626.604	511.31
627.053	495.51
627.501	509.81
627.95	506.21
628.398	524.61
628.847	505.41
629.295	504.81
629.744	517.51
630.192	500.01
630.64	503.81
631.089	497.21
631.537	521.31
631.985	518.21
632.433	524.71
632.881	536.91
633.33	578.31
633.778	563.01
634.226	499.41
634.674	501.01
635.122	516.51
635.57	534.51
636.018	558.81
636.466	514.31
636.914	499.31
637.362	495.31
637.81	506.51
638.258	508.31
638.705	514.51
639.153	538.31
639.601	544.91
640.049	568.71
640.497	592.91
640.944	616.51
641.392	566.71
641.84	541.81
642.287	515.01
642.735	508.81
643.182	498.51
643.63	509.41
644.078	512.11
644.525	514.51
644.973	524.01
645.42	526.61
645.867	553.31
646.315	559.31
646.762	589.01
647.21	607.51
647.657	632.51
648.104	669.31
648.551	680.01
648.999	732.71
649.446	805.81
649.893	872.21
650.34	1012.61
650.787	1224.51
651.234	1509.21
651.682	1957.01
652.129	2674.61
652.576	3862.91
653.023	5712.71
653.47	7844.01
653.917	9917.81
654.363	11571.81
654.81	13014.81
655.257	12361.71
655.704	7998.31
656.151	4722.31
656.598	3048.51
657.044	2160.51
657.491	1644.01
657.938	1328.31
658.385	1098.31
658.831	958.41
659.278	849.61
659.724	756.21
660.171	690.81
660.618	627.41
661.064	607.61
661.511	575.11
661.957	571.01
662.404	555.41
662.85	563.11
663.296	550.71
663.743	497.91
664.189	472.31
664.635	464.21
665.082	460.21
665.528	462.61
665.974	460.91
666.42	441.71
666.867	444.71
667.313	427.01
667.759	419.61
668.205	414.81
668.651	422.51
669.097	430.31
669.543	449.01
669.989	417.31
670.435	392.01
670.881	383.11
671.327	392.81
671.773	413.71
672.219	426.21
672.665	471.41
673.11	510.31
673.556	555.21
674.002	580.91
674.448	577.01
674.893	484.51
675.339	421.31
675.785	379.91
676.23	359.41
676.676	350.91
677.122	327.11
677.567	321.91
678.013	313.61
678.458	312.91
678.904	305.51
679.349	298.91
679.794	304.71
680.24	299.21
680.685	302.31
681.131	291.41
681.576	303.71
682.021	308.51
682.466	296.21
682.912	303.61
683.357	304.31
683.802	332.01
684.247	358.41
684.692	385.81
685.137	432.11
685.583	460.61
686.028	487.81
686.473	448.81
686.918	386.81
687.363	367.81
687.807	340.71
688.252	313.31
688.697	315.41
689.142	290.01
689.587	285.91
690.032	281.31
690.477	300.31
690.921	291.51
691.366	333.01
691.811	348.41
692.255	377.01
692.7	393.51
693.145	429.81
693.589	582.01
694.034	957.61
694.478	1309.41
694.923	1519.21
695.367	2005.91
695.812	1045.31
696.256	430.91
696.701	321.01
697.145	292.91
697.59	280.71
698.034	271.21
698.478	287.01
698.922	281.51
699.367	280.51
699.811	296.11
700.255	311.41
700.699	335.01
701.143	362.11
701.588	419.91
702.032	449.41
702.476	447.71
702.92	420.21
703.364	427.01
703.808	532.31
704.252	875.81
704.696	1238.11
705.14	1456.81
705.584	1872.61
706.027	929.61
706.471	455.01
706.915	342.61
707.359	300.51
707.803	273.61
708.246	268.71
708.69	264.61
709.134	279.31
709.577	268.31
710.021	276.51
710.465	269.41
710.908	259.21
711.352	256.01
711.795	264.31
712.239	299.11
712.682	325.51
713.126	366.41
713.569	418.31
714.012	323.21
714.456	279.21
714.899	267.81
715.342	235.11
715.786	220.41
716.229	225.21
716.672	219.91
717.115	212.21
717.558	224.41
718.002	209.71
718.445	223.51
718.888	242.71
719.331	250.51
719.774	265.31
720.217	265.81
720.66	246.61
721.103	223.61
721.546	223.61
721.989	209.91
722.432	198.61
722.874	197.61
723.317	202.11
723.76	198.21
724.203	226.91
724.645	271.51
725.088	372.91
725.531	484.11
725.974	555.81
726.416	482.01
726.859	263.11
727.301	209.11
727.744	207.71
728.187	202.11
728.629	207.21
729.071	212.71
729.514	219.51
729.956	231.41
730.399	245.21
730.841	244.81
731.283	235.21
731.726	234.11
732.168	223.51
732.61	226.81
733.053	248.91
733.495	263.91
733.937	297.81
734.379	341.01
734.821	375.01
735.263	454.71
735.705	694.61
736.148	1316.61
736.59	2198.21
737.032	2692.21
737.474	2195.31
737.916	695.61
738.357	374.41
738.799	281.31
739.241	250.51
739.683	239.51
740.125	246.81
740.567	246.51
741.008	271.61
741.45	267.31
741.892	275.91
742.334	307.71
742.775	313.71
743.217	293.81
743.658	228.61
744.1	220.51
744.542	219.91
744.983	273.81
745.425	304.71
745.866	303.21
746.307	241.91
746.749	241.91
747.19	274.41
747.632	385.11
748.073	722.01
748.514	1553.01
748.956	2440.91
749.397	3042.01
749.838	2542.21
750.279	2607.91
750.72	1310.21
751.162	477.21
751.603	278.41
752.044	212.81
752.485	188.11
752.926	177.41
753.367	167.91
753.808	167.01
754.249	155.31
754.69	155.41
755.131	164.41
755.572	152.11
756.013	157.71
756.453	157.41
756.894	159.71
757.335	161.21
757.776	170.01
758.216	165.31
758.657	167.61
759.098	172.91
759.538	195.81
759.979	231.51
760.42	307.71
760.86	577.21
761.301	1489.71
761.741	3721.81
762.182	5668.91
762.622	3995.41
