Data from 20171114-ORNL-Ar_H_NY_Subt18_08-07-45-083.txt Node
Date: Tue Nov 14 08:07:45 EST 2017
User: Ender
Spectrometer: HR+D1039
Trigger mode: 0
Integration Time (sec): 2.730000E-2
Scans to average: 10
Electric dark correction enabled: true
Nonlinearity correction enabled: false
Boxcar width: 0
XAxis mode: Wavelengths
Number of Pixels in Spectrum: 2048
>>>>>Begin Spectral Data<<<<<
187.836	-3.94
188.309	-3.94
188.782	-3.94
189.255	1.76
189.728	-8.54
190.201	0.16
190.674	-1.24
191.147	3.16
191.619	-4.34
192.092	5.56
192.565	1.66
193.038	0.46
193.511	3.56
193.984	-3.74
194.456	0.46
194.929	1.66
195.402	3.26
195.874	0.06
196.347	-3.34
196.82	-6.54
197.292	2.96
197.765	-0.24
198.237	-9.34
198.71	-0.14
199.182	-6.54
199.655	0.86
200.127	2.96
200.6	-0.34
201.072	-5.04
201.544	-5.04
202.017	-3.14
202.489	6.36
202.961	-0.54
203.433	-3.24
203.906	-6.14
204.378	-3.24
204.85	-1.84
205.322	-2.04
205.794	-4.94
206.266	-3.74
206.739	-14.94
207.211	2.36
207.683	-9.04
208.155	-3.64
208.627	-8.34
209.099	-6.14
209.57	-7.24
210.042	-2.34
210.514	1.56
210.986	4.66
211.458	-3.84
211.93	-1.54
212.402	2.56
212.873	-9.64
213.345	-5.94
213.817	-7.94
214.288	-0.74
214.76	-4.84
215.232	-2.04
215.703	-5.24
216.175	-2.24
216.646	-6.34
217.118	-5.94
217.589	-3.84
218.061	-5.54
218.532	-3.74
219.004	-0.74
219.475	-1.64
219.946	1.26
220.418	-4.54
220.889	2.96
221.36	6.86
221.832	-0.04
222.303	-6.54
222.774	-3.44
223.245	-11.54
223.717	-3.24
224.188	-0.04
224.659	-7.64
225.13	-1.94
225.601	-10.44
226.072	1.36
226.543	-2.34
227.014	-2.84
227.485	-3.14
227.956	-9.84
228.427	1.86
228.898	-3.54
229.369	4.96
229.839	-8.64
230.31	-5.34
230.781	0.56
231.252	-0.94
231.722	-4.54
232.193	-3.44
232.664	-1.84
233.135	-0.14
233.605	-3.44
234.076	-2.24
234.546	6.46
235.017	4.66
235.487	-0.94
235.958	-0.64
236.428	-2.44
236.899	5.96
237.369	0.16
237.84	1.16
238.31	3.96
238.78	-1.44
239.251	-1.14
239.721	4.86
240.191	5.96
240.662	2.26
241.132	2.96
241.602	-0.44
242.072	0.66
242.542	8.36
243.013	1.26
243.483	0.66
243.953	-1.14
244.423	1.86
244.893	-3.44
245.363	3.56
245.833	0.96
246.303	-2.54
246.773	8.86
247.243	1.56
247.712	1.46
248.182	8.96
248.652	6.36
249.122	-0.34
249.592	7.96
250.061	18.06
250.531	29.76
251.001	11.06
251.471	17.26
251.94	15.76
252.41	9.46
252.879	0.76
253.349	12.26
253.818	3.66
254.288	3.76
254.757	2.76
255.227	-1.34
255.696	4.76
256.166	3.76
256.635	3.86
257.105	9.36
257.574	3.16
258.043	9.96
258.513	8.16
258.982	14.06
259.451	3.56
259.92	9.66
260.389	13.06
260.859	15.36
261.328	9.56
261.797	10.76
262.266	6.36
262.735	11.06
263.204	5.66
263.673	0.86
264.142	9.96
264.611	-4.34
265.08	-3.24
265.549	-4.44
266.018	7.56
266.487	-3.24
266.955	-6.54
267.424	0.66
267.893	3.26
268.362	2.86
268.83	5.26
269.299	5.56
269.768	1.76
270.236	4.26
270.705	2.56
271.174	4.36
271.642	6.76
272.111	7.66
272.579	21.36
273.048	26.46
273.516	22.76
273.985	29.16
274.453	24.96
274.922	14.96
275.39	8.76
275.858	5.16
276.327	9.66
276.795	16.26
277.263	10.76
277.731	30.46
278.2	52.86
278.668	50.06
279.136	40.06
279.604	11.76
280.072	15.66
280.54	6.56
281.008	6.56
281.477	10.16
281.945	9.66
282.413	8.46
282.881	15.46
283.348	10.76
283.816	10.66
284.284	12.26
284.752	22.76
285.22	10.96
285.688	12.86
286.156	22.66
286.623	45.06
287.091	49.96
287.559	24.36
288.026	11.46
288.494	22.16
288.962	3.56
289.429	9.96
289.897	20.96
290.364	11.86
290.832	17.46
291.3	10.36
291.767	15.16
292.234	19.86
292.702	18.56
293.169	17.16
293.637	22.76
294.104	20.36
294.571	9.46
295.039	8.36
295.506	4.36
295.973	16.86
296.44	13.16
296.908	21.26
297.375	12.66
297.842	13.86
298.309	10.46
298.776	13.16
299.243	20.26
299.71	16.16
300.177	20.56
300.644	17.46
301.111	13.16
301.578	20.96
302.045	17.66
302.512	21.16
302.979	25.46
303.446	17.26
303.913	15.96
304.379	15.26
304.846	24.36
305.313	26.46
305.78	21.66
306.246	18.76
306.713	23.16
307.18	16.46
307.646	24.56
308.113	28.56
308.579	21.36
309.046	19.76
309.512	20.86
309.979	14.36
310.445	26.86
310.912	18.46
311.378	29.46
311.845	27.96
312.311	25.76
312.777	29.26
313.244	22.76
313.71	32.46
314.176	26.86
314.642	29.36
315.109	27.66
315.575	33.46
316.041	35.46
316.507	30.66
316.973	32.36
317.439	36.76
317.905	34.36
318.371	31.46
318.837	27.46
319.303	29.26
319.769	32.26
320.235	33.26
320.701	34.66
321.167	30.66
321.633	25.36
322.099	36.76
322.564	38.16
323.03	43.86
323.496	37.16
323.962	47.06
324.427	28.06
324.893	41.06
325.359	34.96
325.824	31.16
326.29	31.36
326.755	31.26
327.221	36.86
327.686	39.66
328.152	39.76
328.617	29.36
329.083	41.66
329.548	43.16
330.014	45.26
330.479	38.56
330.944	40.16
331.41	43.46
331.875	39.66
332.34	41.06
332.805	34.16
333.271	44.76
333.736	40.66
334.201	45.16
334.666	47.06
335.131	46.36
335.596	47.56
336.061	47.86
336.526	35.06
336.991	44.46
337.456	53.56
337.921	41.66
338.386	43.76
338.851	43.26
339.316	38.36
339.781	44.56
340.246	42.96
340.711	43.86
341.175	44.46
341.64	46.26
342.105	49.46
342.569	50.36
343.034	50.06
343.499	48.86
343.963	51.86
344.428	60.76
344.893	57.16
345.357	54.46
345.822	51.76
346.286	60.66
346.751	68.16
347.215	60.86
347.679	67.06
348.144	83.86
348.608	78.86
349.073	68.86
349.537	67.26
350.001	69.56
350.465	79.36
350.93	72.16
351.394	72.36
351.858	67.26
352.322	74.56
352.786	69.26
353.25	92.76
353.715	99.16
354.179	92.96
354.643	114.26
355.107	121.26
355.571	100.56
356.035	98.46
356.498	109.56
356.962	109.86
357.426	119.86
357.89	102.16
358.354	78.86
358.818	76.26
359.281	75.46
359.745	67.86
360.209	72.86
360.673	70.06
361.136	74.66
361.6	81.36
362.064	76.46
362.527	73.76
362.991	86.16
363.454	74.56
363.918	76.06
364.381	69.26
364.845	63.66
365.308	79.86
365.772	77.76
366.235	76.96
366.698	80.56
367.162	76.96
367.625	77.26
368.088	79.36
368.552	81.06
369.015	85.26
369.478	89.06
369.941	94.56
370.404	82.86
370.867	96.76
371.331	97.56
371.794	106.76
372.257	101.16
372.72	103.56
373.183	97.56
373.646	96.96
374.109	92.66
374.572	95.26
375.035	97.96
375.497	95.06
375.96	100.06
376.423	97.66
376.886	105.96
377.349	105.96
377.811	89.36
378.274	102.36
378.737	99.76
379.199	102.56
379.662	106.36
380.125	116.06
380.587	106.86
381.05	122.56
381.512	116.76
381.975	121.16
382.437	120.96
382.9	117.66
383.362	121.36
383.825	134.46
384.287	138.76
384.75	135.06
385.212	137.86
385.674	130.56
386.136	128.36
386.599	117.06
387.061	120.96
387.523	125.56
387.985	129.16
388.447	137.76
388.91	139.56
389.372	148.36
389.834	149.16
390.296	135.56
390.758	150.56
391.22	166.56
391.682	193.96
392.144	280.06
392.606	222.56
393.068	158.46
393.529	159.76
393.991	143.46
394.453	139.76
394.915	143.36
395.377	181.66
395.838	207.06
396.3	143.66
396.762	137.76
397.224	128.66
397.685	127.06
398.147	124.36
398.608	123.76
399.07	121.86
399.531	125.46
399.993	135.66
400.454	141.76
400.916	138.86
401.377	137.26
401.839	144.96
402.3	142.96
402.762	159.96
403.223	169.06
403.684	165.06
404.145	146.86
404.607	151.06
405.068	161.96
405.529	157.86
405.99	179.66
406.451	166.56
406.913	168.76
407.374	155.26
407.835	157.16
408.296	154.56
408.757	161.76
409.218	178.76
409.679	163.66
410.14	162.36
410.601	172.66
411.062	171.36
411.522	187.76
411.983	187.36
412.444	161.26
412.905	172.16
413.366	173.06
413.826	183.76
414.287	207.96
414.748	246.16
415.208	231.46
415.669	205.16
416.13	193.06
416.59	192.16
417.051	204.66
417.511	206.46
417.972	230.26
418.432	234.46
418.893	274.76
419.353	239.76
419.814	190.36
420.274	173.26
420.734	176.96
421.195	190.06
421.655	189.56
422.115	184.16
422.576	186.06
423.036	185.26
423.496	197.96
423.956	211.06
424.416	216.56
424.876	251.96
425.336	246.66
425.797	251.16
426.257	241.86
426.717	231.66
427.177	222.96
427.637	212.96
428.097	228.76
428.556	241.06
429.016	263.66
429.476	254.86
429.936	269.26
430.396	266.46
430.856	281.56
431.315	308.36
431.775	346.16
432.235	365.36
432.694	342.06
433.154	348.26
433.614	375.16
434.073	325.36
434.533	276.56
434.993	269.36
435.452	272.56
435.912	283.96
436.371	269.96
436.83	271.76
437.29	253.56
437.749	243.06
438.209	238.16
438.668	260.96
439.127	271.76
439.587	257.96
440.046	237.26
440.505	250.56
440.964	267.76
441.424	306.96
441.883	296.26
442.342	248.86
442.801	214.56
443.26	217.26
443.719	213.76
444.178	217.96
444.637	202.86
445.096	218.66
445.555	216.06
446.014	210.06
446.473	214.56
446.932	220.76
447.391	225.86
447.849	212.16
448.308	212.46
448.767	215.46
449.226	220.46
449.685	235.36
450.143	237.96
450.602	235.26
451.061	218.66
451.519	222.46
451.978	220.56
452.436	227.66
452.895	230.56
453.353	238.26
453.812	238.66
454.27	226.76
454.729	231.36
455.187	231.26
455.646	237.36
456.104	237.16
456.562	257.26
457.021	258.46
457.479	247.76
457.937	260.16
458.395	245.66
458.854	239.46
459.312	245.46
459.77	262.96
460.228	244.06
460.686	233.06
461.144	237.36
461.602	236.96
462.06	234.66
462.518	244.46
462.976	248.16
463.434	244.46
463.892	254.86
464.35	260.56
464.808	281.96
465.266	248.66
465.724	259.36
466.181	265.96
466.639	268.86
467.097	275.76
467.555	285.76
468.012	292.46
468.47	291.96
468.928	320.46
469.385	322.36
469.843	330.86
470.3	330.36
470.758	346.96
471.215	373.16
471.673	398.16
472.13	390.46
472.588	399.66
473.045	359.26
473.503	364.26
473.96	385.26
474.417	389.76
474.875	412.26
475.332	459.06
475.789	448.56
476.246	453.36
476.704	467.16
477.161	491.56
477.618	505.26
478.075	537.36
478.532	590.56
478.989	672.86
479.446	778.56
479.903	747.16
480.36	779.86
480.817	822.96
481.274	936.86
481.731	1035.16
482.188	1123.26
482.645	1252.36
483.102	1353.56
483.558	1470.16
484.015	1545.36
484.472	1514.16
484.929	1475.76
485.385	1416.66
485.842	1377.36
486.299	1314.16
486.755	1256.86
487.212	1056.46
487.668	891.06
488.125	806.56
488.582	752.46
489.038	719.66
489.494	676.26
489.951	654.96
490.407	646.96
490.864	619.76
491.32	616.26
491.776	614.26
492.233	625.26
492.689	592.16
493.145	574.46
493.602	576.46
494.058	588.56
494.514	594.76
494.97	612.66
495.426	638.26
495.882	605.06
496.338	587.26
496.794	601.36
497.251	592.76
497.707	614.76
498.163	614.86
498.618	624.36
499.074	627.66
499.53	645.26
499.986	649.16
500.442	624.56
500.898	611.16
501.354	592.46
501.809	622.36
502.265	611.56
502.721	647.96
503.177	649.16
503.632	644.66
504.088	652.16
504.543	681.56
504.999	690.06
505.455	643.26
505.91	611.26
506.366	601.56
506.821	605.76
507.277	599.96
507.732	610.16
508.187	598.16
508.643	610.16
509.098	613.46
509.553	634.36
510.009	643.76
510.464	646.46
510.919	659.86
511.375	667.86
511.83	680.96
512.285	693.76
512.74	734.36
513.195	759.36
513.65	752.56
514.105	738.46
514.56	745.76
515.015	771.06
515.47	776.16
515.925	765.76
516.38	756.66
516.835	760.66
517.29	755.66
517.745	741.86
518.2	741.96
518.655	728.06
519.109	720.36
519.564	715.86
520.019	714.96
520.474	698.76
520.928	706.56
521.383	700.26
521.838	686.36
522.292	685.36
522.747	683.66
523.201	695.66
523.656	666.06
524.11	667.96
524.565	679.46
525.019	671.86
525.474	672.26
525.928	678.46
526.382	682.16
526.837	677.66
527.291	678.56
527.745	671.26
528.2	681.16
528.654	671.76
529.108	657.46
529.562	664.46
530.016	667.06
530.47	682.36
530.925	671.96
531.379	677.16
531.833	682.66
532.287	677.16
532.741	678.66
533.195	679.46
533.649	685.86
534.103	698.86
534.556	689.86
535.01	690.96
535.464	692.06
535.918	701.56
536.372	698.76
536.826	700.56
537.279	691.06
537.733	684.66
538.187	701.66
538.64	688.86
539.094	706.96
539.548	717.46
540.001	700.36
540.455	707.06
540.908	708.46
541.362	716.16
541.815	724.26
542.269	734.86
542.722	738.46
543.175	745.66
543.629	757.46
544.082	761.36
544.536	762.06
544.989	756.06
545.442	762.46
545.895	760.86
546.349	772.96
546.802	771.06
547.255	776.06
547.708	786.56
548.161	795.06
548.614	791.26
549.067	815.86
549.52	802.96
549.973	791.46
550.426	797.56
550.879	772.16
551.332	767.36
551.785	785.56
552.238	782.56
552.691	793.36
553.144	816.56
553.596	835.16
554.049	841.46
554.502	874.96
554.955	891.06
555.407	874.96
555.86	876.06
556.313	866.96
556.765	863.06
557.218	857.36
557.67	863.86
558.123	844.56
558.576	843.86
559.028	844.86
559.48	863.56
559.933	851.56
560.385	814.86
560.838	791.56
561.29	761.86
561.742	763.46
562.195	748.46
562.647	751.16
563.099	753.36
563.551	764.46
564.004	758.76
564.456	753.16
564.908	742.36
565.36	722.46
565.812	711.16
566.264	716.16
566.716	712.76
567.168	703.56
567.62	715.56
568.072	686.46
568.524	670.26
568.976	671.26
569.428	659.26
569.88	663.86
570.332	664.46
570.784	665.06
571.235	669.56
571.687	680.36
572.139	684.26
572.59	693.86
573.042	691.76
573.494	702.86
573.945	690.66
574.397	656.86
574.849	676.46
575.3	682.96
575.752	673.36
576.203	663.16
576.655	680.46
577.106	646.56
577.557	645.76
578.009	657.56
578.46	644.16
578.912	640.16
579.363	644.06
579.814	653.86
580.265	642.96
580.717	658.06
581.168	650.06
581.619	668.96
582.07	665.56
582.521	657.46
582.972	658.66
583.423	659.76
583.875	673.56
584.326	688.66
584.777	742.06
585.227	825.46
585.678	907.56
586.129	992.06
586.58	1065.96
587.031	1151.36
587.482	1306.66
587.933	1486.66
588.384	1300.56
588.834	961.86
589.285	786.16
589.736	766.56
590.186	760.96
590.637	751.76
591.088	730.56
591.538	721.56
591.989	713.96
592.439	710.06
592.89	709.26
593.34	700.16
593.791	693.16
594.241	696.26
594.692	695.66
595.142	686.06
595.593	680.56
596.043	697.26
596.493	708.96
596.943	708.26
597.394	707.06
597.844	691.76
598.294	713.76
598.744	735.66
599.195	758.36
599.645	804.86
600.095	830.96
600.545	901.66
600.995	953.36
601.445	1007.36
601.895	1057.16
602.345	1103.66
602.795	1076.76
603.245	1047.46
603.695	990.96
604.145	932.26
604.594	887.06
605.044	837.96
605.494	779.96
605.944	744.46
606.393	726.76
606.843	717.26
607.293	721.36
607.743	719.86
608.192	740.66
608.642	752.76
609.091	748.26
609.541	767.16
609.99	751.76
610.44	750.46
610.889	706.56
611.339	692.86
611.788	676.46
612.238	685.36
612.687	710.86
613.136	707.46
613.586	731.16
614.035	729.66
614.484	743.16
614.933	741.06
615.383	746.66
615.832	732.96
616.281	720.36
616.73	670.86
617.179	657.96
617.628	641.06
618.077	622.26
618.526	617.26
618.975	606.96
619.424	609.86
619.873	604.26
620.322	609.96
620.771	600.06
621.22	591.16
621.669	585.56
622.118	579.06
622.567	573.76
623.015	558.36
623.464	558.66
623.913	550.66
624.361	543.06
624.81	539.36
625.259	546.16
625.707	549.16
626.156	548.16
626.604	558.36
627.053	556.46
627.501	556.56
627.95	560.36
628.398	576.16
628.847	555.66
629.295	560.06
629.744	559.96
630.192	561.06
630.64	556.66
631.089	554.96
631.537	575.46
631.985	584.76
632.433	597.46
632.881	599.16
633.33	663.56
633.778	639.06
634.226	553.56
634.674	560.26
635.122	573.56
635.57	587.86
636.018	607.86
636.466	579.76
636.914	543.36
637.362	567.76
637.81	562.06
638.258	571.96
638.705	569.46
639.153	598.66
639.601	609.96
640.049	633.56
640.497	663.46
640.944	675.96
641.392	639.86
641.84	602.86
642.287	575.66
642.735	558.46
643.182	567.16
643.63	567.66
644.078	563.26
644.525	581.86
644.973	588.46
645.42	597.16
645.867	615.86
646.315	635.46
646.762	653.76
647.21	679.16
647.657	707.56
648.104	747.16
648.551	759.16
648.999	832.96
649.446	913.46
649.893	999.06
650.34	1151.86
650.787	1374.46
651.234	1726.86
651.682	2245.06
652.129	3096.66
652.576	4472.26
653.023	6602.26
653.47	9000.06
653.917	11208.06
654.363	12845.36
654.81	14164.06
655.257	13457.26
655.704	8803.06
656.151	5193.36
656.598	3374.46
657.044	2382.56
657.491	1839.06
657.938	1471.66
658.385	1215.76
658.831	1080.56
659.278	949.26
659.724	842.16
660.171	781.76
660.618	712.66
661.064	681.06
661.511	655.36
661.957	640.46
662.404	633.56
662.85	641.96
663.296	612.96
663.743	557.76
664.189	537.36
664.635	529.56
665.082	525.86
665.528	524.96
665.974	502.86
666.42	498.16
666.867	500.06
667.313	480.46
667.759	482.16
668.205	482.96
668.651	480.96
669.097	479.96
669.543	492.76
669.989	470.16
670.435	445.06
670.881	440.46
671.327	436.46
671.773	464.66
672.219	487.06
672.665	541.96
673.11	565.36
673.556	617.66
674.002	658.76
674.448	644.96
674.893	544.56
675.339	464.06
675.785	435.76
676.23	405.46
676.676	390.96
677.122	387.26
677.567	367.96
678.013	359.56
678.458	357.06
678.904	352.66
679.349	340.86
679.794	351.06
680.24	347.46
680.685	348.06
681.131	345.06
681.576	354.66
682.021	351.26
682.466	346.46
682.912	342.26
683.357	346.06
683.802	373.36
684.247	410.26
684.692	450.56
685.137	483.06
685.583	524.76
686.028	553.06
686.473	510.06
686.918	442.66
687.363	410.56
687.807	382.26
688.252	354.66
688.697	359.56
689.142	328.26
689.587	328.56
690.032	317.36
690.477	341.36
690.921	345.86
691.366	386.06
691.811	402.36
692.255	423.66
692.7	458.06
693.145	500.96
693.589	706.16
694.034	1125.96
694.478	1517.26
694.923	1691.86
695.367	2195.66
695.812	1160.56
696.256	482.96
696.701	364.86
697.145	340.76
697.59	325.76
698.034	318.86
698.478	329.76
698.922	319.36
699.367	324.46
699.811	339.66
700.255	359.86
700.699	389.26
701.143	428.86
701.588	472.26
702.032	513.46
702.476	501.36
702.92	477.16
703.364	491.86
703.808	638.66
704.252	1022.86
704.696	1436.26
705.14	1628.46
705.584	2077.96
706.027	1038.76
706.471	517.66
706.915	395.76
707.359	342.06
707.803	317.66
708.246	309.86
708.69	305.56
709.134	303.86
709.577	308.66
710.021	311.06
710.465	301.76
710.908	298.36
711.352	294.36
711.795	301.56
712.239	350.76
712.682	382.06
713.126	411.66
713.569	454.96
714.012	371.46
714.456	320.06
714.899	293.96
715.342	278.36
715.786	250.56
716.229	269.86
716.672	245.16
717.115	249.36
717.558	248.36
718.002	247.46
718.445	254.26
718.888	283.66
719.331	289.26
719.774	299.36
720.217	292.16
720.66	276.16
721.103	263.76
721.546	255.66
721.989	247.76
722.432	229.36
722.874	239.26
723.317	224.16
723.76	235.46
724.203	261.86
724.645	320.96
725.088	440.36
725.531	563.26
725.974	633.26
726.416	539.46
726.859	303.86
727.301	244.76
727.744	238.06
728.187	229.36
728.629	236.66
729.071	243.86
729.514	259.06
729.956	268.76
730.399	286.26
730.841	274.56
731.283	272.56
731.726	258.66
732.168	259.06
732.61	263.96
733.053	277.66
733.495	309.96
733.937	343.46
734.379	387.56
734.821	424.36
735.263	543.46
735.705	838.36
736.148	1595.26
736.59	2542.06
737.032	2961.96
737.474	2413.96
737.916	795.56
738.357	430.76
738.799	317.26
739.241	300.46
739.683	279.26
740.125	284.76
740.567	282.76
741.008	310.36
741.45	313.26
741.892	315.26
742.334	341.26
742.775	353.06
743.217	340.66
743.658	269.76
744.1	248.46
744.542	260.76
744.983	311.46
745.425	332.06
745.866	326.56
746.307	285.16
746.749	276.86
747.19	325.26
747.632	457.66
748.073	891.76
748.514	1870.96
748.956	2808.86
749.397	3501.26
749.838	2906.96
750.279	2872.96
750.72	1449.76
751.162	542.56
751.603	313.36
752.044	250.46
752.485	205.76
752.926	205.36
753.367	199.76
753.808	196.06
754.249	196.06
754.69	187.66
755.131	176.46
755.572	182.26
756.013	184.06
756.453	179.46
756.894	189.76
757.335	190.06
757.776	190.66
758.216	188.46
758.657	190.36
759.098	203.06
759.538	221.66
759.979	271.26
760.42	378.26
760.86	707.06
761.301	1837.66
761.741	4420.96
762.182	6218.96
762.622	4374.86
763.063	1281.86
