Data from 20171114-ORNL-Ar_H_NY_Subt18_08-03-11-835.txt Node
Date: Tue Nov 14 08:03:11 EST 2017
User: Ender
Spectrometer: HR+D1039
Trigger mode: 0
Integration Time (sec): 2.730000E-2
Scans to average: 10
Electric dark correction enabled: true
Nonlinearity correction enabled: false
Boxcar width: 0
XAxis mode: Wavelengths
Number of Pixels in Spectrum: 2048
>>>>>Begin Spectral Data<<<<<
187.836	-4.18
188.309	-4.18
188.782	-4.18
189.255	-1.08
189.728	-3.68
190.201	5.52
190.674	-2.68
191.147	3.02
191.619	-5.08
192.092	1.32
192.565	2.92
193.038	1.72
193.511	1.82
193.984	2.42
194.456	0.32
194.929	0.32
195.402	-5.58
195.874	2.92
196.347	-1.98
196.82	-7.28
197.292	8.32
197.765	1.52
198.237	-6.08
198.71	6.52
199.182	-0.98
199.655	-1.88
200.127	4.52
200.6	-2.78
201.072	1.42
201.544	-4.68
202.017	-4.28
202.489	4.82
202.961	0.02
203.433	-7.78
203.906	-5.98
204.378	-5.98
204.85	-2.68
205.322	-6.98
205.794	-1.58
206.266	3.12
206.739	-8.58
207.211	3.32
207.683	-3.58
208.155	-3.88
208.627	-13.08
209.099	-2.18
209.57	-11.28
210.042	-2.68
210.514	1.72
210.986	-2.78
211.458	-6.28
211.93	-0.08
212.402	2.82
212.873	-0.28
213.345	-7.48
213.817	-12.28
214.288	-2.68
214.76	-12.38
215.232	-0.98
215.703	-5.18
216.175	-1.68
216.646	-5.18
217.118	-6.98
217.589	0.62
218.061	-3.88
218.532	-4.68
219.004	-0.88
219.475	-0.18
219.946	-5.68
220.418	-4.68
220.889	1.32
221.36	-5.28
221.832	-3.98
222.303	-2.98
222.774	-0.78
223.245	-7.28
223.717	-8.88
224.188	-6.78
224.659	0.62
225.13	0.62
225.601	-2.98
226.072	5.42
226.543	-5.28
227.014	0.52
227.485	-6.18
227.956	-8.18
228.427	-2.48
228.898	-2.68
229.369	0.62
229.839	-9.88
230.31	-11.18
230.781	-2.18
231.252	-4.68
231.722	-9.88
232.193	-6.28
232.664	-8.58
233.135	-7.38
233.605	-3.68
234.076	-5.78
234.546	-0.98
235.017	0.52
235.487	-1.28
235.958	-7.48
236.428	-5.18
236.899	-4.18
237.369	-2.08
237.84	-4.98
238.31	1.82
238.78	-4.48
239.251	-6.68
239.721	-7.08
240.191	-13.08
240.662	-0.68
241.132	-6.78
241.602	-4.28
242.072	-4.18
242.542	1.42
243.013	-2.08
243.483	-3.98
243.953	-2.78
244.423	-5.78
244.893	-6.98
245.363	1.42
245.833	-6.88
246.303	-8.48
246.773	-1.78
247.243	-7.38
247.712	-11.08
248.182	4.22
248.652	-4.78
249.122	-8.78
249.592	-3.38
250.061	-3.38
250.531	2.52
251.001	-7.48
251.471	-2.38
251.94	2.92
252.41	-6.68
252.879	-8.88
253.349	4.72
253.818	0.92
254.288	-5.78
254.757	-4.98
255.227	-7.18
255.696	-9.88
256.166	-4.28
256.635	-1.68
257.105	-0.28
257.574	-7.18
258.043	-5.68
258.513	-10.28
258.982	-6.38
259.451	-12.08
259.92	-6.08
260.389	-2.58
260.859	1.32
261.328	-4.78
261.797	-2.28
262.266	-3.28
262.735	0.22
263.204	0.62
263.673	-4.08
264.142	-6.08
264.611	-12.68
265.08	-5.08
265.549	-14.08
266.018	2.42
266.487	-9.08
266.955	-9.38
267.424	-7.08
267.893	-5.18
268.362	-7.68
268.83	-2.18
269.299	1.52
269.768	-6.88
270.236	-3.98
270.705	-9.58
271.174	-7.18
271.642	-6.28
272.111	-5.68
272.579	-12.58
273.048	-6.38
273.516	-5.38
273.985	-6.48
274.453	-0.78
274.922	-0.68
275.39	-1.58
275.858	-12.88
276.327	-1.98
276.795	3.42
277.263	-8.28
277.731	-0.78
278.2	-7.68
278.668	-2.98
279.136	1.12
279.604	-4.28
280.072	-4.18
280.54	-0.38
281.008	-6.78
281.477	1.02
281.945	0.72
282.413	-2.68
282.881	-4.38
283.348	-9.08
283.816	-1.28
284.284	-1.28
284.752	6.12
285.22	-5.38
285.688	-4.08
286.156	-4.88
286.623	1.72
287.091	-6.08
287.559	-3.58
288.026	-2.08
288.494	-1.58
288.962	-11.58
289.429	-10.78
289.897	0.52
290.364	-4.88
290.832	2.62
291.3	-2.68
291.767	-2.08
292.234	-1.08
292.702	-4.48
293.169	-4.38
293.637	0.32
294.104	-3.78
294.571	-14.48
295.039	-6.78
295.506	-7.48
295.973	-4.48
296.44	-7.58
296.908	-3.58
297.375	-1.68
297.842	-8.88
298.309	-9.48
298.776	-9.98
299.243	-2.78
299.71	-7.68
300.177	-2.28
300.644	-3.08
301.111	-2.58
301.578	-1.58
302.045	-12.48
302.512	-7.88
302.979	-1.08
303.446	-2.38
303.913	-9.28
304.379	-6.68
304.846	-2.08
305.313	0.52
305.78	-1.38
306.246	-3.68
306.713	-1.48
307.18	-5.08
307.646	-6.98
308.113	-4.38
308.579	-6.28
309.046	-5.18
309.512	0.12
309.979	-8.68
310.445	-2.58
310.912	1.72
311.378	4.72
311.845	-8.28
312.311	3.12
312.777	-2.88
313.244	-5.28
313.71	6.02
314.176	-2.08
314.642	-0.98
315.109	-11.18
315.575	1.52
316.041	4.92
316.507	-5.88
316.973	-4.18
317.439	-2.98
317.905	0.42
318.371	-2.28
318.837	-2.08
319.303	-4.98
319.769	-8.68
320.235	-6.38
320.701	-5.58
321.167	2.42
321.633	-9.78
322.099	-1.88
322.564	-2.88
323.03	-2.88
323.496	-6.38
323.962	-10.18
324.427	-3.58
324.893	-1.08
325.359	-6.98
325.824	-10.78
326.29	-3.38
326.755	-7.78
327.221	-5.78
327.686	-6.88
328.152	-4.28
328.617	-6.38
329.083	-0.18
329.548	0.12
330.014	0.22
330.479	-6.98
330.944	-1.28
331.41	-0.98
331.875	-1.08
332.34	-7.48
332.805	-8.78
333.271	-4.98
333.736	-8.38
334.201	0.12
334.666	2.52
335.131	0.72
335.596	3.02
336.061	2.22
336.526	-10.18
336.991	-3.18
337.456	5.02
337.921	-2.68
338.386	-8.08
338.851	-8.08
339.316	1.62
339.781	-3.08
340.246	2.22
340.711	-7.28
341.175	-1.98
341.64	-8.68
342.105	-3.98
342.569	-0.68
343.034	1.22
343.499	-8.18
343.963	-7.88
344.428	-3.88
344.893	-0.38
345.357	-7.08
345.822	-7.28
346.286	-2.68
346.751	-2.28
347.215	-0.18
347.679	-6.98
348.144	-3.98
348.608	-0.88
349.073	-4.38
349.537	-2.68
350.001	-10.68
350.465	3.02
350.93	-0.28
351.394	4.12
351.858	-4.58
352.322	6.22
352.786	-10.78
353.25	-2.08
353.715	4.52
354.179	-4.28
354.643	0.92
355.107	-2.38
355.571	0.32
356.035	-0.28
356.498	-3.58
356.962	-8.48
357.426	2.62
357.89	-1.38
358.354	1.02
358.818	0.92
359.281	0.62
359.745	-6.78
360.209	-2.98
360.673	-13.98
361.136	-0.08
361.6	0.02
362.064	-0.18
362.527	-6.98
362.991	6.02
363.454	-6.88
363.918	-10.78
364.381	-14.08
364.845	-5.08
365.308	-3.18
365.772	2.52
366.235	-6.58
366.698	-8.58
367.162	-0.78
367.625	-4.48
368.088	-0.98
368.552	0.82
369.015	-1.98
369.478	3.02
369.941	5.82
370.404	-9.08
370.867	-2.48
371.331	-1.08
371.794	-3.98
372.257	-6.98
372.72	1.32
373.183	-0.98
373.646	-4.28
374.109	-7.98
374.572	-3.38
375.035	-10.48
375.497	-10.48
375.96	-0.48
376.423	-6.18
376.886	-3.78
377.349	-2.18
377.811	0.92
378.274	-8.18
378.737	-3.18
379.199	-3.38
379.662	-10.08
380.125	2.02
380.587	-6.28
381.05	-9.18
381.512	-6.28
381.975	0.32
382.437	-4.68
382.9	-5.48
383.362	1.12
383.825	-3.08
384.287	-1.08
384.75	-5.68
385.212	-1.88
385.674	1.52
386.136	-1.58
386.599	-5.58
387.061	-1.58
387.523	-1.08
387.985	-0.08
388.447	3.42
388.91	-5.08
389.372	-5.28
389.834	-2.88
390.296	-4.38
390.758	-1.38
391.22	0.02
391.682	-0.78
392.144	3.72
392.606	4.32
393.068	-1.68
393.529	-0.58
393.991	3.22
394.453	-10.08
394.915	-5.58
395.377	-4.08
395.838	-0.38
396.3	-0.78
396.762	2.52
397.224	-7.48
397.685	1.02
398.147	-5.08
398.608	-1.58
399.07	-8.28
399.531	-9.18
399.993	-2.18
400.454	-0.78
400.916	-5.58
401.377	-6.18
401.839	-4.38
402.3	-12.58
402.762	-0.78
403.223	0.62
403.684	-2.88
404.145	-3.18
404.607	-6.18
405.068	1.12
405.529	-8.48
405.99	-0.38
406.451	-8.38
406.913	-7.08
407.374	-10.88
407.835	-3.08
408.296	-5.48
408.757	-3.08
409.218	-1.78
409.679	-5.68
410.14	-1.58
410.601	1.52
411.062	-1.78
411.522	-1.28
411.983	-4.18
412.444	-15.48
412.905	0.02
413.366	-1.88
413.826	-2.08
414.287	-8.78
414.748	-4.58
415.208	-7.68
415.669	-1.18
416.13	3.52
416.59	-4.18
417.051	1.72
417.511	-2.78
417.972	-0.78
418.432	-6.88
418.893	1.92
419.353	-2.78
419.814	2.52
420.274	-4.78
420.734	-5.78
421.195	-6.78
421.655	-9.68
422.115	-6.28
422.576	-3.68
423.036	-1.08
423.496	-2.38
423.956	-2.68
424.416	-2.68
424.876	0.82
425.336	-3.78
425.797	-0.38
426.257	-3.98
426.717	-5.78
427.177	6.82
427.637	-6.78
428.097	-4.48
428.556	-10.48
429.016	-5.68
429.476	-17.28
429.936	-6.18
430.396	-4.88
430.856	1.42
431.315	2.12
431.775	-8.68
432.235	-2.58
432.694	-14.38
433.154	0.62
433.614	-1.78
434.073	-9.28
434.533	-6.08
434.993	-7.98
435.452	-3.38
435.912	0.02
436.371	-3.08
436.83	-9.88
437.29	1.42
437.749	-8.28
438.209	-8.88
438.668	-4.78
439.127	3.02
439.587	-3.08
440.046	-7.88
440.505	-5.88
440.964	-4.78
441.424	-5.78
441.883	-7.88
442.342	2.82
442.801	-3.38
443.26	-10.28
443.719	-2.08
444.178	1.82
444.637	-16.48
445.096	-6.28
445.555	-2.38
446.014	-0.78
446.473	3.32
446.932	-3.48
447.391	-4.38
447.849	-1.48
448.308	-4.58
448.767	-11.18
449.226	-4.38
449.685	-3.18
450.143	2.72
450.602	-5.18
451.061	-8.98
451.519	-7.78
451.978	-7.48
452.436	-2.58
452.895	-0.28
453.353	0.52
453.812	2.72
454.27	-5.88
454.729	2.32
455.187	-5.08
455.646	-1.88
456.104	-9.08
456.562	-0.18
457.021	-3.78
457.479	-3.18
457.937	-8.38
458.395	-4.18
458.854	-12.98
459.312	-11.18
459.77	-9.58
460.228	-8.08
460.686	-3.68
461.144	-0.58
461.602	1.32
462.06	-4.58
462.518	-3.78
462.976	1.42
463.434	-5.88
463.892	-3.78
464.35	-8.38
464.808	-0.68
465.266	-9.78
465.724	-1.38
466.181	0.62
466.639	0.12
467.097	3.52
467.555	-1.68
468.012	-1.28
468.47	-1.18
468.928	4.62
469.385	-0.48
469.843	1.32
470.3	2.92
470.758	-0.28
471.215	-7.18
471.673	0.52
472.13	-11.68
472.588	-3.48
473.045	-8.18
473.503	-2.08
473.96	-2.78
474.417	-6.78
474.875	-3.08
475.332	0.92
475.789	-0.08
476.246	-0.88
476.704	-1.68
477.161	-7.38
477.618	-8.98
478.075	-2.98
478.532	0.62
478.989	-7.78
479.446	-4.58
479.903	-0.08
480.36	-0.88
480.817	-12.28
481.274	0.52
481.731	-3.78
482.188	-8.18
482.645	2.72
483.102	-5.48
483.558	-6.48
484.015	-6.08
484.472	0.42
484.929	-2.58
485.385	-1.48
485.842	-4.38
486.299	-8.48
486.755	-6.38
487.212	-1.98
487.668	-7.08
488.125	0.02
488.582	-0.78
489.038	-1.08
489.494	-6.18
489.951	-3.78
490.407	-6.08
490.864	-5.08
491.32	2.22
491.776	0.62
492.233	-0.38
492.689	-6.58
493.145	-4.08
493.602	-2.88
494.058	2.92
494.514	-8.18
494.97	-0.48
495.426	-8.68
495.882	-7.58
496.338	-7.28
496.794	-1.38
497.251	-4.28
497.707	-3.18
498.163	-0.38
498.618	-1.18
499.074	-2.68
499.53	-1.08
499.986	-3.48
500.442	-2.98
500.898	-5.58
501.354	-14.48
501.809	-1.58
502.265	-9.78
502.721	-1.18
503.177	3.22
503.632	1.02
504.088	-5.38
504.543	-3.98
504.999	-2.98
505.455	-5.58
505.91	-9.38
506.366	-6.48
506.821	-8.68
507.277	-9.88
507.732	-7.48
508.187	-4.78
508.643	-2.38
509.098	-6.48
509.553	4.72
510.009	0.52
510.464	-7.38
510.919	4.82
511.375	-6.78
511.83	-1.58
512.285	-8.28
512.74	-0.88
513.195	2.22
513.65	-2.28
514.105	-2.48
514.56	-2.08
515.015	-1.48
515.47	5.52
515.925	1.22
516.38	-3.58
516.835	7.02
517.29	-4.38
517.745	-2.18
518.2	-5.48
518.655	-6.68
519.109	-2.98
519.564	2.12
520.019	-4.48
520.474	-6.78
520.928	-3.38
521.383	-9.38
521.838	-13.78
522.292	-0.78
522.747	-2.68
523.201	3.92
523.656	-5.38
524.11	4.12
524.565	0.82
525.019	0.22
525.474	-0.28
525.928	-3.88
526.382	-5.48
526.837	2.12
527.291	-2.88
527.745	-3.78
528.2	-0.78
528.654	-4.78
529.108	-1.28
529.562	-3.98
530.016	-2.98
530.47	-7.18
530.925	-4.28
531.379	-7.58
531.833	-8.38
532.287	-4.28
532.741	-5.18
533.195	-7.58
533.649	-8.18
534.103	-0.88
534.556	-6.78
535.01	-5.18
535.464	-3.08
535.918	1.92
536.372	-2.88
536.826	1.62
537.279	-0.18
537.733	-0.38
538.187	-11.78
538.64	-6.98
539.094	-7.88
539.548	-4.78
540.001	-11.28
540.455	-7.88
540.908	-2.48
541.362	-1.78
541.815	0.42
542.269	-3.28
542.722	-3.08
543.175	-4.68
543.629	-10.68
544.082	-1.58
544.536	-5.28
544.989	-11.08
545.442	1.22
545.895	0.02
546.349	-2.78
546.802	-12.78
547.255	-2.78
547.708	-5.78
548.161	-3.78
548.614	-5.08
549.067	-1.78
549.52	-1.48
549.973	-6.48
550.426	-1.48
550.879	-13.38
551.332	-2.98
551.785	-1.08
552.238	-3.78
552.691	3.92
553.144	-0.38
553.596	-3.08
554.049	-7.28
554.502	-4.48
554.955	-0.48
555.407	-1.78
555.86	-5.28
556.313	-0.18
556.765	-2.38
557.218	2.22
557.67	-0.08
558.123	-7.68
558.576	-8.28
559.028	-3.28
559.48	-3.78
559.933	-6.08
560.385	-1.78
560.838	2.22
561.29	3.32
561.742	-0.98
562.195	-5.78
562.647	-6.58
563.099	0.72
563.551	-2.68
564.004	-2.18
564.456	-4.28
564.908	-3.78
565.36	-5.18
565.812	0.92
566.264	-11.68
566.716	2.52
567.168	-3.68
567.62	1.32
568.072	-8.68
568.524	-8.18
568.976	-0.98
569.428	-2.08
569.88	-2.78
570.332	-5.78
570.784	-6.78
571.235	-10.38
571.687	3.22
572.139	-2.18
572.59	0.62
573.042	-5.48
573.494	-5.48
573.945	-6.98
574.397	-9.88
574.849	-1.68
575.3	-4.38
575.752	0.32
576.203	-9.58
576.655	-1.18
577.106	-2.18
577.557	-2.68
578.009	-1.88
578.46	-6.08
578.912	-0.28
579.363	-4.48
579.814	-2.18
580.265	-14.48
580.717	-8.58
581.168	-11.18
581.619	-5.78
582.07	1.02
582.521	-2.38
582.972	-12.38
583.423	-3.38
583.875	-9.58
584.326	-0.38
584.777	-3.08
585.227	-2.08
585.678	-6.78
586.129	-9.68
586.58	-1.18
587.031	-0.48
587.482	0.12
587.933	-3.18
588.384	-5.18
588.834	-4.38
589.285	-0.08
589.736	1.62
590.186	-8.68
590.637	0.02
591.088	-3.78
591.538	4.32
591.989	4.52
592.439	1.22
592.89	-0.78
593.34	-5.28
593.791	-4.28
594.241	-8.28
594.692	0.42
595.142	-0.88
595.593	-2.78
596.043	-1.28
596.493	-1.78
596.943	-1.18
597.394	-11.58
597.844	-12.38
598.294	-5.28
598.744	-1.88
599.195	-7.08
599.645	2.02
600.095	-7.68
600.545	-6.78
600.995	-10.38
601.445	-0.68
601.895	-4.78
602.345	0.62
602.795	-7.28
603.245	-6.68
603.695	-4.28
604.145	-6.38
604.594	-1.58
605.044	-5.58
605.494	-8.68
605.944	-13.18
606.393	-1.58
606.843	-3.28
607.293	-2.98
607.743	-9.78
608.192	-4.18
608.642	-1.38
609.091	-4.88
609.541	-2.88
609.99	-3.18
610.44	-0.48
610.889	-3.28
611.339	-9.98
611.788	-6.08
612.238	-4.18
612.687	5.82
613.136	-0.38
613.586	-3.58
614.035	-1.38
614.484	-9.48
614.933	-6.28
615.383	2.42
615.832	-0.28
616.281	-2.08
616.73	-1.68
617.179	0.32
617.628	-3.28
618.077	-2.48
618.526	-8.88
618.975	-3.78
619.424	0.92
619.873	-3.78
620.322	0.22
620.771	-9.48
621.22	-2.98
621.669	5.32
622.118	-1.78
622.567	-6.78
623.015	-4.38
623.464	-2.28
623.913	-2.18
624.361	-4.78
624.81	-8.58
625.259	-4.08
625.707	-0.58
626.156	-4.78
626.604	0.92
627.053	-6.28
627.501	-9.48
627.95	-4.28
628.398	-8.28
628.847	-7.18
629.295	-10.38
629.744	-6.58
630.192	2.32
630.64	-2.98
631.089	-10.48
631.537	-1.98
631.985	-3.98
632.433	-2.78
632.881	-9.68
633.33	0.62
633.778	-6.18
634.226	-5.38
634.674	-6.08
635.122	-2.18
635.57	-4.28
636.018	-2.98
636.466	6.92
636.914	-6.18
637.362	-3.28
637.81	3.92
638.258	6.72
638.705	-2.98
639.153	-0.78
639.601	-10.98
640.049	-6.18
640.497	-9.08
640.944	-2.08
641.392	-13.48
641.84	-3.78
642.287	-5.88
642.735	-13.38
643.182	-5.48
643.63	-8.88
644.078	-9.18
644.525	-3.08
644.973	-7.78
645.42	-6.18
645.867	-10.88
646.315	2.82
646.762	-7.18
647.21	-2.48
647.657	-10.98
648.104	4.52
648.551	-1.38
648.999	-3.18
649.446	-1.98
649.893	-3.58
650.34	-5.18
650.787	-8.78
651.234	2.82
651.682	-7.68
652.129	-3.08
652.576	-9.68
653.023	1.82
653.47	0.22
653.917	-6.68
654.363	-1.48
654.81	-0.18
655.257	-11.28
655.704	0.52
656.151	-0.98
656.598	-3.68
657.044	-1.58
657.491	1.82
657.938	-7.58
658.385	0.42
658.831	-3.88
659.278	5.02
659.724	-10.48
660.171	-3.38
660.618	-3.18
661.064	4.42
661.511	-5.48
661.957	-5.18
662.404	-8.28
662.85	2.42
663.296	4.82
663.743	3.22
664.189	0.52
664.635	1.32
665.082	-4.98
665.528	-4.98
665.974	-6.78
666.42	-5.88
666.867	-0.48
667.313	-9.28
667.759	1.92
668.205	-1.08
668.651	2.42
669.097	1.82
669.543	-10.28
669.989	-6.98
670.435	-1.88
670.881	-6.78
671.327	-5.68
671.773	-1.28
672.219	3.32
672.665	1.42
673.11	-9.08
673.556	-5.08
674.002	1.02
674.448	-11.98
674.893	-6.48
675.339	0.82
675.785	3.42
676.23	-1.48
676.676	-8.68
677.122	-3.18
677.567	-8.38
678.013	-1.38
678.458	-4.78
678.904	-2.08
679.349	-13.78
679.794	-5.08
680.24	-2.38
680.685	-3.08
681.131	-8.48
681.576	-4.48
682.021	2.32
682.466	-3.38
682.912	-6.68
683.357	-9.38
683.802	0.32
684.247	-3.88
684.692	-3.98
685.137	-7.88
685.583	-0.88
686.028	0.52
686.473	-3.18
686.918	-6.98
687.363	2.82
687.807	0.42
688.252	-10.58
688.697	3.52
689.142	0.92
689.587	-7.48
690.032	-6.68
690.477	-6.88
690.921	-8.28
691.366	1.22
691.811	-5.08
692.255	5.42
692.7	3.22
693.145	-5.58
693.589	-8.48
694.034	-1.48
694.478	2.72
694.923	4.82
695.367	-1.98
695.812	-7.88
696.256	0.62
696.701	0.82
697.145	-4.78
697.59	-1.38
698.034	-7.78
698.478	0.12
698.922	-4.38
699.367	-5.68
699.811	-1.18
700.255	3.82
700.699	2.42
701.143	-6.78
701.588	-7.78
702.032	-3.38
702.476	-9.38
702.92	-1.98
703.364	-2.08
703.808	-4.48
704.252	-1.98
704.696	-6.88
705.14	-5.78
705.584	-6.28
706.027	-4.28
706.471	-8.58
706.915	-1.68
707.359	-7.68
707.803	-9.48
708.246	-11.68
708.69	-3.88
709.134	-0.08
709.577	2.42
710.021	-1.28
710.465	2.92
710.908	-2.08
711.352	-9.68
711.795	-7.48
712.239	-6.08
712.682	-13.28
713.126	-4.18
713.569	-1.78
714.012	3.72
714.456	-8.68
714.899	-5.88
715.342	-6.28
715.786	-8.48
716.229	-1.28
716.672	0.92
717.115	-2.18
717.558	1.52
718.002	-3.28
718.445	1.02
718.888	3.92
719.331	-2.58
719.774	-3.08
720.217	-3.18
720.66	-6.88
721.103	-6.38
721.546	2.22
721.989	-2.38
722.432	-13.68
722.874	3.42
723.317	-13.98
723.76	-6.48
724.203	-1.48
724.645	-0.88
725.088	-3.18
725.531	-3.88
725.974	-9.08
726.416	-4.48
726.859	-6.98
727.301	-4.38
727.744	-4.78
728.187	-7.48
728.629	5.72
729.071	-3.88
729.514	2.82
729.956	-5.58
730.399	-3.08
730.841	0.22
731.283	-10.58
731.726	-0.78
732.168	-13.18
732.61	2.62
733.053	-4.18
733.495	-3.58
733.937	-4.78
734.379	-5.98
734.821	-4.28
735.263	-4.88
735.705	-6.78
736.148	-6.68
736.59	4.62
737.032	-9.48
737.474	-1.68
737.916	-14.18
738.357	-1.98
738.799	-7.48
739.241	-8.68
739.683	-10.38
740.125	-7.88
740.567	-10.88
741.008	-1.38
741.45	4.12
741.892	4.82
742.334	2.42
742.775	-7.78
743.217	-8.78
743.658	-7.78
744.1	-2.18
744.542	-0.68
744.983	-0.88
745.425	-2.18
745.866	-6.58
746.307	6.42
746.749	-2.98
747.19	0.32
747.632	-6.38
748.073	-13.38
748.514	-5.18
748.956	-4.68
749.397	-4.48
749.838	-4.28
750.279	-8.58
750.72	-3.58
751.162	-4.98
751.603	-7.08
752.044	-5.28
752.485	-9.98
752.926	-6.08
753.367	-2.18
753.808	3.92
754.249	-1.38
754.69	-11.48
755.131	-4.58
755.572	-4.18
756.013	-5.38
756.453	-0.58
756.894	-5.78
757.335	-3.38
757.776	-2.58
758.216	-2.58
758.657	-5.98
759.098	-10.48
759.538	-7.08
759.979	-6.38
760.42	-8.18
760.86	-6.88
761.301	-2.98
761.741	-2.28
762.182	-2.18
762.622	2.82
763.063	-9.28
763.503	-0.88
763.943	-2.68
764.384	6.02
764.824	-3.08
765.264	0.22
765.705	-0.78
766.145	-8.88
766.585	-6.38
767.025	-7.58
767.465	-10.38
767.906	-2.38
768.346	4.22
768.786	-4.78
769.226	-8.68
769.666	-2.68
770.106	-5.28
770.546	-7.08
770.986	-5.98
771.426	-5.68
771.866	0.62
772.306	-4.08
772.745	-7.28
773.185	-6.08
773.625	-3.48
774.065	-4.28
774.505	-6.28
774.944	-9.68
775.384	2.72
775.824	-4.48
776.263	-4.28
776.703	-8.08
777.142	-5.28
777.582	-5.48
778.021	-0.98
778.461	-1.08
778.9	1.62
779.34	2.02
779.779	-8.58
780.219	-6.48
780.658	-8.88
781.097	-10.28
781.537	-6.48
781.976	-5.98
782.415	-9.38
782.855	-6.08
783.294	-8.78
783.733	-2.88
784.172	-1.68
784.611	-5.78
785.05	-4.78
785.489	-2.28
785.928	0.22
786.367	5.02
786.806	-6.98
787.245	-0.58
787.684	-5.68
788.123	-0.58
788.562	-0.98
789.001	0.72
789.44	-7.78
789.879	-2.88
790.317	-8.18
790.756	2.62
791.195	-0.28
791.634	-4.18
792.072	3.82
792.511	0.32
792.95	3.92
793.388	-4.38
