Data from 20171114-ORNL-Ar_H_NY_Subt18_08-05-47-158.txt Node
Date: Tue Nov 14 08:05:47 EST 2017
User: Ender
Spectrometer: HR+D1039
Trigger mode: 0
Integration Time (sec): 2.730000E-2
Scans to average: 10
Electric dark correction enabled: true
Nonlinearity correction enabled: false
Boxcar width: 0
XAxis mode: Wavelengths
Number of Pixels in Spectrum: 2048
>>>>>Begin Spectral Data<<<<<
187.836	-3.84
188.309	-3.84
188.782	-3.84
189.255	-0.04
189.728	-0.84
190.201	6.16
190.674	4.16
191.147	4.46
191.619	-5.14
192.092	2.76
192.565	3.96
193.038	-0.84
193.511	-0.04
193.984	1.96
194.456	-4.84
194.929	-6.74
195.402	-1.14
195.874	0.06
196.347	-4.64
196.82	-8.44
197.292	4.36
197.765	-7.24
198.237	-5.14
198.71	1.26
199.182	2.76
199.655	7.26
200.127	-1.94
200.6	-2.54
201.072	-3.54
201.544	-6.94
202.017	-2.74
202.489	4.96
202.961	0.36
203.433	-0.04
203.906	-6.54
204.378	-8.84
204.85	-2.04
205.322	-8.64
205.794	-3.74
206.266	-3.94
206.739	-8.44
207.211	3.36
207.683	-10.54
208.155	-2.64
208.627	-3.14
209.099	-4.24
209.57	-15.34
210.042	-8.04
210.514	-5.74
210.986	-2.14
211.458	-11.84
211.93	-4.74
212.402	6.26
212.873	-4.24
213.345	-11.04
213.817	-10.24
214.288	-9.34
214.76	-13.34
215.232	-4.14
215.703	-2.84
216.175	-5.14
216.646	-4.74
217.118	-11.44
217.589	-3.44
218.061	-3.24
218.532	-6.94
219.004	-0.64
219.475	-7.44
219.946	-3.24
220.418	-10.44
220.889	-0.14
221.36	-3.84
221.832	-6.64
222.303	-9.04
222.774	-5.84
223.245	-13.04
223.717	-4.74
224.188	-7.74
224.659	-10.54
225.13	-7.64
225.601	-0.34
226.072	-2.44
226.543	-9.64
227.014	0.16
227.485	1.06
227.956	-6.54
228.427	-4.34
228.898	-3.44
229.369	4.66
229.839	-3.84
230.31	-11.54
230.781	0.16
231.252	-3.64
231.722	-4.64
232.193	-3.74
232.664	-1.34
233.135	-3.24
233.605	2.86
234.076	-7.34
234.546	0.26
235.017	5.46
235.487	-1.64
235.958	-2.94
236.428	-2.04
236.899	4.96
237.369	-1.54
237.84	2.66
238.31	2.06
238.78	-0.64
239.251	0.26
239.721	1.36
240.191	0.86
240.662	-4.74
241.132	0.66
241.602	-3.64
242.072	1.36
242.542	3.16
243.013	0.86
243.483	7.46
243.953	7.06
244.423	-1.64
244.893	-5.04
245.363	4.96
245.833	0.36
246.303	2.76
246.773	4.26
247.243	4.66
247.712	3.66
248.182	6.76
248.652	11.26
249.122	-0.44
249.592	14.46
250.061	22.26
250.531	29.16
251.001	16.56
251.471	20.56
251.94	19.96
252.41	4.56
252.879	-1.14
253.349	12.96
253.818	8.26
254.288	6.66
254.757	6.96
255.227	1.66
255.696	3.36
256.166	4.36
256.635	3.06
257.105	6.46
257.574	3.86
258.043	7.96
258.513	9.66
258.982	17.36
259.451	7.06
259.92	16.96
260.389	11.46
260.859	18.16
261.328	18.16
261.797	19.96
262.266	6.66
262.735	11.06
263.204	7.96
263.673	3.16
264.142	5.06
264.611	-6.54
265.08	0.46
265.549	0.76
266.018	6.16
266.487	0.26
266.955	0.26
267.424	0.76
267.893	3.16
268.362	-0.94
268.83	4.76
269.299	13.46
269.768	16.06
270.236	10.96
270.705	6.46
271.174	4.06
271.642	7.46
272.111	3.66
272.579	16.56
273.048	21.86
273.516	30.06
273.985	28.96
274.453	24.16
274.922	19.56
275.39	6.76
275.858	4.66
276.327	13.36
276.795	17.36
277.263	5.16
277.731	36.26
278.2	57.06
278.668	62.16
279.136	49.96
279.604	19.56
280.072	10.06
280.54	14.96
281.008	1.46
281.477	12.46
281.945	8.46
282.413	17.06
282.881	20.76
283.348	7.46
283.816	13.06
284.284	14.06
284.752	18.76
285.22	14.76
285.688	22.56
286.156	13.56
286.623	45.66
287.091	51.56
287.559	24.46
288.026	10.36
288.494	18.46
288.962	5.46
289.429	14.56
289.897	19.86
290.364	17.86
290.832	19.56
291.3	13.86
291.767	18.56
292.234	20.26
292.702	19.46
293.169	20.66
293.637	25.56
294.104	16.36
294.571	14.66
295.039	10.46
295.506	12.06
295.973	18.06
296.44	10.26
296.908	25.16
297.375	19.36
297.842	22.06
298.309	12.26
298.776	13.76
299.243	17.36
299.71	10.76
300.177	21.76
300.644	21.26
301.111	18.36
301.578	22.16
302.045	16.66
302.512	26.06
302.979	18.86
303.446	17.76
303.913	21.36
304.379	18.06
304.846	28.36
305.313	30.96
305.78	20.96
306.246	20.76
306.713	25.66
307.18	31.66
307.646	31.16
308.113	23.86
308.579	20.66
309.046	30.16
309.512	23.66
309.979	16.56
310.445	28.76
310.912	26.46
311.378	38.26
311.845	27.66
312.311	32.26
312.777	35.46
313.244	33.36
313.71	44.16
314.176	29.86
314.642	28.16
315.109	33.26
315.575	32.56
316.041	39.16
316.507	34.86
316.973	34.16
317.439	33.56
317.905	37.76
318.371	35.16
318.837	34.66
319.303	33.96
319.769	36.96
320.235	35.46
320.701	42.16
321.167	36.66
321.633	30.56
322.099	38.76
322.564	44.36
323.03	44.76
323.496	35.76
323.962	41.26
324.427	31.06
324.893	41.46
325.359	38.66
325.824	38.76
326.29	41.26
326.755	36.96
327.221	38.86
327.686	43.46
328.152	43.46
328.617	43.26
329.083	48.46
329.548	52.16
330.014	44.86
330.479	41.76
330.944	45.96
331.41	38.76
331.875	48.16
332.34	42.46
332.805	43.56
333.271	44.76
333.736	46.56
334.201	53.46
334.666	53.76
335.131	54.16
335.596	46.46
336.061	52.06
336.526	40.66
336.991	48.86
337.456	58.36
337.921	46.76
338.386	38.26
338.851	45.06
339.316	47.96
339.781	47.26
340.246	50.86
340.711	50.16
341.175	50.86
341.64	45.66
342.105	55.36
342.569	51.86
343.034	54.26
343.499	61.26
343.963	52.36
344.428	64.66
344.893	57.56
345.357	63.86
345.822	68.66
346.286	70.16
346.751	73.26
347.215	73.86
347.679	80.26
348.144	98.66
348.608	79.46
349.073	67.86
349.537	72.96
350.001	81.86
350.465	84.76
350.93	81.16
351.394	80.96
351.858	73.16
352.322	91.26
352.786	87.86
353.25	105.16
353.715	101.06
354.179	97.96
354.643	124.76
355.107	127.16
355.571	106.76
356.035	105.06
356.498	114.56
356.962	119.76
357.426	129.66
357.89	120.26
358.354	91.96
358.818	89.46
359.281	75.36
359.745	75.36
360.209	78.16
360.673	77.06
361.136	69.36
361.6	89.06
362.064	82.16
362.527	81.86
362.991	91.86
363.454	83.46
363.918	76.66
364.381	71.86
364.845	76.26
365.308	90.26
365.772	88.86
366.235	82.46
366.698	77.86
367.162	84.46
367.625	89.36
368.088	91.06
368.552	87.76
369.015	88.96
369.478	95.16
369.941	98.56
370.404	95.26
370.867	110.56
371.331	108.56
371.794	111.06
372.257	112.76
372.72	112.16
373.183	114.06
373.646	110.36
374.109	101.66
374.572	106.96
375.035	112.86
375.497	107.56
375.96	104.36
376.423	103.96
376.886	115.26
377.349	110.16
377.811	101.76
378.274	108.16
378.737	110.96
379.199	114.76
379.662	108.36
380.125	117.16
380.587	121.16
381.05	123.76
381.512	120.76
381.975	138.06
382.437	121.86
382.9	122.56
383.362	133.96
383.825	141.06
384.287	147.66
384.75	141.16
385.212	142.36
385.674	133.26
386.136	132.66
386.599	119.86
387.061	129.86
387.523	129.46
387.985	130.16
388.447	140.86
388.91	145.06
389.372	162.26
389.834	153.06
390.296	143.36
390.758	151.16
391.22	168.76
391.682	210.16
392.144	292.46
392.606	227.96
393.068	165.06
393.529	167.76
393.991	154.26
394.453	144.96
394.915	145.46
395.377	194.16
395.838	212.16
396.3	152.96
396.762	146.46
397.224	136.06
397.685	126.16
398.147	131.86
398.608	125.56
399.07	128.46
399.531	139.86
399.993	145.66
400.454	152.56
400.916	142.46
401.377	145.66
401.839	146.46
402.3	154.26
402.762	160.56
403.223	176.56
403.684	172.26
404.145	161.56
404.607	159.66
405.068	169.06
405.529	168.26
405.99	192.66
406.451	177.36
406.913	172.36
407.374	163.26
407.835	158.26
408.296	169.16
408.757	169.16
409.218	187.26
409.679	175.66
410.14	171.46
410.601	171.16
411.062	181.56
411.522	196.96
411.983	190.96
412.444	178.26
412.905	179.76
413.366	185.46
413.826	191.76
414.287	210.36
414.748	258.16
415.208	246.66
415.669	214.46
416.13	207.46
416.59	198.26
417.051	202.76
417.511	212.56
417.972	237.66
418.432	242.86
418.893	279.46
419.353	243.96
419.814	199.06
420.274	187.56
420.734	182.56
421.195	192.96
421.655	192.26
422.115	194.46
422.576	194.26
423.036	193.16
423.496	201.56
423.956	210.36
424.416	228.06
424.876	256.66
425.336	263.06
425.797	270.46
426.257	248.56
426.717	239.96
427.177	232.86
427.637	220.26
428.097	231.46
428.556	239.66
429.016	266.36
429.476	268.76
429.936	276.66
430.396	274.46
430.856	294.46
431.315	318.66
431.775	352.96
432.235	372.86
432.694	353.86
433.154	367.26
433.614	392.36
434.073	342.46
434.533	289.46
434.993	271.66
435.452	285.46
435.912	294.46
436.371	293.66
436.83	286.26
437.29	268.66
437.749	245.16
438.209	251.26
438.668	273.16
439.127	288.46
439.587	268.36
440.046	244.26
440.505	263.46
440.964	275.36
441.424	320.76
441.883	311.06
442.342	260.06
442.801	214.56
443.26	219.66
443.719	216.66
444.178	209.46
444.637	210.26
445.096	216.56
445.555	215.96
446.014	223.96
446.473	222.76
446.932	231.26
447.391	227.26
447.849	224.56
448.308	211.56
448.767	212.66
449.226	234.86
449.685	229.76
450.143	242.06
450.602	236.76
451.061	226.26
451.519	231.06
451.978	229.46
452.436	235.06
452.895	242.16
453.353	254.06
453.812	238.16
454.27	242.46
454.729	231.56
455.187	237.46
455.646	240.26
456.104	243.46
456.562	254.16
457.021	265.56
457.479	258.76
457.937	270.96
458.395	255.06
458.854	244.96
459.312	250.96
459.77	271.26
460.228	254.46
460.686	240.06
461.144	255.26
461.602	243.06
462.06	242.26
462.518	251.96
462.976	250.16
463.434	259.86
463.892	259.56
464.35	272.06
464.808	286.76
465.266	264.76
465.724	263.76
466.181	267.96
466.639	271.96
467.097	287.96
467.555	308.76
468.012	302.96
468.47	311.76
468.928	330.36
469.385	341.46
469.843	345.16
470.3	343.76
470.758	364.56
471.215	396.36
471.673	405.86
472.13	399.66
472.588	413.76
473.045	368.46
473.503	369.96
473.96	390.06
474.417	404.06
474.875	430.96
475.332	475.16
475.789	459.66
476.246	468.66
476.704	478.76
477.161	507.76
477.618	516.66
478.075	555.26
478.532	613.26
478.989	693.96
479.446	810.56
479.903	766.66
480.36	808.66
480.817	867.36
481.274	959.06
481.731	1085.36
482.188	1176.16
482.645	1309.56
483.102	1414.56
483.558	1546.26
484.015	1603.86
484.472	1565.66
484.929	1535.76
485.385	1466.06
485.842	1444.06
486.299	1368.46
486.755	1302.06
487.212	1102.66
487.668	925.46
488.125	860.06
488.582	786.86
489.038	758.16
489.494	711.16
489.951	683.46
490.407	667.86
490.864	649.86
491.32	647.66
491.776	638.96
492.233	655.86
492.689	612.86
493.145	611.66
493.602	606.16
494.058	615.46
494.514	608.16
494.97	634.36
495.426	656.76
495.882	635.86
496.338	615.26
496.794	634.26
497.251	622.26
497.707	640.06
498.163	638.16
498.618	648.26
499.074	653.36
499.53	683.26
499.986	680.86
500.442	657.86
500.898	625.16
501.354	627.16
501.809	635.86
502.265	640.56
502.721	657.56
503.177	667.96
503.632	652.86
504.088	676.56
504.543	711.56
504.999	714.36
505.455	655.86
505.91	631.16
506.366	634.56
506.821	629.36
507.277	626.46
507.732	619.76
508.187	627.66
508.643	632.16
509.098	623.76
509.553	649.16
510.009	670.96
510.464	671.36
510.919	678.96
511.375	686.26
511.83	711.06
512.285	730.36
512.74	764.16
513.195	789.26
513.65	774.16
514.105	767.26
514.56	774.56
515.015	789.16
515.47	801.16
515.925	803.46
516.38	782.66
516.835	790.46
517.29	782.76
517.745	782.36
518.2	759.26
518.655	742.16
519.109	749.56
519.564	733.06
520.019	737.66
520.474	721.66
520.928	724.16
521.383	714.96
521.838	715.16
522.292	710.66
522.747	710.86
523.201	702.26
523.656	698.76
524.11	684.56
524.565	695.26
525.019	687.96
525.474	696.36
525.928	704.86
526.382	692.56
526.837	685.76
527.291	698.06
527.745	700.16
528.2	697.56
528.654	689.76
529.108	689.76
529.562	685.86
530.016	687.26
530.47	684.76
530.925	690.76
531.379	693.46
531.833	697.66
532.287	698.16
532.741	700.96
533.195	704.46
533.649	716.56
534.103	718.16
534.556	710.06
535.01	710.36
535.464	709.56
535.918	715.06
536.372	720.16
536.826	713.66
537.279	708.56
537.733	706.46
538.187	717.56
538.64	719.56
539.094	723.16
539.548	731.46
540.001	729.76
540.455	721.36
540.908	732.96
541.362	733.66
541.815	748.26
542.269	751.06
542.722	752.86
543.175	760.06
543.629	759.36
544.082	792.26
544.536	783.46
544.989	782.56
545.442	788.96
545.895	792.66
546.349	791.46
546.802	784.36
547.255	790.06
547.708	791.96
548.161	804.86
548.614	823.16
549.067	829.76
549.52	829.36
549.973	811.36
550.426	801.16
550.879	783.26
551.332	796.56
551.785	806.56
552.238	801.76
552.691	814.76
553.144	828.26
553.596	835.46
554.049	854.76
554.502	894.66
554.955	926.66
555.407	906.76
555.86	880.76
556.313	879.96
556.765	876.76
557.218	885.06
557.67	879.16
558.123	871.96
558.576	869.06
559.028	871.46
559.48	884.76
559.933	872.76
560.385	830.66
560.838	802.96
561.29	779.16
561.742	771.26
562.195	764.26
562.647	758.06
563.099	771.56
563.551	771.26
564.004	768.06
564.456	768.46
564.908	761.96
565.36	744.86
565.812	724.36
566.264	705.76
566.716	719.46
567.168	703.86
567.62	718.26
568.072	693.26
568.524	684.86
568.976	686.86
569.428	662.06
569.88	662.46
570.332	672.96
570.784	684.76
571.235	675.16
571.687	680.66
572.139	689.86
572.59	705.46
573.042	705.36
573.494	708.66
573.945	690.56
574.397	678.66
574.849	681.16
575.3	678.96
575.752	683.16
576.203	673.96
576.655	679.26
577.106	664.76
577.557	657.26
578.009	666.56
578.46	655.46
578.912	664.26
579.363	659.36
579.814	656.16
580.265	657.56
580.717	664.06
581.168	669.36
581.619	670.26
582.07	676.46
582.521	662.86
582.972	664.16
583.423	664.66
583.875	669.56
584.326	692.36
584.777	731.96
585.227	809.16
585.678	895.96
586.129	989.36
586.58	1057.06
587.031	1148.06
587.482	1290.06
587.933	1470.56
588.384	1276.56
588.834	959.46
589.285	799.66
589.736	755.76
590.186	758.36
590.637	761.76
591.088	727.46
591.538	724.46
591.989	725.06
592.439	725.26
592.89	710.96
593.34	690.66
593.791	700.46
594.241	692.86
594.692	706.46
595.142	695.36
595.593	676.06
596.043	691.16
596.493	698.16
596.943	699.56
597.394	710.06
597.844	704.06
598.294	722.36
598.744	736.96
599.195	766.96
599.645	800.66
600.095	841.66
600.545	899.96
600.995	944.66
601.445	1005.56
601.895	1069.66
602.345	1112.96
602.795	1097.66
603.245	1049.56
603.695	993.26
604.145	937.96
604.594	899.16
605.044	839.06
605.494	794.36
605.944	743.26
606.393	734.16
606.843	716.96
607.293	722.06
607.743	715.46
608.192	738.46
608.642	742.26
609.091	753.56
609.541	761.36
609.99	761.26
610.44	752.16
610.889	706.76
611.339	693.36
611.788	681.96
612.238	685.76
612.687	695.16
613.136	709.46
613.586	723.96
614.035	722.26
614.484	746.36
614.933	739.56
615.383	732.86
615.832	719.76
616.281	713.66
616.73	670.16
617.179	659.06
617.628	640.76
618.077	628.06
618.526	611.56
618.975	611.66
619.424	602.16
619.873	593.96
620.322	605.96
620.771	586.56
621.22	597.56
621.669	581.06
622.118	566.86
622.567	573.86
623.015	557.16
623.464	561.16
623.913	553.76
624.361	533.36
624.81	543.16
625.259	544.26
625.707	542.86
626.156	539.26
626.604	553.66
627.053	543.96
627.501	551.76
627.95	563.16
628.398	575.56
628.847	550.36
629.295	559.86
629.744	572.26
630.192	552.46
630.64	552.36
631.089	560.56
631.537	563.26
631.985	581.16
632.433	584.76
632.881	596.96
633.33	641.76
633.778	616.56
634.226	547.86
634.674	554.96
635.122	565.16
635.57	581.26
636.018	612.96
636.466	569.96
636.914	541.06
637.362	556.96
637.81	559.16
638.258	559.26
638.705	558.56
639.153	588.46
639.601	598.06
640.049	618.66
640.497	649.16
640.944	678.16
641.392	623.16
641.84	602.76
642.287	566.16
642.735	557.06
643.182	554.76
643.63	557.26
644.078	558.36
644.525	577.26
644.973	587.06
645.42	583.16
645.867	600.06
646.315	619.46
646.762	642.76
647.21	668.86
647.657	701.66
648.104	735.86
648.551	747.36
648.999	814.96
649.446	891.56
649.893	976.06
650.34	1128.86
650.787	1349.96
651.234	1677.56
651.682	2158.06
652.129	2974.36
652.576	4285.46
653.023	6343.76
653.47	8756.66
653.917	10979.16
654.363	12685.66
654.81	14133.66
655.257	13428.26
655.704	8765.16
656.151	5181.36
656.598	3353.06
657.044	2369.66
657.491	1827.46
657.938	1455.06
658.385	1199.96
658.831	1052.06
659.278	929.36
659.724	824.46
660.171	775.46
660.618	701.66
661.064	662.86
661.511	644.26
661.957	641.76
662.404	629.66
662.85	633.46
663.296	602.46
663.743	547.16
664.189	517.06
664.635	517.46
665.082	510.86
665.528	510.16
665.974	496.76
666.42	496.76
666.867	492.36
667.313	476.66
667.759	466.76
668.205	457.96
668.651	474.06
669.097	468.56
669.543	493.86
669.989	453.16
670.435	434.46
670.881	421.86
671.327	433.76
671.773	452.36
672.219	470.36
672.665	513.06
673.11	560.46
673.556	604.66
674.002	642.66
674.448	635.06
674.893	523.26
675.339	455.86
675.785	427.16
676.23	398.76
676.676	381.86
677.122	367.26
677.567	354.96
678.013	354.46
678.458	347.96
678.904	351.46
679.349	339.06
679.794	343.66
680.24	337.56
680.685	329.66
681.131	332.66
681.576	332.96
682.021	334.46
682.466	337.66
682.912	333.36
683.357	334.56
683.802	361.96
684.247	389.36
684.692	429.66
685.137	479.66
685.583	524.06
686.028	542.66
686.473	497.46
686.918	429.26
687.363	402.46
687.807	378.66
688.252	347.66
688.697	335.46
689.142	323.06
689.587	321.16
690.032	320.26
690.477	323.36
690.921	331.26
691.366	363.06
691.811	383.06
692.255	415.96
692.7	444.86
693.145	479.56
693.589	649.66
694.034	1077.86
694.478	1465.76
694.923	1674.36
695.367	2182.26
695.812	1149.86
696.256	483.86
696.701	351.26
697.145	324.86
697.59	311.76
698.034	307.76
698.478	315.96
698.922	312.66
699.367	311.16
699.811	321.36
700.255	343.26
700.699	367.76
701.143	407.06
701.588	454.66
702.032	497.36
702.476	495.76
702.92	466.66
703.364	477.86
703.808	606.06
704.252	974.56
704.696	1388.76
705.14	1597.86
705.584	2035.56
706.027	1014.16
706.471	506.46
706.915	386.36
707.359	340.96
707.803	307.56
708.246	301.56
708.69	299.96
709.134	305.16
709.577	300.26
710.021	297.26
710.465	294.56
710.908	286.66
711.352	283.06
711.795	293.46
712.239	328.26
712.682	359.76
713.126	402.46
713.569	456.96
714.012	360.46
714.456	306.16
714.899	287.46
715.342	262.26
715.786	244.56
716.229	243.06
716.672	245.16
717.115	240.56
717.558	240.06
718.002	237.26
718.445	244.76
718.888	270.46
719.331	282.56
719.774	296.86
720.217	295.46
720.66	269.86
721.103	255.86
721.546	243.26
721.989	238.06
722.432	224.66
722.874	224.16
723.317	216.66
723.76	224.46
724.203	247.06
724.645	300.96
725.088	426.66
725.531	535.26
725.974	635.46
726.416	526.36
726.859	293.76
727.301	233.86
727.744	232.46
728.187	221.06
728.629	226.56
729.071	227.96
729.514	252.66
729.956	263.76
730.399	263.26
730.841	273.96
731.283	263.36
731.726	256.36
732.168	246.26
732.61	248.66
733.053	270.86
733.495	293.16
733.937	332.46
734.379	379.16
734.821	420.66
735.263	514.46
735.705	780.96
736.148	1480.56
736.59	2425.66
737.032	2939.26
737.474	2391.46
737.916	779.66
738.357	404.96
738.799	311.36
739.241	287.06
739.683	271.86
740.125	282.76
740.567	281.16
741.008	293.06
741.45	304.86
741.892	299.66
742.334	331.26
742.775	339.96
743.217	327.76
743.658	264.56
744.1	251.16
744.542	251.96
744.983	297.36
745.425	329.06
745.866	332.36
746.307	270.06
746.749	271.96
747.19	301.46
747.632	424.76
748.073	816.86
748.514	1737.46
748.956	2724.56
749.397	3397.46
749.838	2811.66
750.279	2862.76
750.72	1440.36
751.162	520.56
751.603	310.16
752.044	235.36
752.485	212.76
752.926	196.86
753.367	190.66
753.808	183.26
754.249	187.86
754.69	183.96
755.131	172.66
755.572	171.86
756.013	168.26
756.453	178.36
756.894	177.16
757.335	181.76
757.776	190.26
758.216	177.66
758.657	189.96
759.098	195.96
759.538	217.06
759.979	245.16
760.42	343.76
760.86	649.56
761.301	1692.56
761.741	4165.76
762.182	6172.46
