Data from 20171114-ORNL-Ar_H_NY_Subt18_08-04-37-003.txt Node
Date: Tue Nov 14 08:04:37 EST 2017
User: Ender
Spectrometer: HR+D1039
Trigger mode: 0
Integration Time (sec): 2.730000E-2
Scans to average: 10
Electric dark correction enabled: true
Nonlinearity correction enabled: false
Boxcar width: 0
XAxis mode: Wavelengths
Number of Pixels in Spectrum: 2048
>>>>>Begin Spectral Data<<<<<
187.836	-2.72
188.309	-2.72
188.782	-2.72
189.255	1.88
189.728	-1.22
190.201	6.48
190.674	3.18
191.147	0.38
191.619	-10.02
192.092	0.88
192.565	2.58
193.038	2.48
193.511	-3.32
193.984	3.38
194.456	-4.52
194.929	3.98
195.402	-4.02
195.874	0.58
196.347	0.68
196.82	-9.22
197.292	9.48
197.765	3.88
198.237	-2.42
198.71	-0.12
199.182	2.68
199.655	-0.22
200.127	-0.12
200.6	2.98
201.072	-1.32
201.544	-7.02
202.017	-1.62
202.489	2.18
202.961	-2.92
203.433	1.98
203.906	-6.12
204.378	-5.22
204.85	-3.62
205.322	-5.32
205.794	-2.92
206.266	-5.32
206.739	-10.52
207.211	1.88
207.683	-3.42
208.155	-4.22
208.627	-4.42
209.099	1.38
209.57	-7.82
210.042	-3.12
210.514	-9.12
210.986	-2.52
211.458	-5.42
211.93	-5.52
212.402	-3.22
212.873	-6.72
213.345	-7.42
213.817	-13.72
214.288	-2.82
214.76	-9.62
215.232	-3.62
215.703	-4.32
216.175	-5.32
216.646	-0.92
217.118	-2.62
217.589	-3.42
218.061	-1.92
218.532	-5.72
219.004	0.58
219.475	-4.02
219.946	-10.02
220.418	-5.42
220.889	1.88
221.36	3.58
221.832	-3.82
222.303	-7.92
222.774	3.68
223.245	-5.22
223.717	-3.32
224.188	-6.42
224.659	-6.02
225.13	-7.52
225.601	-4.02
226.072	-2.42
226.543	-4.62
227.014	-1.02
227.485	-5.72
227.956	-13.32
228.427	0.18
228.898	-2.42
229.369	0.88
229.839	-1.72
230.31	-3.02
230.781	4.58
231.252	-1.02
231.722	-4.42
232.193	-1.22
232.664	-1.32
233.135	2.88
233.605	-0.72
234.076	-4.12
234.546	3.48
235.017	9.88
235.487	0.88
235.958	2.68
236.428	0.08
236.899	7.48
237.369	6.78
237.84	-3.12
238.31	7.88
238.78	1.78
239.251	2.08
239.721	6.78
240.191	1.68
240.662	0.08
241.132	1.98
241.602	0.78
242.072	-0.52
242.542	12.98
243.013	1.58
243.483	4.98
243.953	1.68
244.423	-3.02
244.893	-0.12
245.363	2.48
245.833	2.88
246.303	0.88
246.773	3.18
247.243	5.48
247.712	5.78
248.182	8.68
248.652	9.08
249.122	0.68
249.592	14.48
250.061	27.78
250.531	37.58
251.001	19.68
251.471	19.18
251.94	19.38
252.41	12.58
252.879	4.48
253.349	8.28
253.818	9.08
254.288	2.98
254.757	3.08
255.227	10.68
255.696	7.48
256.166	5.58
256.635	8.78
257.105	14.08
257.574	5.88
258.043	12.28
258.513	14.68
258.982	16.98
259.451	7.58
259.92	12.38
260.389	14.68
260.859	15.28
261.328	15.18
261.797	19.08
262.266	11.98
262.735	8.88
263.204	4.88
263.673	5.68
264.142	11.48
264.611	1.68
265.08	1.08
265.549	2.68
266.018	2.08
266.487	-4.02
266.955	3.38
267.424	5.08
267.893	7.78
268.362	-2.32
268.83	11.38
269.299	12.58
269.768	11.98
270.236	13.98
270.705	7.98
271.174	13.78
271.642	14.18
272.111	9.58
272.579	17.28
273.048	20.68
273.516	27.88
273.985	30.18
274.453	25.28
274.922	18.28
275.39	15.78
275.858	4.08
276.327	12.98
276.795	14.48
277.263	9.38
277.731	28.68
278.2	57.58
278.668	62.28
279.136	55.48
279.604	25.78
280.072	15.78
280.54	11.78
281.008	11.18
281.477	16.88
281.945	10.68
282.413	13.18
282.881	18.58
283.348	10.98
283.816	19.68
284.284	11.28
284.752	27.48
285.22	14.98
285.688	13.38
286.156	13.18
286.623	43.68
287.091	51.28
287.559	36.18
288.026	21.68
288.494	19.08
288.962	5.28
289.429	11.58
289.897	21.48
290.364	15.78
290.832	19.88
291.3	17.48
291.767	24.78
292.234	20.28
292.702	21.68
293.169	16.68
293.637	19.88
294.104	26.08
294.571	7.88
295.039	13.98
295.506	17.48
295.973	22.88
296.44	14.38
296.908	19.38
297.375	23.28
297.842	24.38
298.309	21.38
298.776	12.38
299.243	21.38
299.71	7.48
300.177	24.78
300.644	22.18
301.111	30.08
301.578	23.88
302.045	16.68
302.512	23.88
302.979	26.38
303.446	25.48
303.913	20.48
304.379	19.38
304.846	25.78
305.313	23.38
305.78	26.68
306.246	24.78
306.713	25.28
307.18	23.18
307.646	31.28
308.113	30.48
308.579	30.58
309.046	29.18
309.512	32.48
309.979	22.68
310.445	30.98
310.912	36.78
311.378	31.78
311.845	30.98
312.311	33.28
312.777	39.28
313.244	30.78
313.71	43.58
314.176	29.18
314.642	26.28
315.109	35.48
315.575	38.18
316.041	39.98
316.507	34.18
316.973	38.08
317.439	31.38
317.905	41.78
318.371	39.58
318.837	31.58
319.303	34.28
319.769	32.58
320.235	35.98
320.701	33.18
321.167	42.88
321.633	33.38
322.099	39.88
322.564	41.98
323.03	43.48
323.496	41.18
323.962	43.38
324.427	46.28
324.893	45.88
325.359	44.68
325.824	40.08
326.29	34.98
326.755	37.88
327.221	43.58
327.686	41.68
328.152	42.48
328.617	48.48
329.083	48.88
329.548	54.08
330.014	46.18
330.479	40.38
330.944	44.38
331.41	46.88
331.875	47.08
332.34	42.18
332.805	43.48
333.271	49.68
333.736	44.08
334.201	53.78
334.666	52.08
335.131	49.38
335.596	50.08
336.061	56.18
336.526	46.18
336.991	55.28
337.456	54.78
337.921	48.88
338.386	45.08
338.851	45.48
339.316	48.38
339.781	54.08
340.246	57.68
340.711	43.68
341.175	54.78
341.64	44.48
342.105	55.48
342.569	52.68
343.034	53.68
343.499	53.88
343.963	54.38
344.428	62.78
344.893	60.18
345.357	52.78
345.822	57.28
346.286	68.18
346.751	73.48
347.215	66.68
347.679	69.08
348.144	95.08
348.608	76.18
349.073	68.88
349.537	74.68
350.001	77.68
350.465	86.08
350.93	78.18
351.394	82.48
351.858	66.58
352.322	92.08
352.786	78.58
353.25	95.68
353.715	106.28
354.179	99.18
354.643	116.68
355.107	117.78
355.571	107.08
356.035	96.48
356.498	122.28
356.962	120.58
357.426	124.88
357.89	112.98
358.354	88.38
358.818	83.28
359.281	78.48
359.745	77.98
360.209	76.38
360.673	66.48
361.136	79.28
361.6	82.88
362.064	80.98
362.527	76.18
362.991	90.98
363.454	81.58
363.918	77.78
364.381	73.68
364.845	82.18
365.308	84.98
365.772	80.38
366.235	83.18
366.698	76.68
367.162	81.78
367.625	78.68
368.088	80.58
368.552	83.98
369.015	87.48
369.478	94.38
369.941	97.28
370.404	96.78
370.867	98.18
371.331	105.38
371.794	114.48
372.257	110.78
372.72	115.28
373.183	109.48
373.646	100.88
374.109	96.58
374.572	97.78
375.035	105.38
375.497	101.28
375.96	98.78
376.423	98.48
376.886	104.08
377.349	102.58
377.811	94.68
378.274	103.18
378.737	97.08
379.199	106.58
379.662	102.88
380.125	108.48
380.587	108.98
381.05	117.58
381.512	123.98
381.975	125.38
382.437	118.48
382.9	124.18
383.362	125.08
383.825	135.18
384.287	135.48
384.75	133.48
385.212	134.68
385.674	133.98
386.136	126.28
386.599	115.78
387.061	115.68
387.523	119.98
387.985	125.98
388.447	143.28
388.91	131.88
389.372	144.78
389.834	139.28
390.296	139.78
390.758	150.18
391.22	153.28
391.682	192.48
392.144	269.38
392.606	212.08
393.068	157.78
393.529	158.58
393.991	146.88
394.453	139.08
394.915	152.68
395.377	184.48
395.838	198.78
396.3	145.28
396.762	132.08
397.224	128.68
397.685	119.48
398.147	127.58
398.608	119.18
399.07	126.38
399.531	127.38
399.993	138.78
400.454	142.98
400.916	137.28
401.377	135.58
401.839	144.48
402.3	151.38
402.762	155.18
403.223	173.28
403.684	164.08
404.145	151.28
404.607	147.18
405.068	154.38
405.529	155.78
405.99	178.38
406.451	161.08
406.913	155.78
407.374	158.28
407.835	148.58
408.296	161.88
408.757	158.98
409.218	168.98
409.679	167.28
410.14	162.58
410.601	166.88
411.062	170.78
411.522	174.18
411.983	176.88
412.444	169.68
412.905	166.08
413.366	161.88
413.826	174.48
414.287	198.98
414.748	244.38
415.208	228.78
415.669	202.88
416.13	192.38
416.59	190.58
417.051	196.18
417.511	208.18
417.972	221.08
418.432	227.28
418.893	272.98
419.353	237.28
419.814	181.48
420.274	168.48
420.734	168.78
421.195	187.88
421.655	175.88
422.115	180.78
422.576	179.28
423.036	180.38
423.496	192.88
423.956	205.38
424.416	209.88
424.876	248.28
425.336	240.88
425.797	241.48
426.257	233.48
426.717	223.18
427.177	216.18
427.637	206.88
428.097	220.08
428.556	227.68
429.016	255.68
429.476	246.68
429.936	259.18
430.396	255.08
430.856	275.38
431.315	296.88
431.775	323.18
432.235	348.58
432.694	327.18
433.154	335.98
433.614	356.78
434.073	318.38
434.533	267.68
434.993	258.38
435.452	261.88
435.912	282.08
436.371	265.88
436.83	263.98
437.29	252.08
437.749	227.28
438.209	228.08
438.668	252.58
439.127	266.28
439.587	249.58
440.046	237.08
440.505	245.28
440.964	254.38
441.424	301.48
441.883	289.08
442.342	241.58
442.801	209.98
443.26	208.28
443.719	203.88
444.178	208.58
444.637	194.78
445.096	205.08
445.555	213.98
446.014	210.58
446.473	210.58
446.932	210.98
447.391	208.88
447.849	214.48
448.308	200.58
448.767	206.88
449.226	225.88
449.685	220.68
450.143	234.68
450.602	225.78
451.061	211.58
451.519	218.88
451.978	221.28
452.436	215.98
452.895	229.38
453.353	242.18
453.812	227.38
454.27	224.18
454.729	224.78
455.187	224.78
455.646	229.38
456.104	229.28
456.562	238.18
457.021	243.88
457.479	233.18
457.937	251.48
458.395	243.98
458.854	227.78
459.312	231.68
459.77	257.48
460.228	243.58
460.686	224.58
461.144	229.58
461.602	230.98
462.06	219.38
462.518	225.78
462.976	235.68
463.434	244.78
463.892	242.08
464.35	259.08
464.808	270.28
465.266	247.08
465.724	257.88
466.181	257.78
466.639	259.48
467.097	270.08
467.555	281.28
468.012	278.98
468.47	291.18
468.928	309.28
469.385	316.58
469.843	331.98
470.3	314.28
470.758	336.98
471.215	354.78
471.673	377.48
472.13	377.18
472.588	374.48
473.045	343.18
473.503	340.88
473.96	372.58
474.417	375.78
474.875	397.48
475.332	442.58
475.789	423.98
476.246	435.28
476.704	451.28
477.161	473.68
477.618	488.88
478.075	517.88
478.532	571.38
478.989	640.58
479.446	750.08
479.903	719.48
480.36	751.18
480.817	800.98
481.274	901.98
481.731	1006.28
482.188	1086.38
482.645	1218.98
483.102	1315.98
483.558	1458.58
484.015	1506.28
484.472	1477.78
484.929	1425.68
485.385	1390.18
485.842	1342.58
486.299	1288.78
486.755	1208.78
487.212	1013.68
487.668	868.88
488.125	793.38
488.582	734.98
489.038	698.38
489.494	665.68
489.951	640.98
490.407	631.08
490.864	604.68
491.32	602.28
491.776	601.98
492.233	604.78
492.689	565.48
493.145	559.88
493.602	553.98
494.058	564.58
494.514	588.98
494.97	594.98
495.426	600.48
495.882	573.18
496.338	573.38
496.794	593.68
497.251	576.68
497.707	594.78
498.163	585.88
498.618	609.98
499.074	603.08
499.53	629.68
499.986	633.88
500.442	614.28
500.898	584.18
501.354	576.58
501.809	594.38
502.265	599.68
502.721	618.88
503.177	620.18
503.632	620.58
504.088	635.08
504.543	669.98
504.999	655.98
505.455	615.28
505.91	587.08
506.366	588.18
506.821	587.98
507.277	574.38
507.732	570.78
508.187	579.68
508.643	590.68
509.098	592.88
509.553	601.18
510.009	616.68
510.464	616.88
510.919	633.78
511.375	639.38
511.83	660.78
512.285	671.78
512.74	709.98
513.195	729.38
513.65	722.88
514.105	716.68
514.56	708.38
515.015	750.98
515.47	757.08
515.925	746.98
516.38	742.68
516.835	752.18
517.29	729.08
517.745	720.28
518.2	714.18
518.655	699.08
519.109	702.58
519.564	691.48
520.019	687.78
520.474	681.78
520.928	677.18
521.383	664.88
521.838	659.48
522.292	664.08
522.747	662.98
523.201	647.28
523.656	645.58
524.11	636.28
524.565	639.58
525.019	643.88
525.474	650.28
525.928	652.78
526.382	642.48
526.837	646.68
527.291	649.78
527.745	641.58
528.2	644.28
528.654	633.58
529.108	630.28
529.562	637.98
530.016	631.48
530.47	638.18
530.925	640.58
531.379	645.68
531.833	652.38
532.287	652.28
532.741	645.58
533.195	645.18
533.649	657.48
534.103	664.98
534.556	661.08
535.01	668.58
535.464	656.88
535.918	665.58
536.372	669.28
536.826	656.48
537.279	654.38
537.733	648.68
538.187	666.18
538.64	667.18
539.094	663.58
539.548	671.28
540.001	660.68
540.455	675.18
540.908	671.48
541.362	684.18
541.815	681.38
542.269	707.98
542.722	697.28
543.175	712.58
543.629	709.78
544.082	720.78
544.536	724.08
544.989	720.48
545.442	730.68
545.895	723.38
546.349	717.58
546.802	725.68
547.255	723.38
547.708	731.98
548.161	751.88
548.614	753.68
549.067	755.88
549.52	760.78
549.973	746.78
550.426	749.38
550.879	734.98
551.332	730.78
551.785	737.88
552.238	736.68
552.691	747.08
553.144	766.28
553.596	782.08
554.049	794.08
554.502	827.48
554.955	831.28
555.407	835.08
555.86	835.38
556.313	815.38
556.765	804.98
557.218	804.98
557.67	808.98
558.123	791.18
558.576	796.48
559.028	800.28
559.48	807.48
559.933	788.38
560.385	762.18
560.838	733.18
561.29	712.58
561.742	714.78
562.195	698.08
562.647	697.28
563.099	702.08
563.551	697.98
564.004	706.58
564.456	699.68
564.908	697.88
565.36	676.78
565.812	669.38
566.264	659.08
566.716	653.78
567.168	651.28
567.62	659.68
568.072	635.08
568.524	632.28
568.976	621.48
569.428	615.38
569.88	612.18
570.332	614.68
570.784	625.18
571.235	621.38
571.687	636.58
572.139	640.58
572.59	637.28
573.042	644.98
573.494	646.98
573.945	636.18
574.397	620.38
574.849	625.08
575.3	633.28
575.752	619.58
576.203	619.98
576.655	614.48
577.106	602.38
577.557	601.88
578.009	607.28
578.46	604.98
578.912	599.68
579.363	596.38
579.814	593.18
580.265	594.48
580.717	604.08
581.168	597.38
581.619	614.78
582.07	615.78
582.521	605.68
582.972	598.78
583.423	603.98
583.875	620.18
584.326	619.28
584.777	662.48
585.227	730.28
585.678	822.08
586.129	900.88
586.58	967.38
587.031	1050.58
587.482	1195.38
587.933	1370.28
588.384	1188.88
588.834	878.98
589.285	720.68
589.736	689.78
590.186	690.28
590.637	691.98
591.088	664.28
591.538	657.48
591.989	658.28
592.439	656.98
592.89	648.98
593.34	636.38
593.791	637.98
594.241	638.88
594.692	630.48
595.142	626.28
595.593	610.48
596.043	633.38
596.493	638.98
596.943	635.08
597.394	639.88
597.844	638.78
598.294	651.48
598.744	667.18
599.195	685.48
599.645	725.38
600.095	756.88
600.545	811.88
600.995	859.28
601.445	912.98
601.895	957.78
602.345	1012.18
602.795	996.18
603.245	956.88
603.695	895.78
604.145	841.68
604.594	808.08
605.044	758.78
605.494	703.78
605.944	669.38
606.393	656.18
606.843	644.28
607.293	645.88
607.743	641.28
608.192	651.58
608.642	674.08
609.091	684.48
609.541	681.68
609.99	673.78
610.44	674.48
610.889	637.38
611.339	618.08
611.788	601.08
612.238	610.08
612.687	633.38
613.136	631.88
613.586	645.18
614.035	662.88
614.484	664.08
614.933	669.98
615.383	658.98
615.832	641.78
616.281	636.68
616.73	608.88
617.179	592.88
617.628	574.18
618.077	566.08
618.526	539.18
618.975	541.88
619.424	535.88
619.873	542.88
620.322	540.58
620.771	530.68
621.22	543.28
621.669	517.78
622.118	516.28
622.567	508.68
623.015	500.68
623.464	499.78
623.913	489.68
624.361	478.28
624.81	484.98
625.259	488.28
625.707	481.68
626.156	482.48
626.604	493.78
627.053	485.78
627.501	489.88
627.95	496.68
628.398	507.88
628.847	497.98
629.295	499.68
629.744	487.28
630.192	500.28
630.64	495.08
631.089	492.98
631.537	493.98
631.985	507.58
632.433	511.18
632.881	527.58
633.33	569.18
633.778	553.08
634.226	492.38
634.674	496.28
635.122	505.38
635.57	522.58
636.018	532.98
636.466	500.38
636.914	483.08
637.362	496.28
637.81	506.08
638.258	502.18
638.705	495.98
639.153	516.88
639.601	524.48
640.049	548.28
640.497	585.08
640.944	589.08
641.392	550.68
641.84	519.88
642.287	507.88
642.735	483.58
643.182	497.18
643.63	489.48
644.078	500.38
644.525	509.98
644.973	517.58
645.42	519.18
645.867	526.38
646.315	556.68
646.762	564.68
647.21	589.98
647.657	611.08
648.104	646.18
648.551	666.78
648.999	726.18
649.446	793.38
649.893	859.38
650.34	993.78
650.787	1176.58
651.234	1467.28
651.682	1892.38
652.129	2586.38
652.576	3749.88
653.023	5574.78
653.47	7687.78
653.917	9699.98
654.363	11357.88
654.81	12755.88
655.257	12135.88
655.704	7833.38
656.151	4603.88
656.598	2983.48
657.044	2114.18
657.491	1602.58
657.938	1286.78
658.385	1067.48
658.831	926.88
659.278	835.68
659.724	734.98
660.171	685.38
660.618	613.98
661.064	590.48
661.511	578.78
661.957	550.08
662.404	541.58
662.85	546.18
663.296	532.58
663.743	480.38
664.189	462.88
664.635	464.18
665.082	457.98
665.528	442.08
665.974	447.48
666.42	437.08
666.867	432.48
667.313	418.38
667.759	410.78
668.205	418.48
668.651	423.18
669.097	422.38
669.543	426.98
669.989	397.98
670.435	375.98
670.881	374.18
671.327	379.98
671.773	403.38
672.219	424.08
672.665	460.98
673.11	492.18
673.556	536.78
674.002	578.48
674.448	563.08
674.893	464.98
675.339	403.58
675.785	371.78
676.23	353.78
676.676	335.98
677.122	323.98
677.567	311.38
678.013	313.38
678.458	306.48
678.904	304.78
679.349	289.08
679.794	297.18
680.24	295.98
680.685	295.68
681.131	295.28
681.576	296.38
682.021	306.78
682.466	298.48
682.912	294.48
683.357	297.18
683.802	319.68
684.247	344.48
684.692	388.68
685.137	420.08
685.583	460.78
686.028	482.08
686.473	439.68
686.918	371.98
687.363	349.48
687.807	332.58
688.252	312.08
688.697	301.88
689.142	291.68
689.587	273.68
690.032	274.48
690.477	283.78
690.921	289.88
691.366	318.18
691.811	334.08
692.255	364.38
692.7	389.98
693.145	416.48
693.589	575.08
694.034	913.88
694.478	1284.48
694.923	1487.98
695.367	1963.78
695.812	1022.88
696.256	428.18
696.701	311.38
697.145	287.88
697.59	279.78
698.034	277.78
698.478	272.28
698.922	269.08
699.367	279.68
699.811	288.48
700.255	301.98
700.699	321.88
701.143	350.78
701.588	396.78
702.032	439.18
702.476	440.38
702.92	417.78
703.364	414.58
703.808	518.38
704.252	852.58
704.696	1205.98
705.14	1430.08
705.584	1837.98
706.027	918.38
706.471	437.68
706.915	328.48
707.359	301.28
707.803	261.18
708.246	258.88
708.69	263.68
709.134	268.08
709.577	262.88
710.021	268.88
710.465	259.28
710.908	253.18
711.352	248.58
711.795	259.48
712.239	284.88
712.682	317.78
713.126	350.48
713.569	389.98
714.012	317.28
714.456	276.38
714.899	252.98
715.342	235.28
715.786	216.18
716.229	220.18
716.672	214.78
717.115	213.58
717.558	213.28
718.002	210.98
718.445	220.78
718.888	243.18
719.331	248.98
719.774	267.88
720.217	259.58
720.66	242.18
721.103	227.88
721.546	213.08
721.989	215.28
722.432	203.08
722.874	203.08
723.317	187.68
723.76	198.58
724.203	217.48
724.645	265.78
725.088	373.88
725.531	472.78
725.974	547.68
726.416	455.68
726.859	253.48
727.301	202.68
727.744	196.18
728.187	196.58
728.629	203.48
729.071	203.38
729.514	212.38
729.956	228.48
730.399	238.68
730.841	245.08
731.283	233.68
731.726	224.48
732.168	216.58
732.61	221.68
733.053	235.78
733.495	263.08
733.937	293.28
734.379	326.68
734.821	358.08
735.263	443.28
735.705	683.48
736.148	1277.68
736.59	2148.88
737.032	2619.88
737.474	2143.18
737.916	688.08
738.357	357.08
738.799	268.58
739.241	250.58
739.683	229.68
740.125	241.78
740.567	245.88
741.008	268.88
741.45	267.68
741.892	267.08
742.334	288.58
742.775	300.08
743.217	292.38
743.658	228.98
744.1	211.88
744.542	223.48
744.983	261.48
745.425	298.88
745.866	290.68
746.307	236.88
746.749	238.68
747.19	261.18
747.632	368.88
748.073	702.28
748.514	1516.58
748.956	2378.18
749.397	2982.58
749.838	2498.78
750.279	2545.08
750.72	1280.18
751.162	460.88
751.603	263.98
752.044	214.78
752.485	173.88
752.926	174.68
753.367	170.88
753.808	159.18
754.249	157.68
754.69	162.18
755.131	151.28
755.572	145.88
756.013	147.18
756.453	153.78
756.894	154.58
757.335	154.28
757.776	166.98
758.216	158.78
758.657	164.98
759.098	166.58
759.538	191.28
759.979	217.18
760.42	303.48
760.86	564.38
761.301	1465.28
761.741	3629.18
762.182	5613.68
762.622	3930.78
763.063	1103.28
