Data from 20171114-ORNL-Ar_H_NY_Subt18_08-06-06-539.txt Node
Date: Tue Nov 14 08:06:06 EST 2017
User: Ender
Spectrometer: HR+D1039
Trigger mode: 0
Integration Time (sec): 2.730000E-2
Scans to average: 10
Electric dark correction enabled: true
Nonlinearity correction enabled: false
Boxcar width: 0
XAxis mode: Wavelengths
Number of Pixels in Spectrum: 2048
>>>>>Begin Spectral Data<<<<<
187.836	-8.86
188.309	-8.86
188.782	-8.86
189.255	-1.06
189.728	-2.76
190.201	5.54
190.674	8.94
191.147	3.44
191.619	-5.06
192.092	1.34
192.565	2.54
193.038	-0.36
193.511	1.64
193.984	-2.66
194.456	-1.66
194.929	-0.16
195.402	-2.16
195.874	1.24
196.347	2.14
196.82	-8.56
197.292	7.34
197.765	-1.96
198.237	-4.36
198.71	2.74
199.182	-4.56
199.655	-0.56
200.127	-2.96
200.6	-2.86
201.072	-3.76
201.544	-6.96
202.017	-0.26
202.489	6.34
202.961	-3.16
203.433	-5.46
203.906	-2.56
204.378	-3.06
204.85	-1.16
205.322	-10.96
205.794	1.34
206.266	-3.46
206.739	-1.06
207.211	5.74
207.683	-5.86
208.155	-5.36
208.627	-3.06
209.099	-7.66
209.57	-5.06
210.042	-8.06
210.514	-4.76
210.986	-3.06
211.458	-5.16
211.93	0.14
212.402	2.24
212.873	-5.66
213.345	-2.86
213.817	-13.66
214.288	-0.46
214.76	-10.06
215.232	-2.06
215.703	-6.06
216.175	-2.26
216.646	-6.46
217.118	-8.66
217.589	-1.76
218.061	-1.86
218.532	-7.86
219.004	-2.76
219.475	-8.26
219.946	0.24
220.418	-5.06
220.889	1.94
221.36	0.04
221.832	-0.46
222.303	-6.96
222.774	4.34
223.245	-14.06
223.717	-8.46
224.188	-0.86
224.659	-10.66
225.13	-6.36
225.601	-0.56
226.072	4.24
226.543	-2.36
227.014	-0.56
227.485	-6.76
227.956	-7.76
228.427	-1.76
228.898	2.24
229.369	3.04
229.839	-5.56
230.31	-7.06
230.781	5.24
231.252	-2.36
231.722	-0.56
232.193	6.94
232.664	-1.76
233.135	2.94
233.605	1.44
234.076	-3.46
234.546	-0.86
235.017	6.14
235.487	4.14
235.958	-2.36
236.428	-0.46
236.899	9.44
237.369	5.44
237.84	4.74
238.31	3.14
238.78	5.24
239.251	-3.46
239.721	0.54
240.191	0.34
240.662	4.34
241.132	-0.36
241.602	1.04
242.072	4.94
242.542	6.44
243.013	3.74
243.483	4.34
243.953	3.24
244.423	2.94
244.893	-2.96
245.363	5.04
245.833	0.14
246.303	-1.96
246.773	8.14
247.243	-2.06
247.712	5.54
248.182	14.04
248.652	4.74
249.122	-6.26
249.592	18.64
250.061	27.84
250.531	32.24
251.001	19.74
251.471	23.34
251.94	17.84
252.41	6.94
252.879	-1.66
253.349	10.14
253.818	7.44
254.288	5.74
254.757	4.34
255.227	-2.56
255.696	5.54
256.166	-0.46
256.635	4.14
257.105	11.34
257.574	7.04
258.043	6.94
258.513	8.34
258.982	16.34
259.451	13.94
259.92	17.04
260.389	7.84
260.859	18.24
261.328	15.54
261.797	16.44
262.266	6.04
262.735	15.14
263.204	3.94
263.673	3.74
264.142	4.74
264.611	-2.86
265.08	3.54
265.549	3.74
266.018	3.44
266.487	-2.96
266.955	1.74
267.424	4.24
267.893	5.14
268.362	2.54
268.83	3.24
269.299	10.24
269.768	5.44
270.236	7.54
270.705	2.34
271.174	11.74
271.642	11.84
272.111	8.74
272.579	12.94
273.048	21.94
273.516	28.44
273.985	28.04
274.453	26.74
274.922	15.14
275.39	9.94
275.858	12.54
276.327	10.44
276.795	15.84
277.263	8.04
277.731	32.34
278.2	56.04
278.668	61.94
279.136	47.74
279.604	24.14
280.072	15.34
280.54	15.44
281.008	10.84
281.477	14.74
281.945	13.94
282.413	16.64
282.881	21.94
283.348	5.94
283.816	18.04
284.284	14.14
284.752	21.64
285.22	12.04
285.688	15.74
286.156	15.84
286.623	43.84
287.091	57.34
287.559	27.84
288.026	18.44
288.494	16.54
288.962	9.24
289.429	9.54
289.897	13.94
290.364	20.24
290.832	21.34
291.3	18.84
291.767	17.24
292.234	18.44
292.702	12.64
293.169	17.74
293.637	21.74
294.104	20.54
294.571	13.94
295.039	13.74
295.506	17.94
295.973	13.64
296.44	19.74
296.908	15.44
297.375	16.94
297.842	21.34
298.309	19.74
298.776	17.14
299.243	19.64
299.71	14.64
300.177	18.24
300.644	20.74
301.111	27.14
301.578	24.04
302.045	15.14
302.512	26.74
302.979	24.74
303.446	19.14
303.913	23.24
304.379	25.24
304.846	30.54
305.313	24.64
305.78	28.84
306.246	32.34
306.713	30.34
307.18	34.84
307.646	27.94
308.113	31.44
308.579	24.94
309.046	32.24
309.512	24.14
309.979	21.74
310.445	24.94
310.912	37.24
311.378	34.04
311.845	29.74
312.311	32.54
312.777	36.64
313.244	33.44
313.71	36.04
314.176	33.64
314.642	34.24
315.109	29.94
315.575	36.34
316.041	41.04
316.507	34.74
316.973	36.74
317.439	38.74
317.905	33.94
318.371	36.24
318.837	33.54
319.303	38.04
319.769	33.24
320.235	35.94
320.701	36.94
321.167	38.84
321.633	39.74
322.099	40.34
322.564	51.14
323.03	35.74
323.496	39.84
323.962	36.64
324.427	35.44
324.893	48.64
325.359	42.14
325.824	39.54
326.29	38.64
326.755	35.74
327.221	45.44
327.686	46.14
328.152	49.94
328.617	43.84
329.083	39.24
329.548	54.14
330.014	54.24
330.479	40.34
330.944	47.64
331.41	43.14
331.875	54.14
332.34	50.94
332.805	48.64
333.271	45.24
333.736	43.44
334.201	57.04
334.666	51.24
335.131	53.94
335.596	53.74
336.061	47.34
336.526	42.74
336.991	47.44
337.456	52.64
337.921	51.04
338.386	47.54
338.851	43.54
339.316	47.24
339.781	50.74
340.246	55.14
340.711	49.34
341.175	47.54
341.64	49.14
342.105	55.74
342.569	54.54
343.034	54.44
343.499	51.24
343.963	54.24
344.428	59.44
344.893	59.84
345.357	64.74
345.822	61.24
346.286	67.54
346.751	76.34
347.215	70.64
347.679	80.64
348.144	99.64
348.608	83.64
349.073	69.74
349.537	72.74
350.001	81.54
350.465	91.04
350.93	79.54
351.394	84.14
351.858	77.64
352.322	92.74
352.786	77.24
353.25	103.74
353.715	109.54
354.179	104.64
354.643	122.94
355.107	130.44
355.571	110.54
356.035	107.44
356.498	121.34
356.962	129.24
357.426	130.04
357.89	122.84
358.354	93.54
358.818	83.34
359.281	84.94
359.745	80.74
360.209	75.24
360.673	73.44
361.136	84.94
361.6	83.54
362.064	84.04
362.527	86.04
362.991	88.64
363.454	75.44
363.918	81.14
364.381	86.14
364.845	85.04
365.308	90.64
365.772	91.64
366.235	86.64
366.698	79.74
367.162	83.84
367.625	83.64
368.088	84.74
368.552	92.64
369.015	91.84
369.478	100.64
369.941	101.94
370.404	97.24
370.867	101.34
371.331	111.64
371.794	110.04
372.257	110.74
372.72	122.34
373.183	106.04
373.646	104.84
374.109	106.04
374.572	107.14
375.035	107.34
375.497	117.34
375.96	108.94
376.423	110.24
376.886	121.34
377.349	109.84
377.811	107.34
378.274	106.24
378.737	113.54
379.199	106.84
379.662	111.34
380.125	121.24
380.587	121.54
381.05	121.24
381.512	126.84
381.975	136.94
382.437	121.94
382.9	128.04
383.362	134.44
383.825	141.54
384.287	147.14
384.75	140.24
385.212	140.74
385.674	138.94
386.136	136.44
386.599	127.04
387.061	131.74
387.523	124.64
387.985	136.84
388.447	144.14
388.91	142.34
389.372	154.14
389.834	153.44
390.296	146.54
390.758	157.44
391.22	169.74
391.682	208.54
392.144	296.74
392.606	225.44
393.068	172.14
393.529	168.74
393.991	153.54
394.453	151.64
394.915	161.84
395.377	202.14
395.838	212.74
396.3	147.44
396.762	145.54
397.224	134.84
397.685	128.24
398.147	133.34
398.608	131.44
399.07	131.04
399.531	134.64
399.993	145.44
400.454	151.24
400.916	150.44
401.377	145.24
401.839	153.04
402.3	160.14
402.762	166.94
403.223	182.64
403.684	176.24
404.145	166.54
404.607	160.24
405.068	169.14
405.529	177.24
405.99	189.74
406.451	180.24
406.913	177.24
407.374	170.14
407.835	163.54
408.296	164.84
408.757	173.04
409.218	187.14
409.679	182.24
410.14	177.74
410.601	186.44
411.062	180.14
411.522	195.34
411.983	195.44
412.444	177.84
412.905	180.74
413.366	185.44
413.826	192.64
414.287	213.74
414.748	269.74
415.208	254.04
415.669	218.14
416.13	211.84
416.59	203.24
417.051	216.94
417.511	221.74
417.972	237.14
418.432	247.74
418.893	290.44
419.353	248.44
419.814	201.14
420.274	189.24
420.734	183.64
421.195	200.94
421.655	203.64
422.115	201.64
422.576	195.94
423.036	198.64
423.496	213.94
423.956	218.14
424.416	227.54
424.876	266.44
425.336	265.94
425.797	262.64
426.257	257.24
426.717	239.44
427.177	238.74
427.637	224.04
428.097	234.34
428.556	246.14
429.016	270.54
429.476	270.44
429.936	278.34
430.396	286.04
430.856	294.64
431.315	323.24
431.775	355.14
432.235	382.34
432.694	361.04
433.154	369.14
433.614	401.84
434.073	344.14
434.533	289.54
434.993	271.74
435.452	287.94
435.912	300.84
436.371	295.64
436.83	289.04
437.29	271.34
437.749	247.94
438.209	254.14
438.668	278.24
439.127	302.34
439.587	277.24
440.046	249.64
440.505	266.44
440.964	284.84
441.424	332.44
441.883	314.34
442.342	263.34
442.801	229.24
443.26	227.34
443.719	219.44
444.178	222.94
444.637	215.34
445.096	222.54
445.555	225.44
446.014	222.34
446.473	230.44
446.932	232.34
447.391	222.14
447.849	234.04
448.308	219.54
448.767	222.84
449.226	228.34
449.685	241.54
450.143	256.34
450.602	243.64
451.061	230.44
451.519	227.84
451.978	231.84
452.436	228.44
452.895	246.24
453.353	252.04
453.812	243.94
454.27	248.94
454.729	249.64
455.187	247.54
455.646	246.34
456.104	250.64
456.562	261.44
457.021	272.04
457.479	268.74
457.937	281.64
458.395	266.24
458.854	252.24
459.312	257.94
459.77	285.34
460.228	263.04
460.686	240.24
461.144	247.44
461.602	242.44
462.06	248.54
462.518	258.34
462.976	259.44
463.434	263.74
463.892	268.24
464.35	282.04
464.808	290.64
465.266	266.74
465.724	264.74
466.181	271.44
466.639	278.04
467.097	289.74
467.555	305.74
468.012	303.94
468.47	312.64
468.928	332.54
469.385	345.24
469.843	358.24
470.3	351.34
470.758	368.34
471.215	396.04
471.673	416.34
472.13	407.54
472.588	421.74
473.045	378.44
473.503	384.04
473.96	401.34
474.417	412.64
474.875	443.04
475.332	485.24
475.789	465.94
476.246	475.94
476.704	488.34
477.161	518.64
477.618	537.84
478.075	565.14
478.532	622.74
478.989	705.04
479.446	815.24
479.903	787.24
480.36	821.24
480.817	881.74
481.274	980.84
481.731	1087.34
482.188	1185.04
482.645	1329.34
483.102	1447.44
483.558	1568.44
484.015	1620.74
484.472	1591.94
484.929	1552.14
485.385	1494.04
485.842	1459.84
486.299	1398.24
486.755	1324.84
487.212	1122.44
487.668	946.94
488.125	867.54
488.582	794.54
489.038	765.44
489.494	731.24
489.951	691.34
490.407	674.94
490.864	659.34
491.32	660.44
491.776	653.94
492.233	660.04
492.689	619.44
493.145	612.84
493.602	606.24
494.058	620.04
494.514	634.94
494.97	644.54
495.426	656.34
495.882	639.14
496.338	621.84
496.794	632.14
497.251	630.94
497.707	641.34
498.163	645.84
498.618	661.34
499.074	657.34
499.53	689.44
499.986	687.44
500.442	658.04
500.898	639.64
501.354	639.84
501.809	645.54
502.265	659.74
502.721	667.04
503.177	683.04
503.632	670.84
504.088	678.94
504.543	717.44
504.999	717.24
505.455	677.94
505.91	638.54
506.366	629.84
506.821	639.84
507.277	625.84
507.732	632.94
508.187	635.74
508.643	640.74
509.098	636.64
509.553	657.34
510.009	665.04
510.464	680.54
510.919	701.24
511.375	706.54
511.83	702.54
512.285	744.94
512.74	774.24
513.195	800.64
513.65	777.94
514.105	783.34
514.56	786.24
515.015	801.84
515.47	818.04
515.925	796.34
516.38	805.54
516.835	803.64
517.29	795.04
517.745	786.94
518.2	771.64
518.655	765.24
519.109	747.54
519.564	746.74
520.019	737.84
520.474	742.04
520.928	738.94
521.383	732.64
521.838	724.84
522.292	721.14
522.747	721.24
523.201	708.64
523.656	708.44
524.11	702.34
524.565	709.94
525.019	699.44
525.474	705.04
525.928	718.14
526.382	701.84
526.837	713.04
527.291	712.54
527.745	707.84
528.2	712.34
528.654	699.54
529.108	686.04
529.562	701.74
530.016	702.54
530.47	697.14
530.925	697.44
531.379	709.64
531.833	720.54
532.287	706.74
532.741	717.24
533.195	716.64
533.649	718.24
534.103	730.14
534.556	713.24
535.01	720.74
535.464	720.94
535.918	724.04
536.372	724.54
536.826	726.24
537.279	710.64
537.733	725.34
538.187	726.74
538.64	721.24
539.094	739.24
539.548	740.14
540.001	728.34
540.455	722.84
540.908	735.44
541.362	753.14
541.815	752.94
542.269	770.34
542.722	761.94
543.175	784.14
543.629	771.54
544.082	792.54
544.536	785.24
544.989	789.34
545.442	794.74
545.895	802.04
546.349	797.84
546.802	789.54
547.255	809.74
547.708	809.24
548.161	815.74
548.614	831.34
549.067	841.24
549.52	835.04
549.973	831.34
550.426	820.24
550.879	798.74
551.332	807.14
551.785	821.34
552.238	810.84
552.691	822.04
553.144	850.54
553.596	849.44
554.049	861.84
554.502	902.34
554.955	927.34
555.407	916.24
555.86	911.24
556.313	902.14
556.765	886.94
557.218	890.34
557.67	901.24
558.123	881.04
558.576	880.64
559.028	892.54
559.48	883.74
559.933	875.04
560.385	847.54
560.838	822.84
561.29	794.34
561.742	784.54
562.195	771.24
562.647	769.24
563.099	788.24
563.551	773.04
564.004	793.24
564.456	776.74
564.908	767.04
565.36	748.04
565.812	738.94
566.264	731.44
566.716	732.74
567.168	726.64
567.62	739.74
568.072	710.54
568.524	706.54
568.976	692.04
569.428	683.34
569.88	684.54
570.332	682.54
570.784	684.04
571.235	674.34
571.687	696.44
572.139	716.44
572.59	721.84
573.042	716.74
573.494	721.84
573.945	708.84
574.397	690.84
574.849	692.54
575.3	698.64
575.752	684.44
576.203	681.54
576.655	689.54
577.106	681.84
577.557	669.14
578.009	671.64
578.46	664.74
578.912	671.34
579.363	664.44
579.814	668.64
580.265	665.74
580.717	675.14
581.168	674.64
581.619	678.34
582.07	685.94
582.521	683.54
582.972	670.94
583.423	691.44
583.875	687.74
584.326	707.74
584.777	747.94
585.227	827.24
585.678	919.24
586.129	997.94
586.58	1070.64
587.031	1160.44
587.482	1317.74
587.933	1494.74
588.384	1306.14
588.834	980.54
589.285	817.04
589.736	791.14
590.186	787.84
590.637	769.94
591.088	753.14
591.538	738.74
591.989	729.34
592.439	736.44
592.89	726.44
593.34	709.84
593.791	713.54
594.241	715.94
594.692	711.64
595.142	703.14
595.593	693.84
596.043	712.44
596.493	717.74
596.943	709.44
597.394	725.04
597.844	707.54
598.294	717.24
598.744	743.24
599.195	770.44
599.645	819.04
600.095	856.64
600.545	910.94
600.995	968.74
601.445	1024.04
601.895	1085.64
602.345	1136.54
602.795	1124.64
603.245	1075.44
603.695	1009.84
604.145	966.34
604.594	908.44
605.044	873.04
605.494	793.54
605.944	755.84
606.393	735.04
606.843	722.44
607.293	735.64
607.743	731.74
608.192	745.44
608.642	756.34
609.091	764.04
609.541	768.54
609.99	770.24
610.44	767.54
610.889	719.14
611.339	708.64
611.788	690.54
612.238	694.24
612.687	716.84
613.136	715.64
613.586	733.04
614.035	734.44
614.484	754.74
614.933	762.44
615.383	750.34
615.832	748.34
616.281	719.54
616.73	690.14
617.179	655.34
617.628	653.74
618.077	641.84
618.526	618.84
618.975	621.94
619.424	621.94
619.873	610.74
620.322	613.74
620.771	601.84
621.22	598.94
621.669	587.14
622.118	581.04
622.567	579.84
623.015	577.44
623.464	567.64
623.913	552.74
624.361	544.44
624.81	546.64
625.259	546.94
625.707	549.34
626.156	558.84
626.604	558.94
627.053	556.24
627.501	555.84
627.95	569.54
628.398	584.04
628.847	565.84
629.295	570.94
629.744	573.14
630.192	558.24
630.64	565.74
631.089	566.54
631.537	579.14
631.985	595.84
632.433	606.54
632.881	613.64
633.33	656.34
633.778	640.24
634.226	559.84
634.674	571.74
635.122	576.44
635.57	597.44
636.018	617.84
636.466	575.74
636.914	558.94
637.362	566.44
637.81	567.44
638.258	573.34
638.705	579.04
639.153	611.74
639.601	611.54
640.049	637.94
640.497	666.44
640.944	683.74
641.392	631.74
641.84	600.14
642.287	581.24
642.735	575.34
643.182	569.54
643.63	560.64
644.078	576.04
644.525	588.64
644.973	598.44
645.42	601.14
645.867	623.34
646.315	630.74
646.762	660.74
647.21	691.54
647.657	715.74
648.104	740.84
648.551	766.44
648.999	840.04
649.446	913.94
649.893	998.34
650.34	1158.04
650.787	1376.94
651.234	1722.04
651.682	2237.54
652.129	3070.44
652.576	4424.34
653.023	6550.84
653.47	8995.94
653.917	11260.74
654.363	13001.14
654.81	14392.94
655.257	13692.64
655.704	8935.74
656.151	5302.94
656.598	3440.14
657.044	2439.14
657.491	1863.94
657.938	1484.64
658.385	1247.14
658.831	1069.64
659.278	957.34
659.724	852.34
660.171	789.44
660.618	714.64
661.064	682.34
661.511	661.94
661.957	645.34
662.404	640.84
662.85	651.34
663.296	624.14
663.743	563.34
664.189	532.14
664.635	539.34
665.082	527.34
665.528	531.14
665.974	512.14
666.42	508.44
666.867	496.24
667.313	484.54
667.759	474.14
668.205	475.34
668.651	484.44
669.097	481.64
669.543	492.04
669.989	465.54
670.435	436.24
670.881	444.54
671.327	439.04
671.773	463.74
672.219	491.44
672.665	545.14
673.11	575.44
673.556	621.44
674.002	663.74
674.448	646.04
674.893	545.54
675.339	465.54
675.785	431.14
676.23	411.54
676.676	392.24
677.122	382.54
677.567	365.54
678.013	358.84
678.458	355.04
678.904	353.54
679.349	345.74
679.794	345.54
680.24	352.94
680.685	343.44
681.131	341.14
681.576	338.84
682.021	354.94
682.466	348.44
682.912	344.84
683.357	348.14
683.802	372.54
684.247	400.74
684.692	444.64
685.137	493.24
685.583	534.84
686.028	550.84
686.473	502.14
686.918	436.84
687.363	410.74
687.807	390.64
688.252	359.44
688.697	353.14
689.142	336.24
689.587	329.44
690.032	319.04
690.477	341.24
690.921	350.64
691.366	382.94
691.811	393.54
692.255	420.14
692.7	458.44
693.145	496.44
693.589	681.54
694.034	1102.44
694.478	1507.84
694.923	1703.44
695.367	2228.74
695.812	1156.74
696.256	484.44
696.701	363.74
697.145	343.44
697.59	320.64
698.034	311.74
698.478	323.44
698.922	325.14
699.367	320.24
699.811	327.54
700.255	345.84
700.699	378.64
701.143	423.34
701.588	473.04
702.032	509.34
702.476	494.24
702.92	490.74
703.364	480.24
703.808	616.34
704.252	1008.64
704.696	1416.14
705.14	1633.94
705.584	2098.64
706.027	1046.64
706.471	516.34
706.915	392.34
707.359	340.24
707.803	317.74
708.246	306.04
708.69	306.34
709.134	305.64
709.577	309.74
710.021	312.34
710.465	301.54
710.908	295.04
711.352	294.64
711.795	307.04
712.239	343.84
712.682	380.34
713.126	415.24
713.569	454.64
714.012	359.64
714.456	316.64
714.899	294.04
715.342	275.24
715.786	262.34
716.229	250.24
716.672	254.24
717.115	241.14
717.558	248.04
718.002	244.64
718.445	260.84
718.888	282.74
719.331	284.64
719.774	298.94
720.217	295.64
720.66	283.24
721.103	260.54
721.546	248.14
721.989	241.54
722.432	228.24
722.874	239.24
723.317	222.54
723.76	239.54
724.203	251.84
724.645	312.14
725.088	438.14
725.531	556.74
725.974	635.34
726.416	540.74
726.859	301.74
727.301	242.64
727.744	231.24
728.187	227.84
728.629	232.14
729.071	242.14
729.514	254.84
729.956	262.24
730.399	277.84
730.841	286.04
731.283	264.74
731.726	264.04
732.168	257.44
732.61	263.74
733.053	281.64
733.495	309.34
733.937	337.04
734.379	390.74
734.821	430.64
735.263	526.34
735.705	806.74
736.148	1522.94
736.59	2495.34
737.032	3000.64
737.474	2440.24
737.916	783.04
738.357	429.94
738.799	326.94
739.241	287.94
739.683	286.04
740.125	290.24
740.567	287.34
741.008	310.74
741.45	301.24
741.892	309.14
742.334	329.44
742.775	350.84
743.217	334.24
743.658	266.84
744.1	249.24
744.542	258.14
744.983	302.04
745.425	340.44
745.866	341.94
746.307	282.64
746.749	277.64
747.19	311.84
747.632	434.84
748.073	851.34
748.514	1814.44
748.956	2773.84
749.397	3493.94
749.838	2875.04
750.279	2893.94
750.72	1471.34
751.162	537.44
751.603	305.64
752.044	254.94
752.485	217.14
752.926	207.94
753.367	202.44
753.808	187.74
754.249	184.44
754.69	181.84
755.131	180.64
755.572	173.74
756.013	178.34
756.453	183.54
756.894	181.44
757.335	189.64
757.776	191.84
758.216	192.14
758.657	195.34
759.098	203.84
759.538	221.24
759.979	262.44
760.42	357.54
760.86	673.94
761.301	1746.74
761.741	4274.24
762.182	6299.94
