Data from 20171114-ORNL-Ar_H_NY_Subt18_08-07-23-518.txt Node
Date: Tue Nov 14 08:07:23 EST 2017
User: Ender
Spectrometer: HR+D1039
Trigger mode: 0
Integration Time (sec): 2.730000E-2
Scans to average: 10
Electric dark correction enabled: true
Nonlinearity correction enabled: false
Boxcar width: 0
XAxis mode: Wavelengths
Number of Pixels in Spectrum: 2048
>>>>>Begin Spectral Data<<<<<
187.836	-1.7
188.309	-1.7
188.782	-1.7
189.255	4.9
189.728	-5
190.201	4.5
190.674	-2.1
191.147	1.4
191.619	-8.2
192.092	0.6
192.565	6.5
193.038	0.3
193.511	3.9
193.984	0.1
194.456	-0.6
194.929	-0.2
195.402	-2.2
195.874	-2.2
196.347	-4.9
196.82	-1.3
197.292	5.1
197.765	-6.7
198.237	-11.2
198.71	-0.3
199.182	-5.1
199.655	-3.3
200.127	5.8
200.6	-2.7
201.072	-3.1
201.544	-8.6
202.017	-5.7
202.489	-4
202.961	-0.2
203.433	-1
203.906	-6.7
204.378	-7
204.85	0.6
205.322	-10.8
205.794	-3.2
206.266	-1.2
206.739	-8.9
207.211	4.3
207.683	-7.3
208.155	-5.2
208.627	-5.9
209.099	-5
209.57	-12.4
210.042	-10.9
210.514	-11.5
210.986	-5.3
211.458	-9.3
211.93	-7.8
212.402	-0.5
212.873	-8.9
213.345	-4.5
213.817	-6.9
214.288	-4.8
214.76	-15.7
215.232	-2
215.703	-12.1
216.175	-7.8
216.646	-4.9
217.118	-5.7
217.589	-11.2
218.061	-8.3
218.532	-9.5
219.004	-8
219.475	-1.5
219.946	-1.5
220.418	-7.7
220.889	-0.9
221.36	-5.9
221.832	-8.2
222.303	-8.1
222.774	-1.8
223.245	-8.3
223.717	-9.3
224.188	1.6
224.659	-10.9
225.13	-10.3
225.601	-8.3
226.072	-1.6
226.543	-1.1
227.014	-4
227.485	-1.8
227.956	-2
228.427	-2.6
228.898	-4
229.369	5.7
229.839	-4.2
230.31	-5.4
230.781	-3
231.252	2
231.722	-8.3
232.193	-4.2
232.664	-1.4
233.135	-7
233.605	-0.1
234.076	-6.1
234.546	1.1
235.017	1.9
235.487	1.9
235.958	-3.2
236.428	-9.6
236.899	1.5
237.369	0.1
237.84	-3.1
238.31	1.3
238.78	-4.6
239.251	-5.7
239.721	-4.7
240.191	-2.7
240.662	-4
241.132	0.5
241.602	-2.6
242.072	-2.9
242.542	-1.5
243.013	-4.5
243.483	2.1
243.953	-1.4
244.423	-4.1
244.893	2.6
245.363	-2.3
245.833	1.1
246.303	-8.6
246.773	0.3
247.243	2.7
247.712	-2.5
248.182	3.1
248.652	1.6
249.122	-6.2
249.592	4.6
250.061	14
250.531	15.9
251.001	4.3
251.471	14.7
251.94	10.2
252.41	-0.8
252.879	-5
253.349	2.5
253.818	1.3
254.288	2.8
254.757	-0.7
255.227	-0.5
255.696	-0.2
256.166	4.6
256.635	2.7
257.105	5.8
257.574	-2.8
258.043	2.2
258.513	1.5
258.982	16.5
259.451	-0.1
259.92	4.7
260.389	3.2
260.859	6.2
261.328	-2.6
261.797	7.6
262.266	7.5
262.735	3.5
263.204	-0.7
263.673	-4.4
264.142	-2.9
264.611	-3.4
265.08	-7
265.549	-4
266.018	-2.9
266.487	-7.3
266.955	-9.2
267.424	-6.1
267.893	3.3
268.362	-4.5
268.83	-1.4
269.299	4.8
269.768	1
270.236	4.2
270.705	-6.2
271.174	-1.4
271.642	5.9
272.111	3
272.579	6
273.048	13.3
273.516	13.4
273.985	16.7
274.453	16
274.922	3.6
275.39	1.5
275.858	-2.7
276.327	3.1
276.795	14.1
277.263	6.5
277.731	18.7
278.2	36.1
278.668	36.3
279.136	36.1
279.604	7.5
280.072	5.2
280.54	3.1
281.008	-4.6
281.477	-1.6
281.945	2.5
282.413	6.7
282.881	7.6
283.348	8.7
283.816	3.2
284.284	7.9
284.752	14.9
285.22	5.3
285.688	9.2
286.156	11.8
286.623	28.7
287.091	37.3
287.559	15.7
288.026	9.1
288.494	8.1
288.962	-4.7
289.429	2.4
289.897	7.8
290.364	8.9
290.832	10.5
291.3	8.2
291.767	12.4
292.234	9.5
292.702	4.7
293.169	9.3
293.637	24
294.104	9.1
294.571	0.2
295.039	6.4
295.506	7.6
295.973	13.3
296.44	9.7
296.908	2.8
297.375	14.2
297.842	11
298.309	13.8
298.776	1.9
299.243	13.1
299.71	5
300.177	11.7
300.644	15
301.111	8.5
301.578	15.2
302.045	13
302.512	14.5
302.979	17.1
303.446	15.2
303.913	12.9
304.379	15.5
304.846	19.8
305.313	13.1
305.78	15.4
306.246	18.8
306.713	19.2
307.18	12.9
307.646	19.2
308.113	19.5
308.579	12.5
309.046	15
309.512	15.8
309.979	9.8
310.445	13.5
310.912	14.3
311.378	22.9
311.845	17.3
312.311	23
312.777	24.7
313.244	19.1
313.71	29.5
314.176	18.8
314.642	23.7
315.109	19.4
315.575	21.7
316.041	26.3
316.507	26.7
316.973	31.5
317.439	19.8
317.905	27.8
318.371	20.9
318.837	21.8
319.303	28.4
319.769	21.8
320.235	24.5
320.701	20.6
321.167	19.5
321.633	15.4
322.099	26.1
322.564	28.6
323.03	28.1
323.496	25.3
323.962	23
324.427	28.3
324.893	30.9
325.359	26.8
325.824	21.6
326.29	20.3
326.755	27.9
327.221	28
327.686	27.7
328.152	34.6
328.617	23.4
329.083	30.8
329.548	40.2
330.014	33.4
330.479	34.2
330.944	33.1
331.41	32.5
331.875	31.3
332.34	32.3
332.805	31.4
333.271	39.2
333.736	29
334.201	39.9
334.666	41.1
335.131	43.9
335.596	38.9
336.061	34.1
336.526	32.9
336.991	34.9
337.456	43.6
337.921	33.8
338.386	27.1
338.851	37
339.316	34.5
339.781	29.3
340.246	38.5
340.711	28.8
341.175	39
341.64	28.7
342.105	41.9
342.569	39.7
343.034	40
343.499	39.1
343.963	42.3
344.428	49.2
344.893	48.3
345.357	49.4
345.822	45.7
346.286	52.1
346.751	56.9
347.215	51.7
347.679	54.6
348.144	71.7
348.608	63
349.073	50.5
349.537	61.6
350.001	53.1
350.465	62.1
350.93	62.7
351.394	67
351.858	56.9
352.322	70.1
352.786	66.1
353.25	77.7
353.715	82.5
354.179	75.5
354.643	87.5
355.107	90.2
355.571	85.6
356.035	77.6
356.498	92.2
356.962	93.3
357.426	97.9
357.89	89.8
358.354	63.8
358.818	68.9
359.281	67.3
359.745	59.4
360.209	59.4
360.673	59.3
361.136	62.3
361.6	68.5
362.064	66.9
362.527	72.3
362.991	71.2
363.454	56.7
363.918	57.2
364.381	64.1
364.845	68.2
365.308	71.5
365.772	73.5
366.235	67.3
366.698	65.9
367.162	72
367.625	72.1
368.088	70.3
368.552	70.9
369.015	71
369.478	80.1
369.941	81.9
370.404	76.8
370.867	80.2
371.331	83.1
371.794	96.3
372.257	91.3
372.72	90.3
373.183	85.5
373.646	87.4
374.109	88.1
374.572	91.9
375.035	91.5
375.497	89.1
375.96	89.4
376.423	84.6
376.886	92.3
377.349	94
377.811	88.7
378.274	91.5
378.737	95.4
379.199	88.1
379.662	93.8
380.125	98.9
380.587	101.5
381.05	103.6
381.512	101.3
381.975	110.3
382.437	106.6
382.9	112.9
383.362	107.1
383.825	112.6
384.287	129.2
384.75	117.3
385.212	113.7
385.674	116.8
386.136	123.2
386.599	105.4
387.061	112.4
387.523	107.8
387.985	123.1
388.447	123.8
388.91	123.4
389.372	136.7
389.834	131.4
390.296	126
390.758	134.3
391.22	144.7
391.682	171
392.144	248.4
392.606	192.2
393.068	141.7
393.529	153.4
393.991	136.9
394.453	126.9
394.915	136.8
395.377	160.2
395.838	187
396.3	133.5
396.762	126.9
397.224	114
397.685	114
398.147	118.1
398.608	114.3
399.07	111.1
399.531	120.8
399.993	130
400.454	130.4
400.916	125.3
401.377	122.8
401.839	129.1
402.3	133.2
402.762	144.3
403.223	168
403.684	148.3
404.145	134.7
404.607	138.9
405.068	146.7
405.529	148.5
405.99	164.2
406.451	155.6
406.913	156
407.374	151.5
407.835	147.9
408.296	148.6
408.757	154.9
409.218	164.4
409.679	162.2
410.14	162.9
410.601	156.7
411.062	162.7
411.522	169.9
411.983	170.8
412.444	151.9
412.905	160.7
413.366	158
413.826	174
414.287	197.6
414.748	236.9
415.208	225.7
415.669	195.1
416.13	189.2
416.59	181.1
417.051	196.9
417.511	203.4
417.972	216
418.432	223.8
418.893	259.5
419.353	232.5
419.814	181.6
420.274	168.9
420.734	161.3
421.195	179.9
421.655	182.2
422.115	168.8
422.576	175.8
423.036	180.7
423.496	184.7
423.956	194.5
424.416	210.5
424.876	237.5
425.336	232.4
425.797	239.9
426.257	229.5
426.717	219.4
427.177	218.9
427.637	205.2
428.097	218.2
428.556	219.9
429.016	247
429.476	241
429.936	254.2
430.396	255.2
430.856	274
431.315	286.9
431.775	318.7
432.235	336.4
432.694	323.5
433.154	326.1
433.614	349.7
434.073	306.6
434.533	265.8
434.993	244.9
435.452	251.5
435.912	270.2
436.371	265.4
436.83	251.5
437.29	243.6
437.749	225.2
438.209	222.8
438.668	248.4
439.127	264.3
439.587	244.7
440.046	232.1
440.505	236.8
440.964	251.8
441.424	284.6
441.883	291.7
442.342	237.3
442.801	207.7
443.26	204.3
443.719	209.1
444.178	206.2
444.637	196.1
445.096	203.2
445.555	208.4
446.014	205.1
446.473	204.9
446.932	218.4
447.391	203.9
447.849	216.1
448.308	201.1
448.767	205.6
449.226	226.6
449.685	222.6
450.143	231
450.602	220.9
451.061	216.5
451.519	216.2
451.978	219
452.436	217
452.895	223.2
453.353	227.1
453.812	221
454.27	229.2
454.729	226.5
455.187	229.9
455.646	224.6
456.104	230.7
456.562	240.2
457.021	245.4
457.479	238
457.937	251.4
458.395	237.5
458.854	232.7
459.312	235.3
459.77	256.4
460.228	235.3
460.686	235.6
461.144	236.7
461.602	228.4
462.06	227.8
462.518	236.6
462.976	236.2
463.434	237.9
463.892	243.4
464.35	257.2
464.808	267.8
465.266	252.4
465.724	251.5
466.181	252.8
466.639	250
467.097	275.9
467.555	280.6
468.012	272.3
468.47	291.1
468.928	301.5
469.385	319.4
469.843	323.5
470.3	317.8
470.758	343.1
471.215	349.9
471.673	388.1
472.13	378.3
472.588	399.6
473.045	356.2
473.503	359.3
473.96	360.9
474.417	383.2
474.875	408.7
475.332	448.7
475.789	434.7
476.246	436.8
476.704	455.7
477.161	487.3
477.618	491.4
478.075	530.6
478.532	578.8
478.989	642.4
479.446	744
479.903	729.2
480.36	761
480.817	826.8
481.274	925.5
481.731	1020
482.188	1105.1
482.645	1229.7
483.102	1325
483.558	1464.4
484.015	1523.9
484.472	1493.1
484.929	1443.8
485.385	1383.3
485.842	1340.9
486.299	1287.9
486.755	1216.7
487.212	1030.9
487.668	874.8
488.125	797.9
488.582	732.2
489.038	687.4
489.494	673.7
489.951	649.6
490.407	622.4
490.864	609.1
491.32	607.6
491.776	601.5
492.233	611
492.689	574.9
493.145	578.9
493.602	571.8
494.058	583.4
494.514	573.7
494.97	600.5
495.426	607.8
495.882	582
496.338	573.2
496.794	587.8
497.251	577.8
497.707	594.1
498.163	599.7
498.618	606
499.074	604.9
499.53	632.4
499.986	642.3
500.442	620.2
500.898	590.5
501.354	587.2
501.809	596.5
502.265	609.8
502.721	626.1
503.177	629.5
503.632	621.5
504.088	638.7
504.543	673.3
504.999	676.3
505.455	630.2
505.91	600.3
506.366	596.7
506.821	591.8
507.277	586.9
507.732	597.2
508.187	586
508.643	606.8
509.098	599.5
509.553	619.7
510.009	634.1
510.464	633.3
510.919	654.3
511.375	660.7
511.83	670.8
512.285	681.5
512.74	725.1
513.195	745.7
513.65	735.7
514.105	725.4
514.56	727
515.015	753.4
515.47	764.4
515.925	754.6
516.38	749.9
516.835	747.4
517.29	732.3
517.745	741.6
518.2	727
518.655	714.3
519.109	712.2
519.564	701.9
520.019	696.7
520.474	695.4
520.928	697.3
521.383	687.7
521.838	677.3
522.292	675.5
522.747	675.2
523.201	663.8
523.656	657.3
524.11	660.9
524.565	659.9
525.019	651.3
525.474	659.8
525.928	664.4
526.382	654.7
526.837	669.9
527.291	654.2
527.745	664.7
528.2	668
528.654	660
529.108	653.8
529.562	659.4
530.016	648
530.47	659.3
530.925	657.9
531.379	657.8
531.833	667.6
532.287	670.3
532.741	667.3
533.195	673.2
533.649	678.5
534.103	692.5
534.556	679
535.01	674.8
535.464	676.9
535.918	688.3
536.372	688.1
536.826	689.8
537.279	677.8
537.733	680.8
538.187	680.7
538.64	670.1
539.094	680.3
539.548	694.3
540.001	698
540.455	688.7
540.908	696
541.362	703.4
541.815	717.1
542.269	732.6
542.722	727
543.175	738.6
543.629	739
544.082	752.4
544.536	756.2
544.989	748.6
545.442	751.3
545.895	751.2
546.349	758.8
546.802	750.9
547.255	765.3
547.708	772
548.161	781
548.614	790.5
549.067	801.2
549.52	784.3
549.973	778.2
550.426	759.7
550.879	758.6
551.332	755.3
551.785	769.9
552.238	772.2
552.691	784.9
553.144	800.5
553.596	805.6
554.049	819.5
554.502	851
554.955	868.1
555.407	872.9
555.86	864.6
556.313	847.5
556.765	841.5
557.218	847.5
557.67	842.9
558.123	840.7
558.576	837.5
559.028	834.7
559.48	849.9
559.933	831.4
560.385	796.2
560.838	777.2
561.29	751.5
561.742	746.2
562.195	729.5
562.647	718.8
563.099	742
563.551	742.8
564.004	744.4
564.456	738.7
564.908	729.5
565.36	724.1
565.812	708.5
566.264	710.3
566.716	697.5
567.168	677.6
567.62	691.9
568.072	670.4
568.524	660.4
568.976	664.1
569.428	651.9
569.88	647.5
570.332	652.1
570.784	656.2
571.235	651
571.687	661.8
572.139	667.9
572.59	692.3
573.042	676.1
573.494	686
573.945	676.3
574.397	657.3
574.849	655.4
575.3	656.5
575.752	655.6
576.203	650.5
576.655	655.2
577.106	643.1
577.557	636.3
578.009	631
578.46	630.1
578.912	632.3
579.363	642.2
579.814	636.6
580.265	636.7
580.717	643.3
581.168	635.9
581.619	649.7
582.07	650.4
582.521	641
582.972	634.4
583.423	647.6
583.875	658.2
584.326	680.1
584.777	712.1
585.227	787.8
585.678	884.8
586.129	955.7
586.58	1032.9
587.031	1100.7
587.482	1233.4
587.933	1432.7
588.384	1243.4
588.834	933
589.285	767.5
589.736	755
590.186	743.6
590.637	744.1
591.088	716.8
591.538	708.5
591.989	697.3
592.439	703.1
592.89	687.6
593.34	685.4
593.791	689.6
594.241	667.6
594.692	681.7
595.142	662.7
595.593	675.6
596.043	670.2
596.493	693
596.943	696.1
597.394	682.4
597.844	674.1
598.294	705.5
598.744	722.8
599.195	739.1
599.645	783.4
600.095	827.7
600.545	877.7
600.995	925.6
601.445	982
601.895	1046.7
602.345	1090.3
602.795	1059
603.245	1031
603.695	965.9
604.145	914.2
604.594	874.5
605.044	827.1
605.494	757.1
605.944	729.7
606.393	705.8
606.843	688.4
607.293	693
607.743	700.3
608.192	710.2
608.642	734
609.091	733.3
609.541	743.2
609.99	736.4
610.44	738.3
610.889	686.2
611.339	677
611.788	664
612.238	673.8
612.687	690.2
613.136	694.2
613.586	709.6
614.035	702.4
614.484	727.5
614.933	731.6
615.383	717.8
615.832	707.5
616.281	697.5
616.73	664.7
617.179	644.7
617.628	627.3
618.077	612.7
618.526	597.3
618.975	588
619.424	600.1
619.873	588
620.322	596.6
620.771	570.5
621.22	585
621.669	562.7
622.118	566.9
622.567	548.6
623.015	542.5
623.464	548.6
623.913	527.7
624.361	527.6
624.81	529.7
625.259	526.8
625.707	531.1
626.156	538.3
626.604	539.9
627.053	532.9
627.501	541.6
627.95	550.6
628.398	553.5
628.847	546.5
629.295	545
629.744	550.3
630.192	544.3
630.64	536.3
631.089	543.3
631.537	550.1
631.985	554.4
632.433	564.3
632.881	580.5
633.33	613.9
633.778	593.2
634.226	538.8
634.674	540.2
635.122	555.1
635.57	564.8
636.018	594.6
636.466	553.2
636.914	530.4
637.362	542.1
637.81	544.3
638.258	560.1
638.705	561.4
639.153	585.1
639.601	585.2
640.049	613.9
640.497	637.3
640.944	669.1
641.392	619.4
641.84	586.3
642.287	549.7
642.735	549.1
643.182	555.5
643.63	542.7
644.078	553.8
644.525	566.6
644.973	573.5
645.42	579.9
645.867	601.8
646.315	613.6
646.762	637.5
647.21	667.7
647.657	684.7
648.104	716.6
648.551	744.9
648.999	805.4
649.446	884.7
649.893	972.4
650.34	1119.1
650.787	1334.4
651.234	1658.3
651.682	2172.3
652.129	3008.8
652.576	4377.3
653.023	6449
653.47	8819.3
653.917	10993
654.363	12678
654.81	13993.9
655.257	13289.1
655.704	8636
656.151	5069.6
656.598	3283
657.044	2326.1
657.491	1788.1
657.938	1421.6
658.385	1194
658.831	1024.1
659.278	930.3
659.724	827.7
660.171	751.4
660.618	697.9
661.064	663.1
661.511	646.3
661.957	629.7
662.404	614.3
662.85	619.2
663.296	590.9
663.743	528.2
664.189	519.2
664.635	509.6
665.082	506.5
665.528	503.9
665.974	498.7
666.42	484.9
666.867	480.7
667.313	469.4
667.759	452.9
668.205	466.1
668.651	465.2
669.097	463.7
669.543	473.2
669.989	455.1
670.435	425.8
670.881	426.9
671.327	437.6
671.773	444.4
672.219	467.2
672.665	519.8
673.11	562.3
673.556	613
674.002	646.4
674.448	629.8
674.893	511.3
675.339	455.5
675.785	420.2
676.23	396.6
676.676	370
677.122	367.1
677.567	362
678.013	359
678.458	345.7
678.904	350.6
679.349	331.8
679.794	337.8
680.24	335.2
680.685	325.2
681.131	335.7
681.576	338.4
682.021	335.2
682.466	327.1
682.912	334.6
683.357	331.4
683.802	363.9
684.247	392.5
684.692	435.8
685.137	471.2
685.583	507.4
686.028	542.2
686.473	491.4
686.918	420.2
687.363	397.6
687.807	380.9
688.252	350
688.697	335.4
689.142	325.7
689.587	322.6
690.032	313.1
690.477	320.3
690.921	334
691.366	370.6
691.811	385.5
692.255	414.1
692.7	438.2
693.145	479.9
693.589	676.2
694.034	1086.1
694.478	1497.8
694.923	1673.1
695.367	2173
695.812	1132.3
696.256	485.6
696.701	358.2
697.145	325.2
697.59	314.7
698.034	307.6
698.478	322.3
698.922	313.9
699.367	314.2
699.811	321
700.255	345.3
700.699	377.3
701.143	412.6
701.588	464.1
702.032	497.3
702.476	484.9
702.92	471
703.364	468.1
703.808	620.6
704.252	1000.2
704.696	1406.2
705.14	1608.6
705.584	2042.1
706.027	1015.7
706.471	495
706.915	389.5
707.359	343.4
707.803	306
708.246	297.7
708.69	295.8
709.134	307.4
709.577	298.4
710.021	309.2
710.465	291.9
710.908	289.3
711.352	288
711.795	296
712.239	343.6
712.682	370.1
713.126	401.7
713.569	436.2
714.012	354.7
714.456	306.4
714.899	281.4
715.342	262.1
715.786	252.3
716.229	240.5
716.672	238
717.115	234.5
717.558	234.6
718.002	238.9
718.445	247.6
718.888	273.1
719.331	285.4
719.774	291.5
720.217	287.3
720.66	276.4
721.103	258.2
721.546	244.8
721.989	232.6
722.432	218.1
722.874	232.8
723.317	212.8
723.76	219.5
724.203	242.3
724.645	309.6
725.088	427.3
725.531	546.9
725.974	615.8
726.416	518.9
726.859	295.9
727.301	235.6
727.744	228.3
728.187	224.5
728.629	232.5
729.071	231.2
729.514	250.3
729.956	260.3
730.399	274.8
730.841	283
731.283	262
731.726	256.9
732.168	253.1
732.61	248.2
733.053	273
733.495	306.6
733.937	343.9
734.379	381.6
734.821	411.6
735.263	520.5
735.705	806.3
736.148	1548.1
736.59	2510.2
737.032	2948.2
737.474	2364.6
737.916	785.1
738.357	411.2
738.799	313.6
739.241	284.3
739.683	269.2
740.125	276.3
740.567	285.1
741.008	297.5
741.45	303.3
741.892	300.6
742.334	332.4
742.775	335.8
743.217	321.1
743.658	259.2
744.1	242.3
744.542	252.6
744.983	294.1
745.425	329.8
745.866	327.8
746.307	269.3
746.749	272.7
747.19	309.7
747.632	442.4
748.073	871.2
748.514	1831
748.956	2757.9
749.397	3456.3
749.838	2860.8
750.279	2838
750.72	1431
751.162	521.7
751.603	306.1
752.044	240.3
752.485	208.1
752.926	196.5
753.367	193.7
753.808	188.6
754.249	184.9
754.69	180
755.131	171.2
755.572	171.7
756.013	174.4
756.453	182.9
756.894	182.8
757.335	184.5
757.776	191.2
758.216	185.3
758.657	186.8
759.098	193.6
759.538	214.2
759.979	267.4
760.42	363.9
760.86	689.7
761.301	1803.1
761.741	4344.9
762.182	6214.9
762.622	4343.6
763.063	1263
763.503	526.6
763.943	334.8
764.384	322.6
764.824	381.3
765.264	402
765.705	288.2
766.145	195.3
766.585	176.2
767.025	169.6
767.465	175.2
767.906	234
768.346	294.2
768.786	316.1
769.226	249.5
769.666	309.4
770.106	609
770.546	1529
770.986	2559.9
771.426	2273.4
771.866	762.2
772.306	323.6
772.745	195.8
773.185	172.4
773.625	156.8
774.065	156.3
774.505	187
774.944	299.3
775.384	656.9
775.824	1159.2
776.263	1129.6
776.703	478.5
777.142	208.8
777.582	150.1
778.021	132.9
778.461	140.2
778.9	132.9
779.34	124.7
779.779	111.5
780.219	107.7
780.658	103.7
781.097	106.1
781.537	110.3
781.976	109
782.415	103.8
782.855	101.8
783.294	98.1
783.733	101.2
784.172	103.3
784.611	95.9
785.05	100.6
785.489	105.4
785.928	117.1
786.367	123.3
786.806	110.3
787.245	127.4
787.684	127.8
788.123	142.6
788.562	124.6
789.001	117.1
789.44	115.3
789.879	108.8
790.317	114.5
790.756	123.9
791.195	122.3
791.634	136.7
792.072	197.6
792.511	365.1
792.95	998.9
793.388	2065
793.827	1852.9
794.265	655.3
794.704	265.3
795.142	172.3
795.581	144.7
796.019	135.8
796.458	124.3
796.896	116.2
797.334	126.1
797.773	150.2
798.211	212.4
798.649	437
799.087	1006.1
799.526	1550
799.964	1946.1
800.402	1945.5
800.84	736.3
801.278	285.6
801.716	177.9
802.154	147.7
802.592	130.3
803.03	127
803.468	131
803.906	134.5
804.344	141.4
804.782	132.9
805.22	129.8
805.658	124.1
806.096	139.9
806.533	147.3
806.971	166.2
807.409	211.7
807.847	309.6
808.284	652.2
