Data from 20171114-ORNL-Ar_H_NY_Subt18_08-05-59-442.txt Node
Date: Tue Nov 14 08:05:59 EST 2017
User: Ender
Spectrometer: HR+D1039
Trigger mode: 0
Integration Time (sec): 2.730000E-2
Scans to average: 10
Electric dark correction enabled: true
Nonlinearity correction enabled: false
Boxcar width: 0
XAxis mode: Wavelengths
Number of Pixels in Spectrum: 2048
>>>>>Begin Spectral Data<<<<<
187.836	-6.36
188.309	-6.36
188.782	-6.36
189.255	1.14
189.728	-0.76
190.201	5.44
190.674	0.44
191.147	2.44
191.619	-2.46
192.092	3.14
192.565	2.64
193.038	2.34
193.511	-1.66
193.984	0.44
194.456	-7.86
194.929	3.34
195.402	-2.46
195.874	0.24
196.347	-2.76
196.82	-10.76
197.292	4.34
197.765	-6.76
198.237	-9.26
198.71	0.14
199.182	2.14
199.655	-0.56
200.127	2.14
200.6	-0.66
201.072	-1.76
201.544	-6.16
202.017	-1.86
202.489	9.84
202.961	1.74
203.433	0.14
203.906	-4.76
204.378	-1.56
204.85	-1.06
205.322	-14.46
205.794	-2.06
206.266	-3.56
206.739	-6.46
207.211	-4.06
207.683	-9.26
208.155	-4.66
208.627	-5.36
209.099	-2.86
209.57	-11.96
210.042	-1.76
210.514	-4.26
210.986	-3.96
211.458	-11.16
211.93	-4.06
212.402	-2.16
212.873	-5.66
213.345	-6.56
213.817	-10.36
214.288	-6.46
214.76	-8.16
215.232	-1.86
215.703	-5.16
216.175	-0.96
216.646	-6.46
217.118	-7.06
217.589	-5.16
218.061	-0.56
218.532	0.24
219.004	-1.66
219.475	-7.06
219.946	3.04
220.418	-2.76
220.889	-3.26
221.36	-1.36
221.832	-11.86
222.303	-13.06
222.774	-0.76
223.245	-11.46
223.717	-0.66
224.188	-2.56
224.659	-8.16
225.13	-9.76
225.601	4.24
226.072	0.04
226.543	0.44
227.014	-0.86
227.485	-7.56
227.956	-0.66
228.427	3.04
228.898	0.94
229.369	7.04
229.839	-3.66
230.31	-5.26
230.781	-0.96
231.252	-1.36
231.722	-7.26
232.193	3.64
232.664	-5.76
233.135	3.94
233.605	-2.26
234.076	-2.76
234.546	0.04
235.017	5.14
235.487	4.84
235.958	-6.46
236.428	-1.76
236.899	5.24
237.369	5.14
237.84	-3.76
238.31	6.54
238.78	2.94
239.251	-2.76
239.721	1.14
240.191	2.84
240.662	-5.46
241.132	4.04
241.602	-9.26
242.072	0.64
242.542	9.34
243.013	0.34
243.483	5.74
243.953	5.74
244.423	0.94
244.893	-1.56
245.363	6.14
245.833	4.74
246.303	-3.36
246.773	7.54
247.243	1.44
247.712	6.54
248.182	5.54
248.652	5.44
249.122	-6.26
249.592	16.74
250.061	17.24
250.531	33.04
251.001	19.14
251.471	17.94
251.94	20.14
252.41	6.84
252.879	3.94
253.349	16.54
253.818	8.54
254.288	8.84
254.757	7.64
255.227	0.94
255.696	6.84
256.166	6.34
256.635	7.04
257.105	15.74
257.574	8.24
258.043	8.94
258.513	9.44
258.982	20.54
259.451	8.44
259.92	11.64
260.389	10.24
260.859	12.64
261.328	15.34
261.797	24.04
262.266	16.74
262.735	4.24
263.204	7.94
263.673	1.24
264.142	5.94
264.611	-4.36
265.08	-0.96
265.549	-0.86
266.018	3.04
266.487	-5.56
266.955	0.84
267.424	1.64
267.893	11.94
268.362	0.34
268.83	7.64
269.299	11.94
269.768	8.74
270.236	10.84
270.705	5.84
271.174	6.94
271.642	6.04
272.111	10.94
272.579	17.54
273.048	25.94
273.516	32.54
273.985	26.54
274.453	28.24
274.922	20.54
275.39	15.74
275.858	-0.36
276.327	16.84
276.795	18.54
277.263	12.84
277.731	32.94
278.2	59.54
278.668	61.04
279.136	57.04
279.604	20.14
280.072	18.84
280.54	14.84
281.008	12.14
281.477	15.54
281.945	11.04
282.413	10.64
282.881	17.04
283.348	9.34
283.816	14.64
284.284	17.74
284.752	23.64
285.22	16.64
285.688	16.54
286.156	21.74
286.623	41.74
287.091	51.74
287.559	34.64
288.026	18.94
288.494	12.14
288.962	16.74
289.429	14.04
289.897	18.74
290.364	16.44
290.832	23.04
291.3	13.64
291.767	20.34
292.234	19.14
292.702	21.64
293.169	23.84
293.637	20.94
294.104	24.84
294.571	5.14
295.039	16.94
295.506	19.64
295.973	25.64
296.44	15.94
296.908	19.74
297.375	18.34
297.842	23.74
298.309	23.34
298.776	19.44
299.243	19.94
299.71	15.74
300.177	29.34
300.644	23.74
301.111	20.94
301.578	28.24
302.045	16.44
302.512	23.24
302.979	24.84
303.446	23.84
303.913	17.24
304.379	22.44
304.846	28.54
305.313	31.54
305.78	24.14
306.246	28.74
306.713	29.74
307.18	30.04
307.646	25.34
308.113	32.14
308.579	26.64
309.046	28.64
309.512	26.64
309.979	21.94
310.445	26.04
310.912	27.34
311.378	29.24
311.845	32.24
312.311	31.94
312.777	34.24
313.244	26.04
313.71	34.64
314.176	32.64
314.642	37.54
315.109	40.54
315.575	32.44
316.041	40.74
316.507	30.94
316.973	43.64
317.439	36.94
317.905	37.04
318.371	33.34
318.837	35.04
319.303	36.24
319.769	35.14
320.235	40.54
320.701	40.54
321.167	40.14
321.633	32.44
322.099	45.34
322.564	47.54
323.03	44.64
323.496	40.94
323.962	42.54
324.427	40.64
324.893	46.84
325.359	43.54
325.824	33.54
326.29	35.24
326.755	39.24
327.221	41.74
327.686	38.34
328.152	48.54
328.617	43.64
329.083	50.64
329.548	60.94
330.014	47.44
330.479	37.94
330.944	46.84
331.41	45.84
331.875	44.04
332.34	45.44
332.805	44.94
333.271	47.84
333.736	48.94
334.201	51.64
334.666	57.94
335.131	61.14
335.596	53.64
336.061	51.44
336.526	45.34
336.991	59.04
337.456	58.64
337.921	56.34
338.386	45.64
338.851	49.04
339.316	51.04
339.781	48.54
340.246	55.54
340.711	54.74
341.175	55.64
341.64	42.44
342.105	60.04
342.569	56.64
343.034	60.04
343.499	58.34
343.963	48.74
344.428	65.74
344.893	73.24
345.357	60.94
345.822	65.34
346.286	70.84
346.751	79.44
347.215	70.64
347.679	82.94
348.144	100.94
348.608	81.14
349.073	66.24
349.537	69.44
350.001	84.44
350.465	93.84
350.93	83.34
351.394	89.84
351.858	78.84
352.322	91.64
352.786	87.74
353.25	107.14
353.715	109.44
354.179	104.54
354.643	127.74
355.107	136.54
355.571	116.44
356.035	114.34
356.498	124.84
356.962	134.14
357.426	137.14
357.89	121.94
358.354	94.24
358.818	85.74
359.281	82.04
359.745	85.14
360.209	78.04
360.673	82.54
361.136	80.24
361.6	86.74
362.064	94.74
362.527	85.94
362.991	92.94
363.454	87.04
363.918	81.44
364.381	77.04
364.845	88.24
365.308	89.54
365.772	92.54
366.235	92.54
366.698	87.64
367.162	88.44
367.625	94.54
368.088	94.74
368.552	88.54
369.015	97.94
369.478	107.54
369.941	102.34
370.404	96.64
370.867	108.54
371.331	114.34
371.794	114.64
372.257	116.44
372.72	117.94
373.183	113.84
373.646	104.74
374.109	108.34
374.572	113.64
375.035	111.94
375.497	114.64
375.96	112.04
376.423	105.74
376.886	114.04
377.349	113.84
377.811	105.74
378.274	113.14
378.737	112.94
379.199	119.64
379.662	115.24
380.125	127.44
380.587	120.24
381.05	119.14
381.512	141.44
381.975	137.14
382.437	137.54
382.9	131.34
383.362	143.84
383.825	142.44
384.287	149.24
384.75	146.24
385.212	151.84
385.674	147.54
386.136	142.74
386.599	134.24
387.061	131.84
387.523	133.94
387.985	133.94
388.447	147.94
388.91	144.74
389.372	161.44
389.834	160.14
390.296	157.64
390.758	162.44
391.22	166.24
391.682	208.64
392.144	297.74
392.606	225.54
393.068	178.44
393.529	172.14
393.991	160.34
394.453	150.34
394.915	163.74
395.377	196.24
395.838	213.04
396.3	153.24
396.762	147.24
397.224	138.84
397.685	134.34
398.147	148.24
398.608	134.24
399.07	133.74
399.531	145.14
399.993	153.54
400.454	159.54
400.916	147.94
401.377	152.34
401.839	155.54
402.3	161.84
402.762	173.04
403.223	178.24
403.684	176.94
404.145	169.24
404.607	164.74
405.068	169.34
405.529	179.54
405.99	192.24
406.451	180.54
406.913	180.04
407.374	166.44
407.835	168.84
408.296	174.14
408.757	174.64
409.218	195.54
409.679	192.04
410.14	183.14
410.601	184.64
411.062	192.14
411.522	195.74
411.983	198.54
412.444	186.24
412.905	190.94
413.366	187.84
413.826	196.34
414.287	227.24
414.748	269.64
415.208	256.54
415.669	220.74
416.13	214.84
416.59	216.44
417.051	226.64
417.511	227.24
417.972	240.54
418.432	253.94
418.893	303.84
419.353	260.54
419.814	209.84
420.274	185.24
420.734	183.74
421.195	207.44
421.655	202.14
422.115	197.84
422.576	201.24
423.036	206.74
423.496	212.54
423.956	227.44
424.416	244.94
424.876	279.74
425.336	271.84
425.797	277.04
426.257	271.74
426.717	249.84
427.177	240.44
427.637	232.94
428.097	246.24
428.556	246.74
429.016	283.54
429.476	273.54
429.936	293.64
430.396	287.14
430.856	303.44
431.315	326.44
431.775	358.44
432.235	398.64
432.694	363.04
433.154	374.44
433.614	414.04
434.073	363.34
434.533	295.94
434.993	283.74
435.452	291.04
435.912	297.84
436.371	299.74
436.83	290.24
437.29	284.44
437.749	258.94
438.209	261.24
438.668	287.44
439.127	295.54
439.587	271.94
440.046	255.74
440.505	277.04
440.964	280.34
441.424	342.64
441.883	327.54
442.342	277.24
442.801	241.84
443.26	235.74
443.719	231.84
444.178	224.74
444.637	222.34
445.096	230.24
445.555	230.54
446.014	228.64
446.473	237.94
446.932	236.74
447.391	237.24
447.849	236.84
448.308	228.74
448.767	240.14
449.226	247.04
449.685	247.14
450.143	257.94
450.602	250.64
451.061	237.24
451.519	244.44
451.978	242.04
452.436	241.84
452.895	255.54
453.353	268.94
453.812	252.14
454.27	253.44
454.729	248.44
455.187	247.94
455.646	261.64
456.104	253.44
456.562	268.74
457.021	286.94
457.479	271.74
457.937	282.04
458.395	272.94
458.854	263.04
459.312	275.54
459.77	289.74
460.228	268.44
460.686	252.24
461.144	254.44
461.602	261.14
462.06	256.44
462.518	270.54
462.976	272.44
463.434	267.44
463.892	275.64
464.35	295.84
464.808	295.34
465.266	273.64
465.724	284.84
466.181	288.34
466.639	282.14
467.097	302.44
467.555	313.94
468.012	312.94
468.47	328.14
468.928	342.64
469.385	351.44
469.843	367.34
470.3	364.44
470.758	381.84
471.215	409.14
471.673	421.84
472.13	427.54
472.588	429.04
473.045	393.14
473.503	397.44
473.96	408.64
474.417	415.84
474.875	450.44
475.332	497.44
475.789	483.84
476.246	488.74
476.704	508.54
477.161	534.34
477.618	536.54
478.075	587.44
478.532	646.14
478.989	718.04
479.446	846.64
479.903	809.94
480.36	843.44
480.817	908.54
481.274	1001.74
481.731	1109.04
482.188	1199.94
482.645	1335.94
483.102	1457.94
483.558	1603.84
484.015	1650.54
484.472	1626.84
484.929	1578.14
485.385	1537.64
485.842	1481.94
486.299	1409.24
486.755	1351.84
487.212	1147.34
487.668	966.14
488.125	882.54
488.582	813.94
489.038	778.24
489.494	742.94
489.951	714.84
490.407	691.64
490.864	671.24
491.32	669.34
491.776	669.44
492.233	670.64
492.689	638.14
493.145	635.24
493.602	623.34
494.058	644.54
494.514	637.74
494.97	660.64
495.426	672.34
495.882	652.14
496.338	648.64
496.794	648.14
497.251	649.04
497.707	656.64
498.163	660.24
498.618	678.54
499.074	674.94
499.53	702.94
499.986	708.44
500.442	677.64
500.898	654.64
501.354	646.64
501.809	657.24
502.265	671.34
502.721	678.14
503.177	689.24
503.632	686.94
504.088	714.74
504.543	750.44
504.999	743.64
505.455	685.44
505.91	661.04
506.366	656.64
506.821	657.34
507.277	657.34
507.732	649.64
508.187	655.14
508.643	656.14
509.098	654.74
509.553	668.34
510.009	691.54
510.464	697.54
510.919	728.94
511.375	719.24
511.83	731.84
512.285	755.74
512.74	792.14
513.195	826.24
513.65	803.34
514.105	793.74
514.56	810.74
515.015	827.84
515.47	840.54
515.925	825.24
516.38	816.44
516.835	826.24
517.29	818.24
517.745	794.94
518.2	790.84
518.655	777.54
519.109	786.14
519.564	772.84
520.019	756.04
520.474	752.14
520.928	760.34
521.383	744.64
521.838	739.84
522.292	738.94
522.747	735.44
523.201	741.24
523.656	723.34
524.11	726.54
524.565	721.24
525.019	717.44
525.474	733.04
525.928	728.14
526.382	722.34
526.837	714.54
527.291	731.54
527.745	717.34
528.2	726.04
528.654	722.44
529.108	712.44
529.562	718.04
530.016	722.34
530.47	722.64
530.925	723.94
531.379	714.84
531.833	732.24
532.287	729.14
532.741	728.24
533.195	730.74
533.649	735.94
534.103	750.04
534.556	734.84
535.01	735.64
535.464	735.14
535.918	748.24
536.372	747.54
536.826	740.64
537.279	732.84
537.733	744.74
538.187	742.64
538.64	749.54
539.094	748.94
539.548	754.34
540.001	751.84
540.455	750.74
540.908	753.34
541.362	763.34
541.815	765.64
542.269	784.74
542.722	783.74
543.175	799.14
543.629	803.24
544.082	820.34
544.536	814.24
544.989	819.84
545.442	822.54
545.895	813.04
546.349	822.74
546.802	819.04
547.255	830.54
547.708	834.94
548.161	845.44
548.614	856.84
549.067	856.74
549.52	851.34
549.973	841.64
550.426	837.54
550.879	828.64
551.332	827.04
551.785	834.94
552.238	837.34
552.691	852.54
553.144	866.84
553.596	886.44
554.049	907.54
554.502	914.24
554.955	945.14
555.407	945.84
555.86	936.24
556.313	925.64
556.765	918.44
557.218	906.84
557.67	911.64
558.123	899.34
558.576	896.04
559.028	910.94
559.48	912.54
559.933	906.64
560.385	861.04
560.838	833.94
561.29	808.94
561.742	808.74
562.195	786.34
562.647	788.84
563.099	802.84
563.551	790.94
564.004	802.44
564.456	800.54
564.908	800.14
565.36	775.84
565.812	760.34
566.264	752.94
566.716	748.24
567.168	741.84
567.62	746.04
568.072	735.74
568.524	718.04
568.976	714.04
569.428	699.54
569.88	690.04
570.332	710.44
570.784	701.64
571.235	708.84
571.687	717.44
572.139	723.84
572.59	732.04
573.042	747.54
573.494	726.24
573.945	734.34
574.397	708.14
574.849	708.54
575.3	722.94
575.752	703.14
576.203	699.94
576.655	705.14
577.106	693.74
577.557	684.14
578.009	692.04
578.46	688.04
578.912	674.64
579.363	678.64
579.814	692.84
580.265	690.84
580.717	691.04
581.168	691.44
581.619	697.34
582.07	706.54
582.521	697.44
582.972	692.44
583.423	700.64
583.875	713.44
584.326	724.04
584.777	768.34
585.227	843.94
585.678	937.54
586.129	1015.14
586.58	1094.44
587.031	1165.54
587.482	1339.84
587.933	1491.54
588.384	1310.24
588.834	997.14
589.285	832.14
589.736	810.14
590.186	793.74
590.637	777.84
591.088	771.54
591.538	757.04
591.989	746.94
592.439	745.14
592.89	737.94
593.34	730.24
593.791	726.84
594.241	722.04
594.692	723.64
595.142	721.34
595.593	718.34
596.043	729.04
596.493	731.74
596.943	739.64
597.394	740.14
597.844	726.94
598.294	743.24
598.744	763.04
599.195	793.44
599.645	827.54
600.095	880.24
600.545	927.64
600.995	986.44
601.445	1050.54
601.895	1110.44
602.345	1162.04
602.795	1134.64
603.245	1086.24
603.695	1034.04
604.145	984.64
604.594	934.14
605.044	885.24
605.494	825.34
605.944	777.04
606.393	760.44
606.843	744.84
607.293	757.64
607.743	746.24
608.192	769.54
608.642	774.54
609.091	777.84
609.541	776.34
609.99	788.44
610.44	793.64
610.889	738.74
611.339	715.24
611.788	700.64
612.238	713.64
612.687	737.54
613.136	730.24
613.586	750.84
614.035	749.24
614.484	772.44
614.933	764.54
615.383	761.24
615.832	758.14
616.281	738.44
616.73	698.94
617.179	668.94
617.628	660.24
618.077	651.84
618.526	637.84
618.975	635.14
619.424	638.14
619.873	629.54
620.322	636.14
620.771	618.24
621.22	618.84
621.669	613.44
622.118	610.34
622.567	594.44
623.015	587.24
623.464	583.94
623.913	581.84
624.361	569.74
624.81	559.24
625.259	563.34
625.707	559.64
626.156	566.44
626.604	575.84
627.053	572.24
627.501	576.14
627.95	577.54
628.398	588.74
628.847	590.34
629.295	579.54
629.744	586.44
630.192	578.74
630.64	579.84
631.089	577.94
631.537	587.24
631.985	592.94
632.433	613.14
632.881	616.34
633.33	664.84
633.778	631.54
634.226	573.94
634.674	572.24
635.122	585.54
635.57	603.04
636.018	632.14
636.466	587.14
636.914	566.84
637.362	575.44
637.81	591.14
638.258	591.64
638.705	597.84
639.153	620.74
639.601	623.74
640.049	645.24
640.497	678.14
640.944	701.74
641.392	651.44
641.84	618.74
642.287	598.24
642.735	580.64
643.182	581.94
643.63	585.84
644.078	582.94
644.525	596.04
644.973	606.74
645.42	615.44
645.867	642.04
646.315	659.34
646.762	662.84
647.21	707.54
647.657	728.94
648.104	768.54
648.551	783.54
648.999	843.74
649.446	921.74
649.893	1017.74
650.34	1176.74
650.787	1405.04
651.234	1742.64
651.682	2269.94
652.129	3098.74
652.576	4468.64
653.023	6563.54
653.47	9034.64
653.917	11304.34
654.363	13028.64
654.81	14471.44
655.257	13790.24
655.704	9038.14
656.151	5337.54
656.598	3471.04
657.044	2464.54
657.491	1902.94
657.938	1514.94
658.385	1265.44
658.831	1094.84
659.278	977.94
659.724	869.84
660.171	806.84
660.618	732.34
661.064	687.34
661.511	681.24
661.957	672.64
662.404	654.14
662.85	660.44
663.296	631.14
663.743	571.64
664.189	545.44
664.635	536.24
665.082	529.84
665.528	535.14
665.974	530.04
666.42	507.14
666.867	510.74
667.313	496.64
667.759	483.84
668.205	490.74
668.651	498.44
669.097	488.84
669.543	503.34
669.989	475.04
670.435	456.74
670.881	452.04
671.327	457.64
671.773	469.74
672.219	490.04
672.665	549.64
673.11	578.24
673.556	629.64
674.002	675.24
674.448	662.94
674.893	544.14
675.339	480.24
675.785	447.04
676.23	417.54
676.676	393.84
677.122	389.44
677.567	376.74
678.013	375.64
678.458	364.04
678.904	361.34
679.349	350.34
679.794	360.94
680.24	353.34
680.685	353.54
681.131	350.14
681.576	351.34
682.021	357.74
682.466	358.34
682.912	357.34
683.357	351.44
683.802	388.64
684.247	406.54
684.692	454.74
685.137	494.54
685.583	538.54
686.028	567.54
686.473	520.34
686.918	456.54
687.363	415.44
687.807	392.44
688.252	370.04
688.697	370.44
689.142	345.14
689.587	340.74
690.032	331.64
690.477	348.84
690.921	351.74
691.366	381.94
691.811	405.64
692.255	436.64
692.7	468.14
693.145	503.14
693.589	701.84
694.034	1125.54
694.478	1527.64
694.923	1753.84
695.367	2286.64
695.812	1204.24
696.256	500.34
696.701	378.94
697.145	342.94
697.59	328.24
698.034	321.84
698.478	327.04
698.922	318.34
699.367	325.84
699.811	337.74
700.255	360.64
700.699	399.04
701.143	428.14
701.588	478.14
702.032	509.14
702.476	520.24
702.92	492.44
703.364	483.04
703.808	643.24
704.252	1028.84
704.696	1455.04
705.14	1669.94
705.584	2141.34
706.027	1067.64
706.471	526.04
706.915	398.14
707.359	358.34
707.803	323.54
708.246	306.54
708.69	317.64
709.134	318.34
709.577	311.54
710.021	317.44
710.465	311.34
710.908	299.64
711.352	304.24
711.795	306.84
712.239	352.34
712.682	386.14
713.126	414.24
713.569	467.74
714.012	369.94
714.456	328.54
714.899	298.94
715.342	278.34
715.786	263.84
716.229	261.94
716.672	259.84
717.115	251.54
717.558	254.94
718.002	252.14
718.445	265.14
718.888	284.54
719.331	290.94
719.774	301.44
720.217	299.84
720.66	283.14
721.103	265.54
721.546	254.34
721.989	244.24
722.432	230.84
722.874	234.74
723.317	233.04
723.76	239.84
724.203	251.44
724.645	322.34
725.088	438.44
725.531	574.64
725.974	645.14
726.416	547.94
726.859	311.94
727.301	248.04
727.744	235.44
728.187	231.34
728.629	234.14
729.071	237.74
729.514	267.74
729.956	280.54
730.399	284.44
730.841	277.84
731.283	272.04
731.726	264.34
732.168	263.74
732.61	259.54
733.053	286.64
733.495	316.84
733.937	360.44
734.379	390.14
734.821	433.64
735.263	538.54
735.705	837.44
736.148	1551.94
736.59	2552.64
737.032	3057.94
737.474	2492.54
737.916	816.34
738.357	425.84
738.799	324.84
739.241	297.24
739.683	279.94
740.125	293.14
740.567	298.14
741.008	311.74
741.45	307.74
741.892	312.94
742.334	341.54
742.775	359.04
743.217	342.64
743.658	271.14
744.1	251.34
744.542	261.64
744.983	305.54
745.425	346.54
745.866	340.84
746.307	290.14
746.749	282.94
747.19	316.94
747.632	449.44
748.073	860.24
748.514	1835.94
748.956	2836.84
749.397	3557.24
749.838	2942.34
750.279	2971.64
750.72	1507.84
751.162	553.54
751.603	319.24
752.044	256.34
752.485	217.64
752.926	204.24
753.367	200.14
753.808	193.44
754.249	192.74
754.69	184.64
755.131	174.94
755.572	179.74
756.013	177.04
756.453	183.44
756.894	185.94
757.335	192.64
757.776	195.94
758.216	194.94
758.657	194.94
759.098	201.94
759.538	221.84
759.979	267.84
760.42	365.44
760.86	695.34
761.301	1785.94
761.741	4400.54
762.182	6466.14
