Data from 20171114-ORNL-Ar_H_NY_Subt18_08-04-54-747.txt Node
Date: Tue Nov 14 08:04:54 EST 2017
User: Ender
Spectrometer: HR+D1039
Trigger mode: 0
Integration Time (sec): 2.730000E-2
Scans to average: 10
Electric dark correction enabled: true
Nonlinearity correction enabled: false
Boxcar width: 0
XAxis mode: Wavelengths
Number of Pixels in Spectrum: 2048
>>>>>Begin Spectral Data<<<<<
187.836	-4.26
188.309	-4.26
188.782	-4.26
189.255	5.04
189.728	-3.66
190.201	3.54
190.674	1.34
191.147	0.64
191.619	-4.46
192.092	2.94
192.565	1.34
193.038	-0.76
193.511	1.34
193.984	-1.96
194.456	-1.26
194.929	1.24
195.402	-0.26
195.874	-0.86
196.347	0.54
196.82	-8.36
197.292	2.24
197.765	-1.96
198.237	-1.16
198.71	3.44
199.182	-4.26
199.655	4.64
200.127	7.54
200.6	-1.66
201.072	-2.66
201.544	-0.06
202.017	-7.56
202.489	3.54
202.961	-2.26
203.433	-2.66
203.906	-5.36
204.378	-3.16
204.85	-0.86
205.322	-9.56
205.794	-1.96
206.266	-2.86
206.739	-8.36
207.211	0.44
207.683	-2.36
208.155	-6.96
208.627	-7.76
209.099	-2.76
209.57	-8.86
210.042	-6.46
210.514	-3.46
210.986	-6.86
211.458	-5.26
211.93	-1.86
212.402	0.64
212.873	-6.66
213.345	-9.36
213.817	-14.46
214.288	-4.86
214.76	-9.76
215.232	-4.26
215.703	-6.06
216.175	-5.06
216.646	-4.16
217.118	-6.96
217.589	-4.16
218.061	-6.36
218.532	-7.36
219.004	-7.26
219.475	-6.26
219.946	-3.26
220.418	-5.56
220.889	1.24
221.36	2.44
221.832	-7.76
222.303	-10.36
222.774	0.04
223.245	-10.66
223.717	-4.16
224.188	-0.46
224.659	-8.16
225.13	-1.76
225.601	-2.86
226.072	1.44
226.543	1.84
227.014	3.74
227.485	0.24
227.956	-9.96
228.427	-2.96
228.898	-2.86
229.369	4.34
229.839	-4.46
230.31	-8.86
230.781	2.04
231.252	0.94
231.722	-5.06
232.193	2.54
232.664	2.14
233.135	-0.26
233.605	2.24
234.076	-8.96
234.546	3.24
235.017	1.04
235.487	4.84
235.958	-5.86
236.428	-5.86
236.899	3.34
237.369	3.74
237.84	2.64
238.31	6.84
238.78	-4.26
239.251	2.44
239.721	6.34
240.191	7.64
240.662	-2.46
241.132	4.94
241.602	-10.06
242.072	3.04
242.542	2.34
243.013	-4.56
243.483	8.24
243.953	6.94
244.423	1.84
244.893	-2.56
245.363	-2.46
245.833	5.94
246.303	-5.06
246.773	8.24
247.243	10.44
247.712	9.34
248.182	8.34
248.652	5.64
249.122	-2.46
249.592	18.64
250.061	22.44
250.531	33.44
251.001	19.94
251.471	23.54
251.94	23.74
252.41	7.14
252.879	2.14
253.349	14.24
253.818	9.84
254.288	8.74
254.757	5.94
255.227	2.34
255.696	2.24
256.166	6.74
256.635	10.24
257.105	5.74
257.574	4.74
258.043	6.54
258.513	12.94
258.982	20.04
259.451	11.24
259.92	19.14
260.389	9.34
260.859	20.74
261.328	7.84
261.797	18.54
262.266	9.54
262.735	10.04
263.204	9.34
263.673	8.34
264.142	12.74
264.611	-1.06
265.08	-4.86
265.549	-2.96
266.018	10.34
266.487	-2.16
266.955	-3.26
267.424	1.74
267.893	7.94
268.362	0.04
268.83	3.34
269.299	15.14
269.768	1.74
270.236	7.74
270.705	6.04
271.174	12.04
271.642	11.34
272.111	14.84
272.579	19.64
273.048	26.94
273.516	29.24
273.985	25.04
274.453	27.14
274.922	19.64
275.39	12.24
275.858	0.84
276.327	13.64
276.795	26.64
277.263	11.44
277.731	31.44
278.2	54.74
278.668	66.04
279.136	47.64
279.604	25.84
280.072	12.94
280.54	17.34
281.008	12.34
281.477	14.94
281.945	17.24
282.413	18.04
282.881	17.04
283.348	10.94
283.816	16.44
284.284	15.74
284.752	26.84
285.22	15.44
285.688	18.54
286.156	22.34
286.623	51.74
287.091	55.14
287.559	28.64
288.026	19.14
288.494	15.34
288.962	9.24
289.429	9.34
289.897	17.94
290.364	18.24
290.832	22.94
291.3	12.84
291.767	21.84
292.234	25.04
292.702	17.74
293.169	15.94
293.637	27.84
294.104	26.54
294.571	7.74
295.039	18.04
295.506	18.04
295.973	15.74
296.44	21.14
296.908	19.74
297.375	19.34
297.842	23.54
298.309	24.54
298.776	15.24
299.243	18.94
299.71	13.04
300.177	21.44
300.644	21.24
301.111	23.64
301.578	18.84
302.045	14.54
302.512	26.64
302.979	32.14
303.446	23.34
303.913	24.64
304.379	17.34
304.846	26.04
305.313	21.64
305.78	24.34
306.246	27.24
306.713	25.94
307.18	25.34
307.646	28.34
308.113	34.94
308.579	29.14
309.046	26.74
309.512	27.34
309.979	23.94
310.445	32.54
310.912	24.74
311.378	32.14
311.845	29.24
312.311	31.94
312.777	27.14
313.244	30.64
313.71	40.44
314.176	36.74
314.642	33.44
315.109	34.14
315.575	36.94
316.041	43.14
316.507	38.34
316.973	44.34
317.439	42.54
317.905	40.84
318.371	39.14
318.837	34.24
319.303	31.24
319.769	34.44
320.235	30.54
320.701	33.34
321.167	40.94
321.633	39.54
322.099	40.24
322.564	46.84
323.03	38.84
323.496	40.74
323.962	39.14
324.427	37.84
324.893	39.74
325.359	43.54
325.824	37.54
326.29	30.84
326.755	36.64
327.221	39.84
327.686	37.64
328.152	49.34
328.617	41.74
329.083	53.64
329.548	60.44
330.014	48.24
330.479	39.34
330.944	47.04
331.41	42.34
331.875	45.14
332.34	48.74
332.805	45.94
333.271	50.14
333.736	50.84
334.201	53.94
334.666	52.54
335.131	59.44
335.596	56.74
336.061	46.74
336.526	42.84
336.991	53.44
337.456	62.14
337.921	54.64
338.386	48.94
338.851	51.14
339.316	45.54
339.781	47.54
340.246	54.14
340.711	51.14
341.175	50.14
341.64	54.64
342.105	51.24
342.569	48.74
343.034	57.74
343.499	62.74
343.963	59.34
344.428	63.14
344.893	61.14
345.357	60.84
345.822	57.64
346.286	73.64
346.751	80.94
347.215	72.94
347.679	80.34
348.144	99.34
348.608	85.34
349.073	66.84
349.537	76.74
350.001	78.24
350.465	88.44
350.93	82.14
351.394	80.34
351.858	77.74
352.322	87.64
352.786	83.54
353.25	100.44
353.715	109.54
354.179	106.34
354.643	123.84
355.107	127.24
355.571	109.84
356.035	113.24
356.498	111.14
356.962	121.74
357.426	134.04
357.89	115.54
358.354	96.24
358.818	79.24
359.281	79.74
359.745	71.84
360.209	83.44
360.673	73.54
361.136	81.64
361.6	85.44
362.064	84.94
362.527	83.04
362.991	90.74
363.454	83.14
363.918	71.74
364.381	77.64
364.845	82.84
365.308	87.74
365.772	87.04
366.235	81.74
366.698	84.34
367.162	85.54
367.625	91.84
368.088	83.44
368.552	96.04
369.015	86.34
369.478	100.04
369.941	104.54
370.404	91.44
370.867	98.54
371.331	106.94
371.794	111.34
372.257	109.64
372.72	114.14
373.183	115.44
373.646	105.54
374.109	105.04
374.572	106.64
375.035	107.54
375.497	111.94
375.96	104.44
376.423	101.34
376.886	109.54
377.349	106.94
377.811	99.14
378.274	103.14
378.737	104.04
379.199	114.94
379.662	118.34
380.125	119.34
380.587	115.24
381.05	124.44
381.512	123.44
381.975	130.04
382.437	125.34
382.9	121.24
383.362	129.44
383.825	140.04
384.287	149.44
384.75	139.74
385.212	136.54
385.674	140.74
386.136	140.14
386.599	126.34
387.061	124.04
387.523	127.64
387.985	135.64
388.447	144.64
388.91	143.04
389.372	146.84
389.834	147.84
390.296	142.74
390.758	151.64
391.22	165.04
391.682	201.44
392.144	288.54
392.606	221.44
393.068	161.44
393.529	166.94
393.991	154.24
394.453	149.84
394.915	159.04
395.377	184.94
395.838	205.94
396.3	150.34
396.762	140.24
397.224	128.84
397.685	121.64
398.147	131.74
398.608	125.64
399.07	127.44
399.531	136.54
399.993	136.64
400.454	149.64
400.916	145.74
401.377	143.64
401.839	145.24
402.3	147.84
402.762	157.34
403.223	176.04
403.684	168.74
404.145	147.74
404.607	160.14
405.068	158.64
405.529	172.64
405.99	187.24
406.451	171.34
406.913	166.64
407.374	159.14
407.835	154.14
408.296	163.14
408.757	167.94
409.218	183.14
409.679	173.04
410.14	168.44
410.601	167.94
411.062	181.74
411.522	185.84
411.983	184.44
412.444	169.94
412.905	172.64
413.366	180.04
413.826	186.34
414.287	205.34
414.748	258.94
415.208	236.94
415.669	206.34
416.13	195.84
416.59	196.04
417.051	208.84
417.511	214.04
417.972	232.74
418.432	239.04
418.893	284.44
419.353	243.34
419.814	184.14
420.274	178.04
420.734	174.74
421.195	186.94
421.655	189.44
422.115	185.54
422.576	181.64
423.036	190.54
423.496	197.04
423.956	203.64
424.416	225.64
424.876	259.54
425.336	260.04
425.797	249.44
426.257	248.34
426.717	229.74
427.177	224.74
427.637	217.44
428.097	234.24
428.556	239.64
429.016	254.94
429.476	252.64
429.936	263.74
430.396	265.74
430.856	280.24
431.315	306.24
431.775	339.04
432.235	371.54
432.694	336.64
433.154	339.34
433.614	381.34
434.073	319.14
434.533	276.64
434.993	262.04
435.452	274.44
435.912	283.34
436.371	282.64
436.83	267.34
437.29	260.64
437.749	237.34
438.209	240.94
438.668	266.94
439.127	275.84
439.587	258.24
440.046	237.74
440.505	255.34
440.964	268.04
441.424	317.34
441.883	302.74
442.342	254.04
442.801	215.34
443.26	208.94
443.719	210.34
444.178	209.74
444.637	203.74
445.096	213.14
445.555	216.64
446.014	213.64
446.473	220.84
446.932	219.04
447.391	214.24
447.849	223.84
448.308	213.04
448.767	215.34
449.226	230.34
449.685	229.54
450.143	239.44
450.602	227.04
451.061	218.84
451.519	217.64
451.978	226.64
452.436	227.04
452.895	239.44
453.353	245.44
453.812	229.44
454.27	237.44
454.729	229.24
455.187	226.74
455.646	235.04
456.104	237.34
456.562	248.44
457.021	262.84
457.479	254.34
457.937	263.44
458.395	260.64
458.854	244.74
459.312	247.04
459.77	263.14
460.228	246.34
460.686	227.04
461.144	241.54
461.602	237.54
462.06	238.04
462.518	240.34
462.976	236.94
463.434	243.04
463.892	247.94
464.35	260.44
464.808	282.04
465.266	257.74
465.724	264.94
466.181	268.44
466.639	270.74
467.097	277.14
467.555	284.74
468.012	287.44
468.47	299.84
468.928	321.14
469.385	335.14
469.843	332.14
470.3	339.64
470.758	342.54
471.215	377.04
471.673	396.94
472.13	386.44
472.588	404.94
473.045	353.94
473.503	367.34
473.96	384.34
474.417	390.34
474.875	417.64
475.332	462.24
475.789	447.04
476.246	454.04
476.704	473.84
477.161	492.04
477.618	512.74
478.075	541.24
478.532	589.74
478.989	672.94
479.446	780.04
479.903	753.04
480.36	792.24
480.817	846.54
481.274	934.54
481.731	1036.34
482.188	1141.64
482.645	1266.94
483.102	1373.84
483.558	1511.14
484.015	1558.94
484.472	1544.84
484.929	1481.04
485.385	1431.44
485.842	1400.04
486.299	1327.04
486.755	1263.64
487.212	1068.04
487.668	898.84
488.125	827.84
488.582	753.44
489.038	735.64
489.494	696.04
489.951	668.14
490.407	649.84
490.864	638.34
491.32	629.04
491.776	617.54
492.233	630.34
492.689	594.44
493.145	589.34
493.602	577.04
494.058	593.14
494.514	596.04
494.97	624.84
495.426	639.64
495.882	609.74
496.338	598.84
496.794	606.34
497.251	615.54
497.707	623.94
498.163	621.44
498.618	629.34
499.074	637.64
499.53	660.54
499.986	657.14
500.442	638.44
500.898	618.44
501.354	603.14
501.809	616.54
502.265	623.64
502.721	636.74
503.177	646.04
503.632	640.44
504.088	653.04
504.543	690.84
504.999	689.04
505.455	638.84
505.91	607.64
506.366	618.54
506.821	600.44
507.277	598.14
507.732	601.04
508.187	608.04
508.643	611.64
509.098	615.34
509.553	638.74
510.009	647.24
510.464	648.74
510.919	675.64
511.375	673.44
511.83	691.74
512.285	709.74
512.74	748.14
513.195	765.94
513.65	751.74
514.105	740.84
514.56	754.64
515.015	765.24
515.47	796.54
515.925	768.74
516.38	777.64
516.835	772.14
517.29	778.34
517.745	756.04
518.2	748.44
518.655	728.34
519.109	727.74
519.564	721.44
520.019	710.54
520.474	712.74
520.928	706.54
521.383	698.24
521.838	695.04
522.292	693.04
522.747	690.64
523.201	678.74
523.656	672.64
524.11	669.74
524.565	670.94
525.019	664.74
525.474	679.64
525.928	674.64
526.382	670.94
526.837	666.54
527.291	680.24
527.745	678.14
528.2	671.54
528.654	669.04
529.108	660.64
529.562	674.14
530.016	669.94
530.47	670.94
530.925	673.74
531.379	677.54
531.833	682.04
532.287	684.04
532.741	686.94
533.195	683.84
533.649	695.14
534.103	699.44
534.556	695.84
535.01	701.04
535.464	695.74
535.918	707.04
536.372	706.64
536.826	701.34
537.279	685.64
537.733	683.44
538.187	697.84
538.64	693.94
539.094	696.94
539.548	708.94
540.001	707.34
540.455	701.04
540.908	711.64
541.362	708.34
541.815	714.44
542.269	725.34
542.722	730.44
543.175	738.44
543.629	742.64
544.082	760.74
544.536	756.74
544.989	755.64
545.442	762.24
545.895	763.14
546.349	755.94
546.802	761.84
547.255	761.44
547.708	776.44
548.161	777.34
548.614	802.24
549.067	802.74
549.52	785.14
549.973	778.34
550.426	780.84
550.879	761.54
551.332	770.64
551.785	777.84
552.238	770.54
552.691	778.74
553.144	796.94
553.596	807.14
554.049	826.24
554.502	857.94
554.955	879.84
555.407	874.54
555.86	870.74
556.313	858.14
556.765	846.74
557.218	842.54
557.67	852.64
558.123	843.34
558.576	845.14
559.028	841.74
559.48	851.94
559.933	843.24
560.385	807.44
560.838	779.64
561.29	746.64
561.742	746.84
562.195	725.04
562.647	736.84
563.099	737.94
563.551	742.94
564.004	747.14
564.456	728.44
564.908	724.34
565.36	713.84
565.812	703.64
566.264	692.44
566.716	681.54
567.168	676.34
567.62	684.74
568.072	672.54
568.524	662.14
568.976	651.74
569.428	645.34
569.88	634.14
570.332	647.94
570.784	650.64
571.235	651.54
571.687	658.54
572.139	664.14
572.59	671.94
573.042	674.34
573.494	680.84
573.945	661.74
574.397	654.74
574.849	657.94
575.3	660.04
575.752	648.94
576.203	644.34
576.655	647.54
577.106	634.94
577.557	631.24
578.009	628.94
578.46	628.14
578.912	630.54
579.363	638.64
579.814	631.64
580.265	636.54
580.717	631.84
581.168	630.74
581.619	643.64
582.07	634.54
582.521	636.34
582.972	632.64
583.423	632.34
583.875	642.44
584.326	658.84
584.777	699.44
585.227	776.14
585.678	856.14
586.129	941.74
586.58	1012.84
587.031	1098.94
587.482	1248.84
587.933	1423.14
588.384	1244.94
588.834	915.24
589.285	756.74
589.736	734.84
590.186	726.74
590.637	713.54
591.088	704.64
591.538	695.34
591.989	687.44
592.439	676.44
592.89	672.14
593.34	670.84
593.791	675.34
594.241	656.04
594.692	659.24
595.142	661.64
595.593	652.94
596.043	663.54
596.493	668.04
596.943	662.04
597.394	678.04
597.844	665.84
598.294	686.94
598.744	699.74
599.195	716.44
599.645	747.04
600.095	798.44
600.545	850.94
600.995	906.54
601.445	953.54
601.895	1020.14
602.345	1064.54
602.795	1033.24
603.245	1003.14
603.695	962.44
604.145	889.24
604.594	854.34
605.044	804.44
605.494	743.74
605.944	695.34
606.393	690.04
606.843	672.54
607.293	679.04
607.743	683.74
608.192	688.34
608.642	707.34
609.091	707.24
609.541	717.84
609.99	720.54
610.44	707.94
610.889	663.84
611.339	641.54
611.788	640.34
612.238	647.24
612.687	680.74
613.136	673.14
613.586	691.64
614.035	687.94
614.484	701.34
614.933	707.44
615.383	694.54
615.832	683.44
616.281	666.94
616.73	632.04
617.179	613.24
617.628	597.74
618.077	584.44
618.526	569.64
618.975	567.94
619.424	574.34
619.873	562.14
620.322	571.14
620.771	564.64
621.22	548.94
621.669	553.44
622.118	544.14
622.567	530.94
623.015	524.34
623.464	525.74
623.913	511.94
624.361	518.04
624.81	512.94
625.259	514.64
625.707	514.24
626.156	514.54
626.604	525.14
627.053	514.14
627.501	519.44
627.95	532.74
628.398	531.44
628.847	528.94
629.295	524.34
629.744	530.34
630.192	522.14
630.64	531.74
631.089	521.64
631.537	534.74
631.985	534.04
632.433	547.14
632.881	551.94
633.33	596.14
633.778	578.04
634.226	510.74
634.674	527.44
635.122	527.94
635.57	547.34
636.018	576.04
636.466	531.64
636.914	508.24
637.362	523.64
637.81	531.04
638.258	530.94
638.705	525.24
639.153	563.64
639.601	561.84
640.049	584.24
640.497	621.34
640.944	637.54
641.392	589.24
641.84	552.44
642.287	525.94
642.735	512.74
643.182	523.64
643.63	523.44
644.078	526.64
644.525	539.64
644.973	542.84
645.42	542.84
645.867	571.84
646.315	585.14
646.762	611.14
647.21	628.34
647.657	650.54
648.104	685.04
648.551	701.54
648.999	755.04
649.446	827.44
649.893	914.34
650.34	1048.14
650.787	1251.74
651.234	1560.34
651.682	2030.84
652.129	2751.54
652.576	3960.64
653.023	5852.64
653.47	8082.54
653.917	10212.14
654.363	11930.74
654.81	13332.44
655.257	12652.24
655.704	8254.14
656.151	4862.84
656.598	3144.24
657.044	2225.14
657.491	1701.24
657.938	1368.04
658.385	1145.04
658.831	996.34
659.278	874.04
659.724	775.84
660.171	721.44
660.618	652.24
661.064	623.24
661.511	605.64
661.957	594.34
662.404	580.04
662.85	584.14
663.296	561.94
663.743	515.04
664.189	484.34
664.635	482.34
665.082	478.94
665.528	477.04
665.974	474.24
666.42	469.04
666.867	458.14
667.313	440.74
667.759	436.74
668.205	433.34
668.651	440.84
669.097	434.14
669.543	456.44
669.989	423.94
670.435	408.84
670.881	405.74
671.327	407.84
671.773	418.74
672.219	434.74
672.665	490.94
673.11	511.34
673.556	565.44
674.002	596.04
674.448	593.74
674.893	492.54
675.339	430.94
675.785	402.14
676.23	373.54
676.676	356.54
677.122	341.54
677.567	336.84
678.013	327.24
678.458	314.34
678.904	323.84
679.349	315.14
679.794	314.44
680.24	309.54
680.685	318.14
681.131	312.04
681.576	314.64
682.021	315.64
682.466	313.14
682.912	304.84
683.357	315.84
683.802	339.24
684.247	362.04
684.692	402.44
685.137	442.84
685.583	482.34
686.028	502.84
686.473	465.64
686.918	396.34
687.363	366.94
687.807	350.74
688.252	320.94
688.697	319.04
689.142	309.14
689.587	294.44
690.032	289.74
690.477	308.54
690.921	312.04
691.366	343.34
691.811	358.14
692.255	387.24
692.7	415.24
693.145	440.24
693.589	612.94
694.034	984.24
694.478	1378.34
694.923	1571.34
695.367	2065.94
695.812	1085.24
696.256	443.04
696.701	339.34
697.145	305.74
697.59	293.64
698.034	280.94
698.478	298.24
698.922	292.74
699.367	296.94
699.811	297.64
700.255	319.34
700.699	343.54
701.143	373.94
701.588	420.34
702.032	462.34
702.476	463.44
702.92	431.64
703.364	429.64
703.808	542.74
704.252	902.14
704.696	1278.74
705.14	1506.24
705.584	1926.24
706.027	954.84
706.471	466.94
706.915	359.54
707.359	318.04
707.803	291.04
708.246	274.64
708.69	279.24
709.134	279.64
709.577	275.14
710.021	280.14
710.465	269.94
710.908	269.24
711.352	270.24
711.795	276.64
712.239	301.94
712.682	346.14
713.126	367.44
713.569	416.54
714.012	332.04
714.456	291.04
714.899	272.54
715.342	238.14
715.786	229.14
716.229	233.34
716.672	236.24
717.115	223.44
717.558	217.34
718.002	219.04
718.445	233.34
718.888	257.54
719.331	266.24
719.774	270.84
720.217	268.34
720.66	248.74
721.103	237.94
721.546	227.34
721.989	227.04
722.432	203.94
722.874	211.14
723.317	202.24
723.76	208.44
724.203	228.64
724.645	279.44
725.088	395.94
725.531	507.44
725.974	577.84
726.416	495.54
726.859	272.64
727.301	212.24
727.744	212.34
728.187	205.04
728.629	207.54
729.071	220.74
729.514	224.84
729.956	239.14
730.399	247.84
730.841	258.94
731.283	241.84
731.726	241.34
732.168	230.84
732.61	233.14
733.053	254.74
733.495	275.34
733.937	310.84
734.379	346.74
734.821	386.04
735.263	480.54
735.705	710.04
736.148	1362.34
736.59	2273.74
737.032	2778.94
737.474	2248.24
737.916	714.84
738.357	379.14
738.799	291.44
739.241	263.84
739.683	249.84
740.125	257.14
740.567	264.84
741.008	282.44
741.45	277.64
741.892	287.24
742.334	313.24
742.775	320.34
743.217	300.54
743.658	234.44
744.1	218.24
744.542	222.14
744.983	278.24
745.425	311.24
745.866	303.84
746.307	248.14
746.749	254.54
747.19	284.64
747.632	393.04
748.073	754.84
748.514	1600.24
748.956	2527.74
749.397	3146.34
749.838	2621.84
750.279	2696.94
750.72	1350.84
751.162	477.94
751.603	278.34
752.044	218.24
752.485	181.14
752.926	186.74
753.367	177.64
753.808	166.34
754.249	172.14
754.69	165.34
755.131	158.34
755.572	161.14
756.013	154.04
756.453	160.94
756.894	168.94
757.335	167.94
757.776	173.94
758.216	174.64
758.657	167.74
759.098	178.64
759.538	198.64
759.979	232.94
760.42	320.34
760.86	598.04
761.301	1549.74
761.741	3830.94
762.182	5874.34
762.622	4125.34
