Data from 20171114-ORNL-Ar_H_NY_Subt18_08-03-57-695.txt Node
Date: Tue Nov 14 08:03:57 EST 2017
User: Ender
Spectrometer: HR+D1039
Trigger mode: 0
Integration Time (sec): 2.730000E-2
Scans to average: 10
Electric dark correction enabled: true
Nonlinearity correction enabled: false
Boxcar width: 0
XAxis mode: Wavelengths
Number of Pixels in Spectrum: 2048
>>>>>Begin Spectral Data<<<<<
187.836	-4.66
188.309	-4.66
188.782	-4.66
189.255	4.64
189.728	-7.06
190.201	6.34
190.674	1.94
191.147	3.64
191.619	-6.66
192.092	1.34
192.565	5.64
193.038	0.54
193.511	-1.56
193.984	-2.06
194.456	-2.26
194.929	-1.06
195.402	-4.06
195.874	5.24
196.347	2.54
196.82	-4.36
197.292	9.34
197.765	-2.76
198.237	-6.96
198.71	3.14
199.182	-3.86
199.655	-0.46
200.127	0.14
200.6	-0.96
201.072	3.04
201.544	-10.46
202.017	-2.76
202.489	5.84
202.961	-0.06
203.433	0.94
203.906	-13.66
204.378	-0.56
204.85	-2.36
205.322	-8.96
205.794	1.14
206.266	-2.56
206.739	-11.96
207.211	-0.46
207.683	-10.46
208.155	-11.06
208.627	-7.86
209.099	-1.56
209.57	-8.76
210.042	-3.26
210.514	-1.56
210.986	-0.06
211.458	-8.56
211.93	-7.26
212.402	-0.16
212.873	-8.86
213.345	-4.36
213.817	-9.36
214.288	-4.76
214.76	-13.56
215.232	-3.16
215.703	-4.06
216.175	-9.46
216.646	-3.26
217.118	-4.36
217.589	-0.36
218.061	-2.56
218.532	-1.96
219.004	-4.86
219.475	-10.36
219.946	-0.36
220.418	-7.26
220.889	0.34
221.36	3.84
221.832	-7.96
222.303	-7.26
222.774	-2.16
223.245	-5.26
223.717	-8.06
224.188	-2.06
224.659	-6.96
225.13	-3.16
225.601	1.24
226.072	3.04
226.543	-2.06
227.014	-1.86
227.485	2.44
227.956	-10.06
228.427	-2.76
228.898	3.64
229.369	9.64
229.839	-5.66
230.31	-5.96
230.781	2.24
231.252	-7.56
231.722	-5.36
232.193	-6.16
232.664	-0.06
233.135	0.74
233.605	-2.26
234.076	-3.96
234.546	-1.86
235.017	5.94
235.487	-0.26
235.958	-3.06
236.428	-8.56
236.899	-1.76
237.369	-3.16
237.84	-8.66
238.31	-2.06
238.78	-7.26
239.251	-8.56
239.721	-2.56
240.191	-1.76
240.662	-6.96
241.132	-3.66
241.602	1.04
242.072	1.74
242.542	0.84
243.013	-4.06
243.483	3.84
243.953	2.84
244.423	-3.16
244.893	-6.36
245.363	-0.86
245.833	-0.36
246.303	-4.76
246.773	4.14
247.243	-2.66
247.712	-1.26
248.182	-3.46
248.652	0.34
249.122	-4.86
249.592	-4.56
250.061	1.94
250.531	13.64
251.001	0.54
251.471	5.54
251.94	4.94
252.41	-1.16
252.879	-5.66
253.349	4.64
253.818	6.34
254.288	-4.26
254.757	-1.76
255.227	-7.16
255.696	2.74
256.166	0.44
256.635	-1.26
257.105	1.94
257.574	-3.06
258.043	3.24
258.513	-4.76
258.982	4.94
259.451	-0.06
259.92	7.14
260.389	4.64
260.859	6.24
261.328	-1.26
261.797	2.44
262.266	0.54
262.735	4.44
263.204	2.04
263.673	-2.06
264.142	1.24
264.611	-6.76
265.08	-2.36
265.549	-7.26
266.018	-4.06
266.487	-3.16
266.955	-7.46
267.424	0.74
267.893	-0.16
268.362	0.54
268.83	-4.36
269.299	3.94
269.768	0.94
270.236	-2.26
270.705	-2.06
271.174	0.04
271.642	4.24
272.111	2.04
272.579	4.24
273.048	1.34
273.516	-4.76
273.985	2.64
274.453	7.84
274.922	11.34
275.39	0.54
275.858	-2.26
276.327	5.44
276.795	15.24
277.263	-3.16
277.731	10.34
278.2	8.54
278.668	5.74
279.136	9.84
279.604	-9.56
280.072	4.64
280.54	1.44
281.008	0.54
281.477	6.14
281.945	7.24
282.413	11.04
282.881	14.04
283.348	4.04
283.816	9.34
284.284	7.34
284.752	14.34
285.22	4.54
285.688	9.84
286.156	4.94
286.623	10.04
287.091	4.24
287.559	7.44
288.026	8.74
288.494	5.84
288.962	2.14
289.429	4.44
289.897	15.04
290.364	7.04
290.832	13.34
291.3	14.84
291.767	11.84
292.234	16.54
292.702	11.04
293.169	8.74
293.637	13.14
294.104	6.84
294.571	-1.06
295.039	3.44
295.506	7.54
295.973	8.74
296.44	9.04
296.908	13.74
297.375	0.14
297.842	18.34
298.309	8.04
298.776	3.44
299.243	13.14
299.71	9.74
300.177	14.24
300.644	14.64
301.111	5.54
301.578	12.74
302.045	10.34
302.512	17.14
302.979	20.94
303.446	19.34
303.913	10.84
304.379	13.44
304.846	22.94
305.313	14.64
305.78	10.84
306.246	15.44
306.713	21.24
307.18	14.24
307.646	18.04
308.113	18.34
308.579	19.64
309.046	19.84
309.512	25.24
309.979	12.64
310.445	20.34
310.912	13.44
311.378	26.24
311.845	20.84
312.311	23.94
312.777	23.94
313.244	22.64
313.71	25.44
314.176	18.04
314.642	28.24
315.109	25.74
315.575	19.44
316.041	29.24
316.507	22.64
316.973	22.74
317.439	17.24
317.905	24.94
318.371	19.24
318.837	22.54
319.303	25.74
319.769	27.34
320.235	25.84
320.701	26.44
321.167	31.84
321.633	20.54
322.099	28.84
322.564	36.54
323.03	33.74
323.496	27.44
323.962	24.14
324.427	26.24
324.893	30.24
325.359	30.24
325.824	22.34
326.29	25.24
326.755	36.84
327.221	31.74
327.686	28.74
328.152	36.74
328.617	28.54
329.083	40.44
329.548	41.54
330.014	36.54
330.479	27.54
330.944	33.14
331.41	34.14
331.875	34.04
332.34	29.54
332.805	33.94
333.271	37.84
333.736	28.24
334.201	44.24
334.666	44.74
335.131	35.74
335.596	38.24
336.061	43.44
336.526	33.34
336.991	42.04
337.456	47.84
337.921	35.94
338.386	41.24
338.851	37.94
339.316	43.84
339.781	39.94
340.246	45.04
340.711	46.24
341.175	46.54
341.64	33.04
342.105	44.74
342.569	52.04
343.034	48.54
343.499	47.74
343.963	41.74
344.428	55.14
344.893	50.94
345.357	51.14
345.822	50.44
346.286	54.34
346.751	61.24
347.215	60.24
347.679	51.34
348.144	79.44
348.608	66.84
349.073	56.74
349.537	55.94
350.001	57.94
350.465	77.74
350.93	63.54
351.394	66.94
351.858	57.54
352.322	69.54
352.786	67.04
353.25	78.94
353.715	92.34
354.179	86.44
354.643	93.84
355.107	90.34
355.571	87.64
356.035	76.24
356.498	85.74
356.962	92.94
357.426	92.14
357.89	88.04
358.354	79.14
358.818	69.04
359.281	66.84
359.745	65.64
360.209	69.14
360.673	60.34
361.136	72.64
361.6	72.74
362.064	75.64
362.527	75.94
362.991	83.04
363.454	76.34
363.918	69.14
364.381	74.74
364.845	76.84
365.308	70.34
365.772	76.84
366.235	81.94
366.698	74.44
367.162	78.04
367.625	80.84
368.088	78.24
368.552	78.84
369.015	76.44
369.478	80.34
369.941	84.04
370.404	79.24
370.867	85.84
371.331	88.24
371.794	92.74
372.257	87.54
372.72	100.34
373.183	87.84
373.646	88.64
374.109	88.44
374.572	97.74
375.035	91.94
375.497	96.24
375.96	97.34
376.423	96.54
376.886	105.54
377.349	97.54
377.811	90.24
378.274	87.44
378.737	93.24
379.199	96.14
379.662	95.64
380.125	103.34
380.587	91.94
381.05	97.24
381.512	107.34
381.975	112.44
382.437	104.84
382.9	103.54
383.362	114.94
383.825	119.04
384.287	113.74
384.75	105.04
385.212	119.74
385.674	115.94
386.136	121.94
386.599	114.04
387.061	116.54
387.523	112.54
387.985	122.44
388.447	116.54
388.91	116.14
389.372	126.24
389.834	122.04
390.296	123.54
390.758	113.24
391.22	127.04
391.682	137.54
392.144	133.14
392.606	133.94
393.068	124.14
393.529	137.34
393.991	132.94
394.453	126.84
394.915	129.64
395.377	122.24
395.838	128.14
396.3	125.64
396.762	136.24
397.224	126.94
397.685	126.34
398.147	126.24
398.608	127.44
399.07	130.44
399.531	130.34
399.993	135.04
400.454	147.44
400.916	143.54
401.377	149.34
401.839	150.44
402.3	140.44
402.762	157.34
403.223	166.94
403.684	157.94
404.145	149.14
404.607	152.24
405.068	150.84
405.529	155.84
405.99	173.04
406.451	155.54
406.913	164.04
407.374	160.94
407.835	151.34
408.296	158.74
408.757	165.54
409.218	174.84
409.679	169.54
410.14	165.44
410.601	161.34
411.062	167.84
411.522	176.14
411.983	169.64
412.444	166.44
412.905	172.04
413.366	178.24
413.826	186.64
414.287	210.84
414.748	266.04
415.208	243.44
415.669	208.94
416.13	204.64
416.59	201.44
417.051	213.14
417.511	212.14
417.972	244.44
418.432	252.24
418.893	280.84
419.353	247.14
419.814	195.14
420.274	180.34
420.734	175.44
421.195	185.44
421.655	174.14
422.115	185.54
422.576	192.64
423.036	186.54
423.496	208.04
423.956	212.44
424.416	223.64
424.876	256.84
425.336	247.84
425.797	248.74
426.257	245.54
426.717	229.84
427.177	221.34
427.637	216.74
428.097	221.14
428.556	242.54
429.016	259.74
429.476	251.14
429.936	256.54
430.396	262.54
430.856	261.94
431.315	281.24
431.775	310.04
432.235	348.34
432.694	315.64
433.154	324.94
433.614	344.64
434.073	304.74
434.533	263.24
434.993	250.44
435.452	258.64
435.912	260.74
436.371	252.94
436.83	251.64
437.29	246.84
437.749	229.14
438.209	227.54
438.668	246.44
439.127	251.54
439.587	243.44
440.046	232.14
440.505	245.74
440.964	247.74
441.424	276.24
441.883	275.44
442.342	242.94
442.801	219.44
443.26	216.34
443.719	216.24
444.178	207.84
444.637	206.14
445.096	219.04
445.555	220.64
446.014	218.24
446.473	219.54
446.932	220.44
447.391	218.34
447.849	216.74
448.308	214.34
448.767	222.14
449.226	232.44
449.685	232.44
450.143	244.94
450.602	227.94
451.061	222.64
451.519	222.94
451.978	227.64
452.436	221.64
452.895	231.34
453.353	232.74
453.812	218.54
454.27	227.74
454.729	222.84
455.187	232.74
455.646	222.54
456.104	236.34
456.562	242.74
457.021	244.94
457.479	230.84
457.937	246.54
458.395	249.24
458.854	235.24
459.312	236.94
459.77	249.04
460.228	242.54
460.686	231.54
461.144	235.74
461.602	241.04
462.06	233.24
462.518	243.14
462.976	236.44
463.434	242.14
463.892	248.24
464.35	258.74
464.808	271.24
465.266	260.34
465.724	263.54
466.181	265.44
466.639	260.64
467.097	275.64
467.555	280.14
468.012	290.44
468.47	288.94
468.928	305.34
469.385	317.54
469.843	317.84
470.3	325.84
470.758	338.54
471.215	347.94
471.673	368.34
472.13	363.84
472.588	374.24
473.045	346.04
473.503	358.34
473.96	371.74
474.417	385.74
474.875	402.24
475.332	426.74
475.789	418.74
476.246	430.84
476.704	443.04
477.161	455.04
477.618	472.54
478.075	502.84
478.532	552.84
478.989	607.24
479.446	674.14
479.903	671.54
480.36	719.54
480.817	742.04
481.274	834.34
481.731	911.64
482.188	985.44
482.645	1087.74
483.102	1165.04
483.558	1263.74
484.015	1325.04
484.472	1310.14
484.929	1267.14
485.385	1227.24
485.842	1210.44
486.299	1159.04
486.755	1100.94
487.212	952.24
487.668	833.24
488.125	763.64
488.582	703.94
489.038	674.24
489.494	649.74
489.951	629.14
490.407	604.74
490.864	587.74
491.32	588.94
491.776	584.04
492.233	589.84
492.689	553.24
493.145	552.34
493.602	544.84
494.058	560.24
494.514	560.34
494.97	566.84
495.426	575.74
495.882	559.14
496.338	553.24
496.794	565.94
497.251	547.04
497.707	562.24
498.163	570.64
498.618	577.84
499.074	576.64
499.53	594.84
499.986	590.94
500.442	566.74
500.898	563.24
501.354	560.04
501.809	558.04
502.265	562.84
502.721	574.74
503.177	575.64
503.632	574.24
504.088	585.94
504.543	594.14
504.999	608.94
505.455	581.84
505.91	583.54
506.366	582.44
506.821	579.74
507.277	573.24
507.732	572.24
508.187	570.24
508.643	589.54
509.098	581.24
509.553	598.44
510.009	613.04
510.464	601.94
510.919	627.24
511.375	634.94
511.83	634.04
512.285	651.04
512.74	681.24
513.195	677.74
513.65	680.74
514.105	680.64
514.56	684.14
515.015	705.84
515.47	705.04
515.925	697.54
516.38	700.94
516.835	713.34
517.29	697.64
517.745	687.04
518.2	690.04
518.655	674.34
519.109	670.74
519.564	657.24
520.019	646.24
520.474	647.54
520.928	642.84
521.383	637.24
521.838	629.74
522.292	644.54
522.747	642.84
523.201	628.34
523.656	621.74
524.11	620.34
524.565	612.34
525.019	611.24
525.474	626.44
525.928	626.34
526.382	614.04
526.837	618.84
527.291	622.34
527.745	614.94
528.2	614.44
528.654	607.34
529.108	601.74
529.562	609.94
530.016	613.24
530.47	597.04
530.925	598.94
531.379	607.04
531.833	618.04
532.287	608.64
532.741	605.54
533.195	601.74
533.649	618.34
534.103	618.14
534.556	613.24
535.01	622.74
535.464	601.64
535.918	613.14
536.372	616.24
536.826	623.54
537.279	617.24
537.733	615.74
538.187	613.34
538.64	613.74
539.094	625.04
539.548	628.64
540.001	617.54
540.455	623.34
540.908	631.84
541.362	637.94
541.815	641.94
542.269	653.84
542.722	654.64
543.175	664.64
543.629	657.44
544.082	682.54
544.536	680.04
544.989	678.64
545.442	690.34
545.895	676.44
546.349	676.14
546.802	677.24
547.255	685.54
547.708	687.44
548.161	693.14
548.614	691.04
549.067	717.04
549.52	706.04
549.973	694.34
550.426	689.24
550.879	675.64
551.332	678.24
551.785	681.14
552.238	681.14
552.691	690.74
553.144	707.04
553.596	716.24
554.049	725.54
554.502	750.14
554.955	770.74
555.407	758.44
555.86	750.74
556.313	752.74
556.765	730.94
557.218	735.14
557.67	736.94
558.123	738.94
558.576	721.94
559.028	724.84
559.48	738.64
559.933	736.34
560.385	701.64
560.838	682.04
561.29	666.14
561.742	663.84
562.195	649.64
562.647	648.24
563.099	650.14
563.551	650.04
564.004	654.54
564.456	633.34
564.908	624.24
565.36	619.94
565.812	591.64
566.264	605.24
566.716	591.84
567.168	572.34
567.62	581.84
568.072	561.64
568.524	572.24
568.976	571.54
569.428	548.84
569.88	561.64
570.332	558.34
570.784	556.64
571.235	566.24
571.687	571.74
572.139	578.54
572.59	588.34
573.042	586.44
573.494	572.04
573.945	577.34
574.397	567.24
574.849	568.04
575.3	558.54
575.752	556.24
576.203	550.04
576.655	553.44
577.106	537.74
577.557	541.54
578.009	543.54
578.46	540.84
578.912	534.14
579.363	540.34
579.814	541.34
580.265	536.14
580.717	533.14
581.168	533.04
581.619	539.44
582.07	551.64
582.521	541.04
582.972	534.74
583.423	538.04
583.875	536.44
584.326	542.54
584.777	553.14
585.227	566.94
585.678	578.54
586.129	592.24
586.58	611.94
587.031	618.04
587.482	652.94
587.933	670.74
588.384	651.94
588.834	627.24
589.285	609.64
589.736	624.24
590.186	607.44
590.637	600.64
591.088	594.34
591.538	589.74
591.989	587.84
592.439	571.84
592.89	565.94
593.34	553.24
593.791	562.04
594.241	541.94
594.692	559.84
595.142	537.04
595.593	542.64
596.043	539.44
596.493	557.54
596.943	550.44
597.394	554.54
597.844	550.74
598.294	567.44
598.744	599.94
599.195	611.74
599.645	648.94
600.095	659.84
600.545	706.34
600.995	746.84
601.445	785.34
601.895	839.24
602.345	885.34
602.795	864.54
603.245	835.84
603.695	788.44
604.145	751.04
604.594	717.64
605.044	676.54
605.494	622.44
605.944	586.94
606.393	573.54
606.843	562.54
607.293	562.64
607.743	557.54
608.192	569.34
608.642	580.04
609.091	570.04
609.541	573.04
609.99	579.24
610.44	583.44
610.889	539.54
611.339	523.64
611.788	513.24
612.238	529.14
612.687	533.74
613.136	525.54
613.586	546.64
614.035	531.74
614.484	542.74
614.933	538.74
615.383	544.54
615.832	531.74
616.281	526.94
616.73	504.14
617.179	493.34
617.628	485.94
618.077	480.04
618.526	470.24
618.975	471.44
619.424	474.94
619.873	465.74
620.322	466.24
620.771	451.74
621.22	455.14
621.669	446.04
622.118	445.34
622.567	430.44
623.015	425.94
623.464	435.24
623.913	421.04
624.361	418.34
624.81	408.84
625.259	415.64
625.707	419.44
626.156	419.44
626.604	421.04
627.053	425.04
627.501	419.14
627.95	424.24
628.398	429.34
628.847	432.24
629.295	424.34
629.744	434.74
630.192	427.84
630.64	420.14
631.089	415.74
631.537	405.84
631.985	390.84
632.433	394.34
632.881	388.24
633.33	400.34
633.778	381.94
634.226	388.84
634.674	397.94
635.122	399.04
635.57	405.24
636.018	411.04
636.466	419.04
636.914	411.04
637.362	426.54
637.81	428.64
638.258	432.34
638.705	426.44
639.153	447.34
639.601	449.84
640.049	465.34
640.497	498.54
640.944	518.04
641.392	471.04
641.84	448.54
642.287	428.34
642.735	417.94
643.182	416.54
643.63	415.04
644.078	417.24
644.525	422.34
644.973	432.04
645.42	427.54
645.867	445.14
646.315	454.94
646.762	476.54
647.21	499.94
647.657	515.04
648.104	529.84
648.551	539.34
648.999	588.14
649.446	631.14
649.893	681.84
650.34	769.74
650.787	927.14
651.234	1130.24
651.682	1437.34
652.129	1933.94
652.576	2716.04
653.023	3977.64
653.47	5513.94
653.917	6956.84
654.363	8179.64
654.81	9233.64
655.257	8782.94
655.704	5832.64
656.151	3454.44
656.598	2265.14
657.044	1613.44
657.491	1258.64
657.938	1027.34
658.385	849.54
658.831	744.84
659.278	674.24
659.724	590.04
660.171	542.14
660.618	496.04
661.064	475.94
661.511	462.14
661.957	459.14
662.404	433.64
662.85	448.64
663.296	427.64
663.743	409.54
664.189	393.04
664.635	386.14
665.082	373.44
665.528	374.94
665.974	369.44
666.42	367.64
666.867	362.84
667.313	330.84
667.759	336.24
668.205	328.84
668.651	325.54
669.097	324.74
669.543	312.44
669.989	312.74
670.435	315.64
670.881	329.14
671.327	322.24
671.773	345.54
672.219	353.14
672.665	398.54
673.11	427.84
673.556	460.54
674.002	498.84
674.448	484.54
674.893	400.74
675.339	344.64
675.785	318.14
676.23	309.54
676.676	282.24
677.122	275.34
677.567	267.64
678.013	266.24
678.458	254.44
678.904	257.64
679.349	250.04
679.794	248.54
680.24	254.74
680.685	252.84
681.131	248.74
681.576	254.34
682.021	252.64
682.466	249.94
682.912	250.84
683.357	239.84
683.802	270.54
684.247	288.84
684.692	320.64
685.137	350.74
685.583	390.74
686.028	398.54
686.473	384.24
686.918	325.04
687.363	308.04
687.807	278.94
688.252	258.44
688.697	257.24
689.142	240.04
689.587	241.64
690.032	229.74
690.477	241.74
690.921	246.04
691.366	270.84
691.811	280.84
692.255	307.74
692.7	330.24
693.145	354.34
693.589	480.94
694.034	781.34
694.478	1106.74
694.923	1285.44
695.367	1729.04
695.812	899.84
696.256	364.24
696.701	267.04
697.145	247.04
697.59	236.74
698.034	221.74
698.478	233.14
698.922	232.34
699.367	231.44
699.811	239.94
700.255	248.24
700.699	272.44
701.143	298.04
701.588	330.74
702.032	369.84
702.476	365.54
702.92	359.04
703.364	354.34
703.808	446.24
704.252	709.64
704.696	1035.44
705.14	1236.44
705.584	1602.74
706.027	788.74
706.471	386.14
706.915	285.94
707.359	256.74
707.803	228.44
708.246	221.44
708.69	228.14
709.134	228.74
709.577	221.74
710.021	227.24
710.465	218.14
710.908	214.34
711.352	213.84
711.795	217.14
712.239	248.24
712.682	267.54
713.126	292.64
713.569	323.24
714.012	266.64
714.456	221.44
714.899	203.64
715.342	188.14
715.786	181.64
716.229	183.34
716.672	184.74
717.115	173.74
717.558	176.84
718.002	181.04
718.445	182.14
718.888	199.14
719.331	206.64
719.774	220.34
720.217	216.84
720.66	201.24
721.103	197.34
721.546	183.14
721.989	171.34
722.432	157.54
722.874	171.04
723.317	162.74
723.76	158.94
724.203	182.44
724.645	220.24
725.088	310.84
725.531	406.34
725.974	476.54
726.416	401.24
726.859	219.24
727.301	182.44
727.744	169.04
728.187	163.94
728.629	172.44
729.071	170.04
729.514	186.34
729.956	192.54
730.399	198.94
730.841	205.74
731.283	187.34
731.726	187.84
732.168	184.04
732.61	190.54
733.053	198.54
733.495	221.54
733.937	251.54
734.379	279.34
734.821	303.94
735.263	380.94
735.705	576.04
736.148	1096.74
736.59	1845.34
737.032	2317.74
737.474	1902.94
737.916	601.04
738.357	308.14
738.799	232.54
739.241	217.64
739.683	201.84
740.125	207.04
740.567	213.94
741.008	237.84
741.45	238.34
741.892	225.74
742.334	252.64
742.775	266.54
743.217	257.04
743.658	196.64
744.1	180.54
744.542	189.64
744.983	233.24
745.425	261.84
745.866	263.04
746.307	199.74
746.749	196.24
747.19	222.64
747.632	319.04
748.073	593.44
748.514	1291.64
748.956	2076.94
749.397	2615.54
749.838	2175.14
750.279	2236.94
750.72	1139.44
751.162	413.44
751.603	231.64
752.044	187.64
752.485	156.44
752.926	146.94
753.367	149.54
753.808	137.44
754.249	139.64
754.69	129.24
755.131	126.64
755.572	128.24
756.013	128.54
756.453	130.94
756.894	131.64
757.335	132.44
757.776	139.74
758.216	140.24
758.657	136.14
759.098	139.24
759.538	155.54
759.979	180.84
760.42	255.84
760.86	493.54
761.301	1267.74
761.741	3181.94
762.182	5007.44
762.622	3566.64
763.063	1002.74
763.503	393.04
763.943	240.54
764.384	201.84
