Data from 20171114-ORNL-Ar_H_NY_Subt18_08-07-34-710.txt Node
Date: Tue Nov 14 08:07:34 EST 2017
User: Ender
Spectrometer: HR+D1039
Trigger mode: 0
Integration Time (sec): 2.730000E-2
Scans to average: 10
Electric dark correction enabled: true
Nonlinearity correction enabled: false
Boxcar width: 0
XAxis mode: Wavelengths
Number of Pixels in Spectrum: 2048
>>>>>Begin Spectral Data<<<<<
187.836	-5.76
188.309	-5.76
188.782	-5.76
189.255	-2.06
189.728	-0.06
190.201	5.74
190.674	0.04
191.147	5.04
191.619	-7.46
192.092	5.04
192.565	5.54
193.038	-2.26
193.511	-1.76
193.984	2.94
194.456	-2.46
194.929	-0.66
195.402	-1.66
195.874	-0.26
196.347	-6.76
196.82	-2.26
197.292	3.44
197.765	-5.26
198.237	-5.46
198.71	6.34
199.182	2.84
199.655	5.14
200.127	2.84
200.6	5.24
201.072	0.94
201.544	-3.26
202.017	-5.56
202.489	2.84
202.961	1.44
203.433	-5.16
203.906	-6.46
204.378	-5.56
204.85	-4.56
205.322	-7.66
205.794	1.64
206.266	-4.66
206.739	-12.26
207.211	1.64
207.683	-6.76
208.155	-2.46
208.627	-8.96
209.099	-2.06
209.57	-9.06
210.042	-6.16
210.514	-5.36
210.986	0.14
211.458	-13.76
211.93	-2.66
212.402	3.14
212.873	-11.66
213.345	-5.36
213.817	-12.26
214.288	0.04
214.76	-7.06
215.232	-5.56
215.703	-5.26
216.175	-2.86
216.646	0.14
217.118	-0.96
217.589	-3.96
218.061	-2.56
218.532	-2.86
219.004	-3.86
219.475	-0.66
219.946	-2.86
220.418	-1.56
220.889	4.64
221.36	2.44
221.832	-2.66
222.303	-6.76
222.774	-0.46
223.245	-9.96
223.717	-3.76
224.188	-6.16
224.659	-3.76
225.13	-7.36
225.601	-4.46
226.072	-2.66
226.543	-1.06
227.014	-4.66
227.485	-5.66
227.956	-7.86
228.427	-0.36
228.898	0.24
229.369	5.84
229.839	1.54
230.31	-10.86
230.781	-1.26
231.252	-3.66
231.722	-3.76
232.193	-1.16
232.664	2.04
233.135	4.94
233.605	0.64
234.076	-4.36
234.546	0.24
235.017	1.24
235.487	0.84
235.958	-1.16
236.428	-0.56
236.899	4.34
237.369	5.44
237.84	-3.46
238.31	10.14
238.78	2.34
239.251	1.34
239.721	2.84
240.191	0.34
240.662	2.14
241.132	-2.26
241.602	-1.76
242.072	2.24
242.542	5.24
243.013	1.04
243.483	-0.36
243.953	3.24
244.423	-1.96
244.893	-4.06
245.363	2.54
245.833	3.94
246.303	0.14
246.773	2.84
247.243	1.04
247.712	1.54
248.182	9.34
248.652	-1.16
249.122	-4.96
249.592	6.04
250.061	12.64
250.531	26.14
251.001	13.14
251.471	17.94
251.94	15.74
252.41	-0.26
252.879	-5.76
253.349	9.04
253.818	7.34
254.288	1.94
254.757	-1.36
255.227	1.14
255.696	-1.16
256.166	6.44
256.635	9.54
257.105	8.74
257.574	9.74
258.043	4.04
258.513	9.54
258.982	10.04
259.451	-1.16
259.92	14.64
260.389	12.54
260.859	12.94
261.328	10.74
261.797	13.04
262.266	4.44
262.735	10.74
263.204	5.34
263.673	4.54
264.142	8.24
264.611	-0.26
265.08	0.84
265.549	2.84
266.018	3.24
266.487	1.54
266.955	-3.56
267.424	4.14
267.893	4.34
268.362	-3.06
268.83	5.54
269.299	10.34
269.768	10.34
270.236	0.14
270.705	-0.16
271.174	7.84
271.642	3.14
272.111	10.44
272.579	14.94
273.048	22.94
273.516	21.34
273.985	21.34
274.453	15.84
274.922	14.04
275.39	9.24
275.858	1.64
276.327	13.14
276.795	12.14
277.263	8.54
277.731	25.64
278.2	49.74
278.668	44.34
279.136	38.34
279.604	13.74
280.072	14.94
280.54	5.44
281.008	11.64
281.477	8.74
281.945	11.04
282.413	10.54
282.881	8.64
283.348	0.54
283.816	5.84
284.284	9.44
284.752	18.14
285.22	10.64
285.688	13.84
286.156	17.44
286.623	36.34
287.091	42.74
287.559	24.34
288.026	11.24
288.494	13.04
288.962	-0.76
289.429	9.44
289.897	12.54
290.364	13.54
290.832	12.24
291.3	7.04
291.767	16.94
292.234	15.54
292.702	13.24
293.169	15.94
293.637	15.64
294.104	15.44
294.571	-1.16
295.039	12.64
295.506	7.94
295.973	11.74
296.44	13.24
296.908	14.04
297.375	11.34
297.842	11.64
298.309	15.04
298.776	5.14
299.243	17.34
299.71	8.64
300.177	13.04
300.644	11.74
301.111	11.64
301.578	22.84
302.045	14.64
302.512	22.24
302.979	21.74
303.446	15.64
303.913	13.14
304.379	14.04
304.846	20.54
305.313	16.74
305.78	18.44
306.246	19.54
306.713	23.54
307.18	24.14
307.646	21.64
308.113	21.84
308.579	23.14
309.046	21.24
309.512	15.44
309.979	14.14
310.445	20.94
310.912	24.24
311.378	29.14
311.845	25.94
312.311	25.94
312.777	20.64
313.244	19.64
313.71	29.94
314.176	21.64
314.642	27.74
315.109	25.74
315.575	27.24
316.041	33.84
316.507	24.54
316.973	32.94
317.439	28.84
317.905	33.14
318.371	29.04
318.837	27.44
319.303	21.14
319.769	27.34
320.235	31.94
320.701	31.04
321.167	27.04
321.633	22.14
322.099	29.34
322.564	41.24
323.03	30.14
323.496	32.24
323.962	32.34
324.427	28.24
324.893	35.94
325.359	28.64
325.824	30.54
326.29	26.94
326.755	29.84
327.221	33.84
327.686	35.44
328.152	38.64
328.617	33.24
329.083	43.74
329.548	43.24
330.014	37.34
330.479	38.84
330.944	35.24
331.41	43.64
331.875	36.64
332.34	33.64
332.805	32.24
333.271	39.84
333.736	43.44
334.201	47.14
334.666	42.04
335.131	47.34
335.596	42.34
336.061	35.14
336.526	30.54
336.991	41.24
337.456	53.14
337.921	44.14
338.386	36.14
338.851	34.34
339.316	41.04
339.781	38.64
340.246	46.74
340.711	34.94
341.175	45.44
341.64	39.74
342.105	43.34
342.569	43.34
343.034	48.54
343.499	43.94
343.963	39.74
344.428	56.34
344.893	55.14
345.357	55.34
345.822	51.84
346.286	54.14
346.751	60.84
347.215	54.24
347.679	61.54
348.144	72.14
348.608	65.54
349.073	55.84
349.537	60.94
350.001	64.24
350.465	73.24
350.93	73.44
351.394	76.34
351.858	64.14
352.322	83.44
352.786	73.94
353.25	88.14
353.715	95.94
354.179	85.04
354.643	107.54
355.107	107.54
355.571	89.24
356.035	83.34
356.498	100.84
356.962	105.04
357.426	106.24
357.89	95.74
358.354	76.54
358.818	73.54
359.281	69.24
359.745	66.34
360.209	70.54
360.673	65.34
361.136	74.34
361.6	73.54
362.064	72.84
362.527	79.04
362.991	80.34
363.454	69.94
363.918	67.14
364.381	76.34
364.845	70.44
365.308	70.74
365.772	76.24
366.235	77.14
366.698	74.44
367.162	79.44
367.625	75.14
368.088	86.14
368.552	73.64
369.015	77.34
369.478	90.54
369.941	92.94
370.404	82.54
370.867	95.14
371.331	95.04
371.794	101.84
372.257	100.24
372.72	101.94
373.183	95.74
373.646	87.44
374.109	91.34
374.572	101.54
375.035	94.64
375.497	93.34
375.96	93.64
376.423	94.44
376.886	99.74
377.349	104.24
377.811	90.94
378.274	99.54
378.737	96.64
379.199	107.14
379.662	104.84
380.125	103.34
380.587	104.24
381.05	116.04
381.512	121.24
381.975	117.54
382.437	118.34
382.9	113.64
383.362	120.94
383.825	127.84
384.287	137.44
384.75	133.34
385.212	131.74
385.674	124.34
386.136	127.44
386.599	112.04
387.061	117.84
387.523	118.04
387.985	123.94
388.447	139.84
388.91	133.84
389.372	146.54
389.834	138.94
390.296	136.14
390.758	143.44
391.22	159.24
391.682	198.64
392.144	269.74
392.606	210.54
393.068	161.94
393.529	153.74
393.991	141.94
394.453	138.64
394.915	142.34
395.377	182.24
395.838	198.34
396.3	142.84
396.762	131.64
397.224	125.54
397.685	121.04
398.147	118.64
398.608	118.64
399.07	120.14
399.531	123.74
399.993	130.44
400.454	139.84
400.916	135.54
401.377	139.74
401.839	144.74
402.3	148.14
402.762	162.44
403.223	165.74
403.684	155.24
404.145	145.54
404.607	149.04
405.068	155.34
405.529	157.34
405.99	169.64
406.451	156.94
406.913	155.44
407.374	156.34
407.835	150.84
408.296	156.14
408.757	157.04
409.218	173.64
409.679	168.04
410.14	166.54
410.601	165.74
411.062	170.34
411.522	178.74
411.983	178.34
412.444	166.04
412.905	165.34
413.366	166.94
413.826	183.54
414.287	204.84
414.748	244.54
415.208	237.84
415.669	196.34
416.13	193.44
416.59	191.94
417.051	196.24
417.511	203.44
417.972	217.24
418.432	232.44
418.893	265.74
419.353	240.84
419.814	189.24
420.274	171.04
420.734	170.94
421.195	183.84
421.655	185.84
422.115	188.64
422.576	183.24
423.036	177.64
423.496	196.84
423.956	201.14
424.416	209.34
424.876	241.44
425.336	251.04
425.797	248.44
426.257	245.44
426.717	228.44
427.177	219.44
427.637	211.94
428.097	227.64
428.556	234.44
429.016	254.34
429.476	256.64
429.936	261.14
430.396	271.24
430.856	278.44
431.315	299.94
431.775	333.74
432.235	364.34
432.694	337.34
433.154	345.74
433.614	368.54
434.073	316.64
434.533	273.64
434.993	266.04
435.452	268.34
435.912	278.54
436.371	269.94
436.83	268.14
437.29	255.14
437.749	229.84
438.209	234.04
438.668	262.74
439.127	274.14
439.587	248.74
440.046	232.34
440.505	245.44
440.964	259.44
441.424	300.64
441.883	291.64
442.342	241.14
442.801	211.54
443.26	211.34
443.719	213.74
444.178	210.04
444.637	203.94
445.096	214.94
445.555	214.64
446.014	218.34
446.473	218.44
446.932	221.64
447.391	218.44
447.849	221.24
448.308	209.94
448.767	214.34
449.226	223.24
449.685	232.14
450.143	241.04
450.602	225.04
451.061	215.84
451.519	214.94
451.978	219.74
452.436	227.64
452.895	227.94
453.353	237.04
453.812	233.24
454.27	234.04
454.729	230.44
455.187	230.04
455.646	230.14
456.104	234.64
456.562	248.94
457.021	259.34
457.479	247.54
457.937	262.94
458.395	253.04
458.854	238.54
459.312	245.04
459.77	257.94
460.228	245.04
460.686	234.04
461.144	236.94
461.602	228.64
462.06	230.74
462.518	245.94
462.976	242.14
463.434	245.34
463.892	256.24
464.35	271.74
464.808	280.54
465.266	261.24
465.724	258.04
466.181	265.54
466.639	260.34
467.097	274.44
467.555	288.24
468.012	296.54
468.47	293.94
468.928	313.34
469.385	331.14
469.843	331.64
470.3	341.94
470.758	353.44
471.215	378.44
471.673	389.54
472.13	395.74
472.588	406.04
473.045	365.84
473.503	370.74
473.96	387.64
474.417	387.74
474.875	415.54
475.332	459.14
475.789	447.14
476.246	453.94
476.704	466.24
477.161	490.04
477.618	502.04
478.075	542.44
478.532	597.64
478.989	660.34
479.446	774.74
479.903	738.04
480.36	778.84
480.817	825.84
481.274	928.84
481.731	1018.24
482.188	1102.14
482.645	1238.34
483.102	1351.74
483.558	1478.84
484.015	1523.94
484.472	1495.84
484.929	1449.04
485.385	1407.84
485.842	1364.84
486.299	1305.04
486.755	1249.14
487.212	1049.64
487.668	894.64
488.125	810.24
488.582	752.74
489.038	720.04
489.494	683.94
489.951	655.24
490.407	635.04
490.864	630.04
491.32	611.64
491.776	619.14
492.233	624.24
492.689	589.94
493.145	580.44
493.602	577.54
494.058	593.54
494.514	601.44
494.97	623.84
495.426	630.24
495.882	604.14
496.338	596.74
496.794	594.84
497.251	600.24
497.707	612.44
498.163	610.94
498.618	613.24
499.074	615.34
499.53	639.24
499.986	657.14
500.442	630.44
500.898	614.84
501.354	597.14
501.809	625.64
502.265	622.54
502.721	640.14
503.177	652.94
503.632	635.94
504.088	658.74
504.543	689.74
504.999	686.94
505.455	620.54
505.91	614.14
506.366	609.64
506.821	599.14
507.277	602.54
507.732	606.74
508.187	616.84
508.643	615.14
509.098	619.44
509.553	633.84
510.009	640.34
510.464	649.34
510.919	667.24
511.375	674.34
511.83	677.14
512.285	703.84
512.74	733.14
513.195	760.94
513.65	740.54
514.105	746.94
514.56	743.84
515.015	773.44
515.47	784.34
515.925	767.04
516.38	763.24
516.835	762.94
517.29	754.44
517.745	754.54
518.2	741.54
518.655	733.84
519.109	718.14
519.564	720.94
520.019	704.84
520.474	698.74
520.928	703.44
521.383	700.74
521.838	691.54
522.292	686.14
522.747	693.94
523.201	682.24
523.656	674.74
524.11	671.74
524.565	672.14
525.019	664.84
525.474	675.44
525.928	679.24
526.382	671.14
526.837	673.44
527.291	684.44
527.745	682.44
528.2	684.74
528.654	673.24
529.108	671.44
529.562	667.04
530.016	669.04
530.47	675.84
530.925	671.44
531.379	678.64
531.833	689.64
532.287	685.54
532.741	686.34
533.195	688.74
533.649	696.84
534.103	703.94
534.556	692.64
535.01	682.34
535.464	680.04
535.918	696.54
536.372	701.84
536.826	703.14
537.279	686.74
537.733	700.64
538.187	698.24
538.64	697.44
539.094	704.24
539.548	708.64
540.001	705.14
540.455	698.94
540.908	714.04
541.362	712.84
541.815	732.74
542.269	739.04
542.722	735.24
543.175	746.34
543.629	749.14
544.082	775.24
544.536	771.24
544.989	763.74
545.442	778.84
545.895	771.24
546.349	769.74
546.802	761.74
547.255	779.54
547.708	784.44
548.161	795.84
548.614	797.74
549.067	807.14
549.52	794.04
549.973	801.14
550.426	794.64
550.879	782.64
551.332	779.84
551.785	788.94
552.238	781.84
552.691	796.44
553.144	807.44
553.596	820.64
554.049	835.94
554.502	874.64
554.955	884.44
555.407	880.14
555.86	885.04
556.313	862.64
556.765	869.64
557.218	862.84
557.67	865.34
558.123	852.54
558.576	851.04
559.028	866.24
559.48	861.84
559.933	861.64
560.385	817.64
560.838	788.34
561.29	767.14
561.742	768.94
562.195	750.14
562.647	746.64
563.099	756.04
563.551	746.24
564.004	768.74
564.456	756.14
564.908	739.14
565.36	731.44
565.812	724.84
566.264	714.54
566.716	703.44
567.168	693.94
567.62	713.14
568.072	696.84
568.524	684.14
568.976	686.64
569.428	665.34
569.88	664.14
570.332	668.24
570.784	674.64
571.235	672.14
571.687	685.24
572.139	693.14
572.59	699.64
573.042	705.64
573.494	695.44
573.945	686.34
574.397	669.44
574.849	685.14
575.3	678.54
575.752	665.04
576.203	667.94
576.655	675.14
577.106	642.14
577.557	656.04
578.009	656.74
578.46	657.04
578.912	657.14
579.363	650.04
579.814	656.94
580.265	658.34
580.717	660.04
581.168	657.04
581.619	668.94
582.07	673.84
582.521	659.64
582.972	660.44
583.423	661.34
583.875	670.64
584.326	690.84
584.777	733.74
585.227	805.54
585.678	894.14
586.129	968.54
586.58	1028.14
587.031	1115.14
587.482	1256.64
587.933	1444.54
588.384	1241.24
588.834	948.34
589.285	795.94
589.736	770.54
590.186	755.44
590.637	753.44
591.088	730.34
591.538	725.24
591.989	717.34
592.439	725.94
592.89	709.24
593.34	700.54
593.791	701.14
594.241	694.34
594.692	698.34
595.142	686.04
595.593	685.64
596.043	689.64
596.493	703.84
596.943	698.64
597.394	715.94
597.844	695.24
598.294	719.44
598.744	750.54
599.195	773.04
599.645	809.84
600.095	853.74
600.545	899.54
600.995	948.14
601.445	1007.74
601.895	1067.64
602.345	1117.14
602.795	1092.14
603.245	1045.84
603.695	993.24
604.145	931.34
604.594	897.44
605.044	846.64
605.494	794.24
605.944	732.44
606.393	729.84
606.843	712.04
607.293	721.34
607.743	720.14
608.192	726.74
608.642	741.24
609.091	749.24
609.541	761.94
609.99	751.24
610.44	756.34
610.889	711.04
611.339	690.94
611.788	675.74
612.238	682.64
612.687	714.64
613.136	708.64
613.586	727.44
614.035	728.44
614.484	740.34
614.933	742.34
615.383	737.14
615.832	726.64
616.281	716.24
616.73	675.64
617.179	656.34
617.628	629.54
618.077	626.04
618.526	624.14
618.975	615.34
619.424	612.64
619.873	613.34
620.322	607.14
620.771	597.64
621.22	588.04
621.669	588.74
622.118	570.54
622.567	574.04
623.015	557.24
623.464	557.34
623.913	548.14
624.361	544.74
624.81	543.84
625.259	540.64
625.707	546.84
626.156	540.54
626.604	562.34
627.053	540.24
627.501	555.84
627.95	566.44
628.398	581.84
628.847	560.44
629.295	564.04
629.744	565.84
630.192	561.24
630.64	559.84
631.089	553.64
631.537	568.94
631.985	576.14
632.433	590.94
632.881	594.74
633.33	650.94
633.778	637.44
634.226	559.94
634.674	570.24
635.122	566.84
635.57	590.84
636.018	616.24
636.466	569.04
636.914	550.54
637.362	566.94
637.81	567.34
638.258	574.84
638.705	573.34
639.153	601.54
639.601	609.94
640.049	629.24
640.497	656.94
640.944	678.54
641.392	638.94
641.84	601.74
642.287	572.44
642.735	561.64
643.182	559.14
643.63	565.54
644.078	564.14
644.525	584.64
644.973	586.44
645.42	593.94
645.867	630.34
646.315	618.34
646.762	653.74
647.21	687.34
647.657	702.94
648.104	733.64
648.551	760.14
648.999	837.54
649.446	905.34
649.893	995.84
650.34	1150.24
650.787	1369.44
651.234	1704.14
651.682	2232.64
652.129	3072.74
652.576	4386.34
653.023	6495.94
653.47	8880.34
653.917	11017.84
654.363	12700.14
654.81	14017.74
655.257	13301.64
655.704	8673.54
656.151	5119.34
656.598	3330.04
657.044	2369.64
657.491	1819.64
657.938	1452.64
658.385	1211.74
658.831	1050.94
659.278	943.04
659.724	836.54
660.171	775.14
660.618	705.44
661.064	682.44
661.511	657.54
661.957	653.34
662.404	631.24
662.85	647.64
663.296	619.84
663.743	557.44
664.189	528.44
664.635	527.74
665.082	524.54
665.528	530.64
665.974	515.44
666.42	507.14
666.867	502.14
667.313	486.24
667.759	471.64
668.205	469.64
668.651	473.94
669.097	471.34
669.543	491.54
669.989	463.44
670.435	439.14
670.881	441.64
671.327	446.54
671.773	460.84
672.219	484.64
672.665	534.54
673.11	575.04
673.556	617.74
674.002	662.34
674.448	645.94
674.893	537.04
675.339	463.94
675.785	433.24
676.23	411.24
676.676	386.14
677.122	378.54
677.567	362.14
678.013	364.94
678.458	349.84
678.904	360.14
679.349	342.14
679.794	354.34
680.24	349.44
680.685	353.24
681.131	345.04
681.576	345.54
682.021	351.44
682.466	338.74
682.912	352.14
683.357	348.64
683.802	378.04
684.247	396.34
684.692	442.94
685.137	491.54
685.583	536.44
686.028	558.94
686.473	514.94
686.918	435.54
687.363	411.64
687.807	395.74
688.252	362.14
688.697	357.94
689.142	328.34
689.587	333.64
690.032	325.84
690.477	332.04
690.921	351.94
691.366	378.04
691.811	396.44
692.255	419.04
692.7	458.94
693.145	496.34
693.589	696.84
694.034	1126.84
694.478	1521.44
694.923	1706.44
695.367	2213.84
695.812	1172.54
696.256	491.04
696.701	361.14
697.145	330.34
697.59	327.54
698.034	322.44
698.478	326.74
698.922	323.94
699.367	329.54
699.811	336.54
700.255	354.04
700.699	385.84
701.143	423.84
701.588	467.44
702.032	507.64
702.476	508.64
702.92	479.84
703.364	483.74
703.808	646.44
704.252	1029.14
704.696	1435.54
705.14	1652.64
705.584	2075.04
706.027	1049.44
706.471	517.44
706.915	391.14
707.359	340.54
707.803	315.84
708.246	307.04
708.69	310.84
709.134	308.54
709.577	311.04
710.021	313.14
710.465	311.24
710.908	295.04
711.352	287.84
711.795	308.64
712.239	351.74
712.682	382.04
713.126	411.64
713.569	461.54
714.012	366.74
714.456	317.24
714.899	296.04
715.342	268.24
715.786	257.44
716.229	257.34
716.672	248.24
717.115	250.44
717.558	238.34
718.002	245.74
718.445	256.74
718.888	282.44
719.331	285.94
719.774	299.04
720.217	292.34
720.66	277.94
721.103	265.64
721.546	250.74
721.989	242.94
722.432	222.84
722.874	228.04
723.317	226.44
723.76	234.24
724.203	258.64
724.645	311.64
725.088	443.24
725.531	560.84
725.974	626.44
726.416	531.34
726.859	307.14
727.301	248.34
727.744	244.84
728.187	232.34
728.629	242.64
729.071	241.44
729.514	249.94
729.956	273.84
730.399	284.44
730.841	283.04
731.283	283.74
731.726	265.94
732.168	255.34
732.61	263.54
733.053	280.04
733.495	317.44
733.937	350.54
734.379	388.04
734.821	436.94
735.263	543.84
735.705	839.14
736.148	1571.84
736.59	2533.34
737.032	2971.54
737.474	2436.44
737.916	795.84
738.357	422.94
738.799	324.44
739.241	292.44
739.683	280.04
740.125	287.34
740.567	293.94
741.008	309.14
741.45	312.04
741.892	316.54
742.334	341.24
742.775	355.44
743.217	335.34
743.658	268.44
744.1	252.94
744.542	260.54
744.983	305.94
745.425	334.74
745.866	340.54
746.307	277.44
746.749	270.14
747.19	317.34
747.632	464.84
748.073	891.04
748.514	1859.64
748.956	2824.34
749.397	3528.14
749.838	2922.54
750.279	2902.24
750.72	1472.64
751.162	539.14
751.603	316.44
752.044	245.34
752.485	212.04
752.926	208.44
753.367	199.24
753.808	190.04
754.249	184.74
754.69	181.34
755.131	177.64
755.572	178.44
756.013	176.54
756.453	185.14
756.894	191.34
757.335	192.94
757.776	197.64
758.216	196.14
758.657	192.14
759.098	208.44
759.538	229.64
759.979	268.04
760.42	377.44
760.86	714.54
761.301	1831.34
761.741	4414.74
762.182	6288.14
762.622	4432.54
763.063	1293.54
