Data from 20171114-ORNL-Ar_H_NY_Subt18_08-08-31-490.txt Node
Date: Tue Nov 14 08:08:31 EST 2017
User: Ender
Spectrometer: HR+D1039
Trigger mode: 0
Integration Time (sec): 2.730000E-2
Scans to average: 10
Electric dark correction enabled: true
Nonlinearity correction enabled: false
Boxcar width: 0
XAxis mode: Wavelengths
Number of Pixels in Spectrum: 2048
>>>>>Begin Spectral Data<<<<<
187.836	1.26
188.309	1.26
188.782	1.26
189.255	-0.04
189.728	2.06
190.201	1.16
190.674	1.96
191.147	0.96
191.619	-9.44
192.092	-1.84
192.565	6.36
193.038	1.16
193.511	2.06
193.984	0.96
194.456	-3.94
194.929	1.26
195.402	-4.74
195.874	0.76
196.347	-7.04
196.82	-8.64
197.292	7.96
197.765	0.96
198.237	-3.04
198.71	-2.24
199.182	-6.74
199.655	4.76
200.127	5.36
200.6	-1.34
201.072	-6.64
201.544	-0.14
202.017	-4.04
202.489	2.56
202.961	-2.54
203.433	-3.94
203.906	-4.04
204.378	-6.04
204.85	1.26
205.322	-11.94
205.794	-1.04
206.266	-5.94
206.739	-6.34
207.211	1.46
207.683	-4.14
208.155	-6.24
208.627	-11.14
209.099	-7.14
209.57	-9.34
210.042	-7.44
210.514	-5.34
210.986	-9.84
211.458	-13.44
211.93	-4.44
212.402	1.86
212.873	-6.24
213.345	-9.64
213.817	-15.44
214.288	-6.84
214.76	-13.24
215.232	-2.84
215.703	0.26
216.175	-5.74
216.646	-9.64
217.118	-12.04
217.589	-1.14
218.061	-2.64
218.532	-7.34
219.004	-9.94
219.475	-5.44
219.946	-1.94
220.418	0.36
220.889	2.26
221.36	-2.34
221.832	-5.44
222.303	-8.94
222.774	-4.24
223.245	-11.44
223.717	-6.64
224.188	-11.04
224.659	-11.04
225.13	-3.04
225.601	-1.04
226.072	1.16
226.543	0.46
227.014	-0.94
227.485	-6.14
227.956	-3.44
228.427	-7.44
228.898	0.46
229.369	1.86
229.839	-5.64
230.31	-5.64
230.781	3.56
231.252	-2.74
231.722	-7.24
232.193	-2.84
232.664	-4.84
233.135	-3.74
233.605	-2.34
234.076	-7.24
234.546	1.16
235.017	3.06
235.487	3.56
235.958	-1.04
236.428	-3.54
236.899	-1.84
237.369	-4.44
237.84	-9.64
238.31	0.26
238.78	-6.64
239.251	-7.94
239.721	-9.54
240.191	-6.54
240.662	-2.74
241.132	-6.54
241.602	-8.54
242.072	-2.24
242.542	4.36
243.013	1.26
243.483	2.56
243.953	-3.74
244.423	-3.24
244.893	-4.24
245.363	0.16
245.833	3.86
246.303	-2.74
246.773	-0.34
247.243	-2.44
247.712	-2.44
248.182	5.46
248.652	3.46
249.122	-4.94
249.592	4.36
250.061	2.76
250.531	9.36
251.001	-0.94
251.471	2.76
251.94	8.36
252.41	-1.84
252.879	-2.64
253.349	8.16
253.818	6.76
254.288	1.26
254.757	-0.64
255.227	-4.54
255.696	-2.54
256.166	1.26
256.635	3.96
257.105	-0.54
257.574	-0.84
258.043	-6.94
258.513	-3.54
258.982	3.26
259.451	-4.84
259.92	-0.44
260.389	-2.64
260.859	11.76
261.328	1.46
261.797	3.66
262.266	2.36
262.735	6.96
263.204	2.56
263.673	-1.24
264.142	-0.94
264.611	-6.74
265.08	-8.14
265.549	3.06
266.018	2.26
266.487	-2.94
266.955	-5.54
267.424	-4.14
267.893	1.26
268.362	-1.24
268.83	-1.24
269.299	11.46
269.768	2.66
270.236	4.36
270.705	-0.74
271.174	5.36
271.642	4.26
272.111	3.06
272.579	-2.24
273.048	0.56
273.516	8.26
273.985	6.46
274.453	8.86
274.922	9.16
275.39	4.36
275.858	1.16
276.327	4.76
276.795	12.16
277.263	4.36
277.731	15.66
278.2	13.76
278.668	14.26
279.136	12.36
279.604	6.26
280.072	7.06
280.54	5.56
281.008	5.26
281.477	7.76
281.945	6.86
282.413	11.66
282.881	12.26
283.348	7.56
283.816	13.56
284.284	14.86
284.752	17.06
285.22	13.26
285.688	11.26
286.156	11.46
286.623	19.06
287.091	11.36
287.559	19.76
288.026	17.66
288.494	9.46
288.962	-0.94
289.429	5.46
289.897	15.76
290.364	12.56
290.832	10.16
291.3	14.96
291.767	8.56
292.234	16.66
292.702	8.76
293.169	10.26
293.637	19.56
294.104	17.46
294.571	3.06
295.039	1.96
295.506	8.16
295.973	13.76
296.44	12.76
296.908	12.46
297.375	10.46
297.842	17.76
298.309	12.26
298.776	11.06
299.243	19.76
299.71	10.56
300.177	13.56
300.644	25.86
301.111	22.26
301.578	25.06
302.045	10.16
302.512	23.06
302.979	23.86
303.446	26.76
303.913	12.96
304.379	17.36
304.846	20.16
305.313	22.96
305.78	21.46
306.246	23.36
306.713	21.66
307.18	19.86
307.646	22.86
308.113	21.06
308.579	19.66
309.046	21.36
309.512	16.76
309.979	16.86
310.445	24.96
310.912	22.26
311.378	34.06
311.845	28.46
312.311	35.06
312.777	24.46
313.244	30.16
313.71	32.76
314.176	30.16
314.642	21.26
315.109	21.26
315.575	31.56
316.041	34.56
316.507	27.96
316.973	28.36
317.439	32.76
317.905	29.36
318.371	28.56
318.837	33.96
319.303	30.76
319.769	29.56
320.235	32.66
320.701	21.96
321.167	31.06
321.633	29.06
322.099	31.46
322.564	42.66
323.03	29.96
323.496	34.76
323.962	38.36
324.427	26.96
324.893	38.56
325.359	35.96
325.824	30.46
326.29	37.36
326.755	36.56
327.221	38.76
327.686	41.06
328.152	43.96
328.617	40.36
329.083	46.36
329.548	48.66
330.014	41.86
330.479	36.66
330.944	39.76
331.41	38.46
331.875	37.06
332.34	34.86
332.805	33.86
333.271	43.36
333.736	40.16
334.201	50.06
334.666	50.06
335.131	44.16
335.596	44.86
336.061	46.66
336.526	40.06
336.991	44.26
337.456	50.06
337.921	40.86
338.386	41.56
338.851	42.06
339.316	45.76
339.781	43.46
340.246	53.36
340.711	49.76
341.175	49.96
341.64	41.76
342.105	51.76
342.569	52.96
343.034	55.26
343.499	52.36
343.963	53.86
344.428	63.06
344.893	54.06
345.357	57.36
345.822	57.86
346.286	61.46
346.751	69.26
347.215	61.56
347.679	66.26
348.144	94.16
348.608	78.46
349.073	71.76
349.537	68.46
350.001	72.76
350.465	87.56
350.93	87.16
351.394	78.76
351.858	77.86
352.322	84.56
352.786	84.26
353.25	94.56
353.715	105.86
354.179	96.76
354.643	116.76
355.107	118.06
355.571	102.36
356.035	98.96
356.498	110.76
356.962	113.16
357.426	127.96
357.89	115.86
358.354	87.06
358.818	82.56
359.281	78.76
359.745	73.66
360.209	78.36
360.673	66.86
361.136	79.16
361.6	78.76
362.064	86.36
362.527	83.46
362.991	92.76
363.454	82.06
363.918	75.86
364.381	80.76
364.845	84.16
365.308	83.46
365.772	76.96
366.235	90.26
366.698	75.46
367.162	80.96
367.625	81.76
368.088	81.56
368.552	94.66
369.015	83.16
369.478	88.46
369.941	95.16
370.404	84.96
370.867	97.26
371.331	103.16
371.794	109.66
372.257	96.46
372.72	110.46
373.183	103.16
373.646	93.36
374.109	103.86
374.572	97.36
375.035	101.56
375.497	99.36
375.96	104.76
376.423	106.06
376.886	110.26
377.349	109.36
377.811	100.76
378.274	106.16
378.737	99.26
379.199	108.36
379.662	108.36
380.125	116.26
380.587	106.56
381.05	110.06
381.512	110.66
381.975	127.46
382.437	121.36
382.9	125.66
383.362	129.26
383.825	132.26
384.287	125.26
384.75	112.06
385.212	126.96
385.674	134.56
386.136	135.06
386.599	125.26
387.061	124.46
387.523	125.26
387.985	130.96
388.447	132.06
388.91	132.06
389.372	130.96
389.834	130.46
390.296	127.66
390.758	137.16
391.22	140.66
391.682	152.96
392.144	164.26
392.606	153.86
393.068	143.46
393.529	153.06
393.991	137.46
394.453	140.86
394.915	136.36
395.377	137.56
395.838	141.26
396.3	137.36
396.762	151.06
397.224	131.36
397.685	137.06
398.147	134.36
398.608	138.86
399.07	134.86
399.531	141.36
399.993	149.16
400.454	161.26
400.916	151.06
401.377	145.26
401.839	160.06
402.3	158.86
402.762	175.76
403.223	183.66
403.684	178.66
404.145	168.16
404.607	169.46
405.068	165.76
405.529	176.76
405.99	192.06
406.451	175.76
406.913	183.86
407.374	166.56
407.835	169.76
408.296	171.96
408.757	184.86
409.218	191.36
409.679	185.36
410.14	179.16
410.601	179.96
411.062	181.86
411.522	185.16
411.983	185.36
412.444	178.06
412.905	191.86
413.366	199.16
413.826	207.36
414.287	232.06
414.748	281.96
415.208	266.36
415.669	226.66
416.13	216.46
416.59	215.16
417.051	227.76
417.511	234.56
417.972	258.96
418.432	264.56
418.893	304.96
419.353	273.76
419.814	211.66
420.274	195.96
420.734	192.36
421.195	206.76
421.655	201.96
422.115	200.16
422.576	205.76
423.036	208.06
423.496	227.36
423.956	227.56
424.416	247.66
424.876	279.56
425.336	282.06
425.797	278.96
426.257	268.46
426.717	257.36
427.177	241.06
427.637	233.86
428.097	240.76
428.556	249.76
429.016	274.16
429.476	271.76
429.936	281.96
430.396	283.96
430.856	302.76
431.315	324.66
431.775	362.36
432.235	385.86
432.694	363.46
433.154	374.66
433.614	409.96
434.073	350.76
434.533	290.76
434.993	284.06
435.452	296.96
435.912	308.36
436.371	301.96
436.83	296.06
437.29	274.96
437.749	264.76
438.209	264.76
438.668	298.06
439.127	301.36
439.587	276.26
440.046	267.46
440.505	273.66
440.964	292.16
441.424	341.96
441.883	327.46
442.342	272.96
442.801	242.76
443.26	232.76
443.719	232.86
444.178	232.26
444.637	221.36
445.096	237.06
445.555	235.96
446.014	244.66
446.473	245.06
446.932	246.06
447.391	245.26
447.849	241.46
448.308	240.26
448.767	239.76
449.226	252.76
449.685	255.16
450.143	261.26
450.602	256.76
451.061	238.86
451.519	253.66
451.978	250.36
452.436	248.36
452.895	255.66
453.353	276.96
453.812	258.06
454.27	245.56
454.729	253.26
455.187	252.76
455.646	256.86
456.104	267.86
456.562	279.46
457.021	286.16
457.479	275.96
457.937	295.76
458.395	280.66
458.854	262.06
459.312	270.86
459.77	291.36
460.228	277.96
460.686	260.06
461.144	269.36
461.602	268.76
462.06	265.46
462.518	272.66
462.976	277.06
463.434	272.16
463.892	272.76
464.35	293.26
464.808	308.46
465.266	288.66
465.724	290.36
466.181	293.26
466.639	286.16
467.097	318.36
467.555	325.56
468.012	330.96
468.47	330.06
468.928	350.06
469.385	369.56
469.843	367.06
470.3	367.96
470.758	389.86
471.215	405.46
471.673	434.36
472.13	436.86
472.588	447.16
473.045	398.06
473.503	404.46
473.96	420.76
474.417	428.86
474.875	464.16
475.332	501.36
475.789	476.56
476.246	486.36
476.704	508.16
477.161	541.06
477.618	545.96
478.075	580.66
478.532	641.86
478.989	717.36
479.446	837.86
479.903	791.16
480.36	819.76
480.817	859.46
481.274	950.86
481.731	1045.86
482.188	1143.36
482.645	1253.86
483.102	1343.66
483.558	1467.06
484.015	1503.56
484.472	1469.76
484.929	1428.46
485.385	1390.56
485.842	1359.56
486.299	1326.66
486.755	1288.76
487.212	1094.66
487.668	937.96
488.125	863.36
488.582	794.66
489.038	758.06
489.494	727.66
489.951	705.86
490.407	694.36
490.864	664.56
491.32	671.46
491.776	678.36
492.233	684.86
492.689	638.06
493.145	640.36
493.602	635.36
494.058	645.16
494.514	637.66
494.97	663.96
495.426	675.26
495.882	653.26
496.338	631.56
496.794	649.06
497.251	649.76
497.707	650.56
498.163	662.06
498.618	674.46
499.074	675.16
499.53	704.86
499.986	703.76
500.442	668.26
500.898	650.76
501.354	644.56
501.809	653.36
502.265	658.36
502.721	661.46
503.177	672.96
503.632	675.16
504.088	674.06
504.543	692.86
504.999	719.36
505.455	688.16
505.91	670.26
506.366	670.56
506.821	667.96
507.277	670.86
507.732	659.86
508.187	669.06
508.643	686.96
509.098	663.86
509.553	694.46
510.009	702.26
510.464	707.86
510.919	726.36
511.375	726.26
511.83	747.46
512.285	755.66
512.74	782.96
513.195	825.16
513.65	809.96
514.105	802.06
514.56	796.46
515.015	821.46
515.47	843.26
515.925	818.86
516.38	817.76
516.835	821.76
517.29	816.96
517.745	804.86
518.2	794.26
518.655	781.16
519.109	781.56
519.564	774.86
520.019	759.76
520.474	754.06
520.928	769.76
521.383	754.86
521.838	744.16
522.292	746.36
522.747	741.06
523.201	734.06
523.656	737.36
524.11	730.96
524.565	728.46
525.019	721.06
525.474	733.76
525.928	727.56
526.382	723.86
526.837	723.96
527.291	735.16
527.745	730.36
528.2	739.16
528.654	712.16
529.108	722.66
529.562	720.06
530.016	717.46
530.47	722.76
530.925	721.06
531.379	725.56
531.833	731.66
532.287	729.06
532.741	739.66
533.195	738.36
533.649	737.56
534.103	747.66
534.556	738.06
535.01	746.86
535.464	733.66
535.918	751.26
536.372	742.46
536.826	742.76
537.279	731.56
537.733	749.76
538.187	744.36
538.64	753.56
539.094	750.26
539.548	759.76
540.001	749.16
540.455	756.16
540.908	767.46
541.362	775.26
541.815	777.96
542.269	794.76
542.722	792.46
543.175	794.46
543.629	814.76
544.082	835.96
544.536	820.16
544.989	825.76
545.442	841.56
545.895	828.26
546.349	833.16
546.802	835.36
547.255	840.86
547.708	853.86
548.161	854.26
548.614	862.96
549.067	870.16
549.52	861.86
549.973	846.06
550.426	857.46
550.879	837.06
551.332	837.16
551.785	840.86
552.238	839.56
552.691	857.96
553.144	874.46
553.596	881.96
554.049	915.96
554.502	938.56
554.955	944.56
555.407	948.96
555.86	939.86
556.313	933.46
556.765	920.16
557.218	918.16
557.67	914.56
558.123	912.86
558.576	908.46
559.028	920.16
559.48	937.86
559.933	917.16
560.385	884.66
560.838	849.66
561.29	825.76
561.742	826.16
562.195	814.56
562.647	810.36
563.099	826.36
563.551	811.06
564.004	825.86
564.456	805.56
564.908	804.16
565.36	769.26
565.812	762.56
566.264	755.06
566.716	746.16
567.168	741.36
567.62	745.96
568.072	730.76
568.524	733.86
568.976	728.16
569.428	710.46
569.88	712.96
570.332	718.96
570.784	727.96
571.235	718.96
571.687	733.46
572.139	737.46
572.59	745.56
573.042	743.26
573.494	747.16
573.945	743.36
574.397	719.16
574.849	723.96
575.3	728.96
575.752	718.86
576.203	715.56
576.655	721.36
577.106	712.16
577.557	698.66
578.009	706.76
578.46	691.16
578.912	698.66
579.363	696.46
579.814	700.76
580.265	698.96
580.717	692.56
581.168	707.76
581.619	699.26
582.07	710.16
582.521	706.96
582.972	702.66
583.423	706.76
583.875	706.26
584.326	707.46
584.777	731.06
585.227	757.66
585.678	774.36
586.129	789.46
586.58	822.36
587.031	842.86
587.482	889.16
587.933	911.96
588.384	888.06
588.834	833.46
589.285	808.76
589.736	817.16
590.186	806.06
590.637	798.46
591.088	785.76
591.538	771.66
591.989	769.56
592.439	769.86
592.89	743.16
593.34	737.16
593.791	747.06
594.241	730.76
594.692	739.66
595.142	730.26
595.593	725.36
596.043	729.96
596.493	727.06
596.943	731.46
597.394	743.96
597.844	754.96
598.294	764.36
598.744	788.36
599.195	822.56
599.645	859.86
600.095	901.76
600.545	962.06
600.995	1011.46
601.445	1071.86
601.895	1127.96
602.345	1187.06
602.795	1163.36
603.245	1120.56
603.695	1067.76
604.145	1005.26
604.594	953.96
605.044	907.66
605.494	843.76
605.944	788.36
606.393	783.06
606.843	761.96
607.293	771.46
607.743	757.66
608.192	777.66
608.642	787.16
609.091	784.46
609.541	797.76
609.99	801.26
610.44	802.96
610.889	737.76
611.339	737.46
611.788	712.26
612.238	724.16
612.687	737.56
613.136	730.96
613.586	743.96
614.035	726.56
614.484	748.66
614.933	743.56
615.383	743.86
615.832	737.86
616.281	730.86
616.73	701.16
617.179	689.16
617.628	669.96
618.077	661.16
618.526	655.06
618.975	644.96
619.424	646.36
619.873	642.16
620.322	643.56
620.771	633.66
621.22	627.16
621.669	614.46
622.118	615.16
622.567	605.66
623.015	582.76
623.464	593.66
623.913	583.66
624.361	581.86
624.81	575.46
625.259	578.16
625.707	567.16
626.156	582.96
626.604	595.66
627.053	593.96
627.501	582.96
627.95	596.66
628.398	613.36
628.847	595.86
629.295	602.06
629.744	607.66
630.192	581.96
630.64	586.56
631.089	574.36
631.537	571.46
631.985	554.56
632.433	554.36
632.881	547.76
633.33	560.96
633.778	546.56
634.226	548.26
634.674	557.66
635.122	573.16
635.57	566.46
636.018	582.86
636.466	584.36
636.914	580.36
637.362	600.36
637.81	597.06
638.258	602.46
638.705	602.96
639.153	629.46
639.601	652.36
640.049	676.26
640.497	697.86
640.944	730.96
641.392	676.06
641.84	642.36
642.287	605.86
642.735	571.66
643.182	582.26
643.63	580.86
644.078	589.66
644.525	602.36
644.973	601.36
645.42	608.06
645.867	640.86
646.315	662.76
646.762	680.16
647.21	702.06
647.657	719.26
648.104	758.06
648.551	789.16
648.999	842.76
649.446	934.46
649.893	1004.66
650.34	1161.86
650.787	1370.56
651.234	1685.86
651.682	2188.56
652.129	2973.26
652.576	4212.16
653.023	6115.46
653.47	8238.96
653.917	10169.26
654.363	11655.36
654.81	12772.56
655.257	12086.06
655.704	8045.96
656.151	4858.36
656.598	3203.56
657.044	2292.86
657.491	1797.86
657.938	1451.26
658.385	1223.86
658.831	1070.06
659.278	953.26
659.724	840.46
660.171	804.36
660.618	726.46
661.064	695.46
661.511	685.86
661.957	669.66
662.404	657.76
662.85	676.46
663.296	650.46
663.743	574.56
664.189	547.26
664.635	561.76
665.082	545.36
665.528	552.26
665.974	538.66
666.42	532.86
666.867	528.96
667.313	506.56
667.759	481.56
668.205	464.46
668.651	470.36
669.097	466.56
669.543	466.06
669.989	462.66
670.435	465.96
670.881	475.76
671.327	465.26
671.773	498.26
672.219	518.76
672.665	578.06
673.11	614.46
673.556	672.66
674.002	699.96
674.448	683.46
674.893	582.36
675.339	509.06
675.785	466.16
676.23	445.36
676.676	422.26
677.122	405.56
677.567	406.16
678.013	389.76
678.458	378.96
678.904	374.46
679.349	368.66
679.794	374.66
680.24	372.96
680.685	366.96
681.131	355.56
681.576	372.96
682.021	372.26
682.466	372.46
682.912	360.56
683.357	373.26
683.802	396.66
684.247	435.76
684.692	485.66
685.137	529.86
685.583	569.76
686.028	588.66
686.473	547.16
686.918	472.16
687.363	442.36
687.807	412.86
688.252	384.76
688.697	373.06
689.142	357.76
689.587	356.46
690.032	345.16
690.477	370.26
690.921	368.36
691.366	402.76
691.811	415.96
692.255	451.96
692.7	491.56
693.145	537.46
693.589	756.76
694.034	1226.26
694.478	1637.16
694.923	1830.36
695.367	2365.26
695.812	1257.66
696.256	532.76
696.701	392.96
697.145	359.96
697.59	349.76
698.034	327.36
698.478	344.76
698.922	341.76
699.367	340.56
699.811	354.36
700.255	374.66
700.699	407.46
701.143	447.46
701.588	500.76
702.032	533.56
702.476	538.86
702.92	525.36
703.364	526.46
703.808	686.06
704.252	1133.16
704.696	1562.06
705.14	1763.56
705.584	2232.56
706.027	1132.36
706.471	554.96
706.915	423.96
707.359	377.06
707.803	336.96
708.246	331.46
708.69	331.76
709.134	329.96
709.577	327.76
710.021	336.86
710.465	318.06
710.908	313.56
711.352	318.36
711.795	329.66
712.239	374.26
712.682	411.46
713.126	426.96
713.569	472.76
714.012	376.86
714.456	318.56
714.899	303.06
715.342	298.56
715.786	283.66
716.229	275.36
716.672	265.86
717.115	262.06
717.558	261.06
718.002	257.46
718.445	284.76
718.888	296.66
719.331	312.56
719.774	326.26
720.217	325.66
720.66	305.86
721.103	282.86
721.546	269.16
721.989	263.46
722.432	246.16
722.874	239.26
723.317	240.26
723.76	246.46
724.203	269.36
724.645	338.76
725.088	471.86
725.531	608.86
725.974	666.66
726.416	580.16
726.859	321.36
727.301	260.86
727.744	244.26
728.187	244.56
728.629	241.16
729.071	250.56
729.514	274.06
729.956	282.66
730.399	302.76
730.841	304.86
731.283	294.36
731.726	285.16
732.168	278.76
732.61	289.66
733.053	309.26
733.495	342.36
733.937	376.56
734.379	424.96
734.821	461.26
735.263	577.16
735.705	916.66
736.148	1717.26
736.59	2781.66
737.032	3188.86
737.474	2610.36
737.916	863.86
738.357	457.66
738.799	347.36
739.241	318.46
739.683	297.76
740.125	307.26
740.567	314.66
741.008	330.36
741.45	331.06
741.892	333.96
742.334	367.26
742.775	379.66
743.217	361.66
743.658	289.66
744.1	270.66
744.542	284.46
744.983	334.26
745.425	368.06
745.866	362.06
746.307	292.26
746.749	295.16
747.19	346.86
747.632	500.86
748.073	981.56
748.514	2045.76
748.956	3015.06
749.397	3823.66
749.838	3155.76
750.279	3095.16
750.72	1588.96
751.162	589.76
751.603	344.66
752.044	274.06
752.485	228.46
752.926	221.76
753.367	218.86
753.808	204.16
754.249	206.06
754.69	197.66
755.131	197.76
755.572	193.36
756.013	193.46
756.453	196.66
756.894	195.86
757.335	197.46
757.776	205.66
758.216	205.36
758.657	210.86
759.098	220.76
759.538	239.96
759.979	283.26
760.42	405.86
760.86	785.96
761.301	2052.56
761.741	4795.06
762.182	6692.06
762.622	4758.36
