Data from 20171114-ORNL-Ar_H_NY_Subt18_08-06-44-483.txt Node
Date: Tue Nov 14 08:06:44 EST 2017
User: Ender
Spectrometer: HR+D1039
Trigger mode: 0
Integration Time (sec): 2.730000E-2
Scans to average: 10
Electric dark correction enabled: true
Nonlinearity correction enabled: false
Boxcar width: 0
XAxis mode: Wavelengths
Number of Pixels in Spectrum: 2048
>>>>>Begin Spectral Data<<<<<
187.836	-0.9
188.309	-0.9
188.782	-0.9
189.255	1.4
189.728	0.7
190.201	5.5
190.674	4
191.147	-0.4
191.619	-8.4
192.092	2.2
192.565	5.2
193.038	-2
193.511	-5.9
193.984	1.1
194.456	0.4
194.929	-4.2
195.402	2.6
195.874	-1.3
196.347	-5.3
196.82	-7.1
197.292	4.9
197.765	5.1
198.237	-7.8
198.71	1.4
199.182	1.8
199.655	4.6
200.127	5.3
200.6	-2.4
201.072	-1.8
201.544	1.5
202.017	-2.5
202.489	7.1
202.961	-0.8
203.433	-5.6
203.906	-2.7
204.378	-4.4
204.85	-3.1
205.322	-10
205.794	3.2
206.266	2.1
206.739	-3.9
207.211	-2.5
207.683	-2.9
208.155	-3.7
208.627	-4
209.099	-3.1
209.57	-10
210.042	-0.6
210.514	-1.2
210.986	-2.1
211.458	-8.2
211.93	-4.3
212.402	3.1
212.873	-1.5
213.345	-11.8
213.817	-8
214.288	-2.7
214.76	-9.4
215.232	-7.1
215.703	-2.7
216.175	-1
216.646	-2.1
217.118	-4.8
217.589	-0.1
218.061	0.5
218.532	-6.4
219.004	0.1
219.475	-0.6
219.946	-2.6
220.418	-2.3
220.889	2.6
221.36	5.5
221.832	-2.6
222.303	-8.3
222.774	1.5
223.245	-6.1
223.717	-2.5
224.188	-10.7
224.659	-4.9
225.13	-8.2
225.601	-2.8
226.072	0.4
226.543	1
227.014	-2.8
227.485	-6.1
227.956	-4.7
228.427	-3.9
228.898	6.3
229.369	4.7
229.839	-3.9
230.31	-8
230.781	-1.1
231.252	-1.3
231.722	-11.6
232.193	-3.5
232.664	-7.3
233.135	-3.1
233.605	-6.5
234.076	-8.7
234.546	-3.5
235.017	5.7
235.487	-3.3
235.958	-0.4
236.428	-5.2
236.899	-0.7
237.369	-2.3
237.84	0.5
238.31	6
238.78	-4.5
239.251	-4.7
239.721	-2.6
240.191	2.8
240.662	-0.9
241.132	-5.8
241.602	-4
242.072	1.7
242.542	8.7
243.013	0.2
243.483	-2.4
243.953	-3.7
244.423	2.3
244.893	0
245.363	2
245.833	-1.4
246.303	-5.4
246.773	1.9
247.243	-2.6
247.712	1
248.182	4.9
248.652	3.5
249.122	-8.6
249.592	-5.2
250.061	0.1
250.531	11.3
251.001	0
251.471	7
251.94	14.9
252.41	0.5
252.879	-2.6
253.349	5.9
253.818	9.1
254.288	5.5
254.757	0.2
255.227	-1.6
255.696	-0.6
256.166	5.8
256.635	2.5
257.105	1.7
257.574	1.5
258.043	-1.4
258.513	-1.7
258.982	7.4
259.451	-1.4
259.92	-0.7
260.389	6.3
260.859	8.1
261.328	2.3
261.797	8.7
262.266	3.2
262.735	9.2
263.204	4.9
263.673	1.4
264.142	4.3
264.611	-2.3
265.08	0.4
265.549	-3.1
266.018	3
266.487	1.6
266.955	-2.4
267.424	-0.6
267.893	8.5
268.362	1.4
268.83	4.1
269.299	9.8
269.768	4.5
270.236	4.1
270.705	1.4
271.174	3.5
271.642	5.2
272.111	3.8
272.579	0.8
273.048	8.5
273.516	2
273.985	9.9
274.453	6.4
274.922	11.6
275.39	6
275.858	2.3
276.327	11.8
276.795	16.4
277.263	11.3
277.731	13.1
278.2	15.8
278.668	5.9
279.136	9.5
279.604	4.6
280.072	5.8
280.54	17.7
281.008	8.3
281.477	12.1
281.945	9.3
282.413	10.7
282.881	11.7
283.348	6.9
283.816	16.3
284.284	16
284.752	18.3
285.22	16.4
285.688	13.7
286.156	8.7
286.623	24.5
287.091	10.5
287.559	16.3
288.026	12
288.494	12.6
288.962	9.2
289.429	6.3
289.897	13.4
290.364	13.2
290.832	19.5
291.3	13.3
291.767	12.9
292.234	17.8
292.702	10.8
293.169	15.2
293.637	18.2
294.104	14.5
294.571	13
295.039	9
295.506	17.2
295.973	19.3
296.44	13.7
296.908	14.7
297.375	18.7
297.842	20.6
298.309	15.9
298.776	10.4
299.243	15
299.71	12.1
300.177	15.8
300.644	17.8
301.111	18.9
301.578	30.2
302.045	13.8
302.512	25.4
302.979	27.4
303.446	26.6
303.913	19.3
304.379	16.2
304.846	25.3
305.313	20
305.78	22.7
306.246	18
306.713	22
307.18	25.9
307.646	25.7
308.113	25.8
308.579	22.8
309.046	22.2
309.512	22.2
309.979	18.6
310.445	28.3
310.912	26.5
311.378	23.6
311.845	30
312.311	25.7
312.777	31.3
313.244	30.3
313.71	34.3
314.176	28.8
314.642	31
315.109	31.3
315.575	39.5
316.041	42.1
316.507	38.9
316.973	35.6
317.439	31.8
317.905	36.1
318.371	29.5
318.837	34.1
319.303	36.5
319.769	39.8
320.235	34.6
320.701	34.2
321.167	37
321.633	37
322.099	33.1
322.564	41.8
323.03	34.1
323.496	39.5
323.962	43.9
324.427	34.2
324.893	37.6
325.359	38.5
325.824	33.9
326.29	33.9
326.755	37
327.221	32.8
327.686	34.5
328.152	46.8
328.617	43
329.083	41.5
329.548	50.9
330.014	44.9
330.479	42.8
330.944	40.7
331.41	39.2
331.875	43.4
332.34	44.2
332.805	43.3
333.271	37.9
333.736	43.9
334.201	50.2
334.666	43.3
335.131	51.5
335.596	48.5
336.061	44
336.526	41
336.991	47
337.456	48.6
337.921	46.9
338.386	44.1
338.851	45.5
339.316	46.7
339.781	50.5
340.246	50.5
340.711	49.9
341.175	51
341.64	43.3
342.105	47.3
342.569	59.5
343.034	59.7
343.499	50.6
343.963	51.6
344.428	65.1
344.893	57.8
345.357	59.5
345.822	57.8
346.286	74.4
346.751	77.1
347.215	66.9
347.679	69.3
348.144	94.9
348.608	72.1
349.073	65.7
349.537	71.7
350.001	78.7
350.465	87.7
350.93	76.8
351.394	80.8
351.858	70
352.322	91.4
352.786	83.6
353.25	98.6
353.715	108.2
354.179	96
354.643	117.4
355.107	117.9
355.571	102.6
356.035	93.7
356.498	111.8
356.962	118.8
357.426	120.1
357.89	108.6
358.354	88
358.818	81.9
359.281	77.3
359.745	79.1
360.209	73
360.673	70.6
361.136	76.4
361.6	90.3
362.064	78.9
362.527	86.5
362.991	89.3
363.454	75.8
363.918	71.3
364.381	77.4
364.845	83.6
365.308	88.3
365.772	87.6
366.235	91
366.698	75.9
367.162	84.7
367.625	82.7
368.088	87.6
368.552	96.9
369.015	91.7
369.478	93
369.941	93.6
370.404	96.5
370.867	102
371.331	101.5
371.794	107.9
372.257	99.9
372.72	101.7
373.183	112.7
373.646	93.8
374.109	92.4
374.572	101.6
375.035	106.2
375.497	107.5
375.96	108
376.423	105.8
376.886	116
377.349	109.5
377.811	97
378.274	108.9
378.737	105.5
379.199	113.5
379.662	106
380.125	114.8
380.587	106.4
381.05	108.5
381.512	114.7
381.975	120.6
382.437	115
382.9	124.4
383.362	130.9
383.825	133.2
384.287	125.3
384.75	125.8
385.212	124.6
385.674	129.2
386.136	135.5
386.599	122.8
387.061	132.5
387.523	130.7
387.985	123.2
388.447	137.5
388.91	124.5
389.372	126.2
389.834	133.4
390.296	129.4
390.758	128.3
391.22	144.7
391.682	153.1
392.144	156.8
392.606	152.8
393.068	146.1
393.529	154
393.991	141.5
394.453	125.7
394.915	141.1
395.377	139
395.838	141.5
396.3	134
396.762	143.8
397.224	132.4
397.685	134.1
398.147	132.8
398.608	136
399.07	140.7
399.531	134.5
399.993	150
400.454	161.4
400.916	154.6
401.377	150.7
401.839	160.9
402.3	158.4
402.762	166.7
403.223	182
403.684	177.2
404.145	170.9
404.607	167.9
405.068	165.9
405.529	180
405.99	191
406.451	183.7
406.913	174.2
407.374	170.5
407.835	175.9
408.296	172.3
408.757	178.5
409.218	191.3
409.679	181.3
410.14	180.2
410.601	178.1
411.062	184.6
411.522	187.8
411.983	181.5
412.444	180.3
412.905	189.9
413.366	193.3
413.826	202.7
414.287	230.8
414.748	279.7
415.208	267.9
415.669	227.4
416.13	222.6
416.59	215.9
417.051	224.8
417.511	231.4
417.972	248.6
418.432	267.5
418.893	308.1
419.353	262.8
419.814	212.7
420.274	197.4
420.734	197.2
421.195	208
421.655	197.3
422.115	200.7
422.576	201
423.036	214.5
423.496	228.6
423.956	232.8
424.416	243.5
424.876	286
425.336	273.7
425.797	268.2
426.257	266.9
426.717	239.9
427.177	241.6
427.637	238.7
428.097	250
428.556	259
429.016	283.5
429.476	264.7
429.936	283.9
430.396	286.1
430.856	302.5
431.315	329.4
431.775	350.6
432.235	384.8
432.694	365.8
433.154	369.9
433.614	406.1
434.073	343.3
434.533	299.7
434.993	283.4
435.452	295.2
435.912	303.4
436.371	300.9
436.83	297.8
437.29	270.8
437.749	262.9
438.209	260.6
438.668	284.3
439.127	302.1
439.587	273.1
440.046	261.4
440.505	272.7
440.964	292.8
441.424	340.1
441.883	333.4
442.342	277.6
442.801	244.2
443.26	234.5
443.719	240.2
444.178	241.8
444.637	227.8
445.096	236.1
445.555	242.6
446.014	241.9
446.473	237.7
446.932	246.1
447.391	242.1
447.849	239.3
448.308	240.5
448.767	245.8
449.226	251.2
449.685	253.7
450.143	269
450.602	253.8
451.061	243.9
451.519	253
451.978	253.4
452.436	253.5
452.895	252.3
453.353	269.5
453.812	258.6
454.27	259.6
454.729	252.1
455.187	255.7
455.646	257.1
456.104	265.4
456.562	275
457.021	281.7
457.479	277.1
457.937	292.4
458.395	284.4
458.854	272.9
459.312	275
459.77	295.6
460.228	280.5
460.686	266.2
461.144	267.7
461.602	263.9
462.06	265.8
462.518	281
462.976	278.6
463.434	275.1
463.892	288.9
464.35	298.7
464.808	305.3
465.266	292.5
465.724	291.2
466.181	296.8
466.639	296.1
467.097	320
467.555	317.4
468.012	318.9
468.47	341.8
468.928	353.3
469.385	366.3
469.843	371
470.3	376.2
470.758	389.4
471.215	406.7
471.673	430.5
472.13	430.1
472.588	440.5
473.045	400.7
473.503	407.6
473.96	432.6
474.417	422.7
474.875	459.5
475.332	496.4
475.789	484.8
476.246	492.6
476.704	514.1
477.161	532.2
477.618	553.1
478.075	596.6
478.532	646.5
478.989	715.8
479.446	825.3
479.903	794
480.36	819.1
480.817	872.6
481.274	965.6
481.731	1062.2
482.188	1140.8
482.645	1267.2
483.102	1355.6
483.558	1455.9
484.015	1528.8
484.472	1493.2
484.929	1453.3
485.385	1404
485.842	1382.7
486.299	1331.6
486.755	1291
487.212	1089.6
487.668	944.2
488.125	866.9
488.582	799.4
489.038	774.8
489.494	750.2
489.951	721.2
490.407	699.2
490.864	676.2
491.32	673.5
491.776	672.5
492.233	686.3
492.689	649.4
493.145	637.6
493.602	633.3
494.058	645.6
494.514	647.2
494.97	666.6
495.426	689.9
495.882	657.4
496.338	647.2
496.794	662.5
497.251	655
497.707	670.7
498.163	678.6
498.618	676.3
499.074	680.5
499.53	709.6
499.986	715.5
500.442	680
500.898	656.3
501.354	649.9
501.809	651.8
502.265	659.5
502.721	666.6
503.177	674.3
503.632	675
504.088	692.5
504.543	720.1
504.999	734.4
505.455	707.8
505.91	672
506.366	671.4
506.821	664.8
507.277	661.7
507.732	671.1
508.187	670.4
508.643	682.2
509.098	687.2
509.553	708.8
510.009	716.7
510.464	706.9
510.919	740.7
511.375	742.1
511.83	749
512.285	764.7
512.74	801.4
513.195	822.3
513.65	809.2
514.105	808.7
514.56	813.3
515.015	834.3
515.47	856
515.925	831
516.38	822.1
516.835	823.8
517.29	822.4
517.745	820.1
518.2	810.3
518.655	795
519.109	794.1
519.564	789.1
520.019	766.1
520.474	774
520.928	768.1
521.383	760
521.838	766.4
522.292	763.3
522.747	752.1
523.201	738.1
523.656	733.2
524.11	737.9
524.565	746.5
525.019	738.5
525.474	748.1
525.928	746.9
526.382	739.3
526.837	743.2
527.291	743
527.745	738.9
528.2	745.6
528.654	735.3
529.108	728.7
529.562	726.9
530.016	738.3
530.47	729.1
530.925	725.6
531.379	732.9
531.833	742.5
532.287	735.5
532.741	750.8
533.195	747.5
533.649	748
534.103	752.4
534.556	748.6
535.01	751.8
535.464	752.7
535.918	763.1
536.372	755.2
536.826	761.4
537.279	749.3
537.733	751.9
538.187	761.3
538.64	746.4
539.094	757.1
539.548	775.6
540.001	767.3
540.455	769.9
540.908	770
541.362	775.9
541.815	795
542.269	811.8
542.722	807.4
543.175	820.7
543.629	818.8
544.082	835
544.536	837.5
544.989	831.3
545.442	848.3
545.895	836.6
546.349	831.9
546.802	845.5
547.255	845.2
547.708	855.3
548.161	865.4
548.614	868.6
549.067	875.5
549.52	866.9
549.973	862.4
550.426	856.2
550.879	841.1
551.332	841.1
551.785	858.3
552.238	853.7
552.691	874.9
553.144	886.6
553.596	897.1
554.049	913
554.502	947.7
554.955	964.1
555.407	961.1
555.86	945.1
556.313	941.2
556.765	932.1
557.218	949.2
557.67	926.8
558.123	929.3
558.576	926.1
559.028	925.6
559.48	935.7
559.933	927.1
560.385	894.7
560.838	865.7
561.29	840.7
561.742	837.9
562.195	822.8
562.647	812.4
563.099	823.8
563.551	814.2
564.004	829.6
564.456	811.7
564.908	809.2
565.36	781.8
565.812	769.2
566.264	764.9
566.716	751.9
567.168	750.6
567.62	753.3
568.072	739.6
568.524	734
568.976	733
569.428	711
569.88	718.1
570.332	723.9
570.784	729.1
571.235	729.1
571.687	733.2
572.139	746.8
572.59	755.3
573.042	750.1
573.494	754
573.945	747.8
574.397	730.8
574.849	730.4
575.3	730.2
575.752	723.9
576.203	723.8
576.655	724.9
577.106	707.6
577.557	703.1
578.009	712.4
578.46	703.7
578.912	697.9
579.363	704
579.814	707.3
580.265	695.3
580.717	709.8
581.168	712
581.619	713.5
582.07	714.1
582.521	712.7
582.972	707.7
583.423	703
583.875	705.1
584.326	718
584.777	740.2
585.227	759
585.678	771.9
586.129	792
586.58	819.4
587.031	837.4
587.482	889.4
587.933	916.8
588.384	883.1
588.834	830.9
589.285	815.1
589.736	812.4
590.186	814.8
590.637	800.4
591.088	776.4
591.538	779.4
591.989	770.1
592.439	763.2
592.89	746.3
593.34	744.1
593.791	735.6
594.241	730.5
594.692	731.6
595.142	722.2
595.593	722.4
596.043	737.5
596.493	739.3
596.943	737
597.394	748.2
597.844	748.2
598.294	773
598.744	804.9
599.195	815.3
599.645	863.4
600.095	914.4
600.545	960.2
600.995	1024.1
601.445	1077
601.895	1149.3
602.345	1195
602.795	1164.9
603.245	1129.7
603.695	1064.8
604.145	999.5
604.594	961.3
605.044	900.8
605.494	842.5
605.944	790.1
606.393	774.6
606.843	767.2
607.293	766.7
607.743	764.9
608.192	772.4
608.642	789.7
609.091	801.2
609.541	802.4
609.99	795.1
610.44	793.8
610.889	743.3
611.339	726
611.788	705.1
612.238	714.2
612.687	727.8
613.136	727.2
613.586	732.4
614.035	732.9
614.484	749.5
614.933	734.5
615.383	740.1
615.832	724.8
616.281	723.2
616.73	700.9
617.179	686.9
617.628	664.1
618.077	657.8
618.526	656.1
618.975	644.6
619.424	643.4
619.873	637.3
620.322	638.3
620.771	628.3
621.22	627.7
621.669	623.4
622.118	616.3
622.567	604.9
623.015	597.9
623.464	593.8
623.913	580.5
624.361	573.7
624.81	570
625.259	573.3
625.707	583.2
626.156	567
626.604	584.2
627.053	585.4
627.501	586.1
627.95	588.6
628.398	603.6
628.847	588.4
629.295	596
629.744	605.7
630.192	587.5
630.64	590
631.089	567.6
631.537	559.7
631.985	551.2
632.433	554.8
632.881	551.6
633.33	561.7
633.778	543
634.226	547.8
634.674	556.3
635.122	567.6
635.57	582.6
636.018	584.4
636.466	583.8
636.914	583
637.362	592.4
637.81	599.8
638.258	606.2
638.705	593.2
639.153	630.3
639.601	643.7
640.049	677.6
640.497	696
640.944	717.7
641.392	667.5
641.84	636.6
642.287	597.5
642.735	584.5
643.182	580.2
643.63	584.9
644.078	581.2
644.525	604.4
644.973	607.4
645.42	610.4
645.867	637.8
646.315	658.2
646.762	671.6
647.21	708.1
647.657	720.8
648.104	755
648.551	774.5
648.999	842.6
649.446	916.8
649.893	991.2
650.34	1140.1
650.787	1347.2
651.234	1665.8
651.682	2135.8
652.129	2894.8
652.576	4115.2
653.023	5962.5
653.47	8097.5
653.917	10092.7
654.363	11617.9
654.81	12869.9
655.257	12150.9
655.704	8071.4
656.151	4882.6
656.598	3194.4
657.044	2306.4
657.491	1791.2
657.938	1445
658.385	1219.8
658.831	1058.7
659.278	950.2
659.724	850.9
660.171	792.8
660.618	728.9
661.064	706.4
661.511	676.2
661.957	667.6
662.404	662.9
662.85	659.8
663.296	643.7
663.743	578.4
664.189	550.9
664.635	547.5
665.082	545.6
665.528	544
665.974	532.5
666.42	524.1
666.867	518.4
667.313	507.4
667.759	481.2
668.205	471.4
668.651	469
669.097	456.1
669.543	459.8
669.989	456.1
670.435	467.8
670.881	469.7
671.327	470.1
671.773	490.3
672.219	513.4
672.665	571.5
673.11	605.4
673.556	655.3
674.002	700
674.448	684.5
674.893	583.9
675.339	502.7
675.785	463.3
676.23	438.5
676.676	405.4
677.122	401.4
677.567	392.9
678.013	387.8
678.458	378.5
678.904	378.8
679.349	366.8
679.794	377.1
680.24	369.9
680.685	365
681.131	367
681.576	357.6
682.021	361.8
682.466	366.2
682.912	363.4
683.357	364.2
683.802	399.6
684.247	415.8
684.692	477
685.137	517.5
685.583	550.6
686.028	583.5
686.473	546.4
686.918	468
687.363	437.6
687.807	413.2
688.252	385.5
688.697	362.9
689.142	349.7
689.587	344.1
690.032	339.5
690.477	357.8
690.921	369.1
691.366	397.6
691.811	422.7
692.255	451.1
692.7	484.7
693.145	520.6
693.589	729.6
694.034	1175.8
694.478	1601
694.923	1797.3
695.367	2374.8
695.812	1244.1
696.256	521.1
696.701	391.5
697.145	353.5
697.59	335.8
698.034	332.8
698.478	336.4
698.922	328.4
699.367	333.5
699.811	345.7
700.255	365.8
700.699	392.7
701.143	438.6
701.588	490.8
702.032	533.6
702.476	528.7
702.92	506.2
703.364	517.6
703.808	667.2
704.252	1082.9
704.696	1526.7
705.14	1740.8
705.584	2241.1
706.027	1107.1
706.471	552.9
706.915	419.5
707.359	370.6
707.803	338.2
708.246	322.6
708.69	328.5
709.134	327.6
709.577	327.1
710.021	336.3
710.465	315
710.908	307.2
711.352	306.6
711.795	329.3
712.239	360.7
712.682	400.7
713.126	429.1
713.569	469.5
714.012	371.6
714.456	317.9
714.899	298.6
715.342	280.6
715.786	268.1
716.229	268.8
716.672	272.6
717.115	265.7
717.558	263.3
718.002	260.2
718.445	277
718.888	302.1
719.331	303.5
719.774	321.7
720.217	321.7
720.66	296.9
721.103	277.5
721.546	264.4
721.989	257.9
722.432	236.9
722.874	244.4
723.317	238.5
723.76	245.4
724.203	268.8
724.645	323.7
725.088	458.9
725.531	586.2
725.974	678.2
726.416	570.6
726.859	317.3
727.301	259.6
727.744	244.2
728.187	246.1
728.629	249.6
729.071	252
729.514	272.2
729.956	286.8
730.399	291.5
730.841	296.6
731.283	291.6
731.726	276.7
732.168	275.2
732.61	275.9
733.053	300.6
733.495	330.9
733.937	371.9
734.379	416.9
734.821	456.2
735.263	564.6
735.705	881.2
736.148	1648.1
736.59	2707.1
737.032	3204.5
737.474	2597.4
737.916	850.9
738.357	451.5
738.799	338.1
739.241	317.9
739.683	293.4
740.125	310
740.567	309.6
741.008	327.3
741.45	334
741.892	334.2
742.334	371.7
742.775	372.5
743.217	362.9
743.658	284.6
744.1	268.5
744.542	271.7
744.983	332.1
745.425	365
745.866	360.2
746.307	291.5
746.749	281.8
747.19	335.7
747.632	478.7
748.073	923.5
748.514	1935.8
748.956	2970.6
749.397	3739.1
749.838	3099.1
750.279	3106.3
750.72	1581.1
751.162	588.1
751.603	340.7
752.044	265.5
752.485	225
752.926	219.1
753.367	216
753.808	206.5
754.249	197.2
754.69	195.6
755.131	195.8
755.572	193
756.013	187
756.453	189
756.894	195.3
757.335	204.2
757.776	210.5
758.216	202.4
758.657	203.2
759.098	220.3
759.538	236.1
759.979	279.7
760.42	390.2
760.86	734.6
761.301	1917.6
761.741	4641
762.182	6722.6
762.622	4741.2
763.063	1386
763.503	561.9
763.943	346.4
764.384	283.6
764.824	265.6
765.264	262.1
765.705	223.6
766.145	188.3
766.585	179.7
767.025	176.3
767.465	169.8
767.906	196.7
768.346	216.4
768.786	217.9
769.226	227.3
769.666	321.1
770.106	648.4
770.546	1612.8
770.986	2756.6
771.426	2477.5
771.866	832.6
772.306	334.8
772.745	219.7
773.185	175
773.625	170.6
774.065	151.7
774.505	173
774.944	221.4
775.384	386.9
775.824	633.1
776.263	621.7
776.703	299.4
777.142	169.1
777.582	145.1
778.021	127
778.461	122.5
778.9	128.9
779.34	130.5
779.779	118.2
780.219	113.6
780.658	117.1
781.097	111
781.537	115.5
781.976	115.1
782.415	108.2
782.855	107.6
783.294	101.4
783.733	107.9
784.172	108.6
784.611	111.2
785.05	114.7
785.489	121.3
785.928	120.8
786.367	121.8
786.806	124
787.245	133.4
787.684	141.3
788.123	146.7
788.562	141
789.001	130.7
789.44	124.4
789.879	125.9
790.317	128.2
790.756	132.8
791.195	136.5
791.634	152
792.072	207.9
792.511	382.3
792.95	1039.8
793.388	2217.3
793.827	1993.3
794.265	703.2
794.704	289.1
795.142	187
795.581	161
796.019	144.6
796.458	132
796.896	122.9
797.334	137.3
797.773	158.7
798.211	227.4
798.649	464.4
799.087	1065.3
799.526	1673.1
799.964	2100.9
800.402	2084.5
800.84	787.6
801.278	310.8
801.716	193.5
802.154	160.9
802.592	154.5
803.03	148.4
803.468	141.5
803.906	154.6
804.344	159
804.782	150.5
805.22	138.5
805.658	136.2
806.096	156.6
806.533	167.1
806.971	178.6
807.409	233
807.847	335.6
808.284	693.2
