Data from 20171114-ORNL-Ar_H_NY_Subt18_08-08-41-044.txt Node
Date: Tue Nov 14 08:08:41 EST 2017
User: Ender
Spectrometer: HR+D1039
Trigger mode: 0
Integration Time (sec): 2.730000E-2
Scans to average: 10
Electric dark correction enabled: true
Nonlinearity correction enabled: false
Boxcar width: 0
XAxis mode: Wavelengths
Number of Pixels in Spectrum: 2048
>>>>>Begin Spectral Data<<<<<
187.836	-3.26
188.309	-3.26
188.782	-3.26
189.255	0.14
189.728	-3.16
190.201	2.94
190.674	-1.16
191.147	4.24
191.619	-8.36
192.092	3.24
192.565	7.04
193.038	-0.06
193.511	3.04
193.984	1.74
194.456	-9.86
194.929	5.74
195.402	-1.06
195.874	-1.26
196.347	2.94
196.82	-4.66
197.292	6.44
197.765	-3.26
198.237	-11.46
198.71	4.24
199.182	-3.36
199.655	2.14
200.127	6.24
200.6	0.44
201.072	-2.36
201.544	-6.36
202.017	-2.26
202.489	3.24
202.961	1.64
203.433	-2.66
203.906	-2.86
204.378	-6.76
204.85	-3.66
205.322	-4.16
205.794	4.34
206.266	-1.56
206.739	-8.06
207.211	-0.66
207.683	-5.76
208.155	0.54
208.627	-0.36
209.099	2.24
209.57	-8.56
210.042	-4.26
210.514	0.14
210.986	-4.66
211.458	-14.66
211.93	5.24
212.402	3.64
212.873	-5.06
213.345	-4.26
213.817	-12.96
214.288	-6.66
214.76	-8.56
215.232	1.44
215.703	-0.16
216.175	-1.46
216.646	-1.96
217.118	-8.66
217.589	-5.36
218.061	-0.76
218.532	-2.66
219.004	-2.86
219.475	-0.36
219.946	-3.26
220.418	-4.86
220.889	8.94
221.36	2.84
221.832	-4.46
222.303	-9.16
222.774	0.44
223.245	-7.66
223.717	-4.26
224.188	1.54
224.659	-6.56
225.13	-6.26
225.601	3.54
226.072	-3.66
226.543	-0.16
227.014	0.84
227.485	0.74
227.956	-1.36
228.427	-0.16
228.898	-0.26
229.369	4.04
229.839	-2.36
230.31	-6.86
230.781	-2.06
231.252	4.44
231.722	-2.56
232.193	-1.76
232.664	-2.36
233.135	-0.36
233.605	-1.86
234.076	-6.36
234.546	-4.16
235.017	5.84
235.487	-2.76
235.958	5.94
236.428	-4.56
236.899	-0.06
237.369	-0.46
237.84	-6.36
238.31	1.44
238.78	0.54
239.251	-2.16
239.721	1.14
240.191	-2.06
240.662	-2.86
241.132	0.64
241.602	-1.86
242.072	-2.26
242.542	4.94
243.013	0.14
243.483	-1.46
243.953	1.24
244.423	0.84
244.893	-5.26
245.363	5.14
245.833	4.24
246.303	-1.76
246.773	3.64
247.243	7.54
247.712	0.74
248.182	5.04
248.652	2.74
249.122	-6.86
249.592	5.74
250.061	10.44
250.531	13.74
251.001	2.24
251.471	9.84
251.94	8.44
252.41	-0.06
252.879	-3.46
253.349	7.74
253.818	10.74
254.288	4.64
254.757	0.94
255.227	-0.36
255.696	3.24
256.166	9.34
256.635	11.24
257.105	10.04
257.574	6.64
258.043	1.64
258.513	-1.46
258.982	9.14
259.451	-2.06
259.92	5.34
260.389	0.64
260.859	7.64
261.328	7.84
261.797	6.84
262.266	0.24
262.735	8.34
263.204	5.24
263.673	1.74
264.142	0.64
264.611	-1.26
265.08	-4.06
265.549	-0.56
266.018	7.54
266.487	-3.96
266.955	-3.56
267.424	-0.66
267.893	8.04
268.362	0.64
268.83	4.24
269.299	7.24
269.768	4.64
270.236	2.84
270.705	5.24
271.174	5.74
271.642	6.24
272.111	4.84
272.579	7.94
273.048	12.84
273.516	13.74
273.985	11.84
274.453	14.74
274.922	13.64
275.39	9.04
275.858	-3.06
276.327	7.74
276.795	16.14
277.263	8.24
277.731	18.74
278.2	22.44
278.668	27.34
279.136	28.84
279.604	11.04
280.072	15.34
280.54	2.64
281.008	8.74
281.477	11.64
281.945	8.74
282.413	12.34
282.881	10.74
283.348	3.84
283.816	15.74
284.284	11.04
284.752	18.24
285.22	15.04
285.688	14.04
286.156	13.14
286.623	26.34
287.091	29.64
287.559	11.94
288.026	16.04
288.494	9.04
288.962	5.34
289.429	7.54
289.897	14.24
290.364	7.34
290.832	15.24
291.3	13.74
291.767	19.54
292.234	18.64
292.702	9.74
293.169	10.54
293.637	15.34
294.104	10.84
294.571	8.04
295.039	12.44
295.506	7.44
295.973	15.34
296.44	11.04
296.908	14.94
297.375	13.04
297.842	12.54
298.309	12.94
298.776	12.24
299.243	15.04
299.71	5.34
300.177	14.74
300.644	13.84
301.111	21.44
301.578	20.24
302.045	16.74
302.512	20.24
302.979	21.74
303.446	21.24
303.913	16.14
304.379	12.54
304.846	23.54
305.313	21.04
305.78	16.74
306.246	18.14
306.713	19.04
307.18	23.14
307.646	26.14
308.113	22.14
308.579	21.84
309.046	23.74
309.512	29.14
309.979	14.84
310.445	21.84
310.912	22.44
311.378	25.24
311.845	29.14
312.311	28.64
312.777	31.34
313.244	24.54
313.71	36.64
314.176	25.34
314.642	22.84
315.109	25.14
315.575	33.44
316.041	30.24
316.507	21.54
316.973	32.94
317.439	25.44
317.905	24.34
318.371	25.04
318.837	25.94
319.303	28.84
319.769	27.24
320.235	30.64
320.701	29.34
321.167	31.04
321.633	27.34
322.099	37.64
322.564	38.84
323.03	31.94
323.496	38.84
323.962	38.84
324.427	30.74
324.893	37.84
325.359	37.24
325.824	32.64
326.29	32.64
326.755	35.34
327.221	35.64
327.686	33.04
328.152	39.44
328.617	35.44
329.083	37.34
329.548	49.84
330.014	43.34
330.479	36.44
330.944	40.74
331.41	36.34
331.875	33.24
332.34	41.84
332.805	39.54
333.271	43.14
333.736	38.74
334.201	38.24
334.666	47.24
335.131	45.64
335.596	49.14
336.061	45.14
336.526	38.34
336.991	46.04
337.456	50.34
337.921	43.64
338.386	41.44
338.851	40.04
339.316	43.04
339.781	37.24
340.246	47.44
340.711	41.74
341.175	44.04
341.64	41.34
342.105	46.64
342.569	45.74
343.034	48.84
343.499	54.64
343.963	43.34
344.428	57.64
344.893	55.74
345.357	60.54
345.822	56.34
346.286	56.74
346.751	65.04
347.215	61.64
347.679	65.14
348.144	86.34
348.608	70.94
349.073	59.04
349.537	64.84
350.001	71.74
350.465	83.24
350.93	72.54
351.394	69.44
351.858	67.34
352.322	78.84
352.786	70.84
353.25	88.74
353.715	96.64
354.179	87.24
354.643	104.44
355.107	105.14
355.571	90.04
356.035	83.54
356.498	100.84
356.962	103.84
357.426	116.34
357.89	99.24
358.354	80.44
358.818	78.44
359.281	75.74
359.745	68.14
360.209	69.54
360.673	64.94
361.136	71.64
361.6	77.94
362.064	74.74
362.527	75.84
362.991	85.74
363.454	75.14
363.918	70.64
364.381	77.34
364.845	76.34
365.308	79.54
365.772	84.04
366.235	84.34
366.698	76.94
367.162	84.44
367.625	75.04
368.088	84.34
368.552	84.34
369.015	81.54
369.478	89.84
369.941	95.44
370.404	86.74
370.867	96.34
371.331	94.84
371.794	102.94
372.257	97.84
372.72	99.14
373.183	105.94
373.646	93.54
374.109	93.84
374.572	92.34
375.035	95.44
375.497	101.14
375.96	101.04
376.423	98.54
376.886	107.04
377.349	109.74
377.811	106.34
378.274	96.44
378.737	95.04
379.199	106.84
379.662	107.54
380.125	107.64
380.587	99.64
381.05	112.74
381.512	113.44
381.975	121.94
382.437	119.04
382.9	116.74
383.362	119.34
383.825	123.44
384.287	135.84
384.75	123.44
385.212	126.94
385.674	127.34
386.136	123.94
386.599	119.24
387.061	123.74
387.523	122.14
387.985	123.14
388.447	135.14
388.91	132.64
389.372	135.64
389.834	138.24
390.296	125.44
390.758	143.84
391.22	148.44
391.682	173.54
392.144	220.34
392.606	179.34
393.068	145.14
393.529	155.14
393.991	137.04
394.453	138.44
394.915	139.84
395.377	156.14
395.838	170.04
396.3	141.44
396.762	131.74
397.224	126.04
397.685	127.84
398.147	133.84
398.608	126.34
399.07	122.94
399.531	136.44
399.993	141.54
400.454	150.44
400.916	146.04
401.377	146.44
401.839	152.14
402.3	144.94
402.762	166.34
403.223	172.94
403.684	164.44
404.145	152.14
404.607	159.24
405.068	163.54
405.529	159.84
405.99	179.24
406.451	179.74
406.913	171.94
407.374	160.04
407.835	153.84
408.296	168.24
408.757	168.24
409.218	190.14
409.679	179.24
410.14	176.94
410.601	174.74
411.062	186.24
411.522	182.54
411.983	188.64
412.444	185.14
412.905	178.54
413.366	188.24
413.826	192.14
414.287	219.04
414.748	260.54
415.208	248.84
415.669	210.04
416.13	208.94
416.59	201.74
417.051	218.24
417.511	220.34
417.972	242.74
418.432	246.64
418.893	293.14
419.353	253.64
419.814	201.54
420.274	187.94
420.734	182.84
421.195	197.04
421.655	198.84
422.115	194.54
422.576	197.44
423.036	198.54
423.496	211.34
423.956	219.84
424.416	232.64
424.876	270.84
425.336	258.34
425.797	267.24
426.257	251.04
426.717	243.04
427.177	232.44
427.637	227.24
428.097	246.04
428.556	239.54
429.016	262.34
429.476	261.14
429.936	266.44
430.396	275.44
430.856	286.14
431.315	305.74
431.775	339.04
432.235	380.14
432.694	353.04
433.154	360.14
433.614	393.54
434.073	334.04
434.533	286.04
434.993	263.74
435.452	279.34
435.912	290.44
436.371	284.94
436.83	276.34
437.29	258.04
437.749	248.14
438.209	253.64
438.668	276.44
439.127	286.14
439.587	266.64
440.046	245.14
440.505	262.84
440.964	279.04
441.424	315.34
441.883	314.44
442.342	255.24
442.801	225.74
443.26	223.64
443.719	223.24
444.178	219.14
444.637	218.94
445.096	229.14
445.555	233.14
446.014	223.74
446.473	230.64
446.932	238.04
447.391	228.74
447.849	232.14
448.308	225.44
448.767	227.04
449.226	242.74
449.685	243.34
450.143	252.44
450.602	241.14
451.061	232.84
451.519	243.94
451.978	234.74
452.436	232.74
452.895	247.64
453.353	252.74
453.812	239.44
454.27	244.34
454.729	241.64
455.187	243.94
455.646	249.04
456.104	257.54
456.562	265.04
457.021	270.44
457.479	262.34
457.937	275.24
458.395	273.64
458.854	251.44
459.312	258.14
459.77	277.94
460.228	258.34
460.686	239.24
461.144	256.14
461.602	251.14
462.06	252.94
462.518	260.84
462.976	252.04
463.434	258.54
463.892	261.84
464.35	278.84
464.808	298.44
465.266	266.14
465.724	277.34
466.181	274.24
466.639	267.44
467.097	294.34
467.555	299.04
468.012	307.64
468.47	312.54
468.928	331.74
469.385	344.34
469.843	347.24
470.3	354.54
470.758	366.14
471.215	387.94
471.673	402.34
472.13	405.84
472.588	421.34
473.045	369.74
473.503	382.84
473.96	403.74
474.417	406.54
474.875	434.84
475.332	478.54
475.789	464.64
476.246	467.14
476.704	493.84
477.161	514.94
477.618	523.04
478.075	560.44
478.532	628.64
478.989	692.54
479.446	799.54
479.903	764.84
480.36	793.84
480.817	845.14
481.274	947.54
481.731	1031.44
482.188	1109.94
482.645	1231.94
483.102	1325.04
483.558	1451.24
484.015	1498.24
484.472	1463.94
484.929	1419.34
485.385	1393.84
485.842	1358.44
486.299	1302.94
486.755	1244.54
487.212	1056.14
487.668	910.74
488.125	853.54
488.582	773.94
489.038	740.74
489.494	707.24
489.951	685.14
490.407	664.44
490.864	655.34
491.32	641.94
491.776	650.14
492.233	656.04
492.689	611.94
493.145	620.14
493.602	606.04
494.058	618.24
494.514	621.54
494.97	643.74
495.426	651.44
495.882	625.44
496.338	620.14
496.794	622.44
497.251	617.84
497.707	637.54
498.163	632.94
498.618	641.34
499.074	646.04
499.53	669.44
499.986	673.44
500.442	653.14
500.898	636.24
501.354	621.04
501.809	632.34
502.265	630.14
502.721	651.64
503.177	663.24
503.632	656.44
504.088	668.04
504.543	692.54
504.999	708.54
505.455	667.24
505.91	638.24
506.366	637.44
506.821	628.64
507.277	622.54
507.732	629.94
508.187	635.74
508.643	641.24
509.098	642.24
509.553	665.24
510.009	670.64
510.464	684.04
510.919	698.04
511.375	698.04
511.83	717.84
512.285	729.14
512.74	758.44
513.195	789.14
513.65	770.04
514.105	768.54
514.56	773.04
515.015	792.14
515.47	810.84
515.925	793.64
516.38	799.24
516.835	794.24
517.29	791.74
517.745	785.34
518.2	777.44
518.655	754.24
519.109	753.84
519.564	740.04
520.019	739.34
520.474	726.24
520.928	737.04
521.383	722.64
521.838	723.74
522.292	721.04
522.747	720.04
523.201	713.44
523.656	701.54
524.11	699.04
524.565	707.24
525.019	702.44
525.474	700.34
525.928	707.94
526.382	713.54
526.837	703.74
527.291	713.04
527.745	706.64
528.2	709.74
528.654	694.74
529.108	689.54
529.562	697.44
530.016	701.94
530.47	700.44
530.925	693.94
531.379	695.74
531.833	702.14
532.287	711.94
532.741	709.94
533.195	710.44
533.649	721.44
534.103	727.54
534.556	712.74
535.01	719.74
535.464	716.74
535.918	720.64
536.372	727.54
536.826	734.54
537.279	723.54
537.733	717.84
538.187	726.74
538.64	720.74
539.094	727.84
539.548	735.74
540.001	729.94
540.455	734.44
540.908	740.44
541.362	733.94
541.815	746.24
542.269	764.94
542.722	765.04
543.175	780.84
543.629	780.54
544.082	792.74
544.536	800.94
544.989	792.94
545.442	796.74
545.895	796.84
546.349	805.84
546.802	802.84
547.255	806.24
547.708	818.54
548.161	828.64
548.614	835.94
549.067	836.74
549.52	825.54
549.973	816.84
550.426	822.44
550.879	805.14
551.332	809.24
551.785	816.94
552.238	816.54
552.691	826.84
553.144	826.64
553.596	857.54
554.049	878.84
554.502	909.44
554.955	923.94
555.407	921.44
555.86	911.14
556.313	894.34
556.765	889.34
557.218	904.64
557.67	888.84
558.123	889.94
558.576	868.34
559.028	887.04
559.48	900.44
559.933	887.34
560.385	854.84
560.838	827.04
561.29	800.34
561.742	805.04
562.195	790.44
562.647	787.64
563.099	798.44
563.551	792.44
564.004	795.14
564.456	786.54
564.908	768.34
565.36	757.34
565.812	743.74
566.264	735.24
566.716	733.74
567.168	723.04
567.62	721.64
568.072	712.84
568.524	704.14
568.976	699.54
569.428	685.84
569.88	691.64
570.332	696.94
570.784	701.74
571.235	697.84
571.687	707.24
572.139	712.04
572.59	720.34
573.042	722.44
573.494	712.04
573.945	710.34
574.397	695.24
574.849	707.34
575.3	707.04
575.752	691.14
576.203	698.24
576.655	696.54
577.106	681.84
577.557	679.84
578.009	675.34
578.46	669.54
578.912	669.24
579.363	675.14
579.814	679.84
580.265	680.14
580.717	681.04
581.168	676.44
581.619	695.44
582.07	693.14
582.521	684.64
582.972	682.44
583.423	687.54
583.875	688.64
584.326	702.74
584.777	737.44
585.227	788.84
585.678	836.04
586.129	878.54
586.58	925.94
587.031	973.94
587.482	1057.54
587.933	1164.34
588.384	1049.84
588.834	878.24
589.285	801.84
589.736	797.54
590.186	789.74
590.637	780.24
591.088	759.24
591.538	756.74
591.989	746.84
592.439	739.14
592.89	738.34
593.34	726.44
593.791	727.04
594.241	708.54
594.692	713.84
595.142	717.84
595.593	710.84
596.043	720.34
596.493	721.24
596.943	728.64
597.394	743.74
597.844	738.44
598.294	735.24
598.744	775.64
599.195	805.44
599.645	834.84
600.095	877.04
600.545	933.24
600.995	986.84
601.445	1043.04
601.895	1117.14
602.345	1143.34
602.795	1124.44
603.245	1090.34
603.695	1031.24
604.145	972.44
604.594	934.04
605.044	879.24
605.494	815.84
605.944	771.04
606.393	766.94
606.843	748.74
607.293	747.84
607.743	749.84
608.192	760.44
608.642	777.74
609.091	785.24
609.541	780.54
609.99	776.64
610.44	783.94
610.889	727.54
611.339	716.04
611.788	709.04
612.238	701.54
612.687	731.14
613.136	722.54
613.586	737.64
614.035	732.24
614.484	748.04
614.933	738.24
615.383	739.84
615.832	739.84
616.281	722.14
616.73	688.04
617.179	668.64
617.628	660.64
618.077	639.44
618.526	629.84
618.975	627.94
619.424	632.44
619.873	622.24
620.322	628.24
620.771	612.44
621.22	620.34
621.669	600.04
622.118	606.44
622.567	587.04
623.015	583.14
623.464	578.84
623.913	568.24
624.361	565.94
624.81	561.94
625.259	566.14
625.707	576.44
626.156	565.34
626.604	582.74
627.053	574.04
627.501	569.74
627.95	579.64
628.398	591.94
628.847	584.04
629.295	574.44
629.744	581.64
630.192	574.14
630.64	582.14
631.089	573.74
631.537	576.24
631.985	577.94
632.433	579.24
632.881	582.74
633.33	605.44
633.778	586.64
634.226	551.14
634.674	571.04
635.122	569.14
635.57	583.24
636.018	610.14
636.466	587.64
636.914	569.84
637.362	586.74
637.81	587.14
638.258	597.14
638.705	594.74
639.153	624.94
639.601	634.34
640.049	663.64
640.497	686.34
640.944	707.74
641.392	662.34
641.84	637.14
642.287	592.84
642.735	578.64
643.182	577.04
643.63	579.54
644.078	585.94
644.525	599.14
644.973	605.34
645.42	617.14
645.867	629.04
646.315	653.64
646.762	673.44
647.21	709.84
647.657	724.44
648.104	761.24
648.551	780.84
648.999	840.34
649.446	928.84
649.893	1007.64
650.34	1159.44
650.787	1374.34
651.234	1699.24
651.682	2226.54
652.129	3019.24
652.576	4315.34
653.023	6301.54
653.47	8549.54
653.917	10583.84
654.363	12098.64
654.81	13253.74
655.257	12599.84
655.704	8306.44
656.151	4983.94
656.598	3249.34
657.044	2333.84
657.491	1801.74
657.938	1448.84
658.385	1217.74
658.831	1052.84
659.278	949.64
659.724	851.04
660.171	789.14
660.618	722.94
661.064	693.44
661.511	668.84
661.957	655.94
662.404	652.54
662.85	652.64
663.296	630.84
663.743	571.84
664.189	551.44
664.635	546.74
665.082	538.64
665.528	540.34
665.974	529.44
666.42	519.14
666.867	518.84
667.313	505.44
667.759	485.24
668.205	478.94
668.651	474.44
669.097	475.84
669.543	476.84
669.989	465.44
670.435	459.14
670.881	453.14
671.327	462.54
671.773	489.94
672.219	510.64
672.665	559.94
673.11	603.84
673.556	650.74
674.002	690.54
674.448	673.64
674.893	565.94
675.339	490.64
675.785	450.14
676.23	429.84
676.676	397.44
677.122	397.24
677.567	382.74
678.013	382.14
678.458	373.44
678.904	374.24
679.349	366.14
679.794	367.34
680.24	368.14
680.685	358.84
681.131	363.44
681.576	358.74
682.021	366.24
682.466	364.04
682.912	361.74
683.357	359.64
683.802	399.34
684.247	431.24
684.692	478.04
685.137	516.14
685.583	554.74
686.028	577.84
686.473	528.54
686.918	460.74
687.363	433.74
687.807	407.84
688.252	380.54
688.697	358.74
689.142	349.44
689.587	348.14
690.032	334.24
690.477	359.74
690.921	364.64
691.366	401.64
691.811	421.34
692.255	443.04
692.7	477.74
693.145	534.24
693.589	748.54
694.034	1211.64
694.478	1616.74
694.923	1775.04
695.367	2299.74
695.812	1225.04
696.256	517.04
696.701	382.14
697.145	359.34
697.59	349.24
698.034	327.34
698.478	335.44
698.922	336.24
699.367	336.84
699.811	353.54
700.255	363.14
700.699	398.24
701.143	443.44
701.588	494.74
702.032	526.64
702.476	530.54
702.92	509.14
703.364	514.64
703.808	677.24
704.252	1100.64
704.696	1528.34
705.14	1724.44
705.584	2184.34
706.027	1105.04
706.471	550.94
706.915	411.74
707.359	367.34
707.803	335.64
708.246	329.84
708.69	324.54
709.134	334.74
709.577	320.54
710.021	328.84
710.465	318.84
710.908	313.44
711.352	311.74
711.795	329.44
712.239	372.14
712.682	407.74
713.126	428.04
713.569	471.74
714.012	372.14
714.456	329.74
714.899	302.84
715.342	282.14
715.786	269.94
716.229	268.74
716.672	265.44
717.115	260.14
717.558	257.84
718.002	253.44
718.445	267.44
718.888	295.04
719.331	301.64
719.774	321.64
720.217	312.94
720.66	287.04
721.103	276.74
721.546	260.84
721.989	258.54
722.432	247.34
722.874	241.84
723.317	236.04
723.76	241.44
724.203	273.54
724.645	335.14
725.088	469.84
725.531	595.24
725.974	656.54
726.416	560.44
726.859	313.04
727.301	256.84
727.744	244.34
728.187	237.04
728.629	242.34
729.071	251.34
729.514	277.84
729.956	286.04
730.399	301.14
730.841	302.34
731.283	289.54
731.726	289.54
732.168	276.34
732.61	284.14
733.053	300.04
733.495	334.84
733.937	374.24
734.379	417.54
734.821	458.94
735.263	572.94
735.705	900.34
736.148	1699.84
736.59	2707.64
737.032	3097.34
737.474	2545.84
737.916	845.34
738.357	451.54
738.799	348.24
739.241	308.74
739.683	292.04
740.125	306.14
740.567	307.74
741.008	332.24
741.45	322.24
741.892	331.94
742.334	361.04
742.775	373.74
743.217	362.14
743.658	280.84
744.1	262.24
744.542	275.54
744.983	326.54
745.425	355.84
745.866	347.54
746.307	296.84
746.749	294.94
747.19	344.64
747.632	488.04
748.073	972.84
748.514	1993.44
748.956	2964.44
749.397	3731.44
749.838	3102.94
750.279	3027.24
750.72	1537.84
751.162	573.04
751.603	342.04
752.044	260.74
752.485	223.84
752.926	215.14
753.367	207.14
753.808	203.14
754.249	205.54
754.69	193.14
755.131	189.34
755.572	187.04
756.013	188.44
756.453	191.44
756.894	198.04
757.335	196.04
757.776	207.34
758.216	200.94
758.657	206.84
759.098	207.14
759.538	240.84
759.979	279.84
760.42	402.54
760.86	769.04
761.301	2006.64
761.741	4713.34
762.182	6541.24
762.622	4617.24
763.063	1363.24
763.503	557.24
