Data from 20171114-ORNL-Ar_H_NY_Subt18_08-05-49-069.txt Node
Date: Tue Nov 14 08:05:49 EST 2017
User: Ender
Spectrometer: HR+D1039
Trigger mode: 0
Integration Time (sec): 2.730000E-2
Scans to average: 10
Electric dark correction enabled: true
Nonlinearity correction enabled: false
Boxcar width: 0
XAxis mode: Wavelengths
Number of Pixels in Spectrum: 2048
>>>>>Begin Spectral Data<<<<<
187.836	-4.55
188.309	-4.55
188.782	-4.55
189.255	0.15
189.728	-1.05
190.201	-1.25
190.674	0.95
191.147	3.45
191.619	-10.45
192.092	-0.55
192.565	2.75
193.038	6.95
193.511	1.65
193.984	2.85
194.456	1.25
194.929	3.15
195.402	-2.15
195.874	-3.15
196.347	2.55
196.82	-2.65
197.292	2.45
197.765	-4.15
198.237	-3.95
198.71	0.85
199.182	0.65
199.655	-1.55
200.127	1.65
200.6	-0.65
201.072	-0.25
201.544	-5.85
202.017	-5.35
202.489	1.35
202.961	-0.45
203.433	-1.85
203.906	-14.15
204.378	-2.55
204.85	-3.35
205.322	-5.45
205.794	-4.65
206.266	-3.15
206.739	-11.85
207.211	-0.35
207.683	-15.15
208.155	-5.95
208.627	-8.45
209.099	-2.85
209.57	-7.65
210.042	-7.45
210.514	0.85
210.986	0.25
211.458	-7.85
211.93	-3.95
212.402	1.25
212.873	-2.55
213.345	-9.25
213.817	-11.15
214.288	-7.25
214.76	-5.45
215.232	-2.05
215.703	-1.95
216.175	-0.85
216.646	-4.55
217.118	2.35
217.589	-4.25
218.061	1.65
218.532	-6.75
219.004	-6.85
219.475	-3.45
219.946	-4.35
220.418	-4.25
220.889	-2.05
221.36	-0.65
221.832	-6.35
222.303	-7.65
222.774	0.75
223.245	-8.25
223.717	-3.25
224.188	-2.35
224.659	-5.25
225.13	-5.75
225.601	-2.45
226.072	2.95
226.543	-3.55
227.014	-4.25
227.485	-1.25
227.956	-9.85
228.427	-1.75
228.898	3.25
229.369	4.65
229.839	-5.45
230.31	-7.75
230.781	6.45
231.252	-2.45
231.722	-3.25
232.193	-2.25
232.664	-4.55
233.135	-2.05
233.605	-4.45
234.076	-2.55
234.546	-1.65
235.017	1.05
235.487	2.45
235.958	-2.25
236.428	-1.35
236.899	5.15
237.369	3.35
237.84	-2.55
238.31	7.65
238.78	5.65
239.251	3.15
239.721	4.05
240.191	-1.15
240.662	-4.15
241.132	-2.25
241.602	-3.65
242.072	-3.15
242.542	9.25
243.013	1.25
243.483	4.05
243.953	3.35
244.423	2.15
244.893	-3.25
245.363	3.45
245.833	1.75
246.303	-7.55
246.773	10.75
247.243	4.65
247.712	2.65
248.182	3.35
248.652	7.05
249.122	-2.45
249.592	10.65
250.061	17.45
250.531	35.35
251.001	14.95
251.471	25.15
251.94	19.65
252.41	7.25
252.879	1.85
253.349	11.95
253.818	15.95
254.288	7.75
254.757	5.35
255.227	4.55
255.696	6.35
256.166	4.95
256.635	8.55
257.105	6.55
257.574	7.75
258.043	10.65
258.513	10.05
258.982	16.95
259.451	13.75
259.92	14.35
260.389	14.55
260.859	14.85
261.328	13.75
261.797	19.85
262.266	7.15
262.735	6.75
263.204	4.35
263.673	1.05
264.142	3.75
264.611	-1.85
265.08	3.95
265.549	0.25
266.018	2.85
266.487	-1.55
266.955	-2.35
267.424	2.25
267.893	5.65
268.362	-1.05
268.83	9.45
269.299	8.55
269.768	3.95
270.236	6.95
270.705	1.55
271.174	9.55
271.642	10.65
272.111	10.05
272.579	14.55
273.048	21.25
273.516	23.35
273.985	29.95
274.453	19.55
274.922	20.45
275.39	13.15
275.858	1.25
276.327	13.35
276.795	18.35
277.263	11.55
277.731	32.65
278.2	56.25
278.668	55.75
279.136	48.55
279.604	24.65
280.072	16.55
280.54	12.85
281.008	12.95
281.477	18.25
281.945	13.65
282.413	15.95
282.881	8.45
283.348	6.05
283.816	17.75
284.284	12.65
284.752	23.65
285.22	15.05
285.688	18.25
286.156	15.85
286.623	42.65
287.091	53.55
287.559	28.25
288.026	16.25
288.494	14.25
288.962	8.95
289.429	10.25
289.897	16.85
290.364	12.15
290.832	18.05
291.3	14.95
291.767	17.35
292.234	18.75
292.702	18.65
293.169	21.15
293.637	25.35
294.104	20.25
294.571	12.25
295.039	12.05
295.506	15.85
295.973	20.25
296.44	19.45
296.908	14.05
297.375	23.35
297.842	21.85
298.309	16.25
298.776	16.65
299.243	20.75
299.71	18.45
300.177	24.45
300.644	25.25
301.111	25.25
301.578	24.55
302.045	17.35
302.512	22.45
302.979	18.55
303.446	27.75
303.913	21.65
304.379	19.65
304.846	29.95
305.313	27.45
305.78	22.65
306.246	27.05
306.713	29.95
307.18	21.25
307.646	24.75
308.113	29.05
308.579	28.55
309.046	27.35
309.512	28.95
309.979	19.25
310.445	25.15
310.912	31.55
311.378	26.35
311.845	31.85
312.311	33.35
312.777	31.45
313.244	30.45
313.71	40.05
314.176	34.05
314.642	33.55
315.109	32.45
315.575	34.55
316.041	38.75
316.507	25.95
316.973	38.55
317.439	33.15
317.905	38.95
318.371	35.05
318.837	27.75
319.303	33.65
319.769	32.45
320.235	38.15
320.701	36.05
321.167	36.75
321.633	35.55
322.099	45.05
322.564	48.55
323.03	36.95
323.496	38.85
323.962	46.45
324.427	34.85
324.893	49.35
325.359	38.95
325.824	37.75
326.29	35.35
326.755	38.85
327.221	45.05
327.686	37.95
328.152	48.75
328.617	44.35
329.083	48.85
329.548	54.45
330.014	52.35
330.479	41.15
330.944	45.45
331.41	44.35
331.875	43.25
332.34	41.45
332.805	51.25
333.271	49.05
333.736	46.75
334.201	54.95
334.666	52.25
335.131	56.05
335.596	46.55
336.061	55.25
336.526	42.25
336.991	41.25
337.456	58.15
337.921	48.35
338.386	38.95
338.851	45.65
339.316	48.05
339.781	44.85
340.246	51.45
340.711	51.15
341.175	51.25
341.64	42.25
342.105	51.75
342.569	54.55
343.034	63.65
343.499	56.55
343.963	55.05
344.428	65.45
344.893	56.95
345.357	61.75
345.822	56.05
346.286	70.65
346.751	76.45
347.215	66.25
347.679	74.55
348.144	102.35
348.608	83.95
349.073	68.45
349.537	75.75
350.001	78.35
350.465	88.85
350.93	77.95
351.394	84.15
351.858	79.25
352.322	91.35
352.786	89.85
353.25	104.65
353.715	115.05
354.179	101.85
354.643	124.05
355.107	129.05
355.571	104.35
356.035	109.75
356.498	120.65
356.962	128.95
357.426	131.85
357.89	122.15
358.354	93.25
358.818	86.05
359.281	81.85
359.745	75.75
360.209	74.35
360.673	72.25
361.136	78.25
361.6	82.25
362.064	87.15
362.527	87.65
362.991	95.35
363.454	79.95
363.918	79.65
364.381	82.35
364.845	84.15
365.308	86.55
365.772	86.95
366.235	87.95
366.698	91.45
367.162	91.25
367.625	85.95
368.088	83.45
368.552	91.45
369.015	88.15
369.478	96.45
369.941	95.25
370.404	92.65
370.867	101.75
371.331	113.95
371.794	114.95
372.257	113.95
372.72	116.55
373.183	116.35
373.646	107.85
374.109	102.35
374.572	110.75
375.035	113.35
375.497	108.15
375.96	108.35
376.423	106.65
376.886	117.25
377.349	112.45
377.811	101.85
378.274	108.55
378.737	104.95
379.199	110.95
379.662	113.05
380.125	117.65
380.587	119.65
381.05	123.55
381.512	133.75
381.975	133.95
382.437	128.55
382.9	122.25
383.362	131.75
383.825	145.25
384.287	144.95
384.75	146.25
385.212	142.05
385.674	140.25
386.136	141.35
386.599	129.55
387.061	125.25
387.523	124.75
387.985	130.55
388.447	149.15
388.91	156.15
389.372	161.75
389.834	152.45
390.296	148.55
390.758	148.75
391.22	166.25
391.682	208.85
392.144	294.55
392.606	225.95
393.068	165.65
393.529	168.85
393.991	154.95
394.453	147.95
394.915	156.15
395.377	186.65
395.838	214.35
396.3	160.25
396.762	142.95
397.224	130.45
397.685	129.75
398.147	127.35
398.608	133.65
399.07	131.15
399.531	129.65
399.993	147.95
400.454	157.35
400.916	143.55
401.377	142.15
401.839	149.55
402.3	151.95
402.762	163.55
403.223	184.35
403.684	175.65
404.145	166.25
404.607	160.35
405.068	169.35
405.529	173.85
405.99	188.95
406.451	184.75
406.913	180.25
407.374	163.85
407.835	158.35
408.296	163.05
408.757	175.95
409.218	183.85
409.679	175.85
410.14	180.95
410.601	177.25
411.062	180.55
411.522	195.35
411.983	184.85
412.444	171.05
412.905	177.45
413.366	182.55
413.826	196.35
414.287	216.55
414.748	265.45
415.208	246.05
415.669	211.45
416.13	205.35
416.59	199.15
417.051	215.05
417.511	213.05
417.972	233.55
418.432	248.65
418.893	293.95
419.353	253.25
419.814	196.15
420.274	181.75
420.734	183.65
421.195	199.95
421.655	204.45
422.115	192.85
422.576	185.05
423.036	189.65
423.496	213.15
423.956	221.85
424.416	229.65
424.876	263.45
425.336	260.25
425.797	264.65
426.257	260.35
426.717	243.65
427.177	232.85
427.637	230.15
428.097	233.95
428.556	245.05
429.016	271.65
429.476	260.55
429.936	271.55
430.396	280.95
430.856	289.05
431.315	315.55
431.775	351.05
432.235	381.15
432.694	360.85
433.154	368.25
433.614	398.95
434.073	340.15
434.533	280.35
434.993	276.15
435.452	286.85
435.912	301.15
436.371	296.05
436.83	288.75
437.29	272.05
437.749	251.95
438.209	248.65
438.668	269.75
439.127	287.55
439.587	264.85
440.046	246.95
440.505	260.15
440.964	281.25
441.424	326.75
441.883	315.25
442.342	266.55
442.801	221.65
443.26	222.65
443.719	217.95
444.178	219.95
444.637	209.55
445.096	224.35
445.555	219.95
446.014	216.35
446.473	215.45
446.932	231.45
447.391	228.35
447.849	230.25
448.308	220.05
448.767	217.65
449.226	232.35
449.685	241.35
450.143	253.35
450.602	237.05
451.061	224.95
451.519	227.75
451.978	236.35
452.436	232.05
452.895	244.15
453.353	251.95
453.812	234.65
454.27	242.65
454.729	239.85
455.187	241.05
455.646	248.95
456.104	250.85
456.562	256.05
457.021	266.35
457.479	265.05
457.937	272.05
458.395	262.55
458.854	245.45
459.312	258.45
459.77	279.85
460.228	259.85
460.686	240.35
461.144	241.95
461.602	248.35
462.06	244.45
462.518	250.35
462.976	255.35
463.434	259.45
463.892	263.55
464.35	278.75
464.808	294.85
465.266	264.05
465.724	273.15
466.181	277.15
466.639	269.65
467.097	293.65
467.555	299.05
468.012	301.25
468.47	320.45
468.928	332.55
469.385	352.95
469.843	353.55
470.3	361.25
470.758	367.05
471.215	382.55
471.673	411.25
472.13	410.25
472.588	424.55
473.045	377.95
473.503	378.55
473.96	393.15
474.417	411.95
474.875	429.35
475.332	480.45
475.789	465.75
476.246	472.15
476.704	487.95
477.161	513.35
477.618	532.25
478.075	563.55
478.532	620.35
478.989	696.05
479.446	821.65
479.903	785.15
480.36	818.45
480.817	880.35
481.274	975.65
481.731	1086.85
482.188	1183.45
482.645	1306.65
483.102	1416.85
483.558	1551.85
484.015	1598.75
484.472	1576.25
484.929	1533.75
485.385	1479.85
485.842	1452.55
486.299	1382.45
486.755	1306.95
487.212	1102.75
487.668	940.25
488.125	860.95
488.582	785.25
489.038	754.05
489.494	711.95
489.951	698.45
490.407	678.65
490.864	657.05
491.32	646.35
491.776	646.35
492.233	648.85
492.689	629.25
493.145	615.65
493.602	611.85
494.058	618.55
494.514	623.65
494.97	649.65
495.426	664.45
495.882	628.45
496.338	621.95
496.794	630.75
497.251	629.95
497.707	651.05
498.163	645.75
498.618	651.75
499.074	657.45
499.53	677.45
499.986	683.65
500.442	661.55
500.898	646.85
501.354	630.75
501.809	650.25
502.265	647.75
502.721	666.65
503.177	673.85
503.632	674.45
504.088	688.35
504.543	720.95
504.999	726.55
505.455	671.25
505.91	632.25
506.366	628.45
506.821	637.85
507.277	637.15
507.732	624.25
508.187	632.85
508.643	642.95
509.098	638.65
509.553	666.95
510.009	673.75
510.464	679.35
510.919	699.05
511.375	698.45
511.83	711.75
512.285	723.05
512.74	773.45
513.195	789.85
513.65	780.85
514.105	777.85
514.56	784.35
515.015	808.75
515.47	815.45
515.925	792.05
516.38	794.65
516.835	794.95
517.29	795.95
517.745	791.35
518.2	777.35
518.655	759.15
519.109	761.45
519.564	753.75
520.019	745.25
520.474	738.95
520.928	730.65
521.383	730.65
521.838	717.45
522.292	718.95
522.747	720.85
523.201	718.05
523.656	705.95
524.11	700.45
524.565	703.25
525.019	709.05
525.474	715.35
525.928	716.55
526.382	699.65
526.837	698.25
527.291	701.15
527.745	707.95
528.2	711.75
528.654	702.15
529.108	698.35
529.562	702.25
530.016	689.55
530.47	694.85
530.925	703.65
531.379	717.25
531.833	718.85
532.287	713.65
532.741	715.35
533.195	709.35
533.649	723.65
534.103	731.45
534.556	714.05
535.01	723.15
535.464	717.25
535.918	729.95
536.372	726.45
536.826	728.35
537.279	718.25
537.733	724.25
538.187	723.65
538.64	727.45
539.094	730.95
539.548	741.05
540.001	724.65
540.455	737.45
540.908	746.55
541.362	746.95
541.815	757.15
542.269	759.95
542.722	768.25
543.175	783.15
543.629	778.75
544.082	789.25
544.536	800.35
544.989	787.85
545.442	797.65
545.895	802.55
546.349	797.85
546.802	802.75
547.255	800.55
547.708	813.85
548.161	818.35
548.614	819.95
549.067	844.35
549.52	832.05
549.973	833.75
550.426	822.05
550.879	815.95
551.332	813.75
551.785	819.85
552.238	812.95
552.691	831.45
553.144	850.55
553.596	853.45
554.049	862.65
554.502	903.75
554.955	924.05
555.407	921.75
555.86	908.95
556.313	903.95
556.765	899.95
557.218	889.85
557.67	900.15
558.123	890.25
558.576	887.95
559.028	896.45
559.48	890.95
559.933	880.65
560.385	853.65
560.838	814.55
561.29	794.25
561.742	785.55
562.195	767.25
562.647	768.35
563.099	775.85
563.551	770.65
564.004	791.65
564.456	784.35
564.908	768.45
565.36	752.55
565.812	738.65
566.264	730.05
566.716	732.55
567.168	728.85
567.62	723.35
568.072	710.65
568.524	696.25
568.976	689.15
569.428	678.85
569.88	674.85
570.332	685.35
570.784	689.45
571.235	683.55
571.687	706.75
572.139	712.25
572.59	731.65
573.042	724.05
573.494	725.75
573.945	721.55
574.397	688.45
574.849	707.05
575.3	689.05
575.752	689.75
576.203	687.25
576.655	689.65
577.106	664.75
577.557	652.45
578.009	676.35
578.46	662.85
578.912	666.75
579.363	668.55
579.814	670.15
580.265	674.35
580.717	677.25
581.168	678.25
581.619	685.15
582.07	681.85
582.521	675.95
582.972	670.75
583.423	676.65
583.875	686.55
584.326	697.25
584.777	745.15
585.227	810.15
585.678	907.95
586.129	995.25
586.58	1061.05
587.031	1140.55
587.482	1292.55
587.933	1462.65
588.384	1278.45
588.834	959.65
589.285	810.85
589.736	776.55
590.186	781.25
590.637	772.95
591.088	744.05
591.538	735.85
591.989	732.85
592.439	733.75
592.89	723.95
593.34	717.95
593.791	707.45
594.241	709.65
594.692	706.55
595.142	702.35
595.593	707.65
596.043	704.05
596.493	717.75
596.943	718.15
597.394	724.05
597.844	713.65
598.294	722.25
598.744	749.65
599.195	761.65
599.645	808.55
600.095	853.35
600.545	916.95
600.995	969.85
601.445	1025.05
601.895	1096.45
602.345	1139.25
602.795	1117.55
603.245	1074.65
603.695	1013.15
604.145	961.35
604.594	908.45
605.044	858.25
605.494	788.65
605.944	752.35
606.393	738.55
606.843	728.35
607.293	731.65
607.743	732.45
608.192	736.05
608.642	760.55
609.091	773.45
609.541	768.85
609.99	769.35
610.44	766.15
610.889	713.65
611.339	707.65
611.788	679.95
612.238	689.05
612.687	710.05
613.136	709.65
613.586	727.35
614.035	728.85
614.484	758.95
614.933	752.65
615.383	743.75
615.832	738.45
616.281	723.95
616.73	689.75
617.179	661.45
617.628	651.75
618.077	630.05
618.526	616.65
618.975	610.15
619.424	614.85
619.873	613.15
620.322	615.65
620.771	602.95
621.22	600.15
621.669	598.75
622.118	584.15
622.567	577.45
623.015	570.95
623.464	576.85
623.913	561.05
624.361	555.05
624.81	541.25
625.259	555.65
625.707	556.05
626.156	553.55
626.604	556.35
627.053	556.85
627.501	563.75
627.95	562.25
628.398	575.25
628.847	567.15
629.295	569.45
629.744	567.15
630.192	564.85
630.64	567.85
631.089	556.85
631.537	567.45
631.985	579.05
632.433	595.55
632.881	603.15
633.33	650.65
633.778	635.85
634.226	572.15
634.674	564.05
635.122	573.75
635.57	597.65
636.018	622.75
636.466	579.05
636.914	555.95
637.362	569.15
637.81	569.65
638.258	573.35
638.705	572.25
639.153	601.15
639.601	608.75
640.049	626.75
640.497	665.95
640.944	684.75
641.392	642.85
641.84	604.95
642.287	577.95
642.735	565.15
643.182	571.55
643.63	579.05
644.078	573.05
644.525	579.45
644.973	584.45
645.42	596.65
645.867	615.85
646.315	633.15
646.762	654.95
647.21	675.25
647.657	707.25
648.104	733.15
648.551	765.05
648.999	827.25
649.446	907.15
649.893	991.95
650.34	1139.75
650.787	1361.75
651.234	1700.25
651.682	2203.85
652.129	3017.75
652.576	4375.55
653.023	6432.65
653.47	8838.15
653.917	11076.45
654.363	12811.75
654.81	14204.25
655.257	13524.35
655.704	8853.15
656.151	5244.75
656.598	3410.75
657.044	2395.15
657.491	1852.05
657.938	1478.25
658.385	1235.75
658.831	1063.15
659.278	944.65
659.724	845.45
660.171	772.25
660.618	721.25
661.064	679.15
661.511	654.05
661.957	649.45
662.404	641.45
662.85	657.35
663.296	617.75
663.743	550.05
664.189	533.95
664.635	528.85
665.082	522.65
665.528	516.55
665.974	502.05
666.42	496.15
666.867	503.95
667.313	480.95
667.759	475.95
668.205	470.05
668.651	483.95
669.097	471.25
669.543	492.15
669.989	464.45
670.435	438.95
670.881	441.55
671.327	440.15
671.773	460.95
672.219	477.65
672.665	532.05
673.11	576.35
673.556	617.25
674.002	650.35
674.448	647.85
674.893	544.55
675.339	470.65
675.785	425.55
676.23	411.15
676.676	376.15
677.122	382.45
677.567	366.85
678.013	356.85
678.458	351.75
678.904	360.05
679.349	347.75
679.794	346.05
680.24	344.25
680.685	346.45
681.131	342.15
681.576	343.35
682.021	348.95
682.466	343.35
682.912	338.55
683.357	341.25
683.802	374.65
684.247	399.25
684.692	447.75
685.137	485.45
685.583	527.35
686.028	555.35
686.473	511.55
686.918	434.05
687.363	413.55
687.807	389.45
688.252	363.85
688.697	343.35
689.142	327.45
689.587	327.85
690.032	318.25
690.477	338.35
690.921	341.35
691.366	370.35
691.811	394.15
692.255	420.95
692.7	452.85
693.145	482.85
693.589	671.15
694.034	1089.35
694.478	1502.45
694.923	1721.65
695.367	2226.65
695.812	1181.85
696.256	491.95
696.701	362.55
697.145	330.25
697.59	326.55
698.034	309.85
698.478	324.85
698.922	321.65
699.367	314.25
699.811	335.25
700.255	351.75
700.699	377.95
701.143	412.65
701.588	457.25
702.032	503.85
702.476	509.35
702.92	472.65
703.364	476.15
703.808	610.35
704.252	992.65
704.696	1405.75
705.14	1644.55
705.584	2089.85
706.027	1035.65
706.471	513.25
706.915	389.95
707.359	341.45
707.803	309.15
708.246	299.25
708.69	306.35
709.134	307.55
709.577	296.65
710.021	311.85
710.465	303.95
710.908	295.95
711.352	285.65
711.795	299.35
712.239	344.75
712.682	376.75
713.126	404.55
713.569	455.95
714.012	353.95
714.456	314.05
714.899	294.35
715.342	271.35
715.786	259.05
716.229	250.15
716.672	248.55
717.115	233.15
717.558	241.75
718.002	246.05
718.445	255.15
718.888	282.45
719.331	284.55
719.774	295.55
720.217	300.35
720.66	284.85
721.103	261.95
721.546	248.95
721.989	240.65
722.432	223.85
722.874	230.45
723.317	219.75
723.76	230.65
724.203	254.15
724.645	304.15
725.088	431.75
725.531	545.05
725.974	635.75
726.416	535.75
726.859	298.95
727.301	244.25
727.744	231.95
728.187	226.25
728.629	230.85
729.071	230.95
729.514	245.65
729.956	263.95
730.399	281.05
730.841	274.45
731.283	268.45
731.726	256.95
732.168	245.85
732.61	254.05
733.053	277.35
733.495	307.35
733.937	334.35
734.379	384.25
734.821	425.05
735.263	524.95
735.705	802.65
736.148	1500.45
736.59	2483.85
737.032	2990.45
737.474	2435.75
737.916	786.55
738.357	411.95
738.799	312.85
739.241	293.05
739.683	279.75
740.125	279.95
740.567	291.15
741.008	306.35
741.45	311.55
741.892	311.25
742.334	338.05
742.775	349.35
743.217	326.65
743.658	262.25
744.1	246.05
744.542	255.85
744.983	295.45
745.425	336.25
745.866	342.55
746.307	270.55
746.749	269.05
747.19	317.15
747.632	436.35
748.073	827.45
748.514	1773.05
748.956	2761.25
749.397	3456.65
749.838	2849.05
750.279	2887.85
750.72	1465.95
751.162	524.55
751.603	306.95
752.044	243.85
752.485	212.15
752.926	203.95
753.367	194.65
753.808	186.15
754.249	183.25
754.69	184.05
755.131	182.55
755.572	176.05
756.013	177.25
756.453	170.95
756.894	175.55
757.335	187.55
757.776	193.25
758.216	190.35
758.657	192.05
759.098	200.65
759.538	223.65
759.979	260.85
760.42	358.75
760.86	676.35
761.301	1718.35
761.741	4225.45
762.182	6263.85
