Data from 20171114-ORNL-Ar_H_NY_Subt18_08-09-12-222.txt Node
Date: Tue Nov 14 08:09:12 EST 2017
User: Ender
Spectrometer: HR+D1039
Trigger mode: 0
Integration Time (sec): 2.730000E-2
Scans to average: 10
Electric dark correction enabled: true
Nonlinearity correction enabled: false
Boxcar width: 0
XAxis mode: Wavelengths
Number of Pixels in Spectrum: 2048
>>>>>Begin Spectral Data<<<<<
187.836	-5.04
188.309	-5.04
188.782	-5.04
189.255	3.36
189.728	-2.34
190.201	6.16
190.674	0.46
191.147	4.56
191.619	-2.64
192.092	5.06
192.565	3.36
193.038	0.66
193.511	-1.84
193.984	-0.44
194.456	-5.64
194.929	-0.64
195.402	0.66
195.874	-5.74
196.347	0.26
196.82	-7.64
197.292	4.66
197.765	0.76
198.237	-10.64
198.71	1.76
199.182	0.36
199.655	3.16
200.127	0.56
200.6	-2.84
201.072	-4.04
201.544	-9.54
202.017	-1.54
202.489	1.16
202.961	-5.14
203.433	-2.24
203.906	-5.64
204.378	-4.44
204.85	-2.94
205.322	-8.24
205.794	-1.74
206.266	-5.74
206.739	-4.04
207.211	2.16
207.683	-12.64
208.155	-1.64
208.627	-3.34
209.099	-7.14
209.57	-5.24
210.042	-4.44
210.514	-5.24
210.986	-0.54
211.458	-9.34
211.93	-3.44
212.402	0.36
212.873	-12.94
213.345	-10.34
213.817	-15.94
214.288	-2.84
214.76	-8.54
215.232	-3.94
215.703	-4.84
216.175	-1.84
216.646	-9.94
217.118	-5.94
217.589	-6.34
218.061	-3.24
218.532	-7.44
219.004	0.16
219.475	-5.54
219.946	-0.04
220.418	-7.54
220.889	-0.44
221.36	-1.74
221.832	-9.44
222.303	-9.44
222.774	-1.44
223.245	-12.04
223.717	-9.44
224.188	-9.44
224.659	-7.34
225.13	-11.54
225.601	-6.34
226.072	1.66
226.543	-7.14
227.014	-3.24
227.485	-4.34
227.956	-11.14
228.427	-9.84
228.898	2.46
229.369	2.76
229.839	-5.14
230.31	-5.34
230.781	-5.24
231.252	-3.74
231.722	-6.34
232.193	-7.44
232.664	-7.44
233.135	-0.34
233.605	-8.04
234.076	-9.14
234.546	-4.04
235.017	1.16
235.487	-7.84
235.958	-7.74
236.428	-5.34
236.899	-2.24
237.369	0.56
237.84	-5.34
238.31	-0.84
238.78	-2.34
239.251	-3.44
239.721	-6.84
240.191	-3.74
240.662	-3.64
241.132	1.66
241.602	-7.24
242.072	-5.04
242.542	0.36
243.013	-4.24
243.483	-1.04
243.953	-3.64
244.423	-3.84
244.893	-10.64
245.363	-2.24
245.833	-0.74
246.303	-7.24
246.773	4.56
247.243	-0.54
247.712	1.36
248.182	4.96
248.652	5.56
249.122	-8.64
249.592	-3.74
250.061	5.56
250.531	14.76
251.001	1.16
251.471	7.76
251.94	5.76
252.41	-0.94
252.879	1.66
253.349	5.16
253.818	3.96
254.288	1.16
254.757	3.66
255.227	-9.64
255.696	-3.54
256.166	-0.04
256.635	-2.24
257.105	1.26
257.574	-2.64
258.043	-3.24
258.513	-4.64
258.982	1.76
259.451	-10.74
259.92	6.46
260.389	-1.04
260.859	9.26
261.328	-0.44
261.797	-4.44
262.266	-5.74
262.735	-1.04
263.204	2.36
263.673	-2.94
264.142	5.96
264.611	-8.04
265.08	-5.74
265.549	-7.84
266.018	2.76
266.487	-3.24
266.955	-5.54
267.424	-6.14
267.893	1.06
268.362	-2.14
268.83	-0.34
269.299	7.46
269.768	4.66
270.236	2.06
270.705	-0.04
271.174	-3.74
271.642	-2.64
272.111	4.76
272.579	5.56
273.048	2.96
273.516	11.16
273.985	6.16
274.453	8.26
274.922	6.16
275.39	3.76
275.858	-3.74
276.327	-0.64
276.795	8.66
277.263	4.56
277.731	15.86
278.2	15.56
278.668	17.76
279.136	13.36
279.604	1.96
280.072	0.96
280.54	4.36
281.008	2.96
281.477	10.26
281.945	6.76
282.413	5.16
282.881	7.66
283.348	2.36
283.816	1.16
284.284	6.76
284.752	18.56
285.22	5.36
285.688	4.96
286.156	0.86
286.623	20.36
287.091	17.26
287.559	16.16
288.026	8.06
288.494	8.56
288.962	-1.84
289.429	2.36
289.897	9.46
290.364	3.66
290.832	7.76
291.3	1.56
291.767	11.66
292.234	10.36
292.702	7.76
293.169	10.56
293.637	14.46
294.104	11.36
294.571	-0.84
295.039	9.06
295.506	3.06
295.973	4.36
296.44	8.46
296.908	7.36
297.375	8.96
297.842	6.86
298.309	10.46
298.776	3.46
299.243	11.36
299.71	7.86
300.177	11.76
300.644	12.36
301.111	13.26
301.578	13.86
302.045	7.66
302.512	15.56
302.979	9.56
303.446	15.86
303.913	13.86
304.379	11.56
304.846	20.86
305.313	12.26
305.78	5.46
306.246	11.96
306.713	16.36
307.18	13.06
307.646	16.46
308.113	19.16
308.579	14.56
309.046	19.46
309.512	17.66
309.979	5.66
310.445	16.06
310.912	16.06
311.378	24.06
311.845	19.16
312.311	19.16
312.777	23.56
313.244	22.26
313.71	25.96
314.176	21.06
314.642	22.36
315.109	16.76
315.575	26.96
316.041	23.16
316.507	17.26
316.973	25.76
317.439	25.66
317.905	23.46
318.371	22.56
318.837	25.36
319.303	18.46
319.769	22.46
320.235	24.46
320.701	24.86
321.167	18.66
321.633	21.36
322.099	31.56
322.564	30.46
323.03	30.46
323.496	27.86
323.962	23.16
324.427	27.56
324.893	30.06
325.359	32.16
325.824	26.66
326.29	29.76
326.755	25.36
327.221	31.06
327.686	24.36
328.152	36.06
328.617	31.46
329.083	37.36
329.548	41.26
330.014	39.26
330.479	27.46
330.944	33.96
331.41	30.86
331.875	31.26
332.34	29.96
332.805	32.76
333.271	35.06
333.736	27.76
334.201	33.26
334.666	38.26
335.131	42.26
335.596	39.36
336.061	35.96
336.526	26.66
336.991	29.26
337.456	39.46
337.921	41.26
338.386	36.06
338.851	36.56
339.316	33.56
339.781	35.06
340.246	43.86
340.711	34.76
341.175	41.46
341.64	38.76
342.105	39.36
342.569	41.16
343.034	41.66
343.499	37.46
343.963	40.46
344.428	48.56
344.893	47.16
345.357	52.46
345.822	45.36
346.286	48.06
346.751	52.06
347.215	53.06
347.679	54.26
348.144	69.36
348.608	60.56
349.073	52.46
349.537	54.26
350.001	53.76
350.465	66.86
350.93	57.36
351.394	59.46
351.858	59.96
352.322	70.16
352.786	61.06
353.25	74.26
353.715	85.56
354.179	74.46
354.643	92.66
355.107	84.76
355.571	85.36
356.035	75.56
356.498	81.16
356.962	90.36
357.426	98.86
357.89	90.76
358.354	68.06
358.818	66.66
359.281	61.46
359.745	59.86
360.209	61.96
360.673	54.36
361.136	67.36
361.6	70.36
362.064	71.86
362.527	71.66
362.991	75.36
363.454	63.96
363.918	57.86
364.381	64.56
364.845	65.96
365.308	73.46
365.772	68.76
366.235	68.76
366.698	63.86
367.162	71.56
367.625	71.76
368.088	73.36
368.552	76.86
369.015	75.46
369.478	79.06
369.941	85.86
370.404	79.46
370.867	82.96
371.331	85.26
371.794	87.36
372.257	80.26
372.72	96.16
373.183	84.36
373.646	76.06
374.109	79.36
374.572	86.66
375.035	87.76
375.497	91.46
375.96	87.66
376.423	86.26
376.886	92.36
377.349	89.06
377.811	85.26
378.274	87.86
378.737	83.26
379.199	92.36
379.662	97.76
380.125	92.96
380.587	98.56
381.05	98.76
381.512	98.96
381.975	110.56
382.437	105.26
382.9	102.46
383.362	110.76
383.825	113.06
384.287	117.26
384.75	116.86
385.212	116.56
385.674	113.96
386.136	119.16
386.599	110.26
387.061	111.26
387.523	110.06
387.985	111.16
388.447	120.06
388.91	114.96
389.372	120.56
389.834	121.36
390.296	119.46
390.758	128.66
391.22	131.36
391.682	148.96
392.144	177.16
392.606	145.46
393.068	127.46
393.529	145.46
393.991	127.46
394.453	116.16
394.915	124.16
395.377	144.46
395.838	153.16
396.3	130.26
396.762	129.96
397.224	125.96
397.685	118.26
398.147	119.56
398.608	121.86
399.07	120.06
399.531	123.66
399.993	133.56
400.454	138.56
400.916	138.76
401.377	135.86
401.839	136.76
402.3	138.86
402.762	148.96
403.223	167.86
403.684	149.46
404.145	153.86
404.607	149.06
405.068	151.66
405.529	159.56
405.99	164.26
406.451	156.06
406.913	159.66
407.374	157.56
407.835	148.46
408.296	158.96
408.757	158.86
409.218	166.06
409.679	164.66
410.14	161.36
410.601	169.06
411.062	169.16
411.522	170.46
411.983	171.36
412.444	162.56
412.905	168.76
413.366	174.06
413.826	188.06
414.287	212.16
414.748	252.26
415.208	239.86
415.669	204.46
416.13	196.26
416.59	193.66
417.051	210.06
417.511	210.96
417.972	232.96
418.432	244.36
418.893	277.26
419.353	236.66
419.814	199.16
420.274	179.36
420.734	171.16
421.195	183.96
421.655	182.26
422.115	183.86
422.576	184.86
423.036	189.96
423.496	209.66
423.956	210.86
424.416	219.16
424.876	255.46
425.336	246.36
425.797	251.36
426.257	242.36
426.717	226.96
427.177	217.56
427.637	207.56
428.097	220.46
428.556	231.06
429.016	258.16
429.476	248.86
429.936	258.36
430.396	260.06
430.856	270.66
431.315	291.06
431.775	329.86
432.235	353.76
432.694	330.76
433.154	337.26
433.614	369.16
434.073	310.46
434.533	270.36
434.993	250.56
435.452	270.46
435.912	274.76
436.371	276.56
436.83	262.06
437.29	252.86
437.749	238.76
438.209	234.26
438.668	259.96
439.127	264.66
439.587	253.26
440.046	230.16
440.505	245.96
440.964	267.66
441.424	295.46
441.883	294.56
442.342	259.16
442.801	213.66
443.26	220.76
443.719	218.86
444.178	216.06
444.637	203.06
445.096	221.66
445.555	213.46
446.014	211.66
446.473	222.66
446.932	229.06
447.391	226.76
447.849	224.76
448.308	211.56
448.767	213.36
449.226	230.56
449.685	231.66
450.143	248.26
450.602	230.96
451.061	219.16
451.519	218.06
451.978	225.46
452.436	235.96
452.895	235.76
453.353	236.36
453.812	237.26
454.27	232.16
454.729	237.56
455.187	232.16
455.646	241.06
456.104	250.26
456.562	252.46
457.021	266.56
457.479	255.36
457.937	269.56
458.395	264.46
458.854	245.76
459.312	249.26
459.77	266.16
460.228	246.16
460.686	242.66
461.144	247.96
461.602	249.26
462.06	253.76
462.518	249.36
462.976	252.66
463.434	257.46
463.892	249.06
464.35	266.66
464.808	274.06
465.266	264.86
465.724	264.76
466.181	270.46
466.639	275.06
467.097	290.66
467.555	297.66
468.012	296.26
468.47	302.96
468.928	328.06
469.385	333.56
469.843	337.76
470.3	343.56
470.758	345.36
471.215	377.06
471.673	400.56
472.13	397.16
472.588	411.26
473.045	371.26
473.503	367.86
473.96	392.46
474.417	404.56
474.875	424.06
475.332	465.76
475.789	460.26
476.246	462.26
476.704	481.86
477.161	495.36
477.618	516.16
478.075	548.06
478.532	595.96
478.989	666.56
479.446	772.86
479.903	743.76
480.36	762.46
480.817	806.76
481.274	910.06
481.731	992.46
482.188	1076.36
482.645	1200.46
483.102	1273.76
483.558	1412.16
484.015	1433.86
484.472	1413.16
484.929	1387.16
485.385	1336.56
485.842	1312.16
486.299	1257.46
486.755	1202.66
487.212	1020.06
487.668	882.76
488.125	817.16
488.582	754.86
489.038	723.66
489.494	687.46
489.951	665.66
490.407	648.76
490.864	637.36
491.32	619.06
491.776	627.76
492.233	631.76
492.689	604.16
493.145	602.86
493.602	590.36
494.058	605.76
494.514	609.76
494.97	620.16
495.426	627.86
495.882	609.06
496.338	600.96
496.794	618.76
497.251	604.36
497.707	616.86
498.163	625.26
498.618	624.76
499.074	622.76
499.53	653.16
499.986	655.76
500.442	634.16
500.898	617.06
501.354	612.66
501.809	617.16
502.265	624.66
502.721	637.86
503.177	640.16
503.632	630.26
504.088	646.56
504.543	682.16
504.999	687.76
505.455	639.06
505.91	627.76
506.366	638.66
506.821	620.36
507.277	623.06
507.732	629.96
508.187	628.86
508.643	631.06
509.098	640.16
509.553	654.16
510.009	658.16
510.464	666.16
510.919	679.86
511.375	681.86
511.83	701.26
512.285	715.26
512.74	744.16
513.195	762.66
513.65	771.36
514.105	761.26
514.56	755.76
515.015	789.56
515.47	794.86
515.925	774.86
516.38	781.96
516.835	785.76
517.29	772.06
517.745	770.66
518.2	754.56
518.655	748.36
519.109	741.66
519.564	737.76
520.019	729.96
520.474	722.76
520.928	727.76
521.383	716.36
521.838	707.26
522.292	705.46
522.747	718.56
523.201	699.16
523.656	700.76
524.11	701.96
524.565	688.26
525.019	686.46
525.474	689.86
525.928	700.66
526.382	696.56
526.837	686.96
527.291	705.76
527.745	695.36
528.2	692.46
528.654	692.76
529.108	686.06
529.562	684.86
530.016	692.16
530.47	685.16
530.925	686.96
531.379	693.66
531.833	688.76
532.287	699.66
532.741	688.26
533.195	699.76
533.649	710.26
534.103	719.46
534.556	705.06
535.01	709.06
535.464	699.46
535.918	702.56
536.372	708.06
536.826	718.76
537.279	698.26
537.733	712.06
538.187	712.26
538.64	706.76
539.094	723.36
539.548	729.56
540.001	722.36
540.455	733.76
540.908	736.66
541.362	751.36
541.815	740.86
542.269	757.66
542.722	758.56
543.175	771.06
543.629	781.46
544.082	790.36
544.536	788.06
544.989	787.76
545.442	799.26
545.895	797.26
546.349	798.86
546.802	796.56
547.255	804.56
547.708	800.96
548.161	823.56
548.614	835.06
549.067	828.46
549.52	815.16
549.973	816.36
550.426	814.36
550.879	807.66
551.332	809.96
551.785	799.16
552.238	811.26
552.691	812.16
553.144	845.46
553.596	850.26
554.049	868.76
554.502	897.26
554.955	912.46
555.407	902.96
555.86	894.96
556.313	895.46
556.765	879.16
557.218	884.16
557.67	885.56
558.123	887.26
558.576	873.46
559.028	881.86
559.48	886.96
559.933	874.16
560.385	854.46
560.838	821.86
561.29	797.76
561.742	802.76
562.195	772.86
562.647	775.86
563.099	786.66
563.551	780.76
564.004	795.66
564.456	780.66
564.908	771.36
565.36	758.26
565.812	740.86
566.264	730.06
566.716	733.06
567.168	710.66
567.62	716.36
568.072	703.26
568.524	695.26
568.976	695.26
569.428	689.46
569.88	681.06
570.332	701.16
570.784	697.36
571.235	688.06
571.687	701.66
572.139	694.46
572.59	722.46
573.042	710.96
573.494	717.06
573.945	707.06
574.397	695.06
574.849	698.76
575.3	706.06
575.752	696.86
576.203	686.66
576.655	690.76
577.106	679.96
577.557	673.46
578.009	668.56
578.46	675.66
578.912	665.16
579.363	666.46
579.814	674.66
580.265	670.86
580.717	676.86
581.168	678.56
581.619	683.76
582.07	695.16
582.521	688.56
582.972	674.86
583.423	676.86
583.875	687.76
584.326	691.66
584.777	719.26
585.227	760.86
585.678	799.66
586.129	833.36
586.58	863.06
587.031	909.76
587.482	973.86
587.933	1043.06
588.384	970.16
588.834	851.06
589.285	801.76
589.736	788.66
590.186	783.66
590.637	764.96
591.088	765.96
591.538	752.16
591.989	748.56
592.439	738.46
592.89	728.26
593.34	717.36
593.791	711.76
594.241	712.66
594.692	716.36
595.142	701.56
595.593	707.36
596.043	697.16
596.493	714.96
596.943	714.26
597.394	727.16
597.844	727.76
598.294	743.16
598.744	771.06
599.195	796.76
599.645	843.46
600.095	876.16
600.545	942.66
600.995	991.06
601.445	1043.76
601.895	1100.46
602.345	1155.16
602.795	1134.46
603.245	1088.76
603.695	1023.86
604.145	961.56
604.594	933.46
605.044	875.16
605.494	819.76
605.944	766.76
606.393	757.96
606.843	742.06
607.293	745.46
607.743	742.36
608.192	754.86
608.642	758.56
609.091	774.26
609.541	773.66
609.99	770.36
610.44	770.96
610.889	729.96
611.339	717.86
611.788	690.16
612.238	709.26
612.687	718.06
613.136	708.76
613.586	718.26
614.035	722.96
614.484	728.86
614.933	724.06
615.383	726.66
615.832	720.96
616.281	714.46
616.73	680.06
617.179	673.26
617.628	653.96
618.077	646.86
618.526	627.26
618.975	629.86
619.424	627.66
619.873	624.16
620.322	628.06
620.771	616.06
621.22	603.26
621.669	598.46
622.118	603.36
622.567	586.96
623.015	576.46
623.464	575.66
623.913	576.26
624.361	560.56
624.81	555.66
625.259	556.56
625.707	561.66
626.156	563.56
626.604	571.46
627.053	577.76
627.501	571.76
627.95	583.06
628.398	593.86
628.847	584.76
629.295	580.06
629.744	584.46
630.192	582.66
630.64	571.26
631.089	557.86
631.537	563.06
631.985	556.06
632.433	566.86
632.881	555.86
633.33	580.76
633.778	559.36
634.226	539.36
634.674	556.96
635.122	553.56
635.57	568.36
636.018	582.46
636.466	571.76
636.914	572.16
637.362	574.46
637.81	582.76
638.258	590.76
638.705	598.36
639.153	627.56
639.601	630.76
640.049	660.16
640.497	685.66
640.944	710.16
641.392	660.96
641.84	617.16
642.287	597.06
642.735	579.86
643.182	574.96
643.63	576.46
644.078	578.76
644.525	590.86
644.973	592.26
645.42	597.76
645.867	620.96
646.315	638.56
646.762	671.26
647.21	696.66
647.657	707.26
648.104	756.16
648.551	763.86
648.999	828.56
649.446	917.96
649.893	995.26
650.34	1127.26
650.787	1372.76
651.234	1674.96
651.682	2190.56
652.129	2979.86
652.576	4259.86
653.023	6228.86
653.47	8403.56
653.917	10380.06
654.363	11844.26
654.81	13004.86
655.257	12339.26
655.704	8133.36
656.151	4874.76
656.598	3196.46
657.044	2289.96
657.491	1764.96
657.938	1432.96
658.385	1208.86
658.831	1047.76
659.278	938.96
659.724	834.56
660.171	782.46
660.618	719.76
661.064	689.66
661.511	671.26
661.957	653.36
662.404	632.76
662.85	647.96
663.296	629.86
663.743	571.76
664.189	553.86
664.635	545.56
665.082	539.96
665.528	538.46
665.974	528.16
666.42	522.46
666.867	514.06
667.313	496.16
667.759	485.76
668.205	472.26
668.651	473.66
669.097	463.96
669.543	459.66
669.989	459.46
670.435	461.56
670.881	448.56
671.327	459.36
671.773	479.46
672.219	504.86
672.665	559.36
673.11	605.46
673.556	653.76
674.002	687.76
674.448	666.16
674.893	568.56
675.339	487.96
675.785	447.66
676.23	438.46
676.676	405.66
677.122	392.96
677.567	381.26
678.013	369.56
678.458	357.86
678.904	364.86
679.349	360.66
679.794	358.26
680.24	364.46
680.685	360.36
681.131	365.26
681.576	353.66
682.021	367.16
682.466	359.96
682.912	357.56
683.357	365.16
683.802	403.86
684.247	430.46
684.692	468.46
685.137	513.26
685.583	543.36
686.028	584.06
686.473	535.46
686.918	462.06
687.363	434.56
687.807	409.16
688.252	377.76
688.697	363.56
689.142	345.36
689.587	343.66
690.032	337.66
690.477	357.16
690.921	365.06
691.366	394.56
691.811	413.26
692.255	446.16
692.7	472.76
693.145	523.66
693.589	749.96
694.034	1209.96
694.478	1644.46
694.923	1791.06
695.367	2333.96
695.812	1237.76
696.256	526.36
696.701	390.06
697.145	360.06
697.59	336.46
698.034	340.46
698.478	326.86
698.922	332.96
699.367	334.16
699.811	343.76
700.255	361.46
700.699	400.96
701.143	445.26
701.588	492.06
702.032	524.96
702.476	528.06
702.92	511.06
703.364	523.96
703.808	692.36
704.252	1121.06
704.696	1534.16
705.14	1729.76
705.584	2187.96
706.027	1114.16
706.471	548.46
706.915	414.96
707.359	366.16
707.803	337.76
708.246	314.16
708.69	324.66
709.134	329.26
709.577	321.26
710.021	333.56
710.465	317.16
710.908	304.36
711.352	307.86
711.795	325.06
712.239	364.66
712.682	402.46
713.126	432.26
713.569	472.46
714.012	377.26
714.456	321.46
714.899	300.16
715.342	284.76
715.786	257.86
716.229	262.26
716.672	264.86
717.115	258.26
717.558	252.96
718.002	261.16
718.445	269.36
718.888	297.56
719.331	307.06
719.774	326.66
720.217	319.76
720.66	296.66
721.103	277.86
721.546	264.16
721.989	257.76
722.432	235.16
722.874	234.76
723.317	234.86
723.76	237.56
724.203	262.96
724.645	344.96
725.088	469.36
725.531	596.16
725.974	665.76
726.416	564.66
726.859	323.06
727.301	254.66
727.744	241.66
728.187	242.76
728.629	250.56
729.071	257.06
729.514	266.46
729.956	283.66
730.399	287.56
730.841	306.76
731.283	281.46
731.726	272.56
732.168	268.56
732.61	277.76
733.053	301.56
733.495	326.66
733.937	377.76
734.379	419.86
734.821	455.66
735.263	586.56
735.705	919.26
736.148	1736.36
736.59	2765.36
737.032	3140.56
737.474	2568.06
737.916	862.06
738.357	446.86
738.799	341.76
739.241	304.66
739.683	298.56
740.125	312.06
740.567	318.16
741.008	324.46
741.45	329.36
741.892	327.86
742.334	366.46
742.775	370.06
743.217	357.86
743.658	279.76
744.1	263.76
744.542	278.46
744.983	331.86
745.425	362.06
745.866	363.86
746.307	291.76
746.749	287.56
747.19	351.06
747.632	494.16
748.073	981.36
748.514	2027.96
748.956	3004.36
749.397	3822.56
749.838	3149.66
750.279	3058.66
750.72	1568.36
751.162	576.76
751.603	342.66
752.044	270.66
752.485	227.66
752.926	217.26
753.367	209.16
753.808	202.26
754.249	193.96
754.69	191.96
755.131	194.26
755.572	185.96
756.013	187.36
756.453	189.26
756.894	193.36
757.335	193.66
757.776	206.66
758.216	207.56
758.657	204.86
759.098	214.06
759.538	237.56
759.979	279.16
760.42	406.06
760.86	789.16
761.301	2068.66
761.741	4806.16
762.182	6594.86
762.622	4674.26
763.063	1383.06
763.503	567.46
