Data from 20171114-ORNL-Ar_H_NY_Subt18_08-04-50-925.txt Node
Date: Tue Nov 14 08:04:50 EST 2017
User: Ender
Spectrometer: HR+D1039
Trigger mode: 0
Integration Time (sec): 2.730000E-2
Scans to average: 10
Electric dark correction enabled: true
Nonlinearity correction enabled: false
Boxcar width: 0
XAxis mode: Wavelengths
Number of Pixels in Spectrum: 2048
>>>>>Begin Spectral Data<<<<<
187.836	-2.05
188.309	-2.05
188.782	-2.05
189.255	4.15
189.728	-3.65
190.201	3.15
190.674	-1.45
191.147	6.25
191.619	-7.65
192.092	3.95
192.565	0.95
193.038	-1.05
193.511	3.85
193.984	-1.05
194.456	-3.85
194.929	-0.75
195.402	-1.65
195.874	0.85
196.347	1.45
196.82	-8.25
197.292	5.55
197.765	-3.95
198.237	-7.75
198.71	1.85
199.182	-7.75
199.655	5.55
200.127	1.05
200.6	-3.55
201.072	-5.55
201.544	-4.65
202.017	-1.65
202.489	2.55
202.961	-3.25
203.433	-0.85
203.906	-2.75
204.378	-6.15
204.85	1.65
205.322	-5.65
205.794	-5.25
206.266	-3.85
206.739	-7.45
207.211	1.95
207.683	-8.55
208.155	-7.05
208.627	-6.75
209.099	-6.15
209.57	-8.35
210.042	-3.35
210.514	-1.75
210.986	4.45
211.458	-8.45
211.93	-1.45
212.402	-0.25
212.873	-13.45
213.345	-12.15
213.817	-14.55
214.288	-3.95
214.76	-10.75
215.232	-3.45
215.703	-3.35
216.175	-9.35
216.646	-4.35
217.118	-3.45
217.589	-5.25
218.061	-4.15
218.532	0.25
219.004	-2.75
219.475	1.75
219.946	-6.75
220.418	-6.35
220.889	0.25
221.36	-3.25
221.832	0.05
222.303	-9.95
222.774	-0.05
223.245	-11.65
223.717	-5.55
224.188	-5.85
224.659	-10.75
225.13	-4.65
225.601	-0.15
226.072	5.45
226.543	3.15
227.014	1.45
227.485	-0.85
227.956	-5.55
228.427	-2.05
228.898	1.25
229.369	-0.65
229.839	-8.45
230.31	-1.75
230.781	0.25
231.252	-2.95
231.722	-5.95
232.193	6.05
232.664	-4.75
233.135	3.35
233.605	-1.85
234.076	-5.35
234.546	0.75
235.017	3.65
235.487	5.95
235.958	0.05
236.428	-6.35
236.899	-0.65
237.369	1.35
237.84	-0.55
238.31	7.55
238.78	5.75
239.251	-4.55
239.721	-4.15
240.191	3.45
240.662	-0.85
241.132	3.75
241.602	-0.35
242.072	3.35
242.542	11.55
243.013	1.45
243.483	0.85
243.953	4.65
244.423	-3.45
244.893	-0.75
245.363	1.25
245.833	1.85
246.303	4.55
246.773	16.25
247.243	0.05
247.712	-0.05
248.182	9.65
248.652	14.05
249.122	-1.35
249.592	15.05
250.061	27.75
250.531	33.75
251.001	19.65
251.471	23.85
251.94	16.85
252.41	3.15
252.879	-0.85
253.349	14.95
253.818	8.65
254.288	5.45
254.757	9.75
255.227	1.85
255.696	10.95
256.166	7.75
256.635	9.95
257.105	10.65
257.574	5.85
258.043	4.75
258.513	13.35
258.982	20.55
259.451	6.55
259.92	17.35
260.389	14.15
260.859	16.15
261.328	12.85
261.797	20.05
262.266	15.75
262.735	11.75
263.204	8.45
263.673	4.55
264.142	5.95
264.611	-3.05
265.08	8.05
265.549	0.85
266.018	13.05
266.487	-4.75
266.955	1.65
267.424	-1.75
267.893	4.85
268.362	7.65
268.83	11.55
269.299	16.05
269.768	7.35
270.236	10.45
270.705	4.05
271.174	9.25
271.642	16.45
272.111	10.75
272.579	17.65
273.048	27.85
273.516	34.15
273.985	29.65
274.453	19.75
274.922	17.45
275.39	13.35
275.858	9.75
276.327	15.55
276.795	14.95
277.263	9.55
277.731	32.35
278.2	50.65
278.668	60.55
279.136	49.05
279.604	20.05
280.072	18.85
280.54	14.25
281.008	13.25
281.477	12.35
281.945	10.15
282.413	13.35
282.881	22.85
283.348	12.95
283.816	23.05
284.284	14.65
284.752	24.65
285.22	19.55
285.688	17.95
286.156	18.95
286.623	48.75
287.091	56.85
287.559	31.05
288.026	19.55
288.494	21.25
288.962	11.75
289.429	10.25
289.897	17.25
290.364	17.35
290.832	19.05
291.3	17.95
291.767	17.45
292.234	27.05
292.702	9.95
293.169	20.75
293.637	28.55
294.104	20.75
294.571	16.55
295.039	12.15
295.506	20.95
295.973	21.05
296.44	22.65
296.908	15.85
297.375	21.75
297.842	23.75
298.309	22.55
298.776	15.65
299.243	22.45
299.71	18.25
300.177	19.55
300.644	25.75
301.111	20.35
301.578	25.45
302.045	15.85
302.512	29.25
302.979	21.15
303.446	28.25
303.913	17.05
304.379	19.65
304.846	28.05
305.313	25.75
305.78	22.85
306.246	29.45
306.713	29.05
307.18	30.85
307.646	33.25
308.113	31.75
308.579	23.25
309.046	29.75
309.512	33.95
309.979	23.15
310.445	31.15
310.912	28.25
311.378	34.85
311.845	29.95
312.311	34.95
312.777	31.75
313.244	31.85
313.71	39.15
314.176	35.05
314.642	28.05
315.109	34.35
315.575	37.95
316.041	46.65
316.507	37.05
316.973	35.05
317.439	33.25
317.905	40.25
318.371	37.35
318.837	34.05
319.303	34.65
319.769	42.25
320.235	33.85
320.701	42.45
321.167	35.85
321.633	35.25
322.099	37.65
322.564	50.75
323.03	38.25
323.496	34.25
323.962	44.65
324.427	37.25
324.893	41.45
325.359	38.55
325.824	36.05
326.29	38.55
326.755	44.75
327.221	40.95
327.686	40.15
328.152	47.05
328.617	39.85
329.083	49.65
329.548	52.95
330.014	47.65
330.479	37.45
330.944	45.15
331.41	46.55
331.875	42.25
332.34	46.25
332.805	43.25
333.271	51.35
333.736	47.65
334.201	56.45
334.666	55.05
335.131	57.35
335.596	53.75
336.061	48.35
336.526	43.45
336.991	46.75
337.456	52.65
337.921	50.55
338.386	44.05
338.851	47.45
339.316	57.75
339.781	51.15
340.246	55.65
340.711	48.95
341.175	48.45
341.64	45.45
342.105	58.05
342.569	57.85
343.034	59.15
343.499	55.05
343.963	55.15
344.428	60.85
344.893	55.45
345.357	53.35
345.822	57.15
346.286	69.35
346.751	78.15
347.215	66.55
347.679	74.85
348.144	97.85
348.608	85.85
349.073	69.15
349.537	70.45
350.001	78.65
350.465	96.25
350.93	76.35
351.394	83.25
351.858	73.85
352.322	97.85
352.786	86.75
353.25	99.75
353.715	108.35
354.179	100.85
354.643	120.35
355.107	127.95
355.571	111.05
356.035	106.15
356.498	110.65
356.962	120.95
357.426	131.95
357.89	116.25
358.354	84.85
358.818	81.75
359.281	80.85
359.745	83.35
360.209	80.25
360.673	70.65
361.136	77.55
361.6	80.95
362.064	82.45
362.527	85.95
362.991	85.45
363.454	80.75
363.918	75.95
364.381	78.45
364.845	87.45
365.308	81.75
365.772	86.65
366.235	80.85
366.698	84.35
367.162	86.35
367.625	82.05
368.088	91.75
368.552	86.05
369.015	86.45
369.478	95.25
369.941	96.65
370.404	94.65
370.867	98.45
371.331	105.25
371.794	113.35
372.257	101.15
372.72	113.15
373.183	110.25
373.646	101.35
374.109	103.65
374.572	107.95
375.035	108.05
375.497	110.75
375.96	102.65
376.423	102.65
376.886	110.65
377.349	104.05
377.811	102.95
378.274	105.15
378.737	106.35
379.199	106.85
379.662	102.45
380.125	114.95
380.587	113.75
381.05	122.05
381.512	124.65
381.975	128.45
382.437	120.85
382.9	122.25
383.362	126.45
383.825	140.05
384.287	140.05
384.75	130.85
385.212	136.25
385.674	131.65
386.136	132.25
386.599	124.15
387.061	128.75
387.523	127.75
387.985	127.25
388.447	139.75
388.91	135.75
389.372	152.25
389.834	148.75
390.296	136.45
390.758	148.45
391.22	159.95
391.682	200.35
392.144	280.15
392.606	218.85
393.068	159.25
393.529	167.25
393.991	145.95
394.453	144.25
394.915	152.45
395.377	180.95
395.838	205.25
396.3	153.95
396.762	135.95
397.224	132.55
397.685	127.45
398.147	122.75
398.608	124.95
399.07	125.05
399.531	128.25
399.993	131.75
400.454	146.05
400.916	139.85
401.377	140.05
401.839	151.15
402.3	143.95
402.762	161.65
403.223	175.15
403.684	165.55
404.145	150.35
404.607	152.75
405.068	161.45
405.529	156.05
405.99	180.25
406.451	167.95
406.913	168.85
407.374	150.45
407.835	151.75
408.296	157.55
408.757	160.35
409.218	181.25
409.679	171.85
410.14	175.75
410.601	170.35
411.062	180.25
411.522	180.25
411.983	180.65
412.444	171.95
412.905	173.55
413.366	174.55
413.826	189.95
414.287	206.55
414.748	249.45
415.208	232.15
415.669	196.65
416.13	199.45
416.59	191.75
417.051	204.75
417.511	200.85
417.972	221.05
418.432	233.35
418.893	274.45
419.353	234.65
419.814	182.45
420.274	172.85
420.734	169.95
421.195	189.25
421.655	188.25
422.115	186.85
422.576	185.25
423.036	194.15
423.496	197.85
423.956	208.85
424.416	220.05
424.876	252.95
425.336	246.05
425.797	248.35
426.257	242.55
426.717	220.15
427.177	218.45
427.637	218.05
428.097	221.55
428.556	232.35
429.016	257.95
429.476	257.05
429.936	265.15
430.396	267.75
430.856	281.95
431.315	304.85
431.775	335.85
432.235	359.65
432.694	335.65
433.154	343.65
433.614	374.15
434.073	316.25
434.533	274.25
434.993	259.65
435.452	274.15
435.912	279.95
436.371	275.55
436.83	270.95
437.29	256.15
437.749	231.75
438.209	236.05
438.668	266.35
439.127	272.15
439.587	247.25
440.046	237.65
440.505	249.75
440.964	273.75
441.424	307.05
441.883	300.85
442.342	250.65
442.801	217.15
443.26	211.55
443.719	207.35
444.178	207.45
444.637	201.85
445.096	209.45
445.555	213.95
446.014	213.15
446.473	219.65
446.932	220.55
447.391	215.95
447.849	211.45
448.308	206.85
448.767	216.05
449.226	221.55
449.685	223.15
450.143	235.85
450.602	231.45
451.061	218.75
451.519	221.95
451.978	224.15
452.436	224.75
452.895	224.25
453.353	237.05
453.812	220.85
454.27	237.45
454.729	223.85
455.187	229.15
455.646	233.65
456.104	241.25
456.562	246.95
457.021	256.15
457.479	251.85
457.937	263.15
458.395	250.45
458.854	236.15
459.312	244.95
459.77	259.05
460.228	241.75
460.686	233.05
461.144	239.35
461.602	232.15
462.06	227.25
462.518	241.65
462.976	246.35
463.434	252.85
463.892	247.55
464.35	258.85
464.808	269.35
465.266	253.85
465.724	255.25
466.181	261.65
466.639	261.75
467.097	275.55
467.555	278.05
468.012	283.65
468.47	293.35
468.928	317.65
469.385	323.45
469.843	334.25
470.3	330.95
470.758	351.85
471.215	361.75
471.673	391.05
472.13	388.35
472.588	397.75
473.045	351.65
473.503	355.55
473.96	375.85
474.417	382.75
474.875	417.85
475.332	445.35
475.789	438.45
476.246	436.75
476.704	457.15
477.161	484.45
477.618	498.65
478.075	534.45
478.532	577.75
478.989	660.45
479.446	770.95
479.903	747.45
480.36	773.35
480.817	834.25
481.274	929.55
481.731	1022.75
482.188	1127.55
482.645	1251.45
483.102	1359.45
483.558	1484.65
484.015	1562.05
484.472	1516.25
484.929	1470.45
485.385	1435.65
485.842	1375.75
486.299	1314.55
486.755	1250.65
487.212	1040.25
487.668	883.05
488.125	815.15
488.582	742.95
489.038	726.55
489.494	677.85
489.951	661.75
490.407	643.25
490.864	626.35
491.32	616.95
491.776	610.75
492.233	613.95
492.689	581.25
493.145	567.35
493.602	566.55
494.058	581.35
494.514	586.65
494.97	604.35
495.426	624.85
495.882	596.95
496.338	600.25
496.794	598.45
497.251	591.05
497.707	612.25
498.163	616.05
498.618	617.15
499.074	620.05
499.53	647.25
499.986	648.75
500.442	628.45
500.898	611.85
501.354	583.85
501.809	605.55
502.265	615.75
502.721	623.75
503.177	647.45
503.632	634.55
504.088	642.55
504.543	681.35
504.999	675.45
505.455	615.45
505.91	604.15
506.366	604.75
506.821	596.55
507.277	590.75
507.732	595.25
508.187	598.95
508.643	600.65
509.098	606.05
509.553	627.85
510.009	636.25
510.464	645.55
510.919	663.75
511.375	660.05
511.83	675.35
512.285	695.55
512.74	719.15
513.195	744.95
513.65	746.95
514.105	732.05
514.56	738.25
515.015	761.55
515.47	776.65
515.925	756.15
516.38	755.55
516.835	768.05
517.29	754.15
517.745	744.35
518.2	731.55
518.655	708.65
519.109	706.15
519.564	703.95
520.019	690.65
520.474	700.25
520.928	695.05
521.383	694.85
521.838	676.25
522.292	678.35
522.747	686.05
523.201	683.75
523.656	665.75
524.11	660.05
524.565	659.45
525.019	653.95
525.474	663.65
525.928	665.45
526.382	666.25
526.837	659.95
527.291	658.25
527.745	665.35
528.2	660.45
528.654	662.95
529.108	655.35
529.562	648.65
530.016	652.85
530.47	654.85
530.925	660.05
531.379	657.65
531.833	672.95
532.287	676.35
532.741	674.45
533.195	669.55
533.649	681.35
534.103	685.95
534.556	684.35
535.01	681.15
535.464	677.65
535.918	690.75
536.372	678.75
536.826	689.65
537.279	660.65
537.733	670.25
538.187	680.55
538.64	673.55
539.094	681.95
539.548	700.85
540.001	684.45
540.455	677.55
540.908	692.25
541.362	694.75
541.815	705.55
542.269	710.45
542.722	720.45
543.175	729.65
543.629	731.95
544.082	749.45
544.536	743.95
544.989	735.15
545.442	745.05
545.895	742.55
546.349	740.35
546.802	743.65
547.255	753.85
547.708	775.25
548.161	775.95
548.614	778.45
549.067	776.85
549.52	780.45
549.973	756.75
550.426	755.55
550.879	751.55
551.332	748.55
551.785	757.15
552.238	764.65
552.691	770.85
553.144	788.15
553.596	791.65
554.049	810.45
554.502	833.15
554.955	861.25
555.407	858.05
555.86	846.05
556.313	848.95
556.765	834.05
557.218	839.15
557.67	826.55
558.123	817.45
558.576	819.15
559.028	824.85
559.48	824.15
559.933	825.55
560.385	782.35
560.838	752.15
561.29	733.65
561.742	731.75
562.195	720.95
562.647	716.15
563.099	726.05
563.551	723.85
564.004	733.75
564.456	728.25
564.908	723.65
565.36	690.75
565.812	695.05
566.264	682.05
566.716	677.75
567.168	674.65
567.62	680.15
568.072	657.05
568.524	647.95
568.976	643.35
569.428	623.55
569.88	631.65
570.332	638.25
570.784	635.95
571.235	628.35
571.687	639.65
572.139	670.55
572.59	668.05
573.042	665.95
573.494	661.35
573.945	654.85
574.397	643.25
574.849	645.05
575.3	651.75
575.752	628.15
576.203	630.75
576.655	643.05
577.106	626.65
577.557	614.05
578.009	621.25
578.46	630.15
578.912	612.75
579.363	619.95
579.814	615.55
580.265	619.75
580.717	617.95
581.168	625.05
581.619	636.55
582.07	635.15
582.521	626.25
582.972	622.05
583.423	629.05
583.875	633.55
584.326	654.35
584.777	691.45
585.227	766.45
585.678	857.85
586.129	943.25
586.58	1006.05
587.031	1084.45
587.482	1252.05
587.933	1425.35
588.384	1232.95
588.834	910.45
589.285	734.45
589.736	720.05
590.186	721.75
590.637	698.65
591.088	679.45
591.538	681.95
591.989	677.05
592.439	669.45
592.89	664.65
593.34	651.25
593.791	650.25
594.241	650.65
594.692	654.55
595.142	651.85
595.593	645.85
596.043	645.45
596.493	661.85
596.943	650.95
597.394	667.95
597.844	656.85
598.294	663.15
598.744	687.65
599.195	709.55
599.645	738.15
600.095	789.95
600.545	837.75
600.995	883.65
601.445	940.15
601.895	992.35
602.345	1047.95
602.795	1026.05
603.245	982.85
603.695	924.55
604.145	874.15
604.594	833.75
605.044	782.95
605.494	732.65
605.944	689.55
606.393	685.25
606.843	667.55
607.293	669.55
607.743	669.15
608.192	686.85
608.642	701.75
609.091	700.25
609.541	703.55
609.99	702.65
610.44	684.35
610.889	657.35
611.339	638.65
611.788	625.15
612.238	642.95
612.687	651.75
613.136	659.15
613.586	675.95
614.035	674.05
614.484	696.15
614.933	690.35
615.383	681.85
615.832	673.25
616.281	654.35
616.73	617.35
617.179	603.15
617.628	584.15
618.077	577.05
618.526	565.85
618.975	562.15
619.424	553.45
619.873	555.75
620.322	561.55
620.771	551.45
621.22	550.85
621.669	530.05
622.118	525.65
622.567	520.55
623.015	520.45
623.464	516.35
623.913	509.65
624.361	489.85
624.81	507.95
625.259	501.25
625.707	498.45
626.156	506.15
626.604	506.55
627.053	509.75
627.501	505.55
627.95	519.15
628.398	521.45
628.847	517.55
629.295	517.95
629.744	520.75
630.192	511.45
630.64	518.35
631.089	505.25
631.537	524.55
631.985	529.95
632.433	541.55
632.881	548.05
633.33	594.95
633.778	572.55
634.226	499.95
634.674	517.45
635.122	514.65
635.57	538.15
636.018	566.75
636.466	519.95
636.914	497.35
637.362	511.45
637.81	516.75
638.258	519.35
638.705	511.05
639.153	541.15
639.601	551.25
640.049	558.55
640.497	594.85
640.944	626.75
641.392	581.65
641.84	547.45
642.287	522.25
642.735	517.35
643.182	502.35
643.63	510.55
644.078	508.95
644.525	532.75
644.973	532.75
645.42	535.25
645.867	553.45
646.315	573.75
646.762	589.85
647.21	614.15
647.657	635.75
648.104	670.85
648.551	697.55
648.999	745.55
649.446	821.15
649.893	901.75
650.34	1030.05
650.787	1230.55
651.234	1531.25
651.682	1992.05
652.129	2734.65
652.576	3900.85
653.023	5824.45
653.47	8007.15
653.917	10091.65
654.363	11821.25
654.81	13264.35
655.257	12561.85
655.704	8159.25
656.151	4796.35
656.598	3100.35
657.044	2190.35
657.491	1684.35
657.938	1335.65
658.385	1106.85
658.831	982.95
659.278	867.15
659.724	778.25
660.171	704.95
660.618	638.25
661.064	606.15
661.511	594.95
661.957	581.85
662.404	572.35
662.85	578.75
663.296	551.95
663.743	501.95
664.189	476.05
664.635	471.35
665.082	471.85
665.528	475.25
665.974	466.85
666.42	463.35
666.867	453.45
667.313	441.85
667.759	427.75
668.205	424.95
668.651	432.85
669.097	427.45
669.543	452.95
669.989	417.85
670.435	397.65
670.881	398.65
671.327	398.55
671.773	423.55
672.219	427.05
672.665	475.35
673.11	511.05
673.556	556.65
674.002	599.15
674.448	580.15
674.893	488.45
675.339	416.45
675.785	378.25
676.23	375.45
676.676	345.55
677.122	334.35
677.567	324.55
678.013	319.75
678.458	309.45
678.904	313.85
679.349	300.65
679.794	309.45
680.24	306.65
680.685	306.95
681.131	303.35
681.576	304.65
682.021	313.55
682.466	304.85
682.912	300.65
683.357	307.35
683.802	332.15
684.247	359.85
684.692	397.25
685.137	432.35
685.583	480.25
686.028	505.45
686.473	461.05
686.918	392.25
687.363	367.05
687.807	350.35
688.252	317.05
688.697	313.75
689.142	296.55
689.587	295.05
690.032	279.85
690.477	304.45
690.921	303.75
691.366	336.45
691.811	354.75
692.255	369.05
692.7	407.75
693.145	439.35
693.589	592.85
694.034	965.45
694.478	1338.35
694.923	1540.85
695.367	2030.65
695.812	1055.65
696.256	443.45
696.701	320.25
697.145	296.85
697.59	284.05
698.034	285.75
698.478	282.05
698.922	291.15
699.367	284.95
699.811	299.25
700.255	300.35
700.699	335.05
701.143	367.95
701.588	420.75
702.032	459.45
702.476	445.75
702.92	433.85
703.364	428.05
703.808	540.55
704.252	870.35
704.696	1250.05
705.14	1479.05
705.584	1909.45
706.027	943.05
706.471	451.55
706.915	348.35
707.359	304.35
707.803	283.05
708.246	274.05
708.69	276.25
709.134	275.85
709.577	273.65
710.021	278.75
710.465	267.75
710.908	261.15
711.352	262.65
711.795	267.55
712.239	300.55
712.682	333.05
713.126	364.55
713.569	404.45
714.012	322.75
714.456	283.75
714.899	256.95
715.342	238.95
715.786	230.95
716.229	219.65
716.672	229.15
717.115	213.45
717.558	220.95
718.002	216.05
718.445	235.15
718.888	246.35
719.331	255.15
719.774	273.75
720.217	266.15
720.66	247.05
721.103	231.05
721.546	219.35
721.989	214.85
722.432	204.75
722.874	211.65
723.317	202.85
723.76	205.65
724.203	225.55
724.645	279.25
725.088	378.45
725.531	493.25
725.974	549.75
726.416	480.25
726.859	263.65
727.301	221.85
727.744	206.55
728.187	201.25
728.629	211.75
729.071	210.25
729.514	227.25
729.956	237.95
730.399	249.05
730.841	247.55
731.283	235.95
731.726	221.05
732.168	225.55
732.61	237.25
733.053	243.55
733.495	277.45
733.937	302.85
734.379	341.95
734.821	375.55
735.263	458.85
735.705	701.95
736.148	1325.25
736.59	2218.95
737.032	2713.95
737.474	2208.75
737.916	702.45
738.357	373.75
738.799	276.55
739.241	255.25
739.683	245.55
740.125	250.65
740.567	261.35
741.008	278.15
741.45	281.35
741.892	276.35
742.334	303.55
742.775	314.75
743.217	299.45
743.658	233.65
744.1	222.15
744.542	224.95
744.983	265.95
745.425	305.85
745.866	304.35
746.307	251.75
746.749	244.15
747.19	282.25
747.632	379.35
748.073	732.15
748.514	1579.45
748.956	2491.55
749.397	3108.55
749.838	2584.95
750.279	2654.25
750.72	1325.85
751.162	475.45
751.603	279.95
752.044	215.65
752.485	181.35
752.926	183.25
753.367	171.15
753.808	168.25
754.249	164.35
754.69	164.75
755.131	156.85
755.572	160.05
756.013	153.55
756.453	163.25
756.894	162.35
757.335	167.05
757.776	168.25
758.216	175.65
758.657	169.45
759.098	179.25
759.538	195.05
759.979	224.05
760.42	317.25
760.86	581.45
761.301	1521.75
761.741	3785.75
762.182	5749.75
