Data from 20171114-ORNL-Ar_H_NY_Subt18_08-07-18-878.txt Node
Date: Tue Nov 14 08:07:18 EST 2017
User: Ender
Spectrometer: HR+D1039
Trigger mode: 0
Integration Time (sec): 2.730000E-2
Scans to average: 10
Electric dark correction enabled: true
Nonlinearity correction enabled: false
Boxcar width: 0
XAxis mode: Wavelengths
Number of Pixels in Spectrum: 2048
>>>>>Begin Spectral Data<<<<<
187.836	-2.25
188.309	-2.25
188.782	-2.25
189.255	-1.15
189.728	1.75
190.201	6.75
190.674	1.65
191.147	3.15
191.619	-9.35
192.092	-1.85
192.565	5.95
193.038	-0.85
193.511	0.85
193.984	-2.05
194.456	-2.55
194.929	-1.05
195.402	-0.15
195.874	1.15
196.347	0.25
196.82	-8.75
197.292	2.65
197.765	-1.25
198.237	-12.95
198.71	-8.25
199.182	-6.15
199.655	0.25
200.127	3.05
200.6	-1.75
201.072	-1.95
201.544	-2.95
202.017	-1.55
202.489	8.85
202.961	-4.15
203.433	-7.75
203.906	-4.55
204.378	-6.45
204.85	-1.75
205.322	-7.25
205.794	-4.45
206.266	0.05
206.739	-11.85
207.211	1.75
207.683	-7.15
208.155	-5.55
208.627	-8.35
209.099	-8.95
209.57	-9.65
210.042	-8.25
210.514	-3.25
210.986	-7.45
211.458	-14.45
211.93	-5.95
212.402	-0.25
212.873	-10.45
213.345	-5.35
213.817	-7.25
214.288	-4.45
214.76	-11.65
215.232	-2.35
215.703	-6.45
216.175	-6.35
216.646	1.35
217.118	-10.05
217.589	-2.65
218.061	1.35
218.532	-4.75
219.004	-3.25
219.475	-2.95
219.946	-1.55
220.418	-3.85
220.889	-2.05
221.36	-3.75
221.832	-2.85
222.303	-10.65
222.774	-0.75
223.245	-13.45
223.717	-6.85
224.188	-6.55
224.659	-10.95
225.13	-8.75
225.601	-6.45
226.072	-2.65
226.543	-2.75
227.014	0.35
227.485	-6.15
227.956	-15.15
228.427	-5.15
228.898	-3.75
229.369	4.35
229.839	-6.05
230.31	-10.15
230.781	-7.75
231.252	-5.75
231.722	-5.45
232.193	-1.65
232.664	-2.65
233.135	-2.05
233.605	-0.65
234.076	-5.55
234.546	1.85
235.017	-0.15
235.487	1.25
235.958	-6.35
236.428	-10.35
236.899	1.25
237.369	-1.95
237.84	-8.65
238.31	2.45
238.78	-1.15
239.251	-6.75
239.721	-5.15
240.191	-4.15
240.662	-1.95
241.132	-3.15
241.602	-5.45
242.072	-2.15
242.542	-4.35
243.013	-0.45
243.483	-7.65
243.953	-6.85
244.423	-2.75
244.893	-6.75
245.363	0.15
245.833	-2.05
246.303	-3.65
246.773	1.65
247.243	-3.75
247.712	-4.05
248.182	0.75
248.652	4.75
249.122	-5.25
249.592	0.35
250.061	1.05
250.531	5.95
251.001	-6.15
251.471	4.35
251.94	8.05
252.41	0.15
252.879	-2.55
253.349	10.05
253.818	8.15
254.288	-4.45
254.757	-1.15
255.227	-10.45
255.696	-0.35
256.166	0.55
256.635	5.05
257.105	-0.55
257.574	0.75
258.043	-0.25
258.513	-3.25
258.982	1.85
259.451	-7.25
259.92	2.65
260.389	-1.25
260.859	4.55
261.328	0.05
261.797	4.45
262.266	-0.75
262.735	4.55
263.204	2.65
263.673	-3.65
264.142	0.85
264.611	-9.65
265.08	-2.95
265.549	-8.05
266.018	-1.55
266.487	-8.95
266.955	-5.35
267.424	-6.55
267.893	2.95
268.362	-1.95
268.83	7.55
269.299	1.55
269.768	-0.35
270.236	6.65
270.705	-3.85
271.174	2.35
271.642	0.15
272.111	3.85
272.579	-0.25
273.048	-1.05
273.516	-1.95
273.985	-0.95
274.453	6.95
274.922	7.45
275.39	5.75
275.858	-2.75
276.327	0.35
276.795	15.25
277.263	1.65
277.731	13.55
278.2	3.65
278.668	9.45
279.136	5.75
279.604	-1.15
280.072	4.95
280.54	6.55
281.008	5.35
281.477	8.15
281.945	11.55
282.413	5.55
282.881	8.35
283.348	-0.55
283.816	7.45
284.284	3.85
284.752	13.45
285.22	6.65
285.688	8.45
286.156	7.85
286.623	10.85
287.091	7.75
287.559	7.55
288.026	4.55
288.494	4.65
288.962	-0.25
289.429	1.05
289.897	13.75
290.364	9.95
290.832	9.65
291.3	11.45
291.767	12.25
292.234	7.65
292.702	5.65
293.169	3.35
293.637	14.45
294.104	13.55
294.571	-3.85
295.039	1.45
295.506	2.95
295.973	11.95
296.44	8.95
296.908	9.85
297.375	11.65
297.842	14.85
298.309	10.25
298.776	8.75
299.243	11.25
299.71	9.25
300.177	11.55
300.644	17.65
301.111	10.45
301.578	11.25
302.045	5.95
302.512	20.35
302.979	16.25
303.446	13.85
303.913	14.95
304.379	12.65
304.846	20.25
305.313	15.45
305.78	13.75
306.246	20.35
306.713	15.85
307.18	13.85
307.646	15.75
308.113	17.95
308.579	15.25
309.046	11.35
309.512	20.55
309.979	11.25
310.445	19.55
310.912	12.85
311.378	26.45
311.845	20.15
312.311	24.05
312.777	21.05
313.244	26.85
313.71	27.75
314.176	19.25
314.642	22.35
315.109	16.75
315.575	27.95
316.041	26.25
316.507	20.55
316.973	22.55
317.439	25.65
317.905	21.85
318.371	25.05
318.837	25.85
319.303	28.65
319.769	24.85
320.235	19.25
320.701	22.75
321.167	25.45
321.633	20.75
322.099	26.85
322.564	31.95
323.03	25.25
323.496	26.65
323.962	32.65
324.427	28.45
324.893	28.65
325.359	29.25
325.824	27.75
326.29	28.35
326.755	33.55
327.221	38.45
327.686	31.35
328.152	33.85
328.617	32.85
329.083	35.25
329.548	41.95
330.014	34.95
330.479	29.95
330.944	29.25
331.41	30.85
331.875	37.85
332.34	39.15
332.805	34.55
333.271	28.55
333.736	25.55
334.201	38.25
334.666	46.45
335.131	35.45
335.596	40.75
336.061	36.35
336.526	29.35
336.991	41.35
337.456	45.25
337.921	37.45
338.386	38.15
338.851	34.45
339.316	42.15
339.781	39.85
340.246	45.35
340.711	40.95
341.175	43.25
341.64	39.75
342.105	43.15
342.569	49.65
343.034	49.45
343.499	47.15
343.963	42.25
344.428	46.05
344.893	50.05
345.357	52.75
345.822	50.25
346.286	55.85
346.751	59.45
347.215	57.85
347.679	62.05
348.144	76.95
348.608	70.95
349.073	60.55
349.537	61.35
350.001	60.35
350.465	72.45
350.93	62.45
351.394	71.85
351.858	64.95
352.322	78.45
352.786	67.75
353.25	81.25
353.715	80.35
354.179	81.05
354.643	97.75
355.107	92.55
355.571	84.55
356.035	81.15
356.498	81.85
356.962	92.25
357.426	97.05
357.89	91.65
358.354	75.35
358.818	66.25
359.281	70.15
359.745	64.85
360.209	70.95
360.673	60.05
361.136	71.15
361.6	67.95
362.064	66.15
362.527	70.15
362.991	76.25
363.454	72.25
363.918	61.15
364.381	64.15
364.845	71.05
365.308	75.65
365.772	75.55
366.235	77.05
366.698	72.65
367.162	70.25
367.625	72.35
368.088	74.75
368.552	81.45
369.015	79.35
369.478	83.35
369.941	87.05
370.404	79.25
370.867	90.55
371.331	87.05
371.794	93.85
372.257	82.45
372.72	93.35
373.183	89.25
373.646	80.85
374.109	88.85
374.572	96.25
375.035	86.25
375.497	96.15
375.96	94.35
376.423	95.15
376.886	99.95
377.349	96.15
377.811	99.35
378.274	90.75
378.737	101.25
379.199	98.15
379.662	102.55
380.125	106.65
380.587	100.35
381.05	101.65
381.512	105.95
381.975	112.95
382.437	108.75
382.9	106.45
383.362	110.05
383.825	118.35
384.287	109.45
384.75	109.35
385.212	115.75
385.674	121.85
386.136	118.45
386.599	108.55
387.061	105.65
387.523	109.55
387.985	111.25
388.447	122.45
388.91	114.85
389.372	114.75
389.834	123.35
390.296	111.65
390.758	125.05
391.22	127.95
391.682	130.85
392.144	136.85
392.606	133.15
393.068	129.75
393.529	140.15
393.991	129.15
394.453	120.55
394.915	122.45
395.377	128.55
395.838	130.25
396.3	127.55
396.762	135.95
397.224	132.45
397.685	124.95
398.147	130.75
398.608	125.75
399.07	125.25
399.531	132.95
399.993	130.25
400.454	149.95
400.916	140.75
401.377	144.05
401.839	149.25
402.3	141.85
402.762	158.85
403.223	165.65
403.684	161.45
404.145	155.05
404.607	153.05
405.068	157.95
405.529	165.35
405.99	173.05
406.451	163.75
406.913	162.95
407.374	161.25
407.835	159.95
408.296	159.65
408.757	165.35
409.218	181.65
409.679	169.65
410.14	173.75
410.601	162.15
411.062	172.95
411.522	173.45
411.983	175.15
412.444	170.35
412.905	177.75
413.366	177.65
413.826	191.75
414.287	210.85
414.748	264.35
415.208	250.35
415.669	215.65
416.13	205.55
416.59	202.85
417.051	211.45
417.511	214.05
417.972	237.45
418.432	251.75
418.893	291.75
419.353	255.65
419.814	195.55
420.274	185.95
420.734	177.65
421.195	188.65
421.655	181.15
422.115	192.55
422.576	190.15
423.036	201.85
423.496	206.05
423.956	214.55
424.416	226.95
424.876	269.65
425.336	257.25
425.797	261.95
426.257	246.75
426.717	230.55
427.177	233.95
427.637	219.85
428.097	231.35
428.556	239.95
429.016	258.45
429.476	256.35
429.936	265.65
430.396	264.15
430.856	275.65
431.315	302.75
431.775	336.65
432.235	366.55
432.694	336.05
433.154	355.95
433.614	374.35
434.073	323.85
434.533	274.25
434.993	267.25
435.452	270.95
435.912	281.45
436.371	280.55
436.83	265.55
437.29	256.15
437.749	239.15
438.209	234.65
438.668	270.95
439.127	278.65
439.587	257.85
440.046	245.35
440.505	258.45
440.964	281.45
441.424	316.95
441.883	302.05
442.342	253.35
442.801	230.05
443.26	226.15
443.719	228.65
444.178	231.05
444.637	211.95
445.096	212.25
445.555	230.85
446.014	233.25
446.473	230.55
446.932	243.45
447.391	230.75
447.849	232.65
448.308	223.85
448.767	231.35
449.226	245.95
449.685	242.35
450.143	257.15
450.602	249.75
451.061	228.05
451.519	237.55
451.978	239.95
452.436	230.95
452.895	244.75
453.353	259.25
453.812	248.05
454.27	242.95
454.729	245.05
455.187	248.25
455.646	247.75
456.104	254.15
456.562	267.15
457.021	265.95
457.479	266.75
457.937	275.45
458.395	269.15
458.854	252.45
459.312	254.55
459.77	271.55
460.228	258.25
460.686	246.75
461.144	250.95
461.602	250.35
462.06	255.85
462.518	263.05
462.976	261.45
463.434	267.45
463.892	261.55
464.35	282.65
464.808	292.95
465.266	280.55
465.724	281.05
466.181	281.35
466.639	284.15
467.097	295.85
467.555	315.45
468.012	308.55
468.47	322.35
468.928	337.35
469.385	349.35
469.843	349.95
470.3	355.65
470.758	364.95
471.215	393.55
471.673	415.45
472.13	409.15
472.588	431.95
473.045	382.95
473.503	381.55
473.96	404.65
474.417	410.65
474.875	445.65
475.332	479.15
475.789	474.05
476.246	474.05
476.704	491.35
477.161	518.65
477.618	532.25
478.075	566.45
478.532	619.25
478.989	686.05
479.446	784.95
479.903	755.05
480.36	789.05
480.817	835.75
481.274	934.05
481.731	1022.65
482.188	1102.05
482.645	1211.25
483.102	1308.35
483.558	1415.25
484.015	1461.55
484.472	1441.95
484.929	1393.05
485.385	1357.35
485.842	1317.65
486.299	1285.55
486.755	1243.65
487.212	1056.65
487.668	906.45
488.125	839.65
488.582	770.35
489.038	744.45
489.494	710.95
489.951	687.25
490.407	681.15
490.864	652.95
491.32	645.75
491.776	642.35
492.233	652.45
492.689	624.15
493.145	615.05
493.602	607.35
494.058	622.55
494.514	623.95
494.97	643.45
495.426	661.55
495.882	637.35
496.338	621.95
496.794	630.85
497.251	619.55
497.707	644.65
498.163	650.75
498.618	648.55
499.074	655.05
499.53	680.15
499.986	678.05
500.442	660.35
500.898	639.65
501.354	621.75
501.809	636.25
502.265	638.75
502.721	647.25
503.177	655.45
503.632	644.95
504.088	664.55
504.543	681.45
504.999	699.05
505.455	673.65
505.91	653.65
506.366	643.05
506.821	655.05
507.277	649.95
507.732	655.15
508.187	647.25
508.643	668.65
509.098	670.45
509.553	682.05
510.009	694.65
510.464	699.95
510.919	711.35
511.375	712.95
511.83	731.65
512.285	734.45
512.74	786.05
513.195	814.55
513.65	789.85
514.105	779.15
514.56	791.25
515.015	814.95
515.47	817.65
515.925	807.25
516.38	800.85
516.835	799.75
517.29	795.35
517.745	805.65
518.2	792.45
518.655	769.45
519.109	757.95
519.564	760.45
520.019	752.15
520.474	748.55
520.928	741.95
521.383	736.15
521.838	736.65
522.292	731.65
522.747	738.05
523.201	733.05
523.656	726.25
524.11	722.35
524.565	708.55
525.019	712.45
525.474	721.15
525.928	721.35
526.382	717.95
526.837	733.35
527.291	720.85
527.745	722.55
528.2	716.85
528.654	723.55
529.108	711.15
529.562	710.25
530.016	715.25
530.47	704.15
530.925	709.55
531.379	714.95
531.833	715.85
532.287	721.25
532.741	713.85
533.195	725.65
533.649	730.65
534.103	747.15
534.556	729.35
535.01	729.85
535.464	724.05
535.918	744.15
536.372	734.45
536.826	732.55
537.279	728.45
537.733	736.55
538.187	741.35
538.64	739.15
539.094	746.45
539.548	744.95
540.001	756.05
540.455	736.75
540.908	751.75
541.362	758.65
541.815	765.15
542.269	777.45
542.722	784.25
543.175	798.85
543.629	792.05
544.082	810.95
544.536	818.85
544.989	800.25
545.442	813.65
545.895	809.55
546.349	816.25
546.802	814.65
547.255	825.65
547.708	830.55
548.161	848.35
548.614	844.95
549.067	864.65
549.52	843.35
549.973	839.75
550.426	844.05
550.879	820.25
551.332	828.75
551.785	833.15
552.238	834.55
552.691	844.35
553.144	858.65
553.596	877.55
554.049	899.35
554.502	923.95
554.955	943.65
555.407	939.55
555.86	923.95
556.313	924.75
556.765	909.95
557.218	910.45
557.67	919.95
558.123	912.35
558.576	902.65
559.028	905.25
559.48	910.05
559.933	905.15
560.385	861.05
560.838	845.75
561.29	812.65
561.742	806.85
562.195	799.15
562.647	794.25
563.099	797.85
563.551	791.45
564.004	806.65
564.456	792.65
564.908	773.05
565.36	757.35
565.812	752.55
566.264	748.85
566.716	734.95
567.168	727.45
567.62	732.05
568.072	719.75
568.524	715.15
568.976	712.05
569.428	696.85
569.88	704.95
570.332	702.25
570.784	706.85
571.235	716.15
571.687	725.25
572.139	730.45
572.59	738.55
573.042	743.75
573.494	732.55
573.945	735.95
574.397	712.25
574.849	711.25
575.3	708.45
575.752	706.35
576.203	701.95
576.655	709.35
577.106	698.15
577.557	688.05
578.009	681.85
578.46	694.85
578.912	682.15
579.363	683.85
579.814	689.75
580.265	684.65
580.717	693.75
581.168	684.25
581.619	692.95
582.07	703.75
582.521	701.05
582.972	697.15
583.423	702.45
583.875	707.65
584.326	701.65
584.777	714.85
585.227	733.15
585.678	733.65
586.129	753.65
586.58	767.45
587.031	789.15
587.482	816.05
587.933	844.35
588.384	827.85
588.834	801.35
589.285	789.75
589.736	798.55
590.186	782.75
590.637	790.75
591.088	768.55
591.538	754.65
591.989	749.95
592.439	732.05
592.89	737.75
593.34	721.05
593.791	718.95
594.241	716.35
594.692	717.75
595.142	711.25
595.593	711.05
596.043	716.15
596.493	725.85
596.943	718.65
597.394	739.15
597.844	733.05
598.294	755.45
598.744	774.95
599.195	802.65
599.645	846.85
600.095	887.05
600.545	947.85
600.995	990.55
601.445	1046.75
601.895	1118.05
602.345	1163.25
602.795	1145.25
603.245	1090.35
603.695	1046.75
604.145	997.35
604.594	944.05
605.044	892.35
605.494	819.65
605.944	774.55
606.393	764.35
606.843	748.75
607.293	749.95
607.743	738.65
608.192	757.35
608.642	769.75
609.091	776.05
609.541	773.05
609.99	776.95
610.44	773.45
610.889	734.85
611.339	713.25
611.788	696.25
612.238	710.35
612.687	721.25
613.136	716.65
613.586	710.95
614.035	717.15
614.484	725.85
614.933	717.65
615.383	725.65
615.832	719.45
616.281	714.45
616.73	681.35
617.179	668.35
617.628	660.55
618.077	629.15
618.526	629.55
618.975	621.55
619.424	623.25
619.873	625.45
620.322	632.65
620.771	617.85
621.22	616.65
621.669	610.45
622.118	602.75
622.567	594.95
623.015	578.05
623.464	578.45
623.913	566.55
624.361	567.45
624.81	566.65
625.259	567.05
625.707	568.25
626.156	560.25
626.604	570.55
627.053	568.25
627.501	578.45
627.95	578.25
628.398	592.25
628.847	584.05
629.295	583.75
629.744	587.15
630.192	585.65
630.64	576.15
631.089	559.45
631.537	551.45
631.985	532.85
632.433	536.35
632.881	539.95
633.33	541.25
633.778	525.35
634.226	527.65
634.674	544.15
635.122	548.05
635.57	553.35
636.018	562.25
636.466	567.85
636.914	567.05
637.362	587.55
637.81	589.45
638.258	596.45
638.705	601.45
639.153	623.25
639.601	633.55
640.049	663.15
640.497	685.95
640.944	705.65
641.392	664.15
641.84	615.45
642.287	591.65
642.735	574.95
643.182	571.45
643.63	566.75
644.078	567.75
644.525	579.75
644.973	585.95
645.42	597.95
645.867	622.85
646.315	630.55
646.762	658.95
647.21	695.95
647.657	703.85
648.104	745.45
648.551	763.15
648.999	826.45
649.446	901.95
649.893	972.65
650.34	1115.85
650.787	1322.55
651.234	1608.35
651.682	2083.05
652.129	2836.15
652.576	4021.15
653.023	5871.85
653.47	7940.25
653.917	9882.05
654.363	11341.45
654.81	12536.55
655.257	11863.55
655.704	7863.25
656.151	4725.15
656.598	3111.35
657.044	2243.25
657.491	1740.35
657.938	1405.55
658.385	1186.85
658.831	1044.15
659.278	933.15
659.724	832.95
660.171	776.55
660.618	713.75
661.064	678.45
661.511	648.45
661.957	644.55
662.404	642.25
662.85	646.25
663.296	621.85
663.743	567.95
664.189	534.95
664.635	541.25
665.082	538.15
665.528	535.65
665.974	520.45
666.42	517.55
666.867	511.25
667.313	493.95
667.759	470.95
668.205	459.15
668.651	453.95
669.097	456.45
669.543	452.55
669.989	447.95
670.435	455.25
670.881	451.15
671.327	454.75
671.773	486.85
672.219	499.95
672.665	562.65
673.11	596.15
673.556	642.15
674.002	686.35
674.448	675.75
674.893	562.25
675.339	484.45
675.785	449.05
676.23	426.25
676.676	402.85
677.122	404.15
677.567	385.35
678.013	372.15
678.458	371.25
678.904	379.05
679.349	355.15
679.794	360.65
680.24	364.75
680.685	359.15
681.131	357.35
681.576	361.95
682.021	355.75
682.466	354.65
682.912	351.65
683.357	363.15
683.802	395.45
684.247	418.05
684.692	461.55
685.137	511.45
685.583	543.05
686.028	578.35
686.473	536.45
686.918	453.85
687.363	428.05
687.807	409.95
688.252	374.65
688.697	359.75
689.142	349.55
689.587	333.85
690.032	329.05
690.477	348.75
690.921	359.75
691.366	395.15
691.811	416.85
692.255	441.55
692.7	469.55
693.145	515.35
693.589	734.45
694.034	1178.75
694.478	1603.85
694.923	1783.45
695.367	2340.25
695.812	1237.35
696.256	519.35
696.701	380.45
697.145	350.65
697.59	347.85
698.034	329.35
698.478	337.65
698.922	329.05
699.367	329.25
699.811	342.75
700.255	355.45
700.699	386.55
701.143	433.95
701.588	480.35
702.032	521.65
702.476	531.45
702.92	503.25
703.364	509.85
703.808	663.55
704.252	1079.25
704.696	1511.95
705.14	1741.15
705.584	2199.95
706.027	1110.95
706.471	542.75
706.915	413.95
707.359	363.15
707.803	325.65
708.246	311.85
708.69	323.45
709.134	322.75
709.577	321.75
710.021	324.45
710.465	307.55
710.908	307.75
711.352	312.55
711.795	314.85
712.239	360.15
712.682	396.85
713.126	427.05
713.569	469.85
714.012	364.35
714.456	308.25
714.899	296.85
715.342	290.05
715.786	272.45
716.229	261.45
716.672	253.35
717.115	251.65
717.558	247.95
718.002	262.15
718.445	266.05
718.888	288.65
719.331	294.15
719.774	318.05
720.217	314.95
720.66	285.95
721.103	268.95
721.546	265.65
721.989	252.05
722.432	235.45
722.874	244.55
723.317	234.95
723.76	241.55
724.203	260.05
724.645	326.35
725.088	464.45
725.531	583.75
725.974	663.75
726.416	566.65
726.859	318.55
727.301	250.05
727.744	246.65
728.187	234.55
728.629	240.95
729.071	251.55
729.514	264.75
729.956	280.25
730.399	287.95
730.841	294.35
731.283	281.15
731.726	281.25
732.168	270.65
732.61	274.45
733.053	301.75
733.495	329.95
733.937	360.15
734.379	415.05
734.821	457.05
735.263	570.45
735.705	875.35
736.148	1658.95
736.59	2696.45
737.032	3173.15
737.474	2587.75
737.916	851.55
738.357	443.15
738.799	333.55
739.241	306.95
739.683	290.55
740.125	303.65
740.567	313.75
741.008	329.15
741.45	325.75
741.892	333.75
742.334	359.95
742.775	371.55
743.217	359.25
743.658	278.25
744.1	268.25
744.542	270.45
744.983	324.65
745.425	355.85
745.866	351.65
746.307	287.65
746.749	285.15
747.19	335.05
747.632	480.85
748.073	935.15
748.514	1949.35
748.956	2970.35
749.397	3730.75
749.838	3099.85
750.279	3063.95
750.72	1545.45
751.162	567.75
751.603	343.65
752.044	261.75
752.485	220.75
752.926	214.35
753.367	203.55
753.808	200.45
754.249	193.25
754.69	189.25
755.131	188.55
755.572	182.85
756.013	186.35
756.453	187.45
756.894	184.75
757.335	199.85
757.776	198.85
758.216	204.55
758.657	204.75
759.098	204.45
759.538	233.95
759.979	277.55
760.42	384.35
760.86	747.65
761.301	1925.65
761.741	4663.35
762.182	6681.85
762.622	4688.65
763.063	1359.75
