Data from 20171114-ORNL-Ar_H_NY_Subt18_08-06-33-837.txt Node
Date: Tue Nov 14 08:06:33 EST 2017
User: Ender
Spectrometer: HR+D1039
Trigger mode: 0
Integration Time (sec): 2.730000E-2
Scans to average: 10
Electric dark correction enabled: true
Nonlinearity correction enabled: false
Boxcar width: 0
XAxis mode: Wavelengths
Number of Pixels in Spectrum: 2048
>>>>>Begin Spectral Data<<<<<
187.836	-5.19
188.309	-5.19
188.782	-5.19
189.255	-0.99
189.728	0.01
190.201	5.71
190.674	-2.99
191.147	-1.29
191.619	-9.59
192.092	-3.39
192.565	8.41
193.038	-3.49
193.511	3.21
193.984	0.61
194.456	5.41
194.929	-0.69
195.402	0.11
195.874	4.11
196.347	3.11
196.82	-4.99
197.292	6.11
197.765	-0.29
198.237	-9.29
198.71	6.01
199.182	-2.89
199.655	2.61
200.127	2.91
200.6	-0.39
201.072	0.51
201.544	-7.79
202.017	0.41
202.489	6.81
202.961	-3.09
203.433	-2.79
203.906	-3.59
204.378	-1.69
204.85	0.51
205.322	-6.99
205.794	-5.19
206.266	-3.59
206.739	-0.39
207.211	5.31
207.683	-4.89
208.155	-4.89
208.627	-2.09
209.099	-1.69
209.57	-1.69
210.042	-3.89
210.514	1.01
210.986	-1.29
211.458	-5.99
211.93	1.91
212.402	7.91
212.873	1.21
213.345	-3.79
213.817	-7.79
214.288	-2.09
214.76	-7.69
215.232	-3.19
215.703	-2.49
216.175	0.41
216.646	0.21
217.118	-3.09
217.589	-0.69
218.061	5.51
218.532	4.21
219.004	1.51
219.475	-1.09
219.946	0.91
220.418	-4.19
220.889	6.81
221.36	1.61
221.832	0.61
222.303	-1.39
222.774	2.71
223.245	-4.19
223.717	-4.89
224.188	-0.49
224.659	-0.39
225.13	-6.69
225.601	1.71
226.072	6.51
226.543	3.61
227.014	-3.59
227.485	-5.29
227.956	-0.19
228.427	-2.29
228.898	2.11
229.369	1.11
229.839	0.31
230.31	-1.69
230.781	0.61
231.252	-2.09
231.722	-2.19
232.193	-3.39
232.664	1.91
233.135	3.31
233.605	-0.09
234.076	-9.49
234.546	7.01
235.017	5.51
235.487	3.01
235.958	-1.89
236.428	1.21
236.899	7.61
237.369	-1.59
237.84	-1.49
238.31	10.41
238.78	6.61
239.251	2.41
239.721	5.11
240.191	3.41
240.662	-3.69
241.132	1.81
241.602	1.21
242.072	3.81
242.542	7.81
243.013	0.31
243.483	6.61
243.953	1.91
244.423	-0.29
244.893	-1.09
245.363	5.91
245.833	2.91
246.303	-1.79
246.773	9.21
247.243	3.91
247.712	0.81
248.182	7.61
248.652	12.01
249.122	3.71
249.592	13.51
250.061	21.51
250.531	36.31
251.001	17.51
251.471	22.91
251.94	21.51
252.41	5.71
252.879	4.81
253.349	12.41
253.818	13.51
254.288	0.01
254.757	7.81
255.227	2.51
255.696	8.31
256.166	5.41
256.635	2.81
257.105	11.91
257.574	11.91
258.043	12.41
258.513	11.61
258.982	20.71
259.451	11.21
259.92	14.71
260.389	7.81
260.859	20.21
261.328	12.51
261.797	15.21
262.266	13.71
262.735	9.41
263.204	11.81
263.673	2.31
264.142	13.61
264.611	7.11
265.08	0.61
265.549	3.51
266.018	8.71
266.487	1.51
266.955	2.71
267.424	1.61
267.893	11.61
268.362	2.41
268.83	8.31
269.299	11.41
269.768	5.81
270.236	10.01
270.705	6.61
271.174	10.81
271.642	13.21
272.111	7.71
272.579	19.21
273.048	26.51
273.516	33.31
273.985	31.21
274.453	20.61
274.922	26.71
275.39	15.51
275.858	7.41
276.327	12.11
276.795	26.21
277.263	12.91
277.731	33.51
278.2	56.01
278.668	58.51
279.136	48.51
279.604	18.11
280.072	20.41
280.54	12.91
281.008	15.71
281.477	19.41
281.945	20.31
282.413	16.71
282.881	19.81
283.348	8.61
283.816	18.31
284.284	17.61
284.752	28.01
285.22	13.91
285.688	14.91
286.156	21.11
286.623	44.81
287.091	49.51
287.559	32.01
288.026	15.51
288.494	18.31
288.962	3.51
289.429	13.51
289.897	23.81
290.364	21.91
290.832	20.01
291.3	15.61
291.767	18.41
292.234	20.01
292.702	16.41
293.169	20.11
293.637	25.91
294.104	28.11
294.571	7.51
295.039	14.21
295.506	19.41
295.973	20.71
296.44	18.31
296.908	22.51
297.375	23.31
297.842	15.51
298.309	7.21
298.776	15.71
299.243	16.61
299.71	21.11
300.177	25.11
300.644	27.51
301.111	22.71
301.578	23.51
302.045	15.71
302.512	28.91
302.979	24.61
303.446	25.21
303.913	25.01
304.379	22.51
304.846	31.41
305.313	24.61
305.78	20.91
306.246	29.61
306.713	30.81
307.18	29.61
307.646	26.51
308.113	32.61
308.579	29.61
309.046	22.81
309.512	26.81
309.979	19.41
310.445	30.71
310.912	29.91
311.378	29.51
311.845	30.61
312.311	35.01
312.777	35.11
313.244	33.91
313.71	38.61
314.176	28.21
314.642	33.51
315.109	34.21
315.575	40.21
316.041	42.81
316.507	37.01
316.973	41.11
317.439	38.61
317.905	41.01
318.371	39.41
318.837	33.11
319.303	35.71
319.769	34.11
320.235	37.81
320.701	37.81
321.167	37.81
321.633	40.91
322.099	43.31
322.564	46.61
323.03	45.11
323.496	41.81
323.962	46.21
324.427	40.11
324.893	39.01
325.359	40.21
325.824	36.91
326.29	35.11
326.755	41.11
327.221	41.21
327.686	34.11
328.152	47.51
328.617	46.01
329.083	54.81
329.548	60.21
330.014	51.61
330.479	41.01
330.944	41.71
331.41	43.51
331.875	44.11
332.34	44.11
332.805	49.71
333.271	47.01
333.736	47.01
334.201	53.21
334.666	55.91
335.131	59.01
335.596	55.91
336.061	51.51
336.526	47.31
336.991	50.01
337.456	58.91
337.921	48.01
338.386	45.31
338.851	44.21
339.316	49.31
339.781	54.81
340.246	53.61
340.711	50.81
341.175	57.51
341.64	48.61
342.105	56.21
342.569	54.51
343.034	59.31
343.499	63.01
343.963	56.31
344.428	69.51
344.893	61.21
345.357	66.21
345.822	65.81
346.286	71.31
346.751	74.21
347.215	75.21
347.679	72.51
348.144	108.11
348.608	88.01
349.073	69.91
349.537	81.81
350.001	80.91
350.465	98.01
350.93	80.11
351.394	82.61
351.858	78.21
352.322	84.71
352.786	83.71
353.25	104.11
353.715	108.01
354.179	103.81
354.643	126.01
355.107	130.01
355.571	117.81
356.035	104.91
356.498	123.01
356.962	127.81
357.426	139.11
357.89	118.51
358.354	89.11
358.818	89.91
359.281	84.71
359.745	80.81
360.209	81.11
360.673	72.01
361.136	81.41
361.6	86.31
362.064	82.21
362.527	89.71
362.991	98.91
363.454	86.61
363.918	81.81
364.381	86.41
364.845	89.91
365.308	87.31
365.772	91.81
366.235	91.71
366.698	89.81
367.162	95.81
367.625	89.51
368.088	93.01
368.552	100.21
369.015	87.11
369.478	98.81
369.941	102.81
370.404	95.81
370.867	103.11
371.331	112.81
371.794	120.41
372.257	115.51
372.72	127.81
373.183	113.61
373.646	106.81
374.109	115.21
374.572	109.21
375.035	115.51
375.497	113.01
375.96	114.81
376.423	109.51
376.886	120.41
377.349	114.01
377.811	111.71
378.274	115.31
378.737	109.41
379.199	119.71
379.662	115.81
380.125	129.21
380.587	124.31
381.05	124.61
381.512	138.11
381.975	137.01
382.437	127.11
382.9	129.91
383.362	137.81
383.825	145.51
384.287	149.91
384.75	149.31
385.212	142.91
385.674	150.61
386.136	141.51
386.599	125.81
387.061	144.31
387.523	139.71
387.985	147.01
388.447	149.91
388.91	155.61
389.372	175.81
389.834	161.11
390.296	150.71
390.758	158.81
391.22	171.11
391.682	221.71
392.144	310.31
392.606	239.01
393.068	167.51
393.529	169.11
393.991	159.91
394.453	157.31
394.915	161.61
395.377	203.31
395.838	221.71
396.3	159.01
396.762	149.31
397.224	138.01
397.685	139.21
398.147	132.91
398.608	134.71
399.07	127.91
399.531	138.11
399.993	143.91
400.454	159.41
400.916	156.51
401.377	153.71
401.839	162.01
402.3	160.81
402.762	172.21
403.223	189.71
403.684	185.41
404.145	163.61
404.607	164.11
405.068	168.41
405.529	184.01
405.99	197.41
406.451	187.01
406.913	179.21
407.374	171.81
407.835	167.61
408.296	181.11
408.757	172.21
409.218	195.61
409.679	183.41
410.14	180.51
410.601	190.11
411.062	188.61
411.522	196.21
411.983	195.61
412.444	180.51
412.905	183.21
413.366	198.11
413.826	203.11
414.287	224.71
414.748	267.11
415.208	257.81
415.669	225.61
416.13	213.71
416.59	207.91
417.051	224.81
417.511	225.01
417.972	243.91
418.432	253.61
418.893	296.01
419.353	257.61
419.814	201.11
420.274	199.51
420.734	194.11
421.195	208.11
421.655	210.21
422.115	199.71
422.576	201.31
423.036	206.81
423.496	215.71
423.956	223.11
424.416	233.91
424.876	276.31
425.336	268.31
425.797	268.31
426.257	257.91
426.717	252.21
427.177	248.21
427.637	233.21
428.097	237.81
428.556	252.31
429.016	276.91
429.476	266.31
429.936	290.01
430.396	291.41
430.856	306.81
431.315	326.21
431.775	366.51
432.235	390.91
432.694	373.31
433.154	381.31
433.614	400.11
434.073	354.41
434.533	298.41
434.993	281.31
435.452	297.61
435.912	304.01
436.371	298.81
436.83	290.11
437.29	279.41
437.749	255.41
438.209	252.41
438.668	277.51
439.127	294.51
439.587	273.81
440.046	257.11
440.505	266.41
440.964	291.31
441.424	334.71
441.883	317.41
442.342	267.41
442.801	233.61
443.26	234.01
443.719	233.61
444.178	225.91
444.637	219.51
445.096	231.31
445.555	235.01
446.014	233.91
446.473	241.41
446.932	245.71
447.391	237.71
447.849	239.51
448.308	224.61
448.767	230.01
449.226	248.11
449.685	247.31
450.143	243.71
450.602	250.41
451.061	238.91
451.519	239.91
451.978	240.61
452.436	241.11
452.895	242.91
453.353	262.31
453.812	240.31
454.27	250.31
454.729	246.41
455.187	249.51
455.646	252.91
456.104	253.31
456.562	269.61
457.021	275.81
457.479	271.61
457.937	279.61
458.395	272.11
458.854	252.91
459.312	267.41
459.77	284.61
460.228	263.71
460.686	248.71
461.144	254.91
461.602	257.21
462.06	250.91
462.518	264.01
462.976	257.81
463.434	271.31
463.892	269.71
464.35	292.61
464.808	296.61
465.266	279.21
465.724	279.71
466.181	281.21
466.639	279.91
467.097	304.91
467.555	311.61
468.012	314.51
468.47	320.01
468.928	345.01
469.385	353.51
469.843	363.91
470.3	367.41
470.758	377.11
471.215	402.81
471.673	424.11
472.13	425.51
472.588	436.21
473.045	386.81
473.503	388.91
473.96	414.71
474.417	419.51
474.875	442.91
475.332	484.01
475.789	475.31
476.246	478.61
476.704	515.61
477.161	524.91
477.618	543.51
478.075	589.41
478.532	641.81
478.989	714.31
479.446	834.71
479.903	807.61
480.36	823.81
480.817	889.31
481.274	1000.61
481.731	1112.81
482.188	1207.61
482.645	1345.51
483.102	1449.41
483.558	1587.61
484.015	1640.01
484.472	1609.41
484.929	1573.01
485.385	1505.31
485.842	1471.41
486.299	1395.91
486.755	1342.41
487.212	1129.61
487.668	952.31
488.125	875.01
488.582	806.11
489.038	768.51
489.494	740.91
489.951	709.41
490.407	687.21
490.864	668.61
491.32	673.11
491.776	661.31
492.233	674.51
492.689	631.31
493.145	626.11
493.602	616.21
494.058	631.31
494.514	641.81
494.97	661.41
495.426	670.51
495.882	643.41
496.338	631.71
496.794	642.71
497.251	643.81
497.707	654.41
498.163	647.91
498.618	659.01
499.074	668.81
499.53	701.21
499.986	701.31
500.442	678.51
500.898	655.61
501.354	649.21
501.809	653.61
502.265	665.11
502.721	688.41
503.177	695.11
503.632	682.81
504.088	699.01
504.543	739.51
504.999	748.61
505.455	676.41
505.91	657.51
506.366	654.31
506.821	646.61
507.277	644.01
507.732	647.51
508.187	640.31
508.643	657.51
509.098	649.01
509.553	677.21
510.009	677.21
510.464	693.51
510.919	712.21
511.375	715.21
511.83	723.21
512.285	744.11
512.74	787.41
513.195	807.71
513.65	796.01
514.105	794.11
514.56	793.01
515.015	815.71
515.47	841.01
515.925	817.51
516.38	805.31
516.835	824.61
517.29	806.91
517.745	802.01
518.2	781.11
518.655	771.51
519.109	763.51
519.564	761.91
520.019	752.51
520.474	750.31
520.928	749.71
521.383	732.61
521.838	738.91
522.292	738.91
522.747	742.01
523.201	721.11
523.656	716.21
524.11	714.91
524.565	720.51
525.019	721.01
525.474	727.91
525.928	724.31
526.382	725.81
526.837	714.81
527.291	714.71
527.745	719.81
528.2	726.91
528.654	719.31
529.108	711.81
529.562	716.81
530.016	715.91
530.47	711.61
530.925	718.01
531.379	718.21
531.833	724.71
532.287	728.61
532.741	717.71
533.195	719.81
533.649	736.41
534.103	740.91
534.556	728.31
535.01	742.61
535.464	730.31
535.918	742.01
536.372	740.71
536.826	740.31
537.279	735.01
537.733	732.91
538.187	732.41
538.64	732.91
539.094	744.71
539.548	755.91
540.001	749.91
540.455	746.71
540.908	749.31
541.362	769.21
541.815	780.31
542.269	780.91
542.722	783.31
543.175	798.41
543.629	800.91
544.082	814.11
544.536	813.01
544.989	813.31
545.442	823.91
545.895	808.61
546.349	816.01
546.802	826.91
547.255	818.61
547.708	832.11
548.161	841.81
548.614	846.31
549.067	852.11
549.52	844.91
549.973	828.81
550.426	839.21
550.879	815.11
551.332	827.51
551.785	827.91
552.238	819.71
552.691	847.51
553.144	851.71
553.596	866.91
554.049	889.91
554.502	922.21
554.955	940.21
555.407	950.11
555.86	930.51
556.313	921.71
556.765	910.41
557.218	900.01
557.67	912.91
558.123	886.11
558.576	900.41
559.028	894.21
559.48	904.21
559.933	898.41
560.385	858.71
560.838	828.61
561.29	808.11
561.742	803.51
562.195	784.51
562.647	788.41
563.099	800.31
563.551	797.11
564.004	805.51
564.456	796.01
564.908	789.81
565.36	769.91
565.812	759.51
566.264	750.21
566.716	748.31
567.168	742.21
567.62	748.41
568.072	725.91
568.524	714.61
568.976	712.81
569.428	693.31
569.88	706.71
570.332	708.71
570.784	710.41
571.235	702.61
571.687	716.51
572.139	722.91
572.59	731.81
573.042	727.51
573.494	718.71
573.945	726.31
574.397	704.01
574.849	711.11
575.3	712.51
575.752	700.61
576.203	701.91
576.655	699.91
577.106	687.01
577.557	683.61
578.009	688.61
578.46	686.61
578.912	695.71
579.363	688.41
579.814	688.31
580.265	689.81
580.717	688.21
581.168	684.71
581.619	704.41
582.07	700.71
582.521	697.71
582.972	688.41
583.423	704.31
583.875	701.11
584.326	717.61
584.777	770.31
585.227	845.81
585.678	937.31
586.129	1024.81
586.58	1115.21
587.031	1178.31
587.482	1330.01
587.933	1508.91
588.384	1317.11
588.834	1004.11
589.285	831.91
589.736	798.81
590.186	795.01
590.637	790.31
591.088	771.01
591.538	746.01
591.989	748.91
592.439	743.21
592.89	741.31
593.34	724.71
593.791	728.61
594.241	720.91
594.692	730.11
595.142	724.81
595.593	716.61
596.043	727.11
596.493	724.91
596.943	733.01
597.394	741.51
597.844	738.01
598.294	738.81
598.744	773.41
599.195	801.61
599.645	834.01
600.095	875.61
600.545	927.61
600.995	995.71
601.445	1054.71
601.895	1114.91
602.345	1172.41
602.795	1147.81
603.245	1086.91
603.695	1039.11
604.145	994.11
604.594	937.41
605.044	886.51
605.494	815.41
605.944	779.71
606.393	765.21
606.843	746.11
607.293	754.71
607.743	764.71
608.192	772.11
608.642	773.11
609.091	793.71
609.541	790.21
609.99	793.91
610.44	788.91
610.889	746.91
611.339	729.31
611.788	705.51
612.238	720.81
612.687	733.61
613.136	739.91
613.586	753.21
614.035	759.81
614.484	773.01
614.933	775.91
615.383	760.21
615.832	763.51
616.281	752.51
616.73	701.01
617.179	685.01
617.628	664.71
618.077	655.51
618.526	640.91
618.975	645.61
619.424	632.11
619.873	627.81
620.322	637.21
620.771	623.81
621.22	625.41
621.669	600.21
622.118	604.31
622.567	598.81
623.015	584.51
623.464	584.01
623.913	574.31
624.361	562.71
624.81	569.31
625.259	576.51
625.707	569.41
626.156	572.01
626.604	573.41
627.053	567.11
627.501	580.71
627.95	579.01
628.398	596.11
628.847	585.91
629.295	578.11
629.744	587.91
630.192	585.81
630.64	586.11
631.089	578.71
631.537	591.31
631.985	603.71
632.433	623.61
632.881	623.01
633.33	676.71
633.778	652.61
634.226	583.91
634.674	583.51
635.122	597.51
635.57	611.21
636.018	643.21
636.466	596.21
636.914	578.71
637.362	587.21
637.81	591.71
638.258	590.51
638.705	602.11
639.153	628.21
639.601	641.11
640.049	667.41
640.497	691.01
640.944	719.51
641.392	662.01
641.84	631.21
642.287	604.31
642.735	577.81
643.182	588.31
643.63	584.31
644.078	602.41
644.525	612.31
644.973	613.01
645.42	620.91
645.867	629.81
646.315	663.81
646.762	676.41
647.21	702.21
647.657	725.91
648.104	770.81
648.551	795.21
648.999	859.81
649.446	940.81
649.893	1030.31
650.34	1195.51
650.787	1416.31
651.234	1762.01
651.682	2301.71
652.129	3152.91
652.576	4574.51
653.023	6705.71
653.47	9196.21
653.917	11501.21
654.363	13261.41
654.81	14633.91
655.257	13952.71
655.704	9115.21
656.151	5373.11
656.598	3499.61
657.044	2475.71
657.491	1911.71
657.938	1519.61
658.385	1268.31
658.831	1119.81
659.278	989.41
659.724	875.81
660.171	811.31
660.618	743.01
661.064	704.51
661.511	678.01
661.957	677.61
662.404	664.21
662.85	664.71
663.296	649.01
663.743	575.21
664.189	559.61
664.635	549.21
665.082	534.11
665.528	540.31
665.974	529.61
666.42	527.71
666.867	518.31
667.313	501.81
667.759	495.91
668.205	489.11
668.651	501.81
669.097	495.71
669.543	521.41
669.989	479.51
670.435	464.41
670.881	453.71
671.327	462.41
671.773	480.01
672.219	510.71
672.665	563.21
673.11	597.11
673.556	643.01
674.002	681.41
674.448	667.11
674.893	557.81
675.339	487.11
675.785	448.71
676.23	425.91
676.676	410.01
677.122	396.31
677.567	377.61
678.013	376.21
678.458	369.71
678.904	374.21
679.349	355.91
679.794	365.81
680.24	358.91
680.685	360.21
681.131	356.81
681.576	360.31
682.021	363.91
682.466	361.81
682.912	352.51
683.357	358.61
683.802	391.81
684.247	420.91
684.692	469.01
685.137	512.21
685.583	543.81
686.028	568.51
686.473	523.51
686.918	454.91
687.363	424.81
687.807	403.91
688.252	377.41
688.697	364.51
689.142	355.81
689.587	337.11
690.032	333.61
690.477	348.71
690.921	359.91
691.366	390.11
691.811	397.41
692.255	439.71
692.7	472.91
693.145	513.21
693.589	706.51
694.034	1152.81
694.478	1564.71
694.923	1769.41
695.367	2301.01
695.812	1213.91
696.256	511.11
696.701	379.11
697.145	345.71
697.59	339.51
698.034	334.51
698.478	338.51
698.922	331.31
699.367	339.81
699.811	351.81
700.255	363.91
700.699	397.21
701.143	430.61
701.588	489.71
702.032	528.21
702.476	531.81
702.92	493.61
703.364	504.51
703.808	643.91
704.252	1049.11
704.696	1475.41
705.14	1703.21
705.584	2164.81
706.027	1077.21
706.471	525.71
706.915	401.91
707.359	361.01
707.803	334.21
708.246	318.11
708.69	318.11
709.134	327.21
709.577	309.31
710.021	321.71
710.465	315.11
710.908	301.51
711.352	306.81
711.795	317.71
712.239	361.61
712.682	398.11
713.126	425.91
713.569	478.71
714.012	379.21
714.456	332.31
714.899	308.61
715.342	283.71
715.786	268.71
716.229	258.51
716.672	259.41
717.115	257.01
717.558	263.51
718.002	262.31
718.445	265.91
718.888	288.11
719.331	304.91
719.774	318.61
720.217	311.81
720.66	286.81
721.103	278.11
721.546	262.11
721.989	251.11
722.432	238.91
722.874	246.11
723.317	232.41
723.76	244.91
724.203	258.51
724.645	329.41
725.088	458.01
725.531	574.71
725.974	659.41
726.416	562.61
726.859	314.01
727.301	257.01
727.744	248.41
728.187	235.01
728.629	252.01
729.071	250.71
729.514	266.91
729.956	274.91
730.399	283.71
730.841	296.01
731.283	282.81
731.726	275.41
732.168	261.01
732.61	270.31
733.053	289.31
733.495	326.01
733.937	367.71
734.379	404.91
734.821	450.51
735.263	552.71
735.705	855.41
736.148	1602.41
736.59	2613.61
737.032	3105.31
737.474	2526.81
737.916	822.61
738.357	435.81
738.799	333.61
739.241	305.21
739.683	301.11
740.125	301.11
740.567	312.21
741.008	322.51
741.45	321.61
741.892	320.51
742.334	355.11
742.775	366.81
743.217	350.01
743.658	280.01
744.1	258.61
744.542	269.61
744.983	318.21
745.425	347.41
745.866	354.81
746.307	289.31
746.749	291.01
747.19	329.31
747.632	464.81
748.073	905.81
748.514	1897.21
748.956	2903.51
749.397	3617.41
749.838	3002.31
750.279	2992.91
750.72	1521.81
751.162	554.71
751.603	323.41
752.044	256.11
752.485	222.01
752.926	215.81
753.367	213.31
753.808	205.81
754.249	199.71
754.69	188.61
755.131	184.91
755.572	183.91
756.013	187.51
756.453	194.21
756.894	200.81
757.335	198.21
757.776	198.21
758.216	199.31
758.657	207.41
759.098	212.01
759.538	232.01
759.979	279.61
760.42	383.11
760.86	718.41
761.301	1839.81
761.741	4490.01
762.182	6509.51
762.622	4565.11
