Data from 20171114-ORNL-Ar_H_NY_Subt18_08-07-21-062.txt Node
Date: Tue Nov 14 08:07:21 EST 2017
User: Ender
Spectrometer: HR+D1039
Trigger mode: 0
Integration Time (sec): 2.730000E-2
Scans to average: 10
Electric dark correction enabled: true
Nonlinearity correction enabled: false
Boxcar width: 0
XAxis mode: Wavelengths
Number of Pixels in Spectrum: 2048
>>>>>Begin Spectral Data<<<<<
187.836	-0.14
188.309	-0.14
188.782	-0.14
189.255	-0.74
189.728	0.16
190.201	2.46
190.674	-1.94
191.147	5.96
191.619	-5.14
192.092	1.76
192.565	1.96
193.038	-0.44
193.511	0.06
193.984	1.36
194.456	0.66
194.929	-1.74
195.402	-6.04
195.874	1.76
196.347	-1.64
196.82	-7.64
197.292	5.76
197.765	3.46
198.237	-8.74
198.71	3.16
199.182	-3.94
199.655	7.96
200.127	-0.14
200.6	-4.14
201.072	1.06
201.544	-0.34
202.017	-1.84
202.489	0.96
202.961	-1.44
203.433	-0.94
203.906	-7.74
204.378	-10.24
204.85	-3.14
205.322	-6.94
205.794	-0.44
206.266	-2.54
206.739	-9.34
207.211	1.46
207.683	-8.74
208.155	-4.24
208.627	-13.44
209.099	-1.94
209.57	-5.04
210.042	-6.64
210.514	-6.04
210.986	-3.74
211.458	-4.14
211.93	5.86
212.402	8.06
212.873	-2.94
213.345	-7.74
213.817	-15.44
214.288	-7.34
214.76	-14.14
215.232	-10.34
215.703	0.16
216.175	1.46
216.646	-2.44
217.118	-5.94
217.589	0.76
218.061	-2.84
218.532	-10.04
219.004	-3.14
219.475	-8.34
219.946	-3.44
220.418	-4.94
220.889	-0.44
221.36	-0.94
221.832	-3.04
222.303	-1.24
222.774	2.96
223.245	-11.54
223.717	-1.74
224.188	-1.24
224.659	-8.34
225.13	-8.24
225.601	-5.54
226.072	0.06
226.543	0.56
227.014	-0.94
227.485	0.46
227.956	-5.64
228.427	-2.64
228.898	2.36
229.369	0.76
229.839	-0.94
230.31	-3.94
230.781	1.66
231.252	-1.34
231.722	-1.54
232.193	2.96
232.664	3.46
233.135	0.06
233.605	-5.14
234.076	-10.14
234.546	-0.94
235.017	0.26
235.487	-2.54
235.958	-7.44
236.428	-3.94
236.899	1.66
237.369	1.46
237.84	1.46
238.31	1.16
238.78	-4.64
239.251	-9.24
239.721	-4.74
240.191	-2.54
240.662	-1.44
241.132	0.46
241.602	-3.84
242.072	4.66
242.542	0.96
243.013	0.06
243.483	2.16
243.953	4.46
244.423	2.36
244.893	-1.44
245.363	2.26
245.833	-1.44
246.303	-8.44
246.773	2.16
247.243	-2.64
247.712	-1.54
248.182	4.96
248.652	4.36
249.122	-2.34
249.592	2.96
250.061	9.56
250.531	8.86
251.001	6.76
251.471	7.36
251.94	12.36
252.41	-0.04
252.879	-6.24
253.349	9.16
253.818	7.46
254.288	-0.04
254.757	-1.84
255.227	0.96
255.696	1.06
256.166	0.46
256.635	3.36
257.105	4.06
257.574	-2.54
258.043	-1.64
258.513	2.96
258.982	5.66
259.451	-1.64
259.92	2.46
260.389	-1.14
260.859	9.36
261.328	4.66
261.797	7.06
262.266	-0.84
262.735	8.66
263.204	-0.84
263.673	-7.74
264.142	0.56
264.611	-3.74
265.08	-3.34
265.549	-4.44
266.018	0.56
266.487	-0.24
266.955	-2.64
267.424	-1.94
267.893	2.46
268.362	-8.14
268.83	3.36
269.299	3.36
269.768	-2.14
270.236	4.06
270.705	-1.64
271.174	1.46
271.642	4.16
272.111	-3.74
272.579	5.46
273.048	4.96
273.516	4.56
273.985	7.96
274.453	10.56
274.922	11.46
275.39	5.36
275.858	2.76
276.327	6.46
276.795	10.96
277.263	7.46
277.731	20.36
278.2	19.56
278.668	21.96
279.136	15.46
279.604	10.26
280.072	10.26
280.54	2.36
281.008	9.26
281.477	8.36
281.945	11.36
282.413	8.66
282.881	9.96
283.348	1.16
283.816	5.76
284.284	3.56
284.752	18.06
285.22	8.66
285.688	10.86
286.156	10.86
286.623	19.06
287.091	19.66
287.559	11.06
288.026	9.16
288.494	5.76
288.962	1.66
289.429	6.26
289.897	13.46
290.364	6.96
290.832	12.66
291.3	7.36
291.767	16.66
292.234	15.26
292.702	5.96
293.169	8.76
293.637	17.36
294.104	9.46
294.571	4.16
295.039	8.56
295.506	9.26
295.973	15.66
296.44	15.56
296.908	8.36
297.375	5.96
297.842	17.96
298.309	6.06
298.776	7.86
299.243	13.26
299.71	2.06
300.177	13.46
300.644	16.36
301.111	10.96
301.578	17.76
302.045	9.26
302.512	12.46
302.979	16.76
303.446	14.96
303.913	14.66
304.379	11.06
304.846	20.76
305.313	16.16
305.78	19.46
306.246	21.06
306.713	16.26
307.18	17.06
307.646	13.96
308.113	16.76
308.579	14.56
309.046	18.76
309.512	13.76
309.979	11.06
310.445	18.06
310.912	26.96
311.378	26.86
311.845	21.36
312.311	24.96
312.777	21.16
313.244	23.86
313.71	22.96
314.176	22.76
314.642	20.96
315.109	19.26
315.575	24.36
316.041	28.26
316.507	24.56
316.973	25.36
317.439	22.96
317.905	32.86
318.371	27.86
318.837	21.86
319.303	23.06
319.769	24.76
320.235	23.16
320.701	29.96
321.167	29.86
321.633	27.66
322.099	27.46
322.564	29.06
323.03	29.56
323.496	26.96
323.962	30.86
324.427	24.46
324.893	36.36
325.359	28.26
325.824	26.16
326.29	26.06
326.755	32.06
327.221	34.16
327.686	27.26
328.152	38.26
328.617	32.46
329.083	38.26
329.548	38.76
330.014	36.46
330.479	36.16
330.944	34.76
331.41	35.86
331.875	30.96
332.34	34.96
332.805	28.36
333.271	30.76
333.736	33.76
334.201	31.56
334.666	45.46
335.131	46.66
335.596	43.26
336.061	45.36
336.526	33.26
336.991	39.86
337.456	41.16
337.921	33.96
338.386	28.36
338.851	33.46
339.316	49.46
339.781	41.76
340.246	44.66
340.711	38.86
341.175	38.26
341.64	40.56
342.105	38.46
342.569	45.56
343.034	49.36
343.499	47.96
343.963	42.16
344.428	52.16
344.893	48.86
345.357	49.76
345.822	44.96
346.286	55.76
346.751	51.96
347.215	48.76
347.679	59.96
348.144	79.06
348.608	72.56
349.073	56.66
349.537	66.16
350.001	60.76
350.465	70.36
350.93	61.46
351.394	66.46
351.858	60.76
352.322	74.26
352.786	67.36
353.25	87.16
353.715	89.06
354.179	83.46
354.643	99.36
355.107	94.66
355.571	79.86
356.035	79.26
356.498	91.46
356.962	92.66
357.426	100.96
357.89	97.96
358.354	77.56
358.818	72.16
359.281	67.76
359.745	63.16
360.209	66.66
360.673	63.26
361.136	69.26
361.6	71.66
362.064	70.86
362.527	72.06
362.991	81.16
363.454	66.06
363.918	62.46
364.381	69.96
364.845	76.06
365.308	80.56
365.772	72.36
366.235	75.36
366.698	75.56
367.162	73.96
367.625	71.86
368.088	81.56
368.552	71.66
369.015	77.36
369.478	93.46
369.941	87.26
370.404	78.36
370.867	86.36
371.331	91.26
371.794	91.26
372.257	88.16
372.72	95.56
373.183	95.76
373.646	87.26
374.109	86.66
374.572	90.16
375.035	96.36
375.497	96.56
375.96	97.06
376.423	94.76
376.886	103.96
377.349	100.66
377.811	94.16
378.274	98.96
378.737	96.66
379.199	96.06
379.662	99.76
380.125	112.26
380.587	101.36
381.05	101.76
381.512	107.56
381.975	117.86
382.437	114.16
382.9	103.86
383.362	113.36
383.825	121.96
384.287	123.96
384.75	119.96
385.212	116.96
385.674	119.96
386.136	126.76
386.599	116.06
387.061	124.86
387.523	114.56
387.985	126.06
388.447	130.06
388.91	127.26
389.372	135.96
389.834	132.06
390.296	128.26
390.758	135.26
391.22	152.76
391.682	173.76
392.144	232.86
392.606	192.96
393.068	149.26
393.529	155.26
393.991	144.16
394.453	135.36
394.915	140.16
395.377	166.06
395.838	183.46
396.3	141.66
396.762	138.26
397.224	133.26
397.685	117.66
398.147	124.56
398.608	115.56
399.07	121.16
399.531	127.06
399.993	135.06
400.454	142.16
400.916	141.06
401.377	138.96
401.839	146.16
402.3	143.26
402.762	164.56
403.223	164.16
403.684	162.16
404.145	156.56
404.607	158.46
405.068	157.46
405.529	164.06
405.99	176.76
406.451	166.56
406.913	167.86
407.374	160.96
407.835	153.86
408.296	157.56
408.757	163.36
409.218	174.26
409.679	173.86
410.14	174.36
410.601	174.36
411.062	180.36
411.522	182.16
411.983	173.76
412.444	169.96
412.905	185.36
413.366	176.16
413.826	189.66
414.287	211.96
414.748	256.06
415.208	251.46
415.669	215.36
416.13	210.46
416.59	203.16
417.051	211.36
417.511	218.46
417.972	245.86
418.432	254.96
418.893	294.36
419.353	247.96
419.814	200.96
420.274	180.46
420.734	180.16
421.195	196.56
421.655	189.96
422.115	191.56
422.576	194.66
423.036	195.16
423.496	205.86
423.956	208.76
424.416	228.96
424.876	264.66
425.336	259.26
425.797	262.76
426.257	253.76
426.717	234.06
427.177	234.46
427.637	224.16
428.097	228.66
428.556	241.96
429.016	264.36
429.476	258.86
429.936	266.56
430.396	274.36
430.856	282.56
431.315	306.36
431.775	341.86
432.235	369.96
432.694	342.86
433.154	354.06
433.614	374.46
434.073	329.76
434.533	275.66
434.993	260.66
435.452	275.46
435.912	286.46
436.371	274.76
436.83	276.76
437.29	266.06
437.749	242.56
438.209	235.86
438.668	264.46
439.127	275.26
439.587	258.66
440.046	236.36
440.505	261.46
440.964	268.16
441.424	309.26
441.883	309.16
442.342	256.16
442.801	227.36
443.26	218.46
443.719	223.06
444.178	223.06
444.637	208.56
445.096	221.06
445.555	223.86
446.014	232.46
446.473	233.26
446.932	233.66
447.391	228.26
447.849	232.16
448.308	219.06
448.767	227.06
449.226	232.46
449.685	241.96
450.143	257.96
450.602	237.76
451.061	225.26
451.519	241.66
451.978	233.76
452.436	233.36
452.895	239.56
453.353	255.36
453.812	244.26
454.27	249.26
454.729	237.66
455.187	243.46
455.646	248.26
456.104	250.56
456.562	269.26
457.021	272.86
457.479	268.06
457.937	272.76
458.395	269.26
458.854	256.06
459.312	257.66
459.77	280.36
460.228	260.86
460.686	240.26
461.144	254.86
461.602	252.06
462.06	237.46
462.518	265.76
462.976	258.26
463.434	264.36
463.892	270.76
464.35	280.46
464.808	302.96
465.266	276.06
465.724	275.76
466.181	281.86
466.639	279.46
467.097	297.26
467.555	315.36
468.012	312.46
468.47	311.56
468.928	331.46
469.385	343.16
469.843	357.66
470.3	358.06
470.758	369.56
471.215	385.86
471.673	401.16
472.13	405.86
472.588	422.06
473.045	378.96
473.503	389.86
473.96	397.26
474.417	412.46
474.875	435.06
475.332	475.16
475.789	466.66
476.246	474.76
476.704	491.66
477.161	511.16
477.618	527.36
478.075	568.86
478.532	616.56
478.989	694.86
479.446	790.76
479.903	753.66
480.36	800.26
480.817	846.66
481.274	947.96
481.731	1059.66
482.188	1130.66
482.645	1252.56
483.102	1341.96
483.558	1475.56
484.015	1509.46
484.472	1501.06
484.929	1444.06
485.385	1406.56
485.842	1368.86
486.299	1323.86
486.755	1273.36
487.212	1049.26
487.668	915.16
488.125	846.86
488.582	775.96
489.038	744.46
489.494	707.76
489.951	679.86
490.407	674.66
490.864	660.36
491.32	663.06
491.776	647.96
492.233	660.36
492.689	621.56
493.145	610.86
493.602	615.76
494.058	626.46
494.514	623.96
494.97	653.26
495.426	652.56
495.882	625.46
496.338	616.86
496.794	629.16
497.251	629.56
497.707	634.66
498.163	647.46
498.618	639.06
499.074	651.66
499.53	677.56
499.986	677.26
500.442	648.96
500.898	621.66
501.354	627.96
501.809	639.86
502.265	648.76
502.721	658.26
503.177	659.16
503.632	671.66
504.088	675.66
504.543	700.46
504.999	714.26
505.455	668.46
505.91	650.06
506.366	655.66
506.821	646.56
507.277	634.36
507.732	634.76
508.187	638.76
508.643	652.36
509.098	648.06
509.553	674.86
510.009	680.96
510.464	688.76
510.919	708.46
511.375	712.76
511.83	733.66
512.285	741.96
512.74	767.56
513.195	793.76
513.65	781.66
514.105	790.46
514.56	770.46
515.015	797.56
515.47	820.36
515.925	796.66
516.38	805.96
516.835	812.26
517.29	798.26
517.745	787.06
518.2	782.46
518.655	767.56
519.109	752.86
519.564	754.46
520.019	749.26
520.474	744.86
520.928	743.06
521.383	733.36
521.838	724.06
522.292	721.86
522.747	734.16
523.201	719.06
523.656	715.16
524.11	716.06
524.565	706.56
525.019	700.06
525.474	721.06
525.928	720.46
526.382	709.56
526.837	713.86
527.291	716.26
527.745	711.96
528.2	718.86
528.654	711.96
529.108	701.96
529.562	704.36
530.016	701.26
530.47	709.86
530.925	712.56
531.379	710.06
531.833	716.66
532.287	717.56
532.741	718.56
533.195	720.96
533.649	721.66
534.103	730.36
534.556	718.96
535.01	726.76
535.464	722.06
535.918	729.16
536.372	740.26
536.826	737.86
537.279	729.76
537.733	730.86
538.187	741.36
538.64	734.16
539.094	733.16
539.548	749.46
540.001	737.06
540.455	736.16
540.908	751.76
541.362	760.06
541.815	760.36
542.269	773.16
542.722	781.96
543.175	784.96
543.629	779.16
544.082	806.36
544.536	814.76
544.989	802.76
545.442	809.66
545.895	814.46
546.349	805.66
546.802	814.36
547.255	817.96
547.708	828.96
548.161	843.36
548.614	851.16
549.067	844.36
549.52	839.86
549.973	832.96
550.426	829.06
550.879	821.36
551.332	818.16
551.785	831.36
552.238	837.06
552.691	840.96
553.144	844.76
553.596	877.46
554.049	886.06
554.502	913.46
554.955	927.46
555.407	929.56
555.86	931.76
556.313	913.66
556.765	896.96
557.218	887.36
557.67	899.56
558.123	894.86
558.576	895.66
559.028	897.26
559.48	899.86
559.933	899.36
560.385	863.16
560.838	834.76
561.29	798.66
561.742	811.56
562.195	786.26
562.647	786.86
563.099	795.16
563.551	787.06
564.004	797.56
564.456	787.86
564.908	783.36
565.36	755.16
565.812	739.16
566.264	735.06
566.716	740.06
567.168	716.56
567.62	740.16
568.072	714.36
568.524	710.96
568.976	706.46
569.428	702.56
569.88	695.06
570.332	699.96
570.784	699.26
571.235	701.16
571.687	716.36
572.139	722.16
572.59	728.86
573.042	726.76
573.494	732.26
573.945	722.76
574.397	705.66
574.849	708.36
575.3	713.06
575.752	699.96
576.203	689.36
576.655	707.36
577.106	682.16
577.557	680.96
578.009	681.86
578.46	667.56
578.912	674.06
579.363	685.46
579.814	675.36
580.265	670.66
580.717	685.66
581.168	680.76
581.619	702.86
582.07	698.86
582.521	690.86
582.972	694.76
583.423	692.56
583.875	696.36
584.326	709.56
584.777	735.46
585.227	773.76
585.678	833.36
586.129	874.96
586.58	921.36
587.031	970.46
587.482	1066.76
587.933	1150.86
588.384	1053.76
588.834	880.16
589.285	794.26
589.736	791.46
590.186	785.36
590.637	781.06
591.088	752.06
591.538	752.66
591.989	752.66
592.439	742.56
592.89	726.26
593.34	727.86
593.791	719.76
594.241	717.76
594.692	718.56
595.142	708.16
595.593	712.06
596.043	720.06
596.493	722.26
596.943	724.96
597.394	737.36
597.844	738.46
598.294	751.86
598.744	774.36
599.195	793.46
599.645	840.46
600.095	887.16
600.545	938.46
600.995	991.66
601.445	1046.66
601.895	1115.96
602.345	1161.66
602.795	1135.96
603.245	1089.56
603.695	1031.36
604.145	970.46
604.594	927.36
605.044	876.26
605.494	812.06
605.944	763.06
606.393	757.36
606.843	736.66
607.293	747.26
607.743	735.46
608.192	759.66
608.642	770.56
609.091	771.86
609.541	774.56
609.99	781.86
610.44	782.26
610.889	735.36
611.339	714.06
611.788	698.16
612.238	707.16
612.687	718.86
613.136	709.86
613.586	728.56
614.035	731.16
614.484	737.06
614.933	737.46
615.383	742.46
615.832	724.26
616.281	719.66
616.73	685.16
617.179	666.56
617.628	657.26
618.077	644.66
618.526	634.76
618.975	637.86
619.424	625.86
619.873	619.16
620.322	636.06
620.771	610.56
621.22	615.36
621.669	606.56
622.118	590.66
622.567	591.26
623.015	576.06
623.464	570.66
623.913	560.86
624.361	566.16
624.81	558.06
625.259	557.76
625.707	561.76
626.156	561.36
626.604	576.66
627.053	569.96
627.501	570.86
627.95	578.66
628.398	591.96
628.847	576.66
629.295	586.26
629.744	582.76
630.192	569.36
630.64	583.56
631.089	564.76
631.537	558.66
631.985	548.06
632.433	560.16
632.881	559.06
633.33	596.96
633.778	578.86
634.226	549.06
634.674	556.06
635.122	567.86
635.57	578.36
636.018	594.16
636.466	577.66
636.914	572.56
637.362	579.76
637.81	587.76
638.258	592.96
638.705	588.56
639.153	618.16
639.601	624.36
640.049	649.46
640.497	681.26
640.944	706.56
641.392	653.16
641.84	619.86
642.287	587.76
642.735	572.66
643.182	579.66
643.63	568.66
644.078	576.76
644.525	584.86
644.973	599.06
645.42	602.76
645.867	629.06
646.315	641.96
646.762	664.66
647.21	697.76
647.657	710.66
648.104	743.66
648.551	766.86
648.999	830.36
649.446	912.36
649.893	994.86
650.34	1139.76
650.787	1347.66
651.234	1672.46
651.682	2169.56
652.129	2974.76
652.576	4230.26
653.023	6212.46
653.47	8435.66
653.917	10486.86
654.363	12045.16
654.81	13316.36
655.257	12619.46
655.704	8311.56
656.151	4969.56
656.598	3236.96
657.044	2301.36
657.491	1794.46
657.938	1447.66
658.385	1213.56
658.831	1052.46
659.278	938.76
659.724	837.76
660.171	778.96
660.618	712.96
661.064	678.56
661.511	661.56
661.957	648.56
662.404	638.86
662.85	651.96
663.296	617.46
663.743	564.96
664.189	545.26
664.635	544.16
665.082	541.56
665.528	527.86
665.974	529.36
666.42	514.56
666.867	507.66
667.313	489.86
667.759	476.06
668.205	462.96
668.651	466.66
669.097	468.56
669.543	466.06
669.989	456.06
670.435	449.76
670.881	452.96
671.327	463.46
671.773	479.16
672.219	495.96
672.665	564.76
673.11	601.96
673.556	648.16
674.002	689.66
674.448	670.46
674.893	552.96
675.339	486.26
675.785	442.66
676.23	426.66
676.676	397.26
677.122	398.26
677.567	378.76
678.013	374.36
678.458	360.46
678.904	372.76
679.349	348.36
679.794	360.86
680.24	352.96
680.685	352.56
681.131	358.06
681.576	347.66
682.021	356.36
682.466	352.06
682.912	349.86
683.357	352.26
683.802	387.76
684.247	416.06
684.692	472.56
685.137	500.96
685.583	548.66
686.028	574.26
686.473	529.46
686.918	449.66
687.363	421.86
687.807	406.16
688.252	368.66
688.697	355.26
689.142	343.96
689.587	333.46
690.032	335.16
690.477	346.36
690.921	357.56
691.366	391.36
691.811	409.76
692.255	441.36
692.7	467.36
693.145	512.06
693.589	721.86
694.034	1166.86
694.478	1576.56
694.923	1768.76
695.367	2305.96
695.812	1217.96
696.256	512.16
696.701	378.96
697.145	349.96
697.59	332.66
698.034	313.26
698.478	328.06
698.922	325.56
699.367	323.26
699.811	345.56
700.255	357.76
700.699	393.86
701.143	432.06
701.588	481.66
702.032	524.66
702.476	522.96
702.92	503.16
703.364	506.36
703.808	659.56
704.252	1079.06
704.696	1493.56
705.14	1711.66
705.584	2183.96
706.027	1084.16
706.471	531.96
706.915	405.56
707.359	362.66
707.803	326.46
708.246	314.06
708.69	318.16
709.134	318.46
709.577	317.96
710.021	326.16
710.465	311.06
710.908	305.16
711.352	301.56
711.795	313.36
712.239	355.86
712.682	392.36
713.126	415.56
713.569	470.06
714.012	372.96
714.456	317.76
714.899	301.36
715.342	271.66
715.786	262.26
716.229	261.46
716.672	258.66
717.115	249.66
717.558	253.06
718.002	257.76
718.445	266.36
718.888	284.76
719.331	298.36
719.774	308.86
720.217	310.56
720.66	295.26
721.103	274.76
721.546	260.76
721.989	256.96
722.432	232.76
722.874	237.06
723.317	227.86
723.76	238.86
724.203	263.96
724.645	322.86
725.088	459.06
725.531	576.46
725.974	660.46
726.416	557.36
726.859	314.26
727.301	246.26
727.744	248.16
728.187	235.76
728.629	240.16
729.071	253.36
729.514	265.26
729.956	279.16
730.399	285.46
730.841	295.16
731.283	270.66
731.726	268.26
732.168	270.26
732.61	275.26
733.053	293.46
733.495	321.46
733.937	363.86
734.379	408.46
734.821	444.06
735.263	565.86
735.705	864.36
736.148	1627.06
736.59	2674.96
737.032	3112.96
737.474	2547.66
737.916	829.66
738.357	432.26
738.799	334.26
739.241	302.76
739.683	290.56
740.125	298.16
740.567	308.16
741.008	321.66
741.45	313.16
741.892	320.96
742.334	353.96
742.775	371.36
743.217	348.56
743.658	274.26
744.1	254.86
744.542	273.86
744.983	316.26
745.425	354.46
745.866	348.86
746.307	289.66
746.749	289.46
747.19	336.36
747.632	473.56
748.073	928.46
748.514	1933.66
748.956	2938.36
749.397	3698.86
749.838	3051.86
750.279	3029.56
750.72	1538.96
751.162	563.06
751.603	335.16
752.044	257.76
752.485	220.76
752.926	211.56
753.367	205.86
753.808	202.66
754.249	197.66
754.69	191.16
755.131	179.86
755.572	189.26
756.013	188.26
756.453	190.56
756.894	190.96
757.335	199.76
757.776	201.76
758.216	197.16
758.657	198.36
759.098	203.46
759.538	238.96
759.979	280.06
760.42	385.06
760.86	733.36
761.301	1922.66
761.741	4600.36
762.182	6604.16
762.622	4654.06
763.063	1343.36
763.503	550.06
763.943	342.06
