Data from 20171114-ORNL-Ar_H_NY_Subt18_08-09-07-036.txt Node
Date: Tue Nov 14 08:09:07 EST 2017
User: Ender
Spectrometer: HR+D1039
Trigger mode: 0
Integration Time (sec): 2.730000E-2
Scans to average: 10
Electric dark correction enabled: true
Nonlinearity correction enabled: false
Boxcar width: 0
XAxis mode: Wavelengths
Number of Pixels in Spectrum: 2048
>>>>>Begin Spectral Data<<<<<
187.836	-6.6
188.309	-6.6
188.782	-6.6
189.255	-2
189.728	-3.3
190.201	-0.4
190.674	2.6
191.147	1.3
191.619	-4.8
192.092	7.6
192.565	7.1
193.038	0.2
193.511	1.9
193.984	0.9
194.456	-2.5
194.929	-2.1
195.402	-2.4
195.874	2.5
196.347	-1
196.82	-4.7
197.292	0.4
197.765	-2.4
198.237	-7.1
198.71	-0.1
199.182	-1.3
199.655	2.7
200.127	7.8
200.6	-4.7
201.072	-7.7
201.544	0.3
202.017	-1.9
202.489	4.3
202.961	-5.6
203.433	-2.6
203.906	-4.8
204.378	-9.9
204.85	-0.1
205.322	-7.4
205.794	-2.2
206.266	-4.8
206.739	-12.5
207.211	3.5
207.683	-6.2
208.155	-5.7
208.627	-3
209.099	-9.9
209.57	-8.5
210.042	-8
210.514	-5.2
210.986	-0.5
211.458	-4
211.93	-1.3
212.402	1.6
212.873	-4
213.345	-8.8
213.817	-10
214.288	3.3
214.76	-10
215.232	-2.8
215.703	-3.5
216.175	-0.8
216.646	-1.4
217.118	-12.6
217.589	-3.3
218.061	0.2
218.532	-5.8
219.004	-8.5
219.475	-5
219.946	-6.5
220.418	-9.4
220.889	-0.3
221.36	-0.7
221.832	-3
222.303	-10.4
222.774	-4.2
223.245	-3.6
223.717	-6.9
224.188	0.9
224.659	-6.1
225.13	-4.8
225.601	0.6
226.072	2.6
226.543	2.5
227.014	-2.4
227.485	-3.1
227.956	-5.9
228.427	-1.6
228.898	-0
229.369	0.2
229.839	-4.9
230.31	-11.4
230.781	-0.4
231.252	-4.7
231.722	-6.5
232.193	-3.4
232.664	-4.6
233.135	-3.3
233.605	-4.2
234.076	-5.6
234.546	-0.8
235.017	1.3
235.487	-1.2
235.958	-7.6
236.428	-3.8
236.899	-1.9
237.369	-1.4
237.84	-8.2
238.31	4.4
238.78	-1.3
239.251	-8.6
239.721	-5.1
240.191	-2.3
240.662	-8.5
241.132	-3.8
241.602	-5.3
242.072	-4.2
242.542	-0.9
243.013	-1.2
243.483	-1.6
243.953	1.8
244.423	-2.2
244.893	-3.9
245.363	-4.4
245.833	-0.7
246.303	-5.3
246.773	6.4
247.243	1.5
247.712	-6.4
248.182	-0.2
248.652	2.2
249.122	-6.1
249.592	4.3
250.061	4.9
250.531	15.1
251.001	-1.8
251.471	6
251.94	3.8
252.41	3.7
252.879	-12.2
253.349	4.4
253.818	8.6
254.288	-2.6
254.757	-5.4
255.227	-6.9
255.696	1.6
256.166	1.4
256.635	2.3
257.105	0.9
257.574	1.7
258.043	-3
258.513	-2.4
258.982	-0
259.451	-4.1
259.92	3.8
260.389	2.2
260.859	10.4
261.328	-0.3
261.797	6.8
262.266	0.8
262.735	7.9
263.204	2.9
263.673	-1.4
264.142	-2.9
264.611	-2.9
265.08	-4.5
265.549	1.1
266.018	-1.8
266.487	-0.5
266.955	-3.5
267.424	-2.1
267.893	-0.4
268.362	-5.6
268.83	-0.6
269.299	7.4
269.768	2.9
270.236	-0.6
270.705	-6.3
271.174	-3.3
271.642	-0.6
272.111	-0.2
272.579	6.2
273.048	4.4
273.516	1.1
273.985	0.5
274.453	10
274.922	6.6
275.39	4.7
275.858	-0.8
276.327	3.2
276.795	12.5
277.263	1.7
277.731	7.4
278.2	10.6
278.668	16.8
279.136	7.3
279.604	6.5
280.072	3.7
280.54	7.2
281.008	8.5
281.477	7.8
281.945	6.5
282.413	8.4
282.881	10.9
283.348	7
283.816	12.7
284.284	9.3
284.752	18.7
285.22	5.1
285.688	7.3
286.156	10.2
286.623	19.7
287.091	12.5
287.559	6.6
288.026	8.6
288.494	1.3
288.962	2.8
289.429	7.9
289.897	11.6
290.364	3.6
290.832	5.4
291.3	7.1
291.767	11.5
292.234	8.8
292.702	5.1
293.169	16.8
293.637	9.5
294.104	10.6
294.571	2.9
295.039	8.7
295.506	3.1
295.973	14.1
296.44	12.5
296.908	9.9
297.375	8.4
297.842	9.4
298.309	9.8
298.776	0.4
299.243	11.8
299.71	4.9
300.177	14.2
300.644	15.5
301.111	11.7
301.578	15.4
302.045	11.8
302.512	17.5
302.979	17.5
303.446	12.7
303.913	10.1
304.379	6.9
304.846	22.6
305.313	16.9
305.78	15.3
306.246	24.6
306.713	18
307.18	13.7
307.646	18
308.113	26.7
308.579	12.2
309.046	13.3
309.512	18.8
309.979	10.1
310.445	17.2
310.912	27
311.378	21.8
311.845	24.1
312.311	21.9
312.777	16
313.244	18
313.71	29.7
314.176	22
314.642	24.2
315.109	20.6
315.575	22.8
316.041	28.7
316.507	22.4
316.973	26.4
317.439	21.7
317.905	24.7
318.371	25.6
318.837	23.1
319.303	26
319.769	24.7
320.235	23.7
320.701	27.8
321.167	33.6
321.633	25.6
322.099	29.6
322.564	30.7
323.03	24.4
323.496	29
323.962	25
324.427	23
324.893	31.1
325.359	26.6
325.824	30.4
326.29	24.6
326.755	23.6
327.221	30.1
327.686	27.2
328.152	37.2
328.617	30.3
329.083	36.3
329.548	37.8
330.014	31.8
330.479	33
330.944	35.3
331.41	36.1
331.875	37.3
332.34	30.4
332.805	29.9
333.271	30
333.736	27.2
334.201	38.8
334.666	34.9
335.131	43.6
335.596	40.2
336.061	38.3
336.526	34.4
336.991	39.2
337.456	43.1
337.921	37.7
338.386	38
338.851	37.2
339.316	37.9
339.781	34.6
340.246	42.8
340.711	34.9
341.175	44
341.64	33.9
342.105	39.1
342.569	43.9
343.034	48.1
343.499	45.3
343.963	47.8
344.428	49.8
344.893	52
345.357	44.9
345.822	49.6
346.286	50.5
346.751	63.2
347.215	61.2
347.679	59.4
348.144	68.9
348.608	62.8
349.073	47
349.537	52.6
350.001	64
350.465	71.3
350.93	62.9
351.394	62.4
351.858	62.3
352.322	68.3
352.786	65.6
353.25	76.6
353.715	87.5
354.179	75.6
354.643	90.7
355.107	100
355.571	83.3
356.035	81
356.498	88.7
356.962	96.8
357.426	95.4
357.89	90.7
358.354	74.7
358.818	70.8
359.281	63.2
359.745	61.8
360.209	62.9
360.673	67.1
361.136	63.7
361.6	65.9
362.064	68
362.527	72.8
362.991	73.4
363.454	66.4
363.918	64.5
364.381	70.2
364.845	69.6
365.308	75.5
365.772	71.6
366.235	72.8
366.698	73.7
367.162	75.5
367.625	69.3
368.088	76.4
368.552	76.7
369.015	68.6
369.478	77.8
369.941	81
370.404	76.5
370.867	84
371.331	81.4
371.794	89.2
372.257	78.3
372.72	93.3
373.183	88.6
373.646	79.9
374.109	92.8
374.572	92.6
375.035	91.1
375.497	89.3
375.96	87.4
376.423	85.2
376.886	98.5
377.349	97.4
377.811	87.9
378.274	91.3
378.737	88.7
379.199	99.6
379.662	93.5
380.125	102.4
380.587	99.9
381.05	99.9
381.512	96.6
381.975	103.2
382.437	110.5
382.9	106.3
383.362	111.9
383.825	116.9
384.287	121.8
384.75	109
385.212	117
385.674	114.5
386.136	116.2
386.599	102.7
387.061	110.6
387.523	113.2
387.985	113.9
388.447	123.1
388.91	111.6
389.372	119.8
389.834	118.7
390.296	116.1
390.758	117.9
391.22	134.5
391.682	144.6
392.144	164.7
392.606	140.3
393.068	133.1
393.529	139.6
393.991	138.6
394.453	127.6
394.915	124.1
395.377	128.1
395.838	134.1
396.3	127.7
396.762	132.1
397.224	123.5
397.685	119.3
398.147	123.1
398.608	123.9
399.07	123
399.531	123.1
399.993	132
400.454	140.4
400.916	135.8
401.377	128.4
401.839	144.7
402.3	137.7
402.762	150.1
403.223	169.1
403.684	153.8
404.145	147.3
404.607	150.5
405.068	142.6
405.529	150.8
405.99	173.3
406.451	158.4
406.913	165.1
407.374	151.2
407.835	145.6
408.296	156
408.757	161.6
409.218	175.4
409.679	164.6
410.14	168.4
410.601	163.8
411.062	166
411.522	171.9
411.983	163.8
412.444	163.4
412.905	177.1
413.366	174.2
413.826	193.7
414.287	207.4
414.748	255.3
415.208	241.9
415.669	205.6
416.13	196.1
416.59	193
417.051	205.7
417.511	216.7
417.972	230.7
418.432	239
418.893	274.3
419.353	245
419.814	194.7
420.274	177.8
420.734	173.2
421.195	188.7
421.655	184
422.115	184.9
422.576	181.9
423.036	190
423.496	204.8
423.956	208.3
424.416	220.2
424.876	256.2
425.336	247.6
425.797	251.8
426.257	244.9
426.717	231.2
427.177	223.2
427.637	209.9
428.097	227.1
428.556	234.5
429.016	256.6
429.476	259.2
429.936	261.4
430.396	268.4
430.856	267.1
431.315	299.1
431.775	329.2
432.235	361.2
432.694	326.6
433.154	341.7
433.614	365.2
434.073	311.2
434.533	272.9
434.993	261.8
435.452	269.9
435.912	277.4
436.371	270.2
436.83	259.7
437.29	254.5
437.749	234.6
438.209	234.9
438.668	261.2
439.127	271.3
439.587	257.7
440.046	243.7
440.505	245.5
440.964	260.8
441.424	302.3
441.883	292.4
442.342	250.1
442.801	225.9
443.26	215.7
443.719	224.7
444.178	215.3
444.637	205.2
445.096	217.4
445.555	219.5
446.014	220.8
446.473	226.9
446.932	225.9
447.391	220
447.849	228.9
448.308	214.6
448.767	226.7
449.226	230.3
449.685	238.5
450.143	242.3
450.602	230.2
451.061	228.4
451.519	234.5
451.978	231.8
452.436	233.9
452.895	237
453.353	244.4
453.812	235.7
454.27	235.7
454.729	235.1
455.187	241
455.646	250
456.104	242.6
456.562	258.4
457.021	274
457.479	250.6
457.937	267.3
458.395	262.1
458.854	250.9
459.312	257
459.77	272.6
460.228	244.4
460.686	241.7
461.144	252.1
461.602	244.6
462.06	246.5
462.518	261.9
462.976	254.8
463.434	258
463.892	264
464.35	272.8
464.808	289.9
465.266	270.2
465.724	271.6
466.181	273.7
466.639	266.1
467.097	291.5
467.555	299.7
468.012	297.9
468.47	304.1
468.928	323
469.385	344.9
469.843	346.4
470.3	341.9
470.758	354.8
471.215	375.6
471.673	395.7
472.13	394.6
472.588	409.6
473.045	364.7
473.503	377.5
473.96	387.7
474.417	402.5
474.875	428
475.332	473
475.789	469.2
476.246	468.9
476.704	477.8
477.161	502
477.618	511.6
478.075	543
478.532	595.1
478.989	670.3
479.446	781
479.903	733.9
480.36	777.2
480.817	819
481.274	916.4
481.731	994.8
482.188	1083
482.645	1198.8
483.102	1270.9
483.558	1389.3
484.015	1435.3
484.472	1409.5
484.929	1369.8
485.385	1322.7
485.842	1303.9
486.299	1258.3
486.755	1211.9
487.212	1024.3
487.668	880.4
488.125	813.5
488.582	755.1
489.038	724.1
489.494	688.2
489.951	662.6
490.407	652.7
490.864	640.1
491.32	630.3
491.776	631.6
492.233	629.5
492.689	610.6
493.145	606.7
493.602	591
494.058	610.4
494.514	611.4
494.97	617.4
495.426	639.6
495.882	617.3
496.338	601.6
496.794	617.6
497.251	602.5
497.707	617.9
498.163	625.2
498.618	632.6
499.074	631.3
499.53	662
499.986	660.7
500.442	639.9
500.898	616.5
501.354	609.5
501.809	627.4
502.265	619.3
502.721	636.7
503.177	642.2
503.632	642.9
504.088	649.1
504.543	674.9
504.999	684.4
505.455	658.1
505.91	633.2
506.366	634.1
506.821	628.4
507.277	628.3
507.732	621.7
508.187	634.3
508.643	640.2
509.098	638.3
509.553	653.7
510.009	662.7
510.464	670.8
510.919	693.5
511.375	697.5
511.83	697.2
512.285	722.8
512.74	758.1
513.195	780.1
513.65	754.4
514.105	768.1
514.56	767
515.015	786.2
515.47	788.2
515.925	778.1
516.38	772.5
516.835	789.3
517.29	775.9
517.745	774
518.2	758.3
518.655	744.8
519.109	735.8
519.564	749.2
520.019	726.9
520.474	727.8
520.928	734.5
521.383	715.7
521.838	711.5
522.292	708.3
522.747	710.7
523.201	713.6
523.656	702.8
524.11	699.3
524.565	692.8
525.019	696.9
525.474	704.6
525.928	696.9
526.382	698.3
526.837	701.6
527.291	705.9
527.745	698.8
528.2	709.6
528.654	695.5
529.108	694.5
529.562	689.2
530.016	694.4
530.47	691.2
530.925	689.1
531.379	692.5
531.833	698
532.287	696
532.741	699.2
533.195	707.4
533.649	703.9
534.103	712.1
534.556	698.6
535.01	710.3
535.464	699.1
535.918	706.3
536.372	716.7
536.826	728.1
537.279	709.3
537.733	700.9
538.187	720.7
538.64	712
539.094	724.9
539.548	724.6
540.001	721
540.455	729.6
540.908	734
541.362	741.9
541.815	752.7
542.269	755.7
542.722	755.2
543.175	772
543.629	774.9
544.082	785.8
544.536	798.3
544.989	789.6
545.442	799.4
545.895	800.1
546.349	801.9
546.802	796.1
547.255	804.8
547.708	816
548.161	822.5
548.614	831.8
549.067	833.5
549.52	823.5
549.973	817.1
550.426	810.6
550.879	785
551.332	813.6
551.785	813.7
552.238	817.4
552.691	819.1
553.144	835.8
553.596	857.1
554.049	864.2
554.502	894.6
554.955	922.8
555.407	913.3
555.86	909.8
556.313	898.8
556.765	880.2
557.218	886.4
557.67	881.7
558.123	884.5
558.576	878.2
559.028	881.2
559.48	894.3
559.933	888.4
560.385	842.3
560.838	828.9
561.29	807.1
561.742	796.3
562.195	776.2
562.647	778.5
563.099	787.6
563.551	783.1
564.004	789.7
564.456	779.1
564.908	763.6
565.36	747.7
565.812	729.1
566.264	730
566.716	722.3
567.168	712.7
567.62	715.3
568.072	707.4
568.524	701.7
568.976	699.7
569.428	675
569.88	682.2
570.332	691
570.784	701.8
571.235	691.2
571.687	704.3
572.139	719
572.59	721.8
573.042	723.2
573.494	720
573.945	717.6
574.397	688.1
574.849	705.4
575.3	704
575.752	692.7
576.203	697.8
576.655	689.4
577.106	675.8
577.557	681.7
578.009	686.7
578.46	682.3
578.912	671.6
579.363	669.2
579.814	682.2
580.265	680.4
580.717	675
581.168	670.1
581.619	690.3
582.07	688.7
582.521	685
582.972	677.1
583.423	683.9
583.875	686.2
584.326	701.8
584.777	718.7
585.227	745.4
585.678	770.2
586.129	800.8
586.58	817.3
587.031	849.1
587.482	908.7
587.933	964.1
588.384	915.8
588.834	833.8
589.285	791.7
589.736	785
590.186	784.9
590.637	782.2
591.088	763.3
591.538	757.5
591.989	743.3
592.439	747
592.89	730.7
593.34	719.5
593.791	711.1
594.241	707.8
594.692	708.9
595.142	701.9
595.593	712.7
596.043	711.6
596.493	721.6
596.943	723
597.394	730.6
597.844	729.9
598.294	746.7
598.744	773.4
599.195	800.1
599.645	842.1
600.095	882.3
600.545	933.3
600.995	986.3
601.445	1042.4
601.895	1116.3
602.345	1161.3
602.795	1135.5
603.245	1088.5
603.695	1028.2
604.145	969.2
604.594	926.7
605.044	876.7
605.494	812.2
605.944	765.2
606.393	754.7
606.843	752.2
607.293	748.9
607.743	744.3
608.192	752.8
608.642	761.3
609.091	775.2
609.541	771.4
609.99	781.1
610.44	773.2
610.889	726.6
611.339	707.2
611.788	694
612.238	713.2
612.687	718.6
613.136	710.2
613.586	725.6
614.035	715.8
614.484	731.4
614.933	733.2
615.383	723.2
615.832	718.4
616.281	715
616.73	682
617.179	667.1
617.628	657.5
618.077	648.6
618.526	631.4
618.975	628.8
619.424	623.8
619.873	627
620.322	627.7
620.771	612.2
621.22	609.6
621.669	605.9
622.118	597.6
622.567	608.9
623.015	580.3
623.464	585.2
623.913	574.9
624.361	558.5
624.81	558.9
625.259	571.2
625.707	567.6
626.156	564.2
626.604	572.7
627.053	584.4
627.501	575.1
627.95	583.9
628.398	595.8
628.847	580.3
629.295	578.2
629.744	584.6
630.192	579.8
630.64	587
631.089	565.1
631.537	551.4
631.985	551.8
632.433	551.8
632.881	545
633.33	555.8
633.778	550.5
634.226	530.8
634.674	552.1
635.122	562.2
635.57	572.1
636.018	581.9
636.466	575.2
636.914	566.8
637.362	583.8
637.81	583.6
638.258	593.4
638.705	599.4
639.153	627.6
639.601	627.9
640.049	658.8
640.497	683.8
640.944	708.8
641.392	661.4
641.84	624.9
642.287	590.5
642.735	583.9
643.182	579
643.63	571.2
644.078	579
644.525	583
644.973	597.6
645.42	604.8
645.867	625.8
646.315	643.3
646.762	660.7
647.21	705.9
647.657	711.6
648.104	745.8
648.551	769.9
648.999	824.6
649.446	911.2
649.893	991.9
650.34	1140
650.787	1360.6
651.234	1687.9
651.682	2172.6
652.129	2958.7
652.576	4213.6
653.023	6132.7
653.47	8305.2
653.917	10253.6
654.363	11701.1
654.81	12788.7
655.257	12153.6
655.704	8041.4
656.151	4836.5
656.598	3178
657.044	2279.6
657.491	1750.5
657.938	1435.3
658.385	1207.1
658.831	1049.3
659.278	939
659.724	839.3
660.171	773.1
660.618	705.9
661.064	676.9
661.511	666.1
661.957	646.8
662.404	639.9
662.85	656
663.296	632.3
663.743	567.6
664.189	549.4
664.635	541.1
665.082	534.8
665.528	535.4
665.974	525.2
666.42	521.9
666.867	514.9
667.313	489
667.759	480.5
668.205	462.7
668.651	458.4
669.097	461.5
669.543	466.7
669.989	452.6
670.435	455.5
670.881	452.8
671.327	457.8
671.773	485.8
672.219	510.1
672.665	576.4
673.11	605.5
673.556	651.7
674.002	687.2
674.448	672
674.893	569.2
675.339	492.5
675.785	456.1
676.23	439.7
676.676	409
677.122	406.1
677.567	382.6
678.013	379.8
678.458	375.3
678.904	372.7
679.349	359.9
679.794	369
680.24	367.4
680.685	355.1
681.131	365.5
681.576	364
682.021	362.9
682.466	362.4
682.912	364.7
683.357	365.8
683.802	395.5
684.247	422.4
684.692	475.2
685.137	515.3
685.583	553.4
686.028	572.9
686.473	529.1
686.918	468.2
687.363	433.6
687.807	414.3
688.252	379.6
688.697	370.9
689.142	353
689.587	336.7
690.032	340.4
690.477	362.9
690.921	366.5
691.366	401
691.811	416.1
692.255	447.6
692.7	476.5
693.145	534.4
693.589	756.5
694.034	1218
694.478	1634.7
694.923	1790.7
695.367	2323.3
695.812	1231
696.256	521.8
696.701	390.5
697.145	366
697.59	339.6
698.034	337.9
698.478	333.6
698.922	326.8
699.367	332.4
699.811	350.1
700.255	363.4
700.699	398.1
701.143	438.6
701.588	489.2
702.032	531
702.476	532.5
702.92	513
703.364	519.6
703.808	696.2
704.252	1128.9
704.696	1549.9
705.14	1732.2
705.584	2185.4
706.027	1111.6
706.471	543.4
706.915	413
707.359	364.5
707.803	328.9
708.246	323.3
708.69	332.8
709.134	326.7
709.577	321.1
710.021	330.7
710.465	315.4
710.908	319.1
711.352	316.3
711.795	322.4
712.239	365
712.682	405.2
713.126	428.1
713.569	472.2
714.012	374.7
714.456	318.4
714.899	305.1
715.342	287.6
715.786	271.5
716.229	264.2
716.672	261.8
717.115	258.3
717.558	262.8
718.002	259
718.445	273.5
718.888	303
719.331	304.8
719.774	314.2
720.217	310.4
720.66	297.3
721.103	273
721.546	270
721.989	265.9
722.432	239.6
722.874	237.2
723.317	239.9
723.76	249.8
724.203	271.1
724.645	336.8
725.088	464.1
725.531	587.4
725.974	657.6
726.416	573.5
726.859	315.8
727.301	258.6
727.744	252.3
728.187	241.7
728.629	245
729.071	251.1
729.514	275.4
729.956	284.3
730.399	293.4
730.841	295.1
731.283	282.3
731.726	275.9
732.168	274.8
732.61	290.6
733.053	295.1
733.495	327.7
733.937	369.9
734.379	422.9
734.821	458.8
735.263	595.4
735.705	921.7
736.148	1727.1
736.59	2767.7
737.032	3157.3
737.474	2580
737.916	851.7
738.357	453
738.799	343.6
739.241	311.3
739.683	299.1
740.125	307.4
740.567	306.7
741.008	334.7
741.45	334.4
741.892	327.7
742.334	367.6
742.775	381.3
743.217	356.3
743.658	279.4
744.1	270.9
744.542	274.7
744.983	336.8
745.425	370.5
745.866	365.6
746.307	291.2
746.749	291.7
747.19	338.9
747.632	492.8
748.073	984
748.514	2049.1
748.956	3008.1
749.397	3797.9
749.838	3142.9
750.279	3065.1
750.72	1575.5
751.162	584.9
751.603	339.6
752.044	262.7
752.485	226
752.926	216.7
753.367	214.5
753.808	194
754.249	202
754.69	201.3
755.131	189
755.572	189.3
756.013	195.3
756.453	189.4
756.894	193.3
757.335	199.7
757.776	205.1
758.216	205.2
758.657	207.8
759.098	209.7
759.538	234.5
759.979	284.3
760.42	407.5
760.86	793.5
761.301	2071.3
761.741	4811.5
762.182	6637
762.622	4701.3
763.063	1390.2
763.503	562.4
763.943	344.8
764.384	293.5
764.824	281.8
765.264	274.1
765.705	229.9
766.145	192
766.585	190.2
767.025	177.5
767.465	171.9
767.906	199.1
768.346	223.9
768.786	240.8
769.226	239.3
769.666	337.6
770.106	688.2
770.546	1721.3
770.986	2750.6
771.426	2443.4
771.866	835.3
772.306	345.8
772.745	211.2
773.185	174.9
773.625	167.8
774.065	164.6
774.505	175.5
774.944	238.2
775.384	418
775.824	698.1
776.263	666.4
776.703	316.1
777.142	175.8
777.582	141.3
778.021	128.8
778.461	135.2
778.9	131.7
779.34	127.2
779.779	117.2
780.219	106
780.658	108.5
781.097	114.5
781.537	121.2
781.976	111.1
782.415	109.1
782.855	116.6
783.294	95.7
783.733	113.5
784.172	110.8
784.611	108.4
785.05	114.4
785.489	116.1
785.928	119
786.367	128.6
786.806	125.4
787.245	139.7
787.684	145.4
788.123	153.5
788.562	134.1
789.001	131.4
789.44	126.4
789.879	123
790.317	124.3
790.756	130.6
791.195	137
791.634	157.9
792.072	218.7
792.511	405.2
792.95	1117.5
793.388	2237.8
793.827	1968
794.265	703.3
794.704	305.3
795.142	197.6
795.581	159.1
796.019	145.8
796.458	138.6
796.896	132.9
797.334	141.3
797.773	165.5
798.211	237
798.649	484.5
799.087	1095
799.526	1694.8
799.964	2154.6
800.402	2069
800.84	792.4
801.278	319.1
801.716	200.2
802.154	162.8
802.592	153.6
803.03	145.1
803.468	140.5
803.906	147.6
804.344	158.4
804.782	152
805.22	142.2
805.658	134.2
806.096	159.9
806.533	165.6
806.971	180.2
807.409	238.6
807.847	351.5
808.284	736.5
808.722	2055.9
