Data from 20171114-ORNL-Ar_H_NY_Subt18_08-05-33-509.txt Node
Date: Tue Nov 14 08:05:33 EST 2017
User: Ender
Spectrometer: HR+D1039
Trigger mode: 0
Integration Time (sec): 2.730000E-2
Scans to average: 10
Electric dark correction enabled: true
Nonlinearity correction enabled: false
Boxcar width: 0
XAxis mode: Wavelengths
Number of Pixels in Spectrum: 2048
>>>>>Begin Spectral Data<<<<<
187.836	-2.99
188.309	-2.99
188.782	-2.99
189.255	2.61
189.728	-2.49
190.201	3.51
190.674	2.21
191.147	6.41
191.619	-10.59
192.092	3.31
192.565	4.71
193.038	2.11
193.511	1.41
193.984	-0.19
194.456	-4.89
194.929	0.01
195.402	-1.69
195.874	-3.39
196.347	-2.19
196.82	-0.19
197.292	2.61
197.765	7.11
198.237	-12.09
198.71	1.51
199.182	-0.49
199.655	0.81
200.127	-1.39
200.6	-0.49
201.072	0.21
201.544	-4.99
202.017	2.21
202.489	0.41
202.961	-1.69
203.433	0.61
203.906	-10.19
204.378	-2.29
204.85	-0.89
205.322	-5.09
205.794	-2.89
206.266	-3.89
206.739	-10.99
207.211	1.41
207.683	-7.59
208.155	1.31
208.627	-5.59
209.099	-3.19
209.57	-2.39
210.042	-4.59
210.514	-1.99
210.986	-1.69
211.458	-7.79
211.93	-0.99
212.402	3.01
212.873	-1.59
213.345	-7.79
213.817	-7.69
214.288	-6.69
214.76	-5.99
215.232	-3.89
215.703	2.91
216.175	-3.79
216.646	-2.59
217.118	-4.89
217.589	-2.99
218.061	-3.49
218.532	-2.09
219.004	-3.99
219.475	-7.19
219.946	-2.39
220.418	-3.09
220.889	6.71
221.36	-1.99
221.832	0.71
222.303	-5.49
222.774	5.11
223.245	-8.59
223.717	-3.09
224.188	-1.59
224.659	-10.69
225.13	-3.09
225.601	-5.29
226.072	2.91
226.543	-2.09
227.014	3.41
227.485	0.71
227.956	-4.69
228.427	-3.79
228.898	4.41
229.369	5.71
229.839	-3.49
230.31	-6.39
230.781	2.01
231.252	0.71
231.722	-0.19
232.193	-2.79
232.664	3.71
233.135	6.01
233.605	0.21
234.076	-2.09
234.546	5.61
235.017	8.41
235.487	3.31
235.958	6.01
236.428	2.81
236.899	7.31
237.369	5.31
237.84	0.11
238.31	4.11
238.78	9.81
239.251	1.11
239.721	8.11
240.191	5.11
240.662	3.61
241.132	6.01
241.602	-0.19
242.072	3.91
242.542	3.71
243.013	0.01
243.483	5.51
243.953	3.81
244.423	2.21
244.893	1.61
245.363	5.51
245.833	5.91
246.303	3.01
246.773	11.41
247.243	4.71
247.712	7.71
248.182	13.31
248.652	9.01
249.122	-4.49
249.592	15.81
250.061	29.51
250.531	40.21
251.001	20.01
251.471	23.51
251.94	22.01
252.41	10.11
252.879	5.51
253.349	12.21
253.818	14.11
254.288	12.91
254.757	7.41
255.227	8.71
255.696	5.01
256.166	6.51
256.635	7.01
257.105	11.11
257.574	7.41
258.043	12.51
258.513	7.81
258.982	26.41
259.451	12.01
259.92	20.11
260.389	12.91
260.859	21.71
261.328	14.31
261.797	19.81
262.266	15.11
262.735	14.81
263.204	7.31
263.673	-4.29
264.142	12.31
264.611	-1.09
265.08	10.71
265.549	1.41
266.018	8.91
266.487	-1.19
266.955	-1.89
267.424	7.21
267.893	11.31
268.362	5.81
268.83	6.81
269.299	11.91
269.768	8.01
270.236	10.61
270.705	8.21
271.174	11.21
271.642	12.21
272.111	10.51
272.579	22.31
273.048	21.61
273.516	32.61
273.985	38.91
274.453	32.11
274.922	22.51
275.39	9.41
275.858	11.91
276.327	13.51
276.795	24.11
277.263	13.11
277.731	25.41
278.2	55.21
278.668	62.11
279.136	52.21
279.604	20.21
280.072	17.11
280.54	11.71
281.008	12.61
281.477	11.81
281.945	19.61
282.413	14.41
282.881	19.91
283.348	14.41
283.816	19.41
284.284	28.21
284.752	25.11
285.22	16.41
285.688	17.21
286.156	22.61
286.623	41.91
287.091	59.31
287.559	28.71
288.026	23.71
288.494	17.31
288.962	8.71
289.429	18.41
289.897	21.51
290.364	16.21
290.832	21.81
291.3	19.11
291.767	20.11
292.234	23.41
292.702	19.71
293.169	15.31
293.637	21.91
294.104	23.81
294.571	15.31
295.039	14.91
295.506	16.11
295.973	18.21
296.44	18.21
296.908	20.31
297.375	18.91
297.842	23.61
298.309	20.41
298.776	17.51
299.243	25.51
299.71	19.01
300.177	27.81
300.644	22.41
301.111	23.51
301.578	28.31
302.045	20.51
302.512	25.81
302.979	28.41
303.446	19.31
303.913	21.41
304.379	19.81
304.846	34.81
305.313	28.31
305.78	27.11
306.246	28.91
306.713	27.81
307.18	30.81
307.646	24.51
308.113	35.91
308.579	25.01
309.046	29.31
309.512	30.31
309.979	22.41
310.445	31.61
310.912	29.71
311.378	30.81
311.845	31.11
312.311	34.61
312.777	32.31
313.244	29.31
313.71	40.01
314.176	36.41
314.642	33.21
315.109	33.41
315.575	45.11
316.041	47.01
316.507	39.31
316.973	39.61
317.439	38.01
317.905	39.71
318.371	36.81
318.837	43.21
319.303	44.11
319.769	39.91
320.235	38.11
320.701	40.61
321.167	43.81
321.633	42.81
322.099	45.21
322.564	45.21
323.03	47.11
323.496	33.41
323.962	41.91
324.427	41.01
324.893	46.41
325.359	35.11
325.824	43.41
326.29	41.01
326.755	42.91
327.221	40.81
327.686	45.01
328.152	47.41
328.617	41.71
329.083	50.61
329.548	53.71
330.014	51.31
330.479	46.11
330.944	43.51
331.41	50.71
331.875	47.71
332.34	48.51
332.805	45.71
333.271	50.51
333.736	52.51
334.201	59.11
334.666	56.41
335.131	55.61
335.596	51.31
336.061	52.61
336.526	51.51
336.991	50.21
337.456	56.81
337.921	51.41
338.386	51.01
338.851	53.91
339.316	53.31
339.781	50.41
340.246	56.31
340.711	50.61
341.175	56.01
341.64	54.71
342.105	60.21
342.569	60.71
343.034	62.41
343.499	54.81
343.963	64.31
344.428	65.91
344.893	61.51
345.357	65.11
345.822	62.71
346.286	67.71
346.751	78.11
347.215	69.31
347.679	77.31
348.144	100.11
348.608	85.41
349.073	73.91
349.537	75.01
350.001	80.31
350.465	89.01
350.93	79.01
351.394	86.21
351.858	73.81
352.322	89.71
352.786	78.21
353.25	105.31
353.715	116.21
354.179	100.01
354.643	128.91
355.107	131.01
355.571	111.31
356.035	112.41
356.498	122.81
356.962	127.41
357.426	141.71
357.89	117.41
358.354	92.11
358.818	83.61
359.281	79.41
359.745	82.81
360.209	72.61
360.673	85.71
361.136	81.81
361.6	87.11
362.064	79.91
362.527	87.21
362.991	86.91
363.454	86.01
363.918	85.11
364.381	78.51
364.845	91.51
365.308	91.71
365.772	87.21
366.235	87.41
366.698	85.31
367.162	85.51
367.625	88.21
368.088	87.31
368.552	93.41
369.015	85.71
369.478	98.61
369.941	104.11
370.404	99.01
370.867	103.11
371.331	101.41
371.794	108.41
372.257	117.21
372.72	121.51
373.183	113.31
373.646	105.81
374.109	101.31
374.572	105.91
375.035	114.41
375.497	112.51
375.96	103.01
376.423	104.61
376.886	116.91
377.349	106.51
377.811	105.51
378.274	106.31
378.737	112.31
379.199	116.71
379.662	118.91
380.125	123.51
380.587	111.71
381.05	125.51
381.512	129.81
381.975	134.31
382.437	136.61
382.9	127.51
383.362	134.61
383.825	144.71
384.287	147.41
384.75	144.31
385.212	140.51
385.674	138.71
386.136	137.31
386.599	121.91
387.061	122.11
387.523	130.41
387.985	131.41
388.447	141.31
388.91	141.21
389.372	155.51
389.834	145.81
390.296	146.81
390.758	154.51
391.22	169.71
391.682	209.21
392.144	295.01
392.606	230.21
393.068	166.71
393.529	170.41
393.991	155.91
394.453	151.71
394.915	156.11
395.377	191.31
395.838	211.11
396.3	159.61
396.762	138.31
397.224	131.31
397.685	129.31
398.147	130.91
398.608	127.31
399.07	125.41
399.531	134.81
399.993	144.91
400.454	149.61
400.916	144.11
401.377	140.81
401.839	149.51
402.3	149.61
402.762	164.41
403.223	174.51
403.684	166.71
404.145	155.41
404.607	154.51
405.068	159.71
405.529	165.51
405.99	193.61
406.451	172.51
406.913	168.21
407.374	160.91
407.835	158.01
408.296	169.11
408.757	174.81
409.218	183.11
409.679	180.11
410.14	174.61
410.601	177.61
411.062	179.21
411.522	187.01
411.983	194.21
412.444	174.71
412.905	181.91
413.366	186.21
413.826	193.71
414.287	207.61
414.748	255.21
415.208	242.01
415.669	208.31
416.13	202.81
416.59	199.91
417.051	206.81
417.511	220.21
417.972	220.91
418.432	238.71
418.893	290.91
419.353	253.31
419.814	200.81
420.274	184.81
420.734	182.11
421.195	200.51
421.655	194.41
422.115	191.11
422.576	191.21
423.036	193.41
423.496	200.91
423.956	213.61
424.416	229.51
424.876	254.11
425.336	259.71
425.797	261.81
426.257	252.61
426.717	227.41
427.177	232.91
427.637	221.91
428.097	231.21
428.556	245.21
429.016	263.01
429.476	267.11
429.936	275.01
430.396	283.01
430.856	289.31
431.315	313.31
431.775	354.41
432.235	383.91
432.694	354.31
433.154	357.01
433.614	386.01
434.073	325.61
434.533	279.91
434.993	263.71
435.452	287.01
435.912	295.91
436.371	285.41
436.83	282.31
437.29	267.01
437.749	253.11
438.209	237.71
438.668	278.71
439.127	288.31
439.587	260.81
440.046	248.41
440.505	257.41
440.964	284.01
441.424	320.41
441.883	316.71
442.342	265.11
442.801	222.71
443.26	224.01
443.719	217.31
444.178	214.41
444.637	208.51
445.096	209.61
445.555	221.71
446.014	222.81
446.473	223.91
446.932	234.01
447.391	226.61
447.849	228.01
448.308	217.01
448.767	214.71
449.226	233.61
449.685	230.01
450.143	249.11
450.602	236.11
451.061	227.01
451.519	229.91
451.978	229.91
452.436	234.21
452.895	236.01
453.353	254.11
453.812	236.81
454.27	240.41
454.729	231.81
455.187	240.51
455.646	245.11
456.104	251.81
456.562	264.81
457.021	265.11
457.479	259.61
457.937	273.81
458.395	268.41
458.854	241.81
459.312	251.71
459.77	271.51
460.228	255.51
460.686	240.11
461.144	247.11
461.602	237.81
462.06	238.11
462.518	249.61
462.976	254.91
463.434	260.21
463.892	257.51
464.35	279.41
464.808	283.61
465.266	268.71
465.724	266.81
466.181	273.81
466.639	274.21
467.097	284.91
467.555	294.11
468.012	302.71
468.47	305.41
468.928	321.11
469.385	337.91
469.843	340.21
470.3	342.91
470.758	353.81
471.215	383.51
471.673	409.41
472.13	406.81
472.588	412.31
473.045	376.11
473.503	379.81
473.96	388.01
474.417	406.41
474.875	434.41
475.332	480.91
475.789	467.21
476.246	472.91
476.704	489.01
477.161	503.41
477.618	522.91
478.075	563.41
478.532	616.91
478.989	700.11
479.446	795.21
479.903	773.51
480.36	807.11
480.817	857.31
481.274	975.01
481.731	1064.81
482.188	1168.21
482.645	1298.71
483.102	1419.41
483.558	1557.01
484.015	1608.41
484.472	1584.01
484.929	1530.21
485.385	1486.51
485.842	1446.81
486.299	1375.71
486.755	1299.61
487.212	1096.51
487.668	923.71
488.125	837.81
488.582	778.11
489.038	745.21
489.494	711.81
489.951	691.11
490.407	659.71
490.864	645.91
491.32	640.91
491.776	650.61
492.233	640.51
492.689	611.71
493.145	611.71
493.602	583.91
494.058	613.51
494.514	619.81
494.97	636.01
495.426	650.91
495.882	626.21
496.338	617.41
496.794	625.61
497.251	617.81
497.707	630.91
498.163	641.71
498.618	643.81
499.074	648.11
499.53	669.41
499.986	674.01
500.442	656.61
500.898	633.81
501.354	625.31
501.809	642.71
502.265	639.51
502.721	654.21
503.177	671.51
503.632	668.21
504.088	666.11
504.543	712.41
504.999	708.41
505.455	653.41
505.91	634.21
506.366	633.61
506.821	626.41
507.277	614.21
507.732	617.41
508.187	621.51
508.643	632.91
509.098	627.11
509.553	652.01
510.009	656.21
510.464	660.11
510.919	680.61
511.375	699.81
511.83	706.91
512.285	722.71
512.74	766.91
513.195	776.41
513.65	775.91
514.105	771.31
514.56	767.71
515.015	790.11
515.47	803.11
515.925	796.31
516.38	781.91
516.835	787.81
517.29	784.51
517.745	775.91
518.2	758.51
518.655	752.21
519.109	739.51
519.564	744.11
520.019	731.31
520.474	726.11
520.928	722.21
521.383	717.71
521.838	715.71
522.292	706.11
522.747	710.51
523.201	704.71
523.656	690.41
524.11	691.71
524.565	694.61
525.019	689.41
525.474	696.41
525.928	704.81
526.382	694.91
526.837	695.71
527.291	702.31
527.745	694.71
528.2	694.01
528.654	689.91
529.108	681.51
529.562	689.31
530.016	685.21
530.47	687.31
530.925	691.71
531.379	694.41
531.833	703.61
532.287	697.61
532.741	708.51
533.195	699.71
533.649	712.21
534.103	719.81
534.556	713.11
535.01	707.91
535.464	691.71
535.918	715.31
536.372	717.61
536.826	712.11
537.279	699.61
537.733	715.41
538.187	707.61
538.64	706.31
539.094	716.41
539.548	725.71
540.001	717.61
540.455	710.91
540.908	728.31
541.362	734.11
541.815	730.61
542.269	745.51
542.722	746.61
543.175	769.91
543.629	761.01
544.082	784.01
544.536	770.91
544.989	779.01
545.442	793.61
545.895	777.81
546.349	782.21
546.802	786.31
547.255	789.01
547.708	796.91
548.161	806.21
548.614	807.91
549.067	822.41
549.52	809.71
549.973	814.31
550.426	795.41
550.879	793.61
551.332	790.51
551.785	795.51
552.238	795.01
552.691	811.61
553.144	820.11
553.596	829.21
554.049	855.51
554.502	881.11
554.955	897.21
555.407	891.71
555.86	888.01
556.313	887.81
556.765	879.61
557.218	871.51
557.67	882.51
558.123	868.91
558.576	858.51
559.028	865.61
559.48	870.11
559.933	862.81
560.385	827.41
560.838	808.11
561.29	770.31
561.742	777.81
562.195	749.61
562.647	740.91
563.099	764.71
563.551	757.21
564.004	768.31
564.456	766.11
564.908	755.01
565.36	738.41
565.812	728.11
566.264	721.71
566.716	711.41
567.168	707.01
567.62	715.51
568.072	695.71
568.524	678.31
568.976	682.81
569.428	666.41
569.88	665.81
570.332	666.91
570.784	682.21
571.235	675.01
571.687	679.31
572.139	691.31
572.59	701.31
573.042	706.81
573.494	701.01
573.945	695.01
574.397	673.61
574.849	681.51
575.3	678.41
575.752	675.01
576.203	669.91
576.655	676.91
577.106	657.01
577.557	660.51
578.009	664.71
578.46	649.21
578.912	649.61
579.363	657.61
579.814	656.41
580.265	653.61
580.717	664.21
581.168	657.11
581.619	665.71
582.07	682.21
582.521	661.01
582.972	663.31
583.423	666.81
583.875	678.11
584.326	687.31
584.777	733.81
585.227	805.61
585.678	905.01
586.129	990.91
586.58	1064.11
587.031	1157.81
587.482	1306.21
587.933	1493.11
588.384	1290.91
588.834	956.91
589.285	780.51
589.736	769.11
590.186	761.11
590.637	752.01
591.088	728.41
591.538	719.81
591.989	717.51
592.439	716.51
592.89	711.31
593.34	700.51
593.791	689.11
594.241	693.71
594.692	693.61
595.142	687.21
595.593	681.01
596.043	691.71
596.493	699.71
596.943	705.01
597.394	700.51
597.844	698.21
598.294	709.81
598.744	732.81
599.195	759.81
599.645	787.71
600.095	833.91
600.545	881.51
600.995	938.21
601.445	1002.81
601.895	1063.91
602.345	1103.41
602.795	1082.81
603.245	1040.81
603.695	987.61
604.145	931.61
604.594	877.41
605.044	838.41
605.494	783.91
605.944	739.01
606.393	725.61
606.843	711.31
607.293	716.01
607.743	717.51
608.192	719.61
608.642	743.11
609.091	747.21
609.541	753.11
609.99	753.71
610.44	748.01
610.889	708.61
611.339	682.41
611.788	668.41
612.238	681.91
612.687	692.91
613.136	709.31
613.586	728.91
614.035	725.21
614.484	730.81
614.933	738.61
615.383	716.71
615.832	716.71
616.281	694.41
616.73	670.91
617.179	655.51
617.628	643.71
618.077	621.81
618.526	604.61
618.975	608.01
619.424	594.11
619.873	593.11
620.322	609.61
620.771	599.11
621.22	591.61
621.669	581.21
622.118	570.31
622.567	564.31
623.015	558.31
623.464	552.31
623.913	541.11
624.361	538.01
624.81	531.81
625.259	532.21
625.707	534.91
626.156	527.11
626.604	548.91
627.053	536.01
627.501	538.01
627.95	552.11
628.398	563.81
628.847	559.51
629.295	555.11
629.744	559.01
630.192	548.41
630.64	553.31
631.089	546.51
631.537	554.21
631.985	567.51
632.433	576.51
632.881	579.91
633.33	640.01
633.778	604.01
634.226	551.51
634.674	551.11
635.122	557.71
635.57	583.31
636.018	594.51
636.466	560.01
636.914	544.51
637.362	546.31
637.81	556.41
638.258	560.81
638.705	561.91
639.153	585.31
639.601	597.71
640.049	612.01
640.497	640.91
640.944	671.61
641.392	615.91
641.84	587.81
642.287	561.81
642.735	545.01
643.182	550.41
643.63	553.51
644.078	557.01
644.525	569.51
644.973	582.21
645.42	578.91
645.867	600.21
646.315	609.71
646.762	638.31
647.21	670.21
647.657	681.51
648.104	721.51
648.551	737.81
648.999	809.61
649.446	880.81
649.893	965.31
650.34	1114.91
650.787	1329.21
651.234	1654.01
651.682	2175.01
652.129	2967.71
652.576	4257.31
653.023	6286.61
653.47	8656.61
653.917	10852.11
654.363	12629.31
654.81	14040.61
655.257	13361.51
655.704	8717.31
656.151	5128.91
656.598	3318.71
657.044	2358.91
657.491	1804.21
657.938	1441.91
658.385	1201.31
658.831	1037.61
659.278	934.51
659.724	828.61
660.171	765.61
660.618	697.61
661.064	666.61
661.511	645.31
661.957	640.01
662.404	625.01
662.85	627.11
663.296	606.71
663.743	538.01
664.189	516.21
664.635	513.81
665.082	504.71
665.528	503.31
665.974	497.81
666.42	489.11
666.867	495.41
667.313	472.91
667.759	454.31
668.205	457.51
668.651	464.91
669.097	462.51
669.543	480.11
669.989	450.01
670.435	435.71
670.881	432.21
671.327	439.41
671.773	444.81
672.219	474.01
672.665	520.71
673.11	550.61
673.556	596.01
674.002	633.71
674.448	621.01
674.893	521.81
675.339	458.91
675.785	414.41
676.23	404.71
676.676	371.71
677.122	369.51
677.567	355.91
678.013	354.01
678.458	340.71
678.904	340.51
679.349	330.91
679.794	336.01
680.24	336.61
680.685	330.51
681.131	332.71
681.576	334.31
682.021	342.41
682.466	332.21
682.912	326.11
683.357	333.71
683.802	363.81
684.247	389.41
684.692	436.01
685.137	474.81
685.583	509.41
686.028	539.91
686.473	491.81
686.918	424.11
687.363	395.61
687.807	377.61
688.252	350.01
688.697	340.61
689.142	319.01
689.587	310.71
690.032	316.01
690.477	319.11
690.921	334.51
691.366	355.91
691.811	384.61
692.255	404.81
692.7	438.91
693.145	475.01
693.589	641.11
694.034	1051.81
694.478	1453.81
694.923	1643.21
695.367	2170.01
695.812	1141.11
696.256	472.11
696.701	354.81
697.145	328.61
697.59	314.41
698.034	308.71
698.478	316.71
698.922	313.41
699.367	313.21
699.811	318.81
700.255	330.01
700.699	358.91
701.143	398.51
701.588	448.81
702.032	482.01
702.476	487.91
702.92	465.41
703.364	462.91
703.808	593.81
704.252	968.21
704.696	1363.91
705.14	1579.11
705.584	2036.81
706.027	1017.51
706.471	493.61
706.915	375.61
707.359	336.31
707.803	299.91
708.246	294.11
708.69	293.61
709.134	290.31
709.577	289.31
710.021	305.11
710.465	283.61
710.908	286.91
711.352	282.61
711.795	289.41
712.239	322.51
712.682	360.51
713.126	394.71
713.569	436.61
714.012	353.51
714.456	309.71
714.899	282.01
715.342	260.01
715.786	250.51
716.229	242.21
716.672	243.51
717.115	231.01
717.558	243.81
718.002	239.21
718.445	252.71
718.888	270.61
719.331	274.71
719.774	293.21
720.217	287.91
720.66	268.21
721.103	248.81
721.546	236.41
721.989	236.41
722.432	219.21
722.874	227.81
723.317	212.71
723.76	227.61
724.203	244.01
724.645	297.31
725.088	417.71
725.531	531.01
725.974	617.61
726.416	520.41
726.859	293.31
727.301	233.01
727.744	219.91
728.187	222.31
728.629	228.41
729.071	231.21
729.514	237.71
729.956	258.51
730.399	267.71
730.841	280.81
731.283	250.51
731.726	243.01
732.168	245.11
732.61	251.51
733.053	274.91
733.495	289.91
733.937	328.91
734.379	373.71
734.821	414.01
735.263	498.01
735.705	768.91
736.148	1448.81
736.59	2401.01
737.032	2906.71
737.474	2370.51
737.916	755.21
738.357	408.01
738.799	310.71
739.241	279.81
739.683	266.91
740.125	275.11
740.567	277.41
741.008	299.31
741.45	292.91
741.892	298.91
742.334	329.21
742.775	330.51
743.217	324.51
743.658	257.51
744.1	238.01
744.542	247.01
744.983	297.41
745.425	322.61
745.866	328.41
746.307	261.61
746.749	264.21
747.19	288.51
747.632	423.51
748.073	812.51
748.514	1733.61
748.956	2679.51
749.397	3341.71
749.838	2765.41
750.279	2796.91
750.72	1412.51
751.162	509.51
751.603	307.31
752.044	229.51
752.485	204.11
752.926	194.61
753.367	187.31
753.808	185.51
754.249	183.31
754.69	177.41
755.131	168.51
755.572	169.51
756.013	167.61
756.453	173.31
756.894	175.11
757.335	176.21
757.776	184.11
758.216	178.61
758.657	183.01
759.098	189.41
759.538	213.81
759.979	252.91
760.42	343.31
760.86	652.21
761.301	1654.41
761.741	4068.81
762.182	6123.11
