Data from 20171114-ORNL-Ar_H_NY_Subt18_08-03-44-592.txt Node
Date: Tue Nov 14 08:03:44 EST 2017
User: Ender
Spectrometer: HR+D1039
Trigger mode: 0
Integration Time (sec): 2.730000E-2
Scans to average: 10
Electric dark correction enabled: true
Nonlinearity correction enabled: false
Boxcar width: 0
XAxis mode: Wavelengths
Number of Pixels in Spectrum: 2048
>>>>>Begin Spectral Data<<<<<
187.836	-1.33
188.309	-1.33
188.782	-1.33
189.255	2.87
189.728	-2.52
190.201	6.87
190.674	-2.13
191.147	1.57
191.619	-8.03
192.092	-2.62
192.565	5.87
193.038	0.27
193.511	-1.53
193.984	-2.13
194.456	-1.53
194.929	2.07
195.402	-0.13
195.874	2.38
196.347	-0.83
196.82	-10.23
197.292	2.57
197.765	-2.02
198.237	-11.23
198.71	4.77
199.182	1.37
199.655	4.97
200.127	-0.83
200.6	4.47
201.072	-4.23
201.544	-7.43
202.017	-1.43
202.489	0.37
202.961	1.48
203.433	-5.93
203.906	-7.93
204.378	-10.33
204.85	-5.63
205.322	-11.03
205.794	-5.03
206.266	-6.03
206.739	-9.73
207.211	3.07
207.683	-11.73
208.155	-5.93
208.627	-9.63
209.099	-8.53
209.57	-5.83
210.042	-6.13
210.514	-7.02
210.986	-2.53
211.458	-8.53
211.93	-5.93
212.402	0.57
212.873	-8.93
213.345	-9.73
213.817	-10.93
214.288	-6.23
214.76	-11.43
215.232	-3.33
215.703	0.88
216.175	-1.53
216.646	-9.33
217.118	-6.33
217.589	-9.12
218.061	-3.13
218.532	-2.33
219.004	-7.13
219.475	-2.03
219.946	-4.43
220.418	-11.83
220.889	1.47
221.36	-2.43
221.832	-6.53
222.303	-4.23
222.774	1.37
223.245	-8.52
223.717	-7.93
224.188	-9.12
224.659	-5.93
225.13	-9.02
225.601	-5.13
226.072	0.47
226.543	0.57
227.014	-5.53
227.485	-2.63
227.956	-8.43
228.427	-5.03
228.898	-4.93
229.369	3.87
229.839	-4.83
230.31	-4.53
230.781	-2.33
231.252	-8.33
231.722	-5.23
232.193	-7.12
232.664	0.97
233.135	-6.93
233.605	1.88
234.076	-3.53
234.546	0.87
235.017	5.88
235.487	-0.63
235.958	-4.83
236.428	-7.73
236.899	2.17
237.369	1.17
237.84	-0.83
238.31	-3.23
238.78	-3.93
239.251	-7.23
239.721	-4.83
240.191	-2.02
240.662	-7.62
241.132	-0.83
241.602	-9.03
242.072	0.97
242.542	0.07
243.013	-6.63
243.483	-0.03
243.953	0.48
244.423	-2.52
244.893	-9.03
245.363	-1.83
245.833	-0.53
246.303	-2.43
246.773	3.27
247.243	-2.93
247.712	-7.03
248.182	1.97
248.652	2.17
249.122	-8.43
249.592	-3.33
250.061	3.47
250.531	11.57
251.001	-2.23
251.471	4.57
251.94	5.87
252.41	-3.52
252.879	-6.33
253.349	5.87
253.818	3.67
254.288	0.67
254.757	3.88
255.227	-8.12
255.696	3.07
256.166	-0.43
256.635	4.97
257.105	1.27
257.574	-1.73
258.043	2.48
258.513	-9.43
258.982	3.67
259.451	-7.63
259.92	-4.23
260.389	-3.53
260.859	3.57
261.328	3.88
261.797	8.48
262.266	3.87
262.735	4.38
263.204	-0.03
263.673	-4.43
264.142	1.88
264.611	-5.63
265.08	-5.13
265.549	-5.33
266.018	-0.43
266.487	-5.83
266.955	1.57
267.424	-4.03
267.893	0.88
268.362	-7.62
268.83	-1.93
269.299	4.77
269.768	3.67
270.236	4.97
270.705	-0.93
271.174	-4.43
271.642	-2.03
272.111	4.27
272.579	4.27
273.048	-0.73
273.516	-2.83
273.985	-1.23
274.453	-1.23
274.922	7.87
275.39	-1.03
275.858	-6.73
276.327	-0.93
276.795	9.97
277.263	2.37
277.731	7.57
278.2	2.87
278.668	1.77
279.136	6.17
279.604	1.77
280.072	10.47
280.54	5.88
281.008	5.77
281.477	9.27
281.945	6.07
282.413	6.37
282.881	10.88
283.348	4.67
283.816	10.97
284.284	6.37
284.752	9.17
285.22	9.77
285.688	8.87
286.156	10.67
286.623	11.27
287.091	6.47
287.559	8.47
288.026	3.77
288.494	8.57
288.962	0.17
289.429	3.97
289.897	13.38
290.364	9.57
290.832	13.48
291.3	6.67
291.767	11.77
292.234	11.57
292.702	2.07
293.169	11.67
293.637	17.17
294.104	12.37
294.571	-0.63
295.039	6.87
295.506	3.27
295.973	12.37
296.44	6.67
296.908	11.17
297.375	10.37
297.842	16.07
298.309	5.47
298.776	3.27
299.243	12.97
299.71	7.57
300.177	11.38
300.644	17.77
301.111	20.98
301.578	16.57
302.045	10.27
302.512	8.88
302.979	15.67
303.446	21.27
303.913	9.07
304.379	6.77
304.846	22.17
305.313	16.57
305.78	10.07
306.246	15.67
306.713	19.17
307.18	13.17
307.646	15.37
308.113	15.57
308.579	16.37
309.046	13.88
309.512	21.88
309.979	7.97
310.445	23.37
310.912	16.37
311.378	27.97
311.845	20.77
312.311	23.47
312.777	21.47
313.244	22.07
313.71	27.67
314.176	26.67
314.642	19.57
315.109	17.27
315.575	25.07
316.041	32.07
316.507	18.37
316.973	23.67
317.439	24.87
317.905	26.48
318.371	23.37
318.837	27.27
319.303	25.07
319.769	21.67
320.235	31.97
320.701	23.77
321.167	26.47
321.633	27.57
322.099	26.87
322.564	25.87
323.03	33.17
323.496	27.38
323.962	36.67
324.427	27.87
324.893	33.07
325.359	31.47
325.824	33.27
326.29	33.77
326.755	32.07
327.221	35.67
327.686	30.37
328.152	38.48
328.617	31.17
329.083	39.27
329.548	45.07
330.014	38.17
330.479	30.07
330.944	40.57
331.41	38.07
331.875	39.48
332.34	34.67
332.805	31.47
333.271	40.57
333.736	29.77
334.201	39.27
334.666	40.17
335.131	42.57
335.596	50.17
336.061	43.87
336.526	35.57
336.991	40.17
337.456	51.57
337.921	40.97
338.386	39.77
338.851	37.57
339.316	45.57
339.781	39.88
340.246	43.57
340.711	44.57
341.175	40.27
341.64	41.17
342.105	42.77
342.569	47.07
343.034	50.07
343.499	50.17
343.963	41.57
344.428	57.07
344.893	50.07
345.357	52.17
345.822	53.97
346.286	53.17
346.751	63.38
347.215	58.57
347.679	63.57
348.144	78.77
348.608	78.27
349.073	63.07
349.537	67.67
350.001	71.07
350.465	78.47
350.93	68.47
351.394	68.47
351.858	68.98
352.322	74.88
352.786	76.77
353.25	88.47
353.715	95.67
354.179	86.67
354.643	103.88
355.107	101.07
355.571	87.88
356.035	88.57
356.498	99.17
356.962	100.77
357.426	106.37
357.89	94.17
358.354	81.07
358.818	80.47
359.281	76.67
359.745	80.17
360.209	74.97
360.673	76.17
361.136	76.38
361.6	81.77
362.064	84.77
362.527	86.37
362.991	92.37
363.454	83.97
363.918	80.07
364.381	85.17
364.845	82.17
365.308	85.67
365.772	87.97
366.235	85.97
366.698	85.47
367.162	76.97
367.625	86.17
368.088	79.57
368.552	93.47
369.015	91.77
369.478	97.38
369.941	95.27
370.404	92.87
370.867	105.07
371.331	107.67
371.794	106.97
372.257	93.67
372.72	106.67
373.183	101.97
373.646	96.57
374.109	98.27
374.572	103.47
375.035	98.07
375.497	109.97
375.96	109.47
376.423	100.67
376.886	116.48
377.349	109.67
377.811	105.27
378.274	106.88
378.737	106.47
379.199	109.77
379.662	117.37
380.125	111.98
380.587	105.27
381.05	115.57
381.512	119.17
381.975	123.07
382.437	127.77
382.9	121.07
383.362	126.97
383.825	130.88
384.287	123.27
384.75	125.07
385.212	132.47
385.674	131.37
386.136	129.07
386.599	128.77
387.061	133.77
387.523	122.87
387.985	133.67
388.447	138.57
388.91	134.27
389.372	132.27
389.834	139.17
390.296	134.37
390.758	135.07
391.22	140.37
391.682	151.77
392.144	146.77
392.606	143.97
393.068	151.77
393.529	164.17
393.991	153.17
394.453	143.47
394.915	137.27
395.377	141.27
395.838	146.17
396.3	143.27
396.762	142.17
397.224	139.57
397.685	148.07
398.147	149.38
398.608	146.57
399.07	147.27
399.531	147.97
399.993	158.77
400.454	165.57
400.916	165.57
401.377	161.67
401.839	166.57
402.3	159.17
402.762	178.27
403.223	188.47
403.684	186.47
404.145	180.67
404.607	181.47
405.068	177.37
405.529	182.17
405.99	190.08
406.451	184.57
406.913	184.07
407.374	180.67
407.835	179.38
408.296	182.77
408.757	182.77
409.218	196.77
409.679	196.27
410.14	188.77
410.601	188.07
411.062	194.67
411.522	193.27
411.983	194.07
412.444	185.67
412.905	198.18
413.366	203.87
413.826	214.37
414.287	242.27
414.748	293.97
415.208	278.27
415.669	235.47
416.13	224.97
416.59	220.67
417.051	244.98
417.511	249.57
417.972	266.18
418.432	281.47
418.893	329.27
419.353	292.68
419.814	225.57
420.274	206.27
420.734	198.17
421.195	218.17
421.655	207.98
422.115	213.17
422.576	209.97
423.036	217.07
423.496	221.67
423.956	232.98
424.416	255.67
424.876	292.07
425.336	285.17
425.797	279.07
426.257	283.17
426.717	259.07
427.177	254.17
427.637	247.57
428.097	253.07
428.556	256.17
429.016	290.47
429.476	283.77
429.936	280.87
430.396	291.67
430.856	304.07
431.315	326.47
431.775	354.17
432.235	398.57
432.694	368.57
433.154	372.27
433.614	390.37
434.073	344.87
434.533	305.37
434.993	285.77
435.452	294.57
435.912	296.37
436.371	285.57
436.83	287.07
437.29	269.47
437.749	264.27
438.209	255.77
438.668	280.57
439.127	289.47
439.587	271.68
440.046	253.58
440.505	263.37
440.964	282.07
441.424	304.17
441.883	299.57
442.342	269.98
442.801	243.08
443.26	243.47
443.719	243.47
444.178	247.57
444.637	229.48
445.096	244.17
445.555	240.47
446.014	240.57
446.473	247.58
446.932	258.48
447.391	248.67
447.849	258.67
448.308	237.97
448.767	244.57
449.226	256.57
449.685	254.17
450.143	263.67
450.602	260.87
451.061	246.17
451.519	251.48
451.978	249.57
452.436	253.38
452.895	257.07
453.353	260.77
453.812	256.98
454.27	247.88
454.729	259.98
455.187	254.77
455.646	260.57
456.104	260.58
456.562	267.98
457.021	283.27
457.479	266.97
457.937	278.48
458.395	271.87
458.854	263.77
459.312	271.27
459.77	274.67
460.228	268.97
460.686	267.38
461.144	265.57
461.602	268.77
462.06	259.98
462.518	272.07
462.976	271.77
463.434	269.27
463.892	281.08
464.35	289.07
464.808	288.77
465.266	280.77
465.724	284.37
466.181	294.58
466.639	293.38
467.097	302.88
467.555	308.58
468.012	317.27
468.47	318.77
468.928	331.77
469.385	349.57
469.843	350.17
470.3	358.07
470.758	364.08
471.215	381.67
471.673	408.67
472.13	403.27
472.588	415.97
473.045	382.27
473.503	392.07
473.96	404.97
474.417	415.38
474.875	438.37
475.332	465.08
475.789	469.57
476.246	475.17
476.704	487.27
477.161	507.88
477.618	519.88
478.075	552.18
478.532	606.88
478.989	661.67
479.446	747.48
479.903	725.87
480.36	771.07
480.817	810.37
481.274	902.77
481.731	1000.17
482.188	1067.97
482.645	1193.38
483.102	1271.28
483.558	1379.97
484.015	1449.28
484.472	1424.57
484.929	1381.27
485.385	1339.37
485.842	1314.37
486.299	1270.37
486.755	1202.58
487.212	1047.67
487.668	908.47
488.125	853.97
488.582	771.18
489.038	739.47
489.494	707.17
489.951	678.58
490.407	664.37
490.864	638.48
491.32	635.47
491.776	633.17
492.233	644.07
492.689	607.67
493.145	602.17
493.602	600.27
494.058	595.77
494.514	603.98
494.97	625.68
495.426	614.08
495.882	605.88
496.338	594.17
496.794	598.58
497.251	593.57
497.707	608.18
498.163	605.77
498.618	609.67
499.074	619.08
499.53	625.17
499.986	633.77
500.442	611.27
500.898	606.07
501.354	604.17
501.809	602.57
502.265	605.88
502.721	615.87
503.177	615.18
503.632	627.88
504.088	627.17
504.543	643.98
504.999	653.58
505.455	633.27
505.91	614.67
506.366	617.57
506.821	614.27
507.277	609.27
507.732	612.97
508.187	617.77
508.643	619.88
509.098	624.17
509.553	640.57
510.009	648.67
510.464	643.77
510.919	656.08
511.375	668.48
511.83	674.87
512.285	673.47
512.74	712.17
513.195	729.97
513.65	727.07
514.105	721.87
514.56	726.57
515.015	739.57
515.47	747.27
515.925	740.68
516.38	744.77
516.835	741.47
517.29	738.87
517.745	734.48
518.2	737.27
518.655	705.07
519.109	690.98
519.564	697.48
520.019	687.97
520.474	674.27
520.928	673.48
521.383	673.17
521.838	666.97
522.292	670.88
522.747	666.88
523.201	673.47
523.656	665.47
524.11	653.27
524.565	649.08
525.019	656.98
525.474	657.27
525.928	648.57
526.382	641.47
526.837	652.17
527.291	651.17
527.745	648.77
528.2	642.77
528.654	642.77
529.108	630.88
529.562	634.77
530.016	645.18
530.47	629.27
530.925	643.57
531.379	628.67
531.833	646.27
532.287	631.77
532.741	635.57
533.195	633.57
533.649	640.38
534.103	640.77
534.556	630.97
535.01	637.67
535.464	631.88
535.918	637.77
536.372	641.77
536.826	639.57
537.279	635.87
537.733	638.17
538.187	638.88
538.64	636.57
539.094	646.27
539.548	652.87
540.001	652.97
540.455	645.17
540.908	652.88
541.362	675.27
541.815	663.08
542.269	689.17
542.722	682.77
543.175	677.77
543.629	685.97
544.082	697.67
544.536	701.58
544.989	699.07
545.442	708.27
545.895	702.37
546.349	713.18
546.802	711.67
547.255	710.57
547.708	725.88
548.161	721.87
548.614	714.87
549.067	728.58
549.52	724.27
549.973	724.27
550.426	710.07
550.879	695.27
551.332	704.98
551.785	710.88
552.238	707.67
552.691	720.57
553.144	729.47
553.596	733.57
554.049	746.07
554.502	773.67
554.955	785.27
555.407	775.77
555.86	779.27
556.313	771.08
556.765	763.48
557.218	754.07
557.67	760.27
558.123	752.27
558.576	743.88
559.028	748.07
559.48	746.37
559.933	748.47
560.385	726.67
560.838	697.67
561.29	690.88
561.742	686.98
562.195	666.77
562.647	665.07
563.099	671.47
563.551	657.88
564.004	677.87
564.456	660.07
564.908	642.87
565.36	626.27
565.812	619.48
566.264	615.07
566.716	619.07
567.168	587.27
567.62	604.67
568.072	589.88
568.524	586.87
568.976	581.57
569.428	578.58
569.88	574.97
570.332	575.07
570.784	585.97
571.235	577.27
571.687	582.47
572.139	592.07
572.59	594.47
573.042	600.07
573.494	591.17
573.945	591.07
574.397	569.77
574.849	580.77
575.3	573.38
575.752	570.77
576.203	564.87
576.655	571.07
577.106	567.47
577.557	549.68
578.009	551.37
578.46	549.48
578.912	543.27
579.363	545.58
579.814	547.67
580.265	545.17
580.717	554.38
581.168	548.07
581.619	550.98
582.07	557.57
582.521	558.67
582.972	550.67
583.423	545.87
583.875	550.97
584.326	563.47
584.777	572.17
585.227	585.27
585.678	594.38
586.129	605.48
586.58	630.77
587.031	642.47
587.482	688.27
587.933	707.47
588.384	689.27
588.834	642.27
589.285	632.87
589.736	628.38
590.186	620.37
590.637	622.57
591.088	609.27
591.538	594.27
591.989	583.47
592.439	580.57
592.89	572.87
593.34	569.88
593.791	559.27
594.241	554.17
594.692	556.47
595.142	554.38
595.593	551.58
596.043	555.87
596.493	559.88
596.943	556.27
597.394	576.08
597.844	575.58
598.294	584.27
598.744	603.67
599.195	614.77
599.645	642.77
600.095	682.37
600.545	718.98
600.995	757.87
601.445	796.07
601.895	842.68
602.345	877.08
602.795	881.77
603.245	833.67
603.695	796.67
604.145	759.77
604.594	725.07
605.044	679.97
605.494	635.77
605.944	589.27
606.393	584.48
606.843	567.97
607.293	568.68
607.743	560.17
608.192	568.57
608.642	584.38
609.091	581.98
609.541	578.88
609.99	580.48
610.44	592.07
610.889	555.48
611.339	543.37
611.788	529.07
612.238	530.17
612.687	542.57
613.136	533.47
613.586	541.27
614.035	540.07
614.484	555.88
614.933	546.67
615.383	550.88
615.832	535.98
616.281	535.98
616.73	522.38
617.179	513.27
617.628	494.77
618.077	478.47
618.526	469.87
618.975	472.07
619.424	468.87
619.873	466.37
620.322	463.97
620.771	457.77
621.22	457.17
621.669	457.48
622.118	433.48
622.567	439.68
623.015	432.97
623.464	433.27
623.913	424.98
624.361	421.27
624.81	421.67
625.259	408.18
625.707	432.18
626.156	417.97
626.604	422.57
627.053	424.37
627.501	429.67
627.95	427.07
628.398	440.97
628.847	433.37
629.295	422.17
629.744	428.57
630.192	425.57
630.64	429.07
631.089	418.67
631.537	401.97
631.985	394.47
632.433	399.58
632.881	396.18
633.33	389.27
633.778	391.17
634.226	388.18
634.674	399.07
635.122	397.48
635.57	412.07
636.018	414.47
636.466	418.58
636.914	411.67
637.362	431.98
637.81	423.57
638.258	431.18
638.705	435.27
639.153	449.07
639.601	450.47
640.049	470.47
640.497	500.37
640.944	522.67
641.392	482.17
641.84	455.98
642.287	435.08
642.735	419.77
643.182	416.77
643.63	420.67
644.078	419.48
644.525	428.37
644.973	426.67
645.42	434.27
645.867	456.27
646.315	471.87
646.762	485.48
647.21	499.37
647.657	512.97
648.104	538.97
648.551	551.47
648.999	595.67
649.446	644.38
649.893	699.27
650.34	789.37
650.787	937.17
651.234	1144.57
651.682	1465.77
652.129	1960.77
652.576	2750.67
653.023	4016.38
653.47	5550.77
653.917	7010.48
654.363	8252.58
654.81	9289.88
655.257	8835.58
655.704	5875.08
656.151	3499.18
656.598	2309.38
657.044	1633.87
657.491	1267.67
657.938	1023.28
658.385	864.77
658.831	746.77
659.278	686.88
659.724	598.77
660.171	556.07
660.618	509.07
661.064	475.87
661.511	464.38
661.957	449.37
662.404	445.07
662.85	450.48
663.296	433.47
663.743	410.37
664.189	386.67
664.635	391.17
665.082	382.88
665.528	384.07
665.974	370.38
666.42	360.67
666.867	358.88
667.313	334.08
667.759	346.48
668.205	327.48
668.651	330.77
669.097	324.67
669.543	324.37
669.989	318.67
670.435	324.27
670.881	324.98
671.327	330.27
671.773	338.97
672.219	352.57
672.665	394.07
673.11	420.27
673.556	461.97
674.002	492.47
674.448	486.77
674.893	402.77
675.339	351.87
675.785	323.27
676.23	304.17
676.676	292.77
677.122	281.37
677.567	279.38
678.013	269.38
678.458	266.17
678.904	262.07
679.349	245.27
679.794	255.17
680.24	259.07
680.685	261.97
681.131	252.27
681.576	251.57
682.021	256.88
682.466	251.87
682.912	250.17
683.357	257.17
683.802	274.57
684.247	295.67
684.692	331.98
685.137	348.27
685.583	393.97
686.028	408.97
686.473	372.48
686.918	318.87
687.363	300.87
687.807	281.37
688.252	265.48
688.697	256.57
689.142	248.27
689.587	241.07
690.032	229.77
690.477	246.48
690.921	251.37
691.366	270.97
691.811	284.77
692.255	306.17
692.7	334.77
693.145	360.87
693.589	477.67
694.034	778.57
694.478	1092.58
694.923	1278.07
695.367	1719.17
695.812	900.17
696.256	374.87
696.701	270.27
697.145	237.08
697.59	230.07
698.034	222.37
698.478	234.27
698.922	226.37
699.367	239.08
699.811	237.97
700.255	253.37
700.699	272.97
701.143	296.98
701.588	330.67
702.032	377.27
702.476	364.18
702.92	352.57
703.364	354.37
703.808	432.27
704.252	706.38
704.696	1027.98
705.14	1233.37
705.584	1607.67
706.027	791.07
706.471	386.07
706.915	287.57
707.359	257.77
707.803	224.37
708.246	228.07
708.69	220.87
709.134	229.27
709.577	220.97
710.021	228.57
710.465	218.07
710.908	209.67
711.352	217.58
711.795	221.07
712.239	247.97
712.682	264.57
713.126	292.77
713.569	339.47
714.012	261.77
714.456	223.57
714.899	211.97
715.342	205.87
715.786	185.17
716.229	185.87
716.672	186.17
717.115	180.57
717.558	179.67
718.002	172.87
718.445	188.27
718.888	205.87
719.331	211.98
719.774	219.97
720.217	215.88
720.66	205.48
721.103	189.07
721.546	177.67
721.989	177.77
722.432	170.57
722.874	172.77
723.317	162.38
723.76	164.97
724.203	182.37
724.645	215.77
725.088	300.37
725.531	401.17
725.974	467.97
726.416	403.57
726.859	218.37
727.301	177.88
727.744	179.17
728.187	166.17
728.629	170.97
729.071	177.97
729.514	187.67
729.956	185.48
730.399	197.17
730.841	202.37
731.283	197.68
731.726	195.18
732.168	185.07
732.61	181.67
733.053	201.68
733.495	217.18
733.937	249.07
734.379	280.67
734.821	309.47
735.263	376.87
735.705	565.88
736.148	1079.97
736.59	1823.67
737.032	2288.47
737.474	1886.37
737.916	606.38
738.357	309.38
738.799	237.97
739.241	216.27
739.683	202.67
740.125	220.47
740.567	215.47
741.008	237.27
741.45	229.58
741.892	233.08
742.334	265.48
742.775	277.57
743.217	270.67
743.658	196.07
744.1	180.98
744.542	193.27
744.983	236.67
745.425	273.77
745.866	268.47
746.307	203.97
746.749	194.38
747.19	221.48
747.632	307.07
748.073	585.27
748.514	1271.17
748.956	2073.07
749.397	2580.88
749.838	2154.38
750.279	2238.17
750.72	1130.47
751.162	407.38
751.603	230.87
752.044	183.17
752.485	152.38
752.926	148.97
753.367	143.37
753.808	138.97
754.249	125.07
754.69	130.47
755.131	131.27
755.572	131.07
756.013	130.67
756.453	131.47
756.894	128.88
757.335	126.88
757.776	134.57
758.216	142.87
758.657	137.07
759.098	141.97
759.538	161.07
759.979	186.87
760.42	255.77
760.86	481.97
761.301	1234.67
761.741	3131.17
762.182	4990.48
762.622	3544.87
763.063	994.88
763.503	402.37
