Data from 20171114-ORNL-Ar_H_NY_Subt18_08-09-13-314.txt Node
Date: Tue Nov 14 08:09:13 EST 2017
User: Ender
Spectrometer: HR+D1039
Trigger mode: 0
Integration Time (sec): 2.730000E-2
Scans to average: 10
Electric dark correction enabled: true
Nonlinearity correction enabled: false
Boxcar width: 0
XAxis mode: Wavelengths
Number of Pixels in Spectrum: 2048
>>>>>Begin Spectral Data<<<<<
187.836	-6.22
188.309	-6.22
188.782	-6.22
189.255	2.78
189.728	-4.62
190.201	7.98
190.674	-0.02
191.147	2.58
191.619	-12.62
192.092	3.98
192.565	10.28
193.038	-4.32
193.511	-1.52
193.984	3.08
194.456	-0.72
194.929	0.58
195.402	-1.82
195.874	0.58
196.347	-2.52
196.82	-6.32
197.292	3.08
197.765	-3.42
198.237	-10.02
198.71	3.08
199.182	-2.22
199.655	-2.12
200.127	0.28
200.6	-4.52
201.072	0.68
201.544	-10.82
202.017	1.88
202.489	7.68
202.961	-4.72
203.433	-3.52
203.906	-5.62
204.378	-5.82
204.85	-6.82
205.322	-11.72
205.794	-1.62
206.266	-9.02
206.739	-11.72
207.211	3.68
207.683	-7.02
208.155	-7.72
208.627	-4.32
209.099	-2.12
209.57	-7.12
210.042	-7.42
210.514	-6.92
210.986	-2.22
211.458	-13.92
211.93	-3.62
212.402	-6.02
212.873	-7.42
213.345	-9.02
213.817	-7.12
214.288	-8.72
214.76	-9.82
215.232	-4.12
215.703	-6.32
216.175	-4.42
216.646	-4.62
217.118	-7.72
217.589	-3.72
218.061	-3.32
218.532	-4.22
219.004	-4.22
219.475	-9.52
219.946	-2.02
220.418	-10.42
220.889	1.68
221.36	-1.52
221.832	-6.62
222.303	-6.72
222.774	-1.62
223.245	-14.12
223.717	-13.92
224.188	-1.42
224.659	-6.62
225.13	-11.42
225.601	-3.92
226.072	-5.02
226.543	-4.92
227.014	0.38
227.485	-1.62
227.956	-5.42
228.427	-0.82
228.898	-5.62
229.369	2.98
229.839	-3.02
230.31	-10.62
230.781	-0.52
231.252	-5.52
231.722	-8.62
232.193	-4.12
232.664	-7.62
233.135	-1.92
233.605	-4.02
234.076	-5.32
234.546	0.88
235.017	0.98
235.487	-6.62
235.958	-1.12
236.428	-14.92
236.899	-3.72
237.369	-1.62
237.84	-6.72
238.31	1.18
238.78	-5.72
239.251	-6.92
239.721	-3.22
240.191	-4.82
240.662	-6.62
241.132	-2.42
241.602	-8.32
242.072	-2.82
242.542	2.08
243.013	-4.62
243.483	2.28
243.953	-2.22
244.423	-2.62
244.893	-3.92
245.363	-4.32
245.833	-6.02
246.303	-8.22
246.773	-2.52
247.243	-11.02
247.712	-4.72
248.182	1.48
248.652	0.18
249.122	-4.32
249.592	4.28
250.061	1.78
250.531	10.48
251.001	-0.72
251.471	3.38
251.94	2.98
252.41	-6.32
252.879	-12.92
253.349	0.68
253.818	7.88
254.288	-2.62
254.757	2.38
255.227	-5.82
255.696	-7.52
256.166	-1.62
256.635	2.88
257.105	0.18
257.574	0.08
258.043	-5.82
258.513	-6.62
258.982	-2.72
259.451	-12.72
259.92	-2.12
260.389	-0.62
260.859	6.28
261.328	-1.62
261.797	8.18
262.266	-4.02
262.735	3.08
263.204	0.88
263.673	-3.02
264.142	1.88
264.611	-8.82
265.08	-2.32
265.549	-7.42
266.018	1.38
266.487	-4.52
266.955	-4.92
267.424	-4.72
267.893	0.28
268.362	-0.62
268.83	1.98
269.299	7.38
269.768	-1.72
270.236	1.38
270.705	-1.12
271.174	-4.92
271.642	-4.92
272.111	-1.62
272.579	-3.52
273.048	2.08
273.516	-0.02
273.985	4.98
274.453	2.78
274.922	2.48
275.39	1.18
275.858	-2.62
276.327	0.58
276.795	4.48
277.263	-3.32
277.731	6.18
278.2	6.68
278.668	6.38
279.136	8.48
279.604	-4.12
280.072	1.68
280.54	4.58
281.008	4.88
281.477	5.88
281.945	4.08
282.413	9.18
282.881	11.58
283.348	0.78
283.816	5.78
284.284	3.68
284.752	9.08
285.22	3.08
285.688	5.48
286.156	3.38
286.623	14.48
287.091	3.58
287.559	8.98
288.026	6.08
288.494	3.68
288.962	-3.32
289.429	5.18
289.897	10.38
290.364	10.98
290.832	14.48
291.3	3.98
291.767	8.88
292.234	8.18
292.702	7.78
293.169	10.18
293.637	14.58
294.104	8.58
294.571	-0.02
295.039	8.18
295.506	3.48
295.973	12.08
296.44	6.88
296.908	8.98
297.375	-0.42
297.842	7.08
298.309	5.48
298.776	8.08
299.243	10.58
299.71	0.88
300.177	11.18
300.644	12.78
301.111	12.98
301.578	16.68
302.045	7.38
302.512	15.48
302.979	14.68
303.446	10.48
303.913	7.88
304.379	4.68
304.846	17.78
305.313	13.18
305.78	13.68
306.246	20.58
306.713	18.58
307.18	14.58
307.646	15.18
308.113	11.78
308.579	9.08
309.046	18.18
309.512	14.78
309.979	6.38
310.445	16.88
310.912	15.48
311.378	15.58
311.845	16.88
312.311	20.58
312.777	26.88
313.244	22.88
313.71	27.08
314.176	18.08
314.642	21.18
315.109	14.68
315.575	22.78
316.041	21.28
316.507	14.68
316.973	17.58
317.439	26.68
317.905	23.78
318.371	21.48
318.837	19.58
319.303	21.88
319.769	21.08
320.235	20.28
320.701	16.78
321.167	27.98
321.633	16.98
322.099	22.68
322.564	29.68
323.03	21.28
323.496	27.08
323.962	28.58
324.427	20.08
324.893	30.28
325.359	19.48
325.824	25.98
326.29	22.98
326.755	28.48
327.221	28.38
327.686	27.98
328.152	28.98
328.617	25.38
329.083	32.98
329.548	36.48
330.014	34.08
330.479	28.58
330.944	34.48
331.41	31.08
331.875	33.08
332.34	31.58
332.805	26.98
333.271	29.98
333.736	29.88
334.201	37.28
334.666	40.28
335.131	39.38
335.596	39.78
336.061	36.48
336.526	30.08
336.991	34.58
337.456	38.08
337.921	35.28
338.386	31.18
338.851	34.58
339.316	45.58
339.781	35.68
340.246	40.28
340.711	34.88
341.175	36.38
341.64	37.78
342.105	38.08
342.569	43.78
343.034	46.28
343.499	41.58
343.963	38.58
344.428	48.58
344.893	45.78
345.357	49.48
345.822	43.38
346.286	53.58
346.751	52.28
347.215	50.38
347.679	51.18
348.144	68.78
348.608	57.38
349.073	54.28
349.537	55.28
350.001	54.68
350.465	66.08
350.93	50.48
351.394	66.28
351.858	53.68
352.322	71.68
352.786	64.08
353.25	74.88
353.715	81.38
354.179	78.18
354.643	84.28
355.107	90.78
355.571	78.68
356.035	77.18
356.498	86.98
356.962	82.98
357.426	98.38
357.89	89.18
358.354	67.98
358.818	62.98
359.281	61.48
359.745	58.68
360.209	59.18
360.673	61.78
361.136	59.58
361.6	68.58
362.064	66.48
362.527	66.68
362.991	78.68
363.454	64.68
363.918	60.68
364.381	60.18
364.845	64.58
365.308	70.88
365.772	74.78
366.235	70.78
366.698	63.98
367.162	68.38
367.625	64.78
368.088	69.58
368.552	68.58
369.015	69.78
369.478	78.68
369.941	82.28
370.404	71.28
370.867	81.98
371.331	88.38
371.794	90.78
372.257	81.18
372.72	92.58
373.183	83.28
373.646	79.88
374.109	80.18
374.572	87.68
375.035	78.68
375.497	85.18
375.96	92.08
376.423	88.88
376.886	92.28
377.349	92.78
377.811	83.18
378.274	88.88
378.737	90.18
379.199	90.68
379.662	85.18
380.125	89.68
380.587	93.48
381.05	91.68
381.512	101.18
381.975	104.38
382.437	100.58
382.9	102.18
383.362	110.38
383.825	113.88
384.287	112.68
384.75	101.68
385.212	111.98
385.674	115.98
386.136	113.98
386.599	106.48
387.061	105.38
387.523	107.88
387.985	110.98
388.447	113.28
388.91	105.68
389.372	114.58
389.834	120.08
390.296	109.28
390.758	120.28
391.22	119.68
391.682	141.28
392.144	152.48
392.606	140.18
393.068	129.48
393.529	141.48
393.991	128.08
394.453	114.48
394.915	123.08
395.377	119.88
395.838	130.28
396.3	123.08
396.762	123.58
397.224	115.58
397.685	114.28
398.147	114.08
398.608	114.28
399.07	118.98
399.531	122.68
399.993	131.18
400.454	139.18
400.916	134.78
401.377	130.88
401.839	138.08
402.3	137.58
402.762	156.68
403.223	161.88
403.684	150.68
404.145	152.08
404.607	139.08
405.068	144.48
405.529	151.98
405.99	163.98
406.451	162.08
406.913	157.58
407.374	151.68
407.835	149.58
408.296	151.88
408.757	150.08
409.218	168.28
409.679	165.18
410.14	162.98
410.601	159.48
411.062	162.68
411.522	170.58
411.983	166.68
412.444	163.88
412.905	165.88
413.366	168.68
413.826	186.28
414.287	208.48
414.748	247.88
415.208	234.28
415.669	199.48
416.13	200.08
416.59	199.48
417.051	207.28
417.511	203.98
417.972	228.88
418.432	233.08
418.893	273.78
419.353	242.58
419.814	193.18
420.274	173.58
420.734	170.58
421.195	189.08
421.655	177.88
422.115	179.58
422.576	178.28
423.036	185.28
423.496	199.48
423.956	213.18
424.416	222.08
424.876	253.38
425.336	241.68
425.797	249.38
426.257	237.88
426.717	221.18
427.177	223.38
427.637	210.28
428.097	220.48
428.556	223.18
429.016	250.48
429.476	244.08
429.936	254.28
430.396	258.48
430.856	267.18
431.315	290.68
431.775	319.88
432.235	356.88
432.694	319.68
433.154	327.58
433.614	362.08
434.073	315.58
434.533	270.88
434.993	248.68
435.452	264.08
435.912	270.98
436.371	262.08
436.83	256.38
437.29	250.18
437.749	237.88
438.209	238.18
438.668	256.38
439.127	272.88
439.587	252.68
440.046	235.18
440.505	243.58
440.964	263.28
441.424	296.18
441.883	293.18
442.342	244.78
442.801	218.18
443.26	217.48
443.719	219.38
444.178	215.68
444.637	208.08
445.096	218.38
445.555	215.28
446.014	218.78
446.473	223.98
446.932	230.88
447.391	221.98
447.849	223.58
448.308	211.18
448.767	219.98
449.226	232.08
449.685	232.08
450.143	247.18
450.602	231.88
451.061	222.38
451.519	224.98
451.978	223.88
452.436	219.38
452.895	233.58
453.353	244.48
453.812	239.08
454.27	240.88
454.729	237.08
455.187	238.58
455.646	238.48
456.104	246.98
456.562	251.38
457.021	258.38
457.479	250.38
457.937	263.18
458.395	256.38
458.854	242.78
459.312	250.28
459.77	266.78
460.228	254.38
460.686	240.28
461.144	249.68
461.602	243.58
462.06	239.98
462.518	247.48
462.976	251.68
463.434	256.88
463.892	256.28
464.35	267.78
464.808	282.48
465.266	265.58
465.724	278.28
466.181	275.78
466.639	263.38
467.097	287.28
467.555	292.88
468.012	295.28
468.47	303.38
468.928	317.58
469.385	338.68
469.843	341.88
470.3	343.58
470.758	352.08
471.215	374.28
471.673	391.88
472.13	399.88
472.588	411.38
473.045	376.78
473.503	376.98
473.96	389.38
474.417	401.88
474.875	421.68
475.332	465.68
475.789	451.98
476.246	460.28
476.704	479.28
477.161	499.38
477.618	507.78
478.075	546.78
478.532	599.38
478.989	664.88
479.446	764.98
479.903	740.98
480.36	770.28
480.817	814.88
481.274	900.88
481.731	987.78
482.188	1065.48
482.645	1179.18
483.102	1274.88
483.558	1361.88
484.015	1424.58
484.472	1413.68
484.929	1352.48
485.385	1316.98
485.842	1287.58
486.299	1239.18
486.755	1198.08
487.212	1009.08
487.668	857.68
488.125	808.48
488.582	743.28
489.038	713.18
489.494	689.18
489.951	663.98
490.407	647.18
490.864	632.98
491.32	632.08
491.776	632.18
492.233	639.48
492.689	601.08
493.145	601.38
493.602	592.38
494.058	608.68
494.514	600.78
494.97	628.68
495.426	640.18
495.882	613.08
496.338	598.08
496.794	612.88
497.251	601.88
497.707	619.38
498.163	613.88
498.618	624.58
499.074	627.38
499.53	657.88
499.986	659.78
500.442	635.28
500.898	611.38
501.354	614.68
501.809	616.08
502.265	615.68
502.721	621.18
503.177	628.68
503.632	637.88
504.088	651.28
504.543	667.08
504.999	683.18
505.455	651.28
505.91	631.48
506.366	626.48
506.821	617.38
507.277	631.88
507.732	631.88
508.187	617.68
508.643	642.08
509.098	633.88
509.553	660.78
510.009	663.28
510.464	679.58
510.919	688.08
511.375	701.48
511.83	707.08
512.285	719.28
512.74	749.38
513.195	777.38
513.65	770.38
514.105	765.18
514.56	763.28
515.015	776.58
515.47	792.88
515.925	767.58
516.38	784.28
516.835	785.08
517.29	774.88
517.745	777.28
518.2	762.18
518.655	743.88
519.109	734.58
519.564	739.68
520.019	724.68
520.474	722.38
520.928	723.18
521.383	715.88
521.838	712.48
522.292	714.48
522.747	699.58
523.201	705.18
523.656	697.78
524.11	700.88
524.565	704.78
525.019	688.48
525.474	698.88
525.928	688.98
526.382	691.68
526.837	698.78
527.291	694.48
527.745	692.18
528.2	694.28
528.654	692.78
529.108	683.18
529.562	695.88
530.016	687.38
530.47	686.28
530.925	682.68
531.379	693.98
531.833	698.48
532.287	696.18
532.741	702.78
533.195	695.08
533.649	705.78
534.103	717.38
534.556	700.78
535.01	697.78
535.464	707.58
535.918	713.98
536.372	718.68
536.826	714.88
537.279	711.48
537.733	709.48
538.187	711.88
538.64	708.78
539.094	726.48
539.548	726.58
540.001	722.68
540.455	713.98
540.908	737.38
541.362	742.28
541.815	749.78
542.269	759.68
542.722	769.28
543.175	779.78
543.629	774.98
544.082	790.98
544.536	789.58
544.989	785.68
545.442	800.18
545.895	796.08
546.349	793.08
546.802	793.88
547.255	797.98
547.708	813.18
548.161	821.38
548.614	826.78
549.067	831.58
549.52	821.18
549.973	825.48
550.426	825.88
550.879	809.38
551.332	817.98
551.785	818.58
552.238	820.88
552.691	823.78
553.144	838.48
553.596	859.98
554.049	875.78
554.502	908.38
554.955	915.18
555.407	917.28
555.86	908.18
556.313	895.78
556.765	893.38
557.218	895.88
557.67	892.78
558.123	881.48
558.576	876.78
559.028	885.28
559.48	892.88
559.933	885.68
560.385	852.18
560.838	821.68
561.29	798.88
561.742	792.38
562.195	770.58
562.647	776.98
563.099	783.98
563.551	783.58
564.004	803.58
564.456	786.28
564.908	773.08
565.36	746.98
565.812	742.88
566.264	735.68
566.716	725.18
567.168	714.08
567.62	715.78
568.072	708.68
568.524	707.88
568.976	701.28
569.428	694.18
569.88	693.98
570.332	698.08
570.784	693.08
571.235	693.88
571.687	699.98
572.139	705.18
572.59	721.88
573.042	720.88
573.494	726.88
573.945	710.68
574.397	700.18
574.849	693.68
575.3	712.18
575.752	696.58
576.203	692.98
576.655	688.18
577.106	676.88
577.557	680.38
578.009	680.68
578.46	677.08
578.912	675.68
579.363	673.78
579.814	676.58
580.265	677.08
580.717	683.88
581.168	679.88
581.619	685.08
582.07	695.48
582.521	683.88
582.972	684.98
583.423	695.98
583.875	683.28
584.326	694.78
584.777	707.68
585.227	737.78
585.678	771.58
586.129	786.08
586.58	815.88
587.031	833.28
587.482	886.18
587.933	933.38
588.384	882.08
588.834	823.28
589.285	795.38
589.736	786.38
590.186	787.18
590.637	792.58
591.088	767.88
591.538	746.78
591.989	744.58
592.439	729.48
592.89	728.68
593.34	720.38
593.791	716.58
594.241	706.88
594.692	711.38
595.142	706.48
595.593	700.88
596.043	708.78
596.493	714.68
596.943	715.08
597.394	728.68
597.844	730.48
598.294	739.78
598.744	769.48
599.195	792.58
599.645	836.48
600.095	885.98
600.545	938.98
600.995	992.88
601.445	1056.28
601.895	1116.78
602.345	1154.28
602.795	1139.48
603.245	1086.78
603.695	1051.38
604.145	976.98
604.594	945.98
605.044	875.88
605.494	822.78
605.944	773.18
606.393	754.18
606.843	741.18
607.293	741.78
607.743	743.38
608.192	756.48
608.642	761.08
609.091	768.68
609.541	771.08
609.99	778.18
610.44	774.38
610.889	731.08
611.339	716.98
611.788	693.18
612.238	706.58
612.687	712.48
613.136	714.88
613.586	722.78
614.035	715.28
614.484	729.28
614.933	721.98
615.383	725.18
615.832	721.28
616.281	717.38
616.73	690.18
617.179	682.28
617.628	662.28
618.077	648.68
618.526	639.98
618.975	630.98
619.424	632.88
619.873	630.28
620.322	631.08
620.771	620.78
621.22	609.98
621.669	600.68
622.118	597.78
622.567	588.98
623.015	586.48
623.464	584.08
623.913	560.28
624.361	565.88
624.81	565.08
625.259	561.18
625.707	569.78
626.156	579.38
626.604	576.08
627.053	577.58
627.501	578.98
627.95	581.98
628.398	596.08
628.847	584.18
629.295	578.48
629.744	590.98
630.192	579.38
630.64	569.68
631.089	561.08
631.537	550.68
631.985	541.58
632.433	551.48
632.881	545.08
633.33	557.18
633.778	548.68
634.226	533.78
634.674	547.18
635.122	562.38
635.57	564.18
636.018	586.38
636.466	576.08
636.914	571.78
637.362	585.48
637.81	589.98
638.258	590.58
638.705	589.98
639.153	619.98
639.601	637.08
640.049	651.48
640.497	697.28
640.944	707.58
641.392	666.08
641.84	623.68
642.287	589.38
642.735	579.08
643.182	576.48
643.63	582.28
644.078	575.48
644.525	592.08
644.973	590.68
645.42	604.98
645.867	619.18
646.315	650.18
646.762	668.28
647.21	701.38
647.657	710.48
648.104	744.68
648.551	767.68
648.999	826.68
649.446	911.68
649.893	993.98
650.34	1132.78
650.787	1344.38
651.234	1670.08
651.682	2172.68
652.129	2949.88
652.576	4164.68
653.023	6121.88
653.47	8283.58
653.917	10182.68
654.363	11642.38
654.81	12721.08
655.257	12087.68
655.704	7980.58
656.151	4820.18
656.598	3164.78
657.044	2259.38
657.491	1754.28
657.938	1419.98
658.385	1199.08
658.831	1044.28
659.278	945.78
659.724	840.18
660.171	777.18
660.618	724.78
661.064	692.18
661.511	666.38
661.957	659.28
662.404	652.18
662.85	656.48
663.296	631.48
663.743	567.88
664.189	545.08
664.635	544.18
665.082	538.88
665.528	541.98
665.974	523.88
666.42	528.68
666.867	517.68
667.313	502.78
667.759	477.88
668.205	468.98
668.651	468.08
669.097	461.18
669.543	453.48
669.989	455.08
670.435	459.28
670.881	457.88
671.327	459.68
671.773	484.98
672.219	500.28
672.665	566.08
673.11	609.38
673.556	660.08
674.002	685.38
674.448	682.48
674.893	563.18
675.339	489.68
675.785	461.08
676.23	436.88
676.676	402.68
677.122	396.38
677.567	377.18
678.013	381.18
678.458	363.48
678.904	378.98
679.349	361.58
679.794	363.08
680.24	360.68
680.685	361.28
681.131	359.28
681.576	368.98
682.021	373.98
682.466	365.28
682.912	362.08
683.357	367.98
683.802	398.28
684.247	432.98
684.692	477.68
685.137	519.18
685.583	557.08
686.028	583.68
686.473	540.38
686.918	468.08
687.363	429.38
687.807	409.58
688.252	380.98
688.697	364.68
689.142	341.28
689.587	339.08
690.032	344.18
690.477	356.58
690.921	364.38
691.366	399.48
691.811	421.28
692.255	449.08
692.7	477.08
693.145	527.78
693.589	754.48
694.034	1230.08
694.478	1637.78
694.923	1804.58
695.367	2360.18
695.812	1256.68
696.256	516.88
696.701	388.38
697.145	361.58
697.59	338.08
698.034	331.48
698.478	337.18
698.922	331.98
699.367	344.58
699.811	353.48
700.255	364.58
700.699	404.98
701.143	452.98
701.588	497.38
702.032	536.38
702.476	542.88
702.92	513.28
703.364	521.08
703.808	696.58
704.252	1127.08
704.696	1559.18
705.14	1756.38
705.584	2212.08
706.027	1130.18
706.471	553.28
706.915	407.58
707.359	376.98
707.803	334.68
708.246	324.08
708.69	327.08
709.134	326.38
709.577	323.68
710.021	328.08
710.465	318.68
710.908	307.58
711.352	303.98
711.795	325.98
712.239	364.48
712.682	399.78
713.126	426.18
713.569	473.58
714.012	371.58
714.456	314.98
714.899	307.38
715.342	286.28
715.786	273.68
716.229	265.78
716.672	271.18
717.115	264.38
717.558	254.88
718.002	264.48
718.445	279.38
718.888	291.98
719.331	301.88
719.774	319.48
720.217	315.58
720.66	297.68
721.103	274.18
721.546	260.78
721.989	256.88
722.432	230.98
722.874	243.08
723.317	240.08
723.76	242.68
724.203	276.98
724.645	342.28
725.088	474.28
725.531	602.48
725.974	664.98
726.416	572.08
726.859	323.48
727.301	262.78
727.744	248.58
728.187	245.68
728.629	253.68
729.071	256.68
729.514	280.38
729.956	289.18
730.399	291.78
730.841	299.38
731.283	293.18
731.726	277.78
732.168	274.18
732.61	281.38
733.053	296.08
733.495	331.18
733.937	374.08
734.379	419.08
734.821	465.18
735.263	583.38
735.705	915.98
736.148	1743.88
736.59	2772.28
737.032	3170.88
737.474	2599.48
737.916	862.98
738.357	461.38
738.799	342.38
739.241	318.18
739.683	299.98
740.125	310.48
740.567	310.48
741.008	332.58
741.45	327.28
741.892	340.38
742.334	369.28
742.775	374.78
743.217	359.88
743.658	285.48
744.1	270.68
744.542	282.68
744.983	337.98
745.425	360.58
745.866	357.18
746.307	295.58
746.749	290.38
747.19	348.58
747.632	497.58
748.073	993.78
748.514	2058.88
748.956	3018.38
749.397	3828.18
749.838	3178.58
750.279	3070.98
750.72	1566.88
751.162	582.98
751.603	336.08
752.044	269.68
752.485	229.48
752.926	223.38
753.367	210.78
753.808	204.28
754.249	198.88
754.69	197.38
755.131	193.18
755.572	191.28
756.013	184.98
756.453	191.78
756.894	195.08
757.335	199.08
757.776	206.58
758.216	209.08
758.657	208.68
759.098	216.08
759.538	238.48
759.979	292.38
760.42	402.68
760.86	797.08
761.301	2075.48
761.741	4873.88
762.182	6661.48
762.622	4714.68
763.063	1399.58
763.503	569.28
