Data from 20171114-ORNL-Ar_H_NY_Subt18_08-06-19-915.txt Node
Date: Tue Nov 14 08:06:19 EST 2017
User: Ender
Spectrometer: HR+D1039
Trigger mode: 0
Integration Time (sec): 2.730000E-2
Scans to average: 10
Electric dark correction enabled: true
Nonlinearity correction enabled: false
Boxcar width: 0
XAxis mode: Wavelengths
Number of Pixels in Spectrum: 2048
>>>>>Begin Spectral Data<<<<<
187.836	-2.6
188.309	-2.6
188.782	-2.6
189.255	3.5
189.728	-7.6
190.201	6.4
190.674	-1.5
191.147	4.7
191.619	-6.1
192.092	-0.2
192.565	5.3
193.038	-1.8
193.511	-0.6
193.984	0.3
194.456	-5.1
194.929	3.8
195.402	-2
195.874	3.5
196.347	0.4
196.82	-0.6
197.292	1.1
197.765	1
198.237	-5.6
198.71	4.1
199.182	-2.6
199.655	6.9
200.127	1.9
200.6	-2.2
201.072	-3.3
201.544	-3.2
202.017	-5.3
202.489	8.3
202.961	-1.3
203.433	-7.2
203.906	-3.6
204.378	-5.7
204.85	-3.2
205.322	-8.6
205.794	1.7
206.266	0.2
206.739	-12.5
207.211	0.9
207.683	-8.8
208.155	-3.9
208.627	-5.1
209.099	-2.4
209.57	-12.5
210.042	-1.6
210.514	-4.3
210.986	1.3
211.458	-3.2
211.93	-0.5
212.402	4
212.873	-2
213.345	-7.5
213.817	-7.9
214.288	-5.4
214.76	-6
215.232	-1.2
215.703	2.6
216.175	-4.3
216.646	-2.7
217.118	-7.2
217.589	-2.8
218.061	0.1
218.532	-4.2
219.004	2.4
219.475	-5.4
219.946	2.7
220.418	-4.6
220.889	5.8
221.36	1.9
221.832	-0.5
222.303	-3.1
222.774	-2.3
223.245	-3.5
223.717	-2.6
224.188	-4.5
224.659	-4.7
225.13	-6.7
225.601	-0.8
226.072	-0.6
226.543	-1.7
227.014	5.2
227.485	-4.4
227.956	-10.1
228.427	-1.3
228.898	2
229.369	4.2
229.839	-6.2
230.31	-10.2
230.781	4.3
231.252	-1.1
231.722	-7.8
232.193	-4.3
232.664	2
233.135	2.2
233.605	-0
234.076	-7.1
234.546	3
235.017	3.3
235.487	2
235.958	1.4
236.428	-0.4
236.899	3
237.369	3.1
237.84	1.1
238.31	6.3
238.78	5.3
239.251	-0.4
239.721	4.1
240.191	-5.7
240.662	-1
241.132	2
241.602	2.9
242.072	-0.6
242.542	10.4
243.013	3.2
243.483	7.5
243.953	2.2
244.423	-0.4
244.893	-8.9
245.363	6.5
245.833	8.2
246.303	1.8
246.773	5.1
247.243	6.1
247.712	1.5
248.182	4.5
248.652	4.1
249.122	-1.8
249.592	13
250.061	29.8
250.531	30.5
251.001	12.6
251.471	23.6
251.94	19.9
252.41	8.2
252.879	5
253.349	14.9
253.818	10.6
254.288	8
254.757	3.1
255.227	1.7
255.696	5.9
256.166	6.4
256.635	8.4
257.105	-3.4
257.574	9.8
258.043	9.5
258.513	15.2
258.982	16.3
259.451	8
259.92	15.7
260.389	12.7
260.859	21
261.328	11.6
261.797	13.7
262.266	10.6
262.735	11.4
263.204	4.9
263.673	8.3
264.142	10.2
264.611	2
265.08	6.9
265.549	2.1
266.018	10.4
266.487	3.9
266.955	-3.1
267.424	3
267.893	1.1
268.362	3.2
268.83	4.6
269.299	9.9
269.768	7.3
270.236	1.6
270.705	10.7
271.174	4.1
271.642	13.7
272.111	5.2
272.579	22.8
273.048	22.6
273.516	28.8
273.985	29.6
274.453	26.7
274.922	19.9
275.39	11.9
275.858	4.2
276.327	17.1
276.795	20.9
277.263	5.2
277.731	21.4
278.2	54.2
278.668	57.3
279.136	49.9
279.604	22.6
280.072	14.3
280.54	13.4
281.008	12.6
281.477	10.8
281.945	11.5
282.413	18.3
282.881	15.7
283.348	14.9
283.816	15.2
284.284	21.3
284.752	19.1
285.22	10
285.688	20.9
286.156	22.7
286.623	50.5
287.091	57.8
287.559	31.6
288.026	20.1
288.494	19.4
288.962	5.2
289.429	10.6
289.897	17.2
290.364	15.3
290.832	20.4
291.3	14.8
291.767	17.2
292.234	20.8
292.702	16.5
293.169	18.5
293.637	28.1
294.104	18.4
294.571	4.6
295.039	15.3
295.506	15
295.973	18.8
296.44	16.3
296.908	16.1
297.375	19.1
297.842	18.3
298.309	23.3
298.776	15
299.243	19.8
299.71	17.2
300.177	23.2
300.644	21.2
301.111	26.2
301.578	26.1
302.045	17.5
302.512	20.8
302.979	28.2
303.446	26.3
303.913	23
304.379	25.3
304.846	27.4
305.313	29.2
305.78	26
306.246	25.4
306.713	29.2
307.18	25.5
307.646	25.5
308.113	29.6
308.579	20.8
309.046	21.7
309.512	27.3
309.979	19.5
310.445	32.1
310.912	34.3
311.378	32.7
311.845	33.1
312.311	26.6
312.777	37.1
313.244	31.4
313.71	41.2
314.176	35.4
314.642	38.1
315.109	29.1
315.575	46.1
316.041	38
316.507	34.9
316.973	47.9
317.439	38.8
317.905	41.2
318.371	36.2
318.837	42.4
319.303	35.7
319.769	36.3
320.235	32.9
320.701	40.3
321.167	33
321.633	34.6
322.099	37
322.564	47.8
323.03	43.7
323.496	39
323.962	38.9
324.427	37.9
324.893	43.7
325.359	38.6
325.824	37.6
326.29	41
326.755	43.5
327.221	41.3
327.686	42.7
328.152	50.7
328.617	44.2
329.083	45.5
329.548	43.5
330.014	43.1
330.479	42.5
330.944	48.6
331.41	48
331.875	44
332.34	48.3
332.805	47.3
333.271	50.5
333.736	47
334.201	54
334.666	53.9
335.131	56.4
335.596	55.2
336.061	43.7
336.526	33.2
336.991	46.1
337.456	61.1
337.921	53.2
338.386	46.9
338.851	44.2
339.316	50.3
339.781	47.8
340.246	48.3
340.711	49.3
341.175	56
341.64	43.7
342.105	48.9
342.569	60
343.034	60.6
343.499	56.9
343.963	58.5
344.428	59.7
344.893	65.8
345.357	66.1
345.822	60.9
346.286	73.1
346.751	74.9
347.215	72.2
347.679	72.8
348.144	94
348.608	84.2
349.073	70.6
349.537	72.8
350.001	77.7
350.465	87.1
350.93	81.1
351.394	82.6
351.858	70.7
352.322	92.9
352.786	87.9
353.25	104.3
353.715	113.9
354.179	103.1
354.643	123.6
355.107	129.6
355.571	110.6
356.035	104.4
356.498	121.6
356.962	130.1
357.426	131.8
357.89	124.4
358.354	90.9
358.818	80.6
359.281	79.9
359.745	81.1
360.209	70.8
360.673	80
361.136	82.9
361.6	86.8
362.064	92.2
362.527	86.4
362.991	92.6
363.454	83.3
363.918	82.2
364.381	80.8
364.845	82
365.308	86.7
365.772	86.5
366.235	91.9
366.698	88.2
367.162	86.3
367.625	81.9
368.088	93.3
368.552	92.3
369.015	91.5
369.478	93.4
369.941	107.6
370.404	97.9
370.867	110.8
371.331	104.9
371.794	120
372.257	114.7
372.72	119.3
373.183	110.4
373.646	108.7
374.109	103.5
374.572	109.8
375.035	106.2
375.497	112.8
375.96	109.7
376.423	109
376.886	114.7
377.349	109.3
377.811	107.6
378.274	107.9
378.737	108
379.199	112.5
379.662	113.8
380.125	116.8
380.587	117
381.05	126.1
381.512	127.6
381.975	136.4
382.437	135.9
382.9	133.2
383.362	127.7
383.825	144.5
384.287	147.1
384.75	142.9
385.212	145.9
385.674	141.9
386.136	141.3
386.599	130.3
387.061	129.7
387.523	134.8
387.985	130.1
388.447	142.7
388.91	148.3
389.372	162.9
389.834	160.6
390.296	144.2
390.758	154.7
391.22	173.8
391.682	212.4
392.144	303.6
392.606	234
393.068	166.7
393.529	169.9
393.991	161.9
394.453	144.7
394.915	154.8
395.377	195.6
395.838	220.2
396.3	161.9
396.762	151.2
397.224	132.9
397.685	137.3
398.147	139.5
398.608	130.4
399.07	128.9
399.531	137.4
399.993	144.9
400.454	152.1
400.916	148.9
401.377	142
401.839	155.9
402.3	155.7
402.762	173.2
403.223	187.2
403.684	176.1
404.145	166.5
404.607	162.3
405.068	169.4
405.529	173.9
405.99	189.8
406.451	179.8
406.913	173.9
407.374	163.6
407.835	167.1
408.296	166.2
408.757	178.8
409.218	189.6
409.679	178.2
410.14	182.8
410.601	179.5
411.062	189
411.522	197.3
411.983	193.1
412.444	181.8
412.905	184.6
413.366	188.3
413.826	197
414.287	225.6
414.748	266.2
415.208	252.3
415.669	218.4
416.13	211.2
416.59	204.5
417.051	217.1
417.511	221.1
417.972	240.6
418.432	249.4
418.893	293.3
419.353	253.2
419.814	204.7
420.274	183.5
420.734	182.8
421.195	203
421.655	204.2
422.115	200.5
422.576	196.9
423.036	200.9
423.496	202.5
423.956	221.7
424.416	233
424.876	270.1
425.336	262.7
425.797	260.9
426.257	259.7
426.717	247.5
427.177	239.4
427.637	229.1
428.097	247.1
428.556	253.9
429.016	277.7
429.476	280.3
429.936	284.6
430.396	286
430.856	300
431.315	323.2
431.775	361.2
432.235	387.6
432.694	360
433.154	361.3
433.614	398.1
434.073	341.7
434.533	289.8
434.993	277.9
435.452	291.8
435.912	308
436.371	298.4
436.83	285.6
437.29	276.1
437.749	256.9
438.209	250.2
438.668	274.1
439.127	293
439.587	270
440.046	253.8
440.505	272
440.964	283.7
441.424	332.8
441.883	315.2
442.342	264.9
442.801	225.2
443.26	228.8
443.719	226.9
444.178	222.7
444.637	213.3
445.096	223.1
445.555	227.5
446.014	236.4
446.473	225.7
446.932	236.6
447.391	231.6
447.849	232.5
448.308	223.3
448.767	233.3
449.226	241.7
449.685	242.9
450.143	256.6
450.602	247.6
451.061	234.3
451.519	241.2
451.978	242
452.436	241.9
452.895	241.7
453.353	264.6
453.812	246.6
454.27	243.5
454.729	248.7
455.187	246
455.646	245.5
456.104	258.7
456.562	259.2
457.021	274.1
457.479	267.8
457.937	279.7
458.395	264
458.854	257.4
459.312	262.9
459.77	279.1
460.228	264.9
460.686	244.6
461.144	251
461.602	244.8
462.06	243.8
462.518	261
462.976	257.6
463.434	260.5
463.892	271.3
464.35	283.1
464.808	293.9
465.266	270.3
465.724	268.3
466.181	284
466.639	280.7
467.097	300.4
467.555	306.7
468.012	309.2
468.47	311
468.928	333
469.385	345.4
469.843	358.2
470.3	354.6
470.758	369.6
471.215	388.8
471.673	424.8
472.13	421.2
472.588	430.1
473.045	380.1
473.503	384
473.96	403.8
474.417	407.2
474.875	441.8
475.332	491.9
475.789	475.4
476.246	476
476.704	493
477.161	523.7
477.618	535.6
478.075	580.2
478.532	628.7
478.989	713.7
479.446	824.8
479.903	790.9
480.36	833
480.817	887.4
481.274	989.1
481.731	1098.8
482.188	1194.2
482.645	1332.2
483.102	1442.5
483.558	1587.6
484.015	1633.1
484.472	1613.2
484.929	1553.7
485.385	1505.8
485.842	1471.8
486.299	1397.4
486.755	1336.7
487.212	1127.5
487.668	962.4
488.125	870.5
488.582	792.5
489.038	764.8
489.494	733.3
489.951	705.8
490.407	683.9
490.864	666.8
491.32	656.1
491.776	659.1
492.233	655
492.689	626.2
493.145	619.3
493.602	616.7
494.058	637.8
494.514	638.5
494.97	645.5
495.426	661.8
495.882	632.8
496.338	632.4
496.794	642.8
497.251	629
497.707	652.8
498.163	652.4
498.618	666.1
499.074	652.2
499.53	691.5
499.986	703
500.442	665.2
500.898	648.3
501.354	639.9
501.809	646.1
502.265	655.4
502.721	682.9
503.177	694.1
503.632	683.6
504.088	685.5
504.543	724.6
504.999	726.2
505.455	677.3
505.91	651.1
506.366	651.2
506.821	645.2
507.277	636
507.732	637.2
508.187	646.1
508.643	648.8
509.098	645
509.553	664.2
510.009	679.2
510.464	683.5
510.919	720.7
511.375	705.5
511.83	721.5
512.285	732.7
512.74	766.2
513.195	809.5
513.65	795.5
514.105	797.7
514.56	789.2
515.015	803.1
515.47	820.5
515.925	805.3
516.38	798.4
516.835	808.5
517.29	790.4
517.745	786.9
518.2	787.7
518.655	766.9
519.109	754.3
519.564	756.8
520.019	742.6
520.474	725.9
520.928	740.6
521.383	738.3
521.838	728.9
522.292	737.4
522.747	727.5
523.201	730.3
523.656	720.7
524.11	715
524.565	707.5
525.019	703.4
525.474	715
525.928	721.7
526.382	715
526.837	707.8
527.291	723.1
527.745	716.2
528.2	710.9
528.654	711.4
529.108	698.3
529.562	699.4
530.016	704.1
530.47	710.9
530.925	702.6
531.379	709.9
531.833	726.2
532.287	717.8
532.741	718.8
533.195	726.5
533.649	726.1
534.103	736.6
534.556	718.9
535.01	725.9
535.464	733.9
535.918	735.7
536.372	743.4
536.826	739.1
537.279	721.8
537.733	727.1
538.187	737.3
538.64	719.4
539.094	740.3
539.548	741.8
540.001	742.6
540.455	730.1
540.908	753.6
541.362	745.8
541.815	763.3
542.269	781.5
542.722	781.4
543.175	777.3
543.629	801.3
544.082	799.7
544.536	799.2
544.989	806.7
545.442	813.1
545.895	799.5
546.349	810.6
546.802	806.5
547.255	811.6
547.708	823.9
548.161	837.7
548.614	847.7
549.067	846.2
549.52	841
549.973	834.1
550.426	834.1
550.879	820.1
551.332	816.9
551.785	817
552.238	819.2
552.691	838.5
553.144	850.8
553.596	868.3
554.049	886.5
554.502	915.4
554.955	934.6
555.407	931.5
555.86	923.2
556.313	908.7
556.765	903.9
557.218	908.4
557.67	908.4
558.123	895.3
558.576	899.8
559.028	898.1
559.48	903.7
559.933	879.8
560.385	856.8
560.838	825.2
561.29	794.8
561.742	794
562.195	778.6
562.647	783.7
563.099	792.9
563.551	789.7
564.004	807.5
564.456	790.5
564.908	787.7
565.36	762.8
565.812	745
566.264	746.2
566.716	741.8
567.168	736.6
567.62	734
568.072	722.1
568.524	715.4
568.976	699.9
569.428	687.5
569.88	684
570.332	692.5
570.784	703.9
571.235	691.6
571.687	707.9
572.139	712.4
572.59	729.1
573.042	728.7
573.494	733
573.945	722.1
574.397	696.3
574.849	697.6
575.3	701.7
575.752	702.8
576.203	695.2
576.655	694.1
577.106	677.8
577.557	681.4
578.009	689.2
578.46	679.7
578.912	688
579.363	681.8
579.814	684
580.265	673.6
580.717	683.7
581.168	687.4
581.619	684.7
582.07	700.4
582.521	685.6
582.972	687.6
583.423	689.2
583.875	697.2
584.326	719.9
584.777	767.4
585.227	843.1
585.678	933.4
586.129	1026.9
586.58	1098.9
587.031	1187.3
587.482	1340
587.933	1526.3
588.384	1334.2
588.834	997.3
589.285	819.5
589.736	807.2
590.186	792.5
590.637	785.6
591.088	759.7
591.538	751.6
591.989	740.7
592.439	745.6
592.89	743.2
593.34	721.2
593.791	721.9
594.241	721
594.692	726.8
595.142	725.2
595.593	720.6
596.043	719.4
596.493	729.6
596.943	732.7
597.394	731.1
597.844	728.3
598.294	750.4
598.744	763.9
599.195	792.1
599.645	829.5
600.095	874.5
600.545	933.8
600.995	982.3
601.445	1045.4
601.895	1110.2
602.345	1152.7
602.795	1133.3
603.245	1090.2
603.695	1031.1
604.145	967.7
604.594	925.4
605.044	869
605.494	815.8
605.944	766.6
606.393	757.5
606.843	747.2
607.293	757.3
607.743	737.2
608.192	762.2
608.642	776.5
609.091	779.3
609.541	777.6
609.99	787.5
610.44	773.4
610.889	739.2
611.339	716.1
611.788	707
612.238	718.6
612.687	725.3
613.136	731.9
613.586	751.9
614.035	749.4
614.484	766.7
614.933	769.1
615.383	772.2
615.832	747.1
616.281	732.7
616.73	696.6
617.179	682.2
617.628	669.7
618.077	645.4
618.526	630.8
618.975	631.7
619.424	629.9
619.873	628.3
620.322	628.9
620.771	626.2
621.22	622.3
621.669	608.8
622.118	598.4
622.567	596.2
623.015	581.9
623.464	582.1
623.913	569.3
624.361	562.4
624.81	565.1
625.259	566.3
625.707	563.5
626.156	563.7
626.604	583.2
627.053	572
627.501	575.3
627.95	574.9
628.398	592
628.847	576.6
629.295	577.5
629.744	584.3
630.192	578.6
630.64	577.7
631.089	577.6
631.537	594.3
631.985	587.2
632.433	608.8
632.881	618.5
633.33	678.1
633.778	651
634.226	581.1
634.674	577.2
635.122	584.3
635.57	610.7
636.018	632.5
636.466	589.8
636.914	568
637.362	573
637.81	579.4
638.258	592.5
638.705	587.9
639.153	619.6
639.601	628.8
640.049	650.9
640.497	684.3
640.944	698.6
641.392	647.6
641.84	618.5
642.287	591.4
642.735	588
643.182	586.9
643.63	582.9
644.078	584.8
644.525	593.2
644.973	610.1
645.42	619.1
645.867	623.4
646.315	643.8
646.762	667.5
647.21	702.4
647.657	730.6
648.104	756
648.551	784.7
648.999	848.8
649.446	929.9
649.893	1024.4
650.34	1184.3
650.787	1408.7
651.234	1769.8
651.682	2283.4
652.129	3173.5
652.576	4527.2
653.023	6701.7
653.47	9203
653.917	11527.9
654.363	13272.6
654.81	14636.6
655.257	13967.7
655.704	9122.1
656.151	5377.4
656.598	3505.7
657.044	2492.9
657.491	1910.8
657.938	1515.2
658.385	1274.2
658.831	1106.1
659.278	991.3
659.724	868.8
660.171	793.4
660.618	734.9
661.064	700.2
661.511	668.1
661.957	664.7
662.404	664.5
662.85	662.3
663.296	633.4
663.743	564.6
664.189	545.8
664.635	543.8
665.082	531
665.528	532.5
665.974	519.6
666.42	513.5
666.867	509.1
667.313	494.3
667.759	488.5
668.205	477.9
668.651	494.4
669.097	491.5
669.543	510.1
669.989	479.8
670.435	457.1
670.881	455
671.327	453.4
671.773	475.5
672.219	494.7
672.665	549.5
673.11	582.4
673.556	641.2
674.002	675.5
674.448	659.6
674.893	556.2
675.339	477.1
675.785	445.7
676.23	428.7
676.676	398.3
677.122	394.8
677.567	376.3
678.013	375.9
678.458	365.4
678.904	366.3
679.349	354.3
679.794	355.6
680.24	346.3
680.685	357.3
681.131	357.7
681.576	351.4
682.021	359.3
682.466	354.1
682.912	352.1
683.357	361.5
683.802	379.7
684.247	414.4
684.692	457.8
685.137	495.9
685.583	534.2
686.028	560
686.473	524.2
686.918	440.3
687.363	420.2
687.807	400.1
688.252	371.3
688.697	351.1
689.142	340.7
689.587	336.6
690.032	326.1
690.477	347.4
690.921	353.2
691.366	390.8
691.811	395.1
692.255	430.4
692.7	461.8
693.145	502.4
693.589	698.4
694.034	1127.2
694.478	1544.6
694.923	1739.8
695.367	2256.5
695.812	1202.6
696.256	496.9
696.701	374.6
697.145	348.8
697.59	330.7
698.034	318.3
698.478	327.6
698.922	327.7
699.367	338
699.811	339.6
700.255	358.8
700.699	391
701.143	428.8
701.588	477.3
702.032	520.6
702.476	511.8
702.92	490
703.364	491.8
703.808	633.4
704.252	1023.4
704.696	1439
705.14	1669.8
705.584	2140.6
706.027	1066
706.471	526
706.915	395.7
707.359	353.7
707.803	325.2
708.246	315.5
708.69	313.7
709.134	314.5
709.577	305
710.021	313
710.465	307.1
710.908	307.1
711.352	300.5
711.795	315.3
712.239	353.9
712.682	385.6
713.126	421.5
713.569	470.6
714.012	369.2
714.456	328.4
714.899	303.3
715.342	281.3
715.786	259.4
716.229	262.7
716.672	252.1
717.115	245.4
717.558	250.5
718.002	254
718.445	263.7
718.888	282.8
719.331	298.9
719.774	308.4
720.217	305.4
720.66	285.4
721.103	266.8
721.546	261.5
721.989	257.9
722.432	231
722.874	242.7
723.317	227.1
723.76	241.5
724.203	257.9
724.645	312.8
725.088	450.5
725.531	559.5
725.974	638.1
726.416	549.6
726.859	310.3
727.301	253.1
727.744	238.7
728.187	231.6
728.629	236.9
729.071	247.6
729.514	257.6
729.956	272.2
730.399	284.7
730.841	295.9
731.283	272
731.726	263.8
732.168	264.1
732.61	268.9
733.053	286.3
733.495	319.7
733.937	359.3
734.379	394.2
734.821	437
735.263	542
735.705	827.8
736.148	1562.3
736.59	2565.9
737.032	3048.9
737.474	2481.4
737.916	805.7
738.357	427.6
738.799	328.9
739.241	302.6
739.683	283.2
740.125	290.8
740.567	297.2
741.008	317.1
741.45	321.3
741.892	315.3
742.334	343
742.775	360
743.217	346.9
743.658	275.5
744.1	267.3
744.542	262.2
744.983	319.9
745.425	348.4
745.866	347.2
746.307	289.4
746.749	284.5
747.19	328.6
747.632	459.8
748.073	873.2
748.514	1867.8
748.956	2844.8
749.397	3570.8
749.838	2948.8
750.279	2972.8
750.72	1496.9
751.162	539.9
751.603	327.3
752.044	258.8
752.485	219.5
752.926	204.8
753.367	200.9
753.808	196.8
754.249	194.6
754.69	192
755.131	186.5
755.572	178.3
756.013	188
756.453	191.2
756.894	194.2
757.335	190.4
757.776	201
758.216	196.8
758.657	202.4
759.098	201.4
759.538	225.1
759.979	258.5
760.42	367.5
760.86	695.9
761.301	1796.8
761.741	4374
762.182	6421.6
762.622	4525.3
763.063	1299.1
763.503	538
763.943	348.7
764.384	357.4
764.824	414
765.264	436.7
765.705	307.7
766.145	210.8
766.585	191.9
767.025	186.1
767.465	186.9
767.906	244.6
768.346	320.4
768.786	347.6
769.226	269.1
769.666	321.9
770.106	613.6
770.546	1529.1
770.986	2638.7
771.426	2372.9
771.866	786.8
772.306	334.6
772.745	203.8
773.185	174.4
773.625	170.2
774.065	168.6
774.505	199.4
774.944	318.5
775.384	682.5
775.824	1243.7
776.263	1223.8
776.703	517.2
777.142	221.6
777.582	158.8
778.021	141.8
778.461	144.1
778.9	143.4
779.34	137.1
779.779	124.5
780.219	113.6
780.658	113.2
781.097	110
781.537	118.3
781.976	109
782.415	112
782.855	105
783.294	101
783.733	110
784.172	112
784.611	105
785.05	108.5
785.489	115.5
785.928	120.6
786.367	126
786.806	116.2
787.245	130.4
787.684	139.2
788.123	149.2
788.562	133.3
789.001	122.7
789.44	130.7
789.879	117
790.317	115.8
790.756	125.8
791.195	129.2
791.634	145.3
792.072	203.2
792.511	360.6
792.95	1006.2
793.388	2142.1
793.827	1931.2
794.265	668
794.704	280.2
795.142	184.9
795.581	154.9
796.019	134.5
796.458	129.8
796.896	127.6
797.334	133.6
797.773	161.2
798.211	221.9
798.649	433.1
799.087	1005.7
799.526	1598.2
799.964	2000
800.402	2001.5
800.84	759.4
801.278	296.7
801.716	180.8
802.154	156.2
802.592	143.5
803.03	143.3
803.468	137.5
803.906	137.8
804.344	147.8
804.782	141.7
805.22	136
805.658	131.5
806.096	146.8
806.533	152.4
806.971	176.7
