Data from 20171114-ORNL-Ar_H_NY_Subt18_08-04-22-535.txt Node
Date: Tue Nov 14 08:04:22 EST 2017
User: Ender
Spectrometer: HR+D1039
Trigger mode: 0
Integration Time (sec): 2.730000E-2
Scans to average: 10
Electric dark correction enabled: true
Nonlinearity correction enabled: false
Boxcar width: 0
XAxis mode: Wavelengths
Number of Pixels in Spectrum: 2048
>>>>>Begin Spectral Data<<<<<
187.836	-5.66
188.309	-5.66
188.782	-5.66
189.255	-1.56
189.728	-1.16
190.201	7.34
190.674	7.64
191.147	3.14
191.619	-11.06
192.092	2.24
192.565	8.24
193.038	3.14
193.511	-1.26
193.984	-3.96
194.456	-3.26
194.929	3.84
195.402	-4.56
195.874	-3.06
196.347	-1.56
196.82	-7.46
197.292	11.04
197.765	-1.16
198.237	-2.56
198.71	1.04
199.182	-2.86
199.655	3.04
200.127	0.64
200.6	-4.56
201.072	-3.66
201.544	-6.26
202.017	-5.26
202.489	1.14
202.961	-0.86
203.433	-2.66
203.906	-3.56
204.378	-7.56
204.85	1.44
205.322	-7.76
205.794	-1.16
206.266	-4.26
206.739	-6.66
207.211	3.44
207.683	-4.76
208.155	-2.86
208.627	-5.06
209.099	-1.06
209.57	-7.76
210.042	-6.86
210.514	-3.56
210.986	1.44
211.458	-4.46
211.93	-3.06
212.402	-0.06
212.873	-4.76
213.345	-9.66
213.817	-7.36
214.288	-3.96
214.76	-17.16
215.232	-4.86
215.703	-3.16
216.175	-7.26
216.646	-0.26
217.118	-1.86
217.589	0.74
218.061	-0.26
218.532	-5.76
219.004	-0.56
219.475	3.84
219.946	-4.66
220.418	-2.76
220.889	5.94
221.36	0.44
221.832	-0.26
222.303	-7.76
222.774	-5.16
223.245	-7.46
223.717	-3.46
224.188	-0.46
224.659	-8.96
225.13	-8.46
225.601	-5.96
226.072	0.24
226.543	-2.16
227.014	-0.66
227.485	-6.36
227.956	-7.16
228.427	-1.76
228.898	6.54
229.369	1.44
229.839	-2.36
230.31	-3.36
230.781	3.44
231.252	-2.16
231.722	-2.66
232.193	2.94
232.664	-0.26
233.135	-2.16
233.605	2.04
234.076	-4.26
234.546	-0.46
235.017	1.64
235.487	0.94
235.958	-4.86
236.428	-2.46
236.899	5.34
237.369	3.24
237.84	0.74
238.31	8.24
238.78	3.94
239.251	3.94
239.721	2.54
240.191	8.24
240.662	1.44
241.132	-2.86
241.602	3.94
242.072	-0.66
242.542	9.64
243.013	-4.56
243.483	6.44
243.953	4.14
244.423	-4.66
244.893	-5.96
245.363	1.74
245.833	5.24
246.303	2.24
246.773	5.04
247.243	3.94
247.712	3.14
248.182	7.24
248.652	9.14
249.122	-0.16
249.592	10.54
250.061	21.54
250.531	31.54
251.001	17.14
251.471	17.24
251.94	17.64
252.41	4.94
252.879	5.44
253.349	12.94
253.818	15.24
254.288	4.14
254.757	3.74
255.227	9.14
255.696	4.04
256.166	4.74
256.635	10.04
257.105	11.34
257.574	8.24
258.043	7.24
258.513	13.04
258.982	16.64
259.451	10.64
259.92	9.84
260.389	9.54
260.859	11.14
261.328	18.84
261.797	25.04
262.266	8.04
262.735	7.54
263.204	2.84
263.673	2.04
264.142	7.74
264.611	-0.36
265.08	2.04
265.549	6.54
266.018	9.84
266.487	1.54
266.955	-2.96
267.424	0.04
267.893	13.74
268.362	-1.66
268.83	0.54
269.299	12.94
269.768	7.24
270.236	8.44
270.705	3.84
271.174	4.14
271.642	8.54
272.111	9.74
272.579	19.04
273.048	24.84
273.516	26.54
273.985	30.04
274.453	25.24
274.922	22.54
275.39	8.04
275.858	6.34
276.327	16.84
276.795	17.94
277.263	11.54
277.731	33.44
278.2	52.94
278.668	50.24
279.136	44.44
279.604	14.24
280.072	17.54
280.54	13.54
281.008	11.84
281.477	20.34
281.945	10.44
282.413	16.24
282.881	16.24
283.348	9.14
283.816	19.34
284.284	9.74
284.752	25.04
285.22	12.24
285.688	19.04
286.156	16.54
286.623	38.24
287.091	52.54
287.559	24.04
288.026	20.74
288.494	9.14
288.962	2.94
289.429	13.24
289.897	22.24
290.364	10.54
290.832	22.24
291.3	16.94
291.767	19.44
292.234	20.24
292.702	10.44
293.169	18.04
293.637	23.64
294.104	23.14
294.571	7.74
295.039	19.04
295.506	12.84
295.973	18.24
296.44	16.84
296.908	19.34
297.375	19.04
297.842	11.64
298.309	17.34
298.776	13.74
299.243	24.54
299.71	11.64
300.177	24.14
300.644	19.94
301.111	14.74
301.578	22.04
302.045	17.24
302.512	22.14
302.979	23.34
303.446	20.44
303.913	17.74
304.379	16.54
304.846	31.94
305.313	23.64
305.78	21.54
306.246	26.24
306.713	25.74
307.18	23.74
307.646	33.44
308.113	23.44
308.579	18.44
309.046	30.94
309.512	28.74
309.979	17.04
310.445	26.54
310.912	25.44
311.378	29.34
311.845	32.04
312.311	29.34
312.777	33.74
313.244	23.54
313.71	37.34
314.176	29.94
314.642	25.94
315.109	35.24
315.575	32.54
316.041	39.74
316.507	36.74
316.973	37.54
317.439	33.04
317.905	33.24
318.371	34.74
318.837	32.44
319.303	26.64
319.769	35.34
320.235	34.24
320.701	34.84
321.167	34.24
321.633	32.14
322.099	35.44
322.564	40.24
323.03	38.34
323.496	39.64
323.962	39.74
324.427	35.64
324.893	36.24
325.359	32.64
325.824	35.34
326.29	37.24
326.755	38.54
327.221	36.64
327.686	37.64
328.152	46.54
328.617	41.44
329.083	37.44
329.548	53.24
330.014	43.34
330.479	40.24
330.944	36.24
331.41	45.34
331.875	43.14
332.34	39.44
332.805	39.64
333.271	44.74
333.736	46.64
334.201	46.64
334.666	49.34
335.131	52.34
335.596	51.94
336.061	46.44
336.526	41.14
336.991	45.84
337.456	49.54
337.921	48.04
338.386	41.94
338.851	40.64
339.316	47.74
339.781	46.04
340.246	51.04
340.711	43.14
341.175	51.84
341.64	39.04
342.105	52.94
342.569	55.54
343.034	61.64
343.499	57.64
343.963	49.64
344.428	58.94
344.893	55.54
345.357	58.94
345.822	58.04
346.286	67.14
346.751	66.34
347.215	62.94
347.679	64.34
348.144	87.94
348.608	79.44
349.073	65.54
349.537	77.54
350.001	70.54
350.465	83.84
350.93	73.44
351.394	75.54
351.858	70.34
352.322	80.14
352.786	80.74
353.25	99.14
353.715	104.64
354.179	96.34
354.643	109.04
355.107	116.94
355.571	96.24
356.035	96.14
356.498	114.64
356.962	108.94
357.426	116.54
357.89	100.44
358.354	78.94
358.818	78.24
359.281	79.84
359.745	79.94
360.209	67.14
360.673	68.14
361.136	73.14
361.6	78.04
362.064	83.64
362.527	84.74
362.991	80.84
363.454	73.04
363.918	78.54
364.381	69.74
364.845	73.84
365.308	82.44
365.772	81.24
366.235	78.74
366.698	75.44
367.162	78.94
367.625	75.54
368.088	79.94
368.552	82.04
369.015	83.64
369.478	93.34
369.941	92.74
370.404	87.84
370.867	95.84
371.331	99.24
371.794	105.24
372.257	101.74
372.72	108.74
373.183	103.14
373.646	94.94
374.109	94.24
374.572	91.14
375.035	97.84
375.497	102.34
375.96	98.74
376.423	102.94
376.886	100.34
377.349	95.04
377.811	88.44
378.274	104.74
378.737	90.14
379.199	100.44
379.662	101.44
380.125	106.54
380.587	104.84
381.05	107.64
381.512	116.94
381.975	123.04
382.437	121.34
382.9	110.14
383.362	116.84
383.825	125.44
384.287	139.34
384.75	126.44
385.212	125.54
385.674	128.64
386.136	129.44
386.599	117.94
387.061	113.04
387.523	115.14
387.985	122.14
388.447	129.54
388.91	131.94
389.372	141.64
389.834	137.84
390.296	124.64
390.758	138.24
391.22	148.34
391.682	185.64
392.144	267.44
392.606	202.44
393.068	150.04
393.529	153.54
393.991	140.44
394.453	128.14
394.915	146.14
395.377	178.54
395.838	201.24
396.3	141.04
396.762	129.74
397.224	125.84
397.685	120.24
398.147	124.34
398.608	119.14
399.07	112.44
399.531	124.34
399.993	131.74
400.454	135.54
400.916	131.04
401.377	125.54
401.839	135.94
402.3	139.34
402.762	149.34
403.223	162.84
403.684	156.04
404.145	150.64
404.607	146.94
405.068	146.84
405.529	150.04
405.99	168.84
406.451	149.44
406.913	154.14
407.374	140.64
407.835	148.04
408.296	142.04
408.757	145.74
409.218	165.84
409.679	158.24
410.14	156.14
410.601	159.24
411.062	170.14
411.522	175.34
411.983	174.64
412.444	153.14
412.905	161.44
413.366	165.94
413.826	170.54
414.287	197.74
414.748	232.94
415.208	221.24
415.669	192.74
416.13	187.04
416.59	178.84
417.051	190.64
417.511	198.14
417.972	208.34
418.432	224.64
418.893	261.84
419.353	224.94
419.814	182.84
420.274	162.94
420.734	159.34
421.195	183.34
421.655	179.84
422.115	176.74
422.576	173.94
423.036	179.14
423.496	182.54
423.956	196.34
424.416	204.84
424.876	238.74
425.336	231.34
425.797	236.54
426.257	227.24
426.717	220.04
427.177	206.84
427.637	203.64
428.097	210.04
428.556	219.24
429.016	238.84
429.476	237.44
429.936	246.24
430.396	241.04
430.856	266.94
431.315	277.54
431.775	315.24
432.235	339.04
432.694	315.94
433.154	322.24
433.614	338.14
434.073	290.74
434.533	252.74
434.993	244.64
435.452	253.54
435.912	260.54
436.371	259.14
436.83	255.34
437.29	241.44
437.749	223.44
438.209	214.54
438.668	240.64
439.127	256.74
439.587	236.34
440.046	227.84
440.505	226.84
440.964	238.04
441.424	277.84
441.883	278.24
442.342	232.24
442.801	201.74
443.26	201.64
443.719	197.64
444.178	199.04
444.637	187.84
445.096	196.94
445.555	197.64
446.014	197.64
446.473	203.14
446.932	214.44
447.391	206.24
447.849	200.04
448.308	197.44
448.767	199.54
449.226	208.64
449.685	209.64
450.143	226.84
450.602	221.84
451.061	203.84
451.519	212.44
451.978	206.24
452.436	214.84
452.895	209.14
453.353	232.14
453.812	220.84
454.27	224.64
454.729	215.94
455.187	214.64
455.646	221.44
456.104	222.14
456.562	232.44
457.021	235.24
457.479	231.44
457.937	244.04
458.395	230.64
458.854	220.34
459.312	230.94
459.77	235.44
460.228	226.14
460.686	212.44
461.144	233.34
461.602	216.54
462.06	219.54
462.518	227.04
462.976	236.34
463.434	237.94
463.892	240.04
464.35	247.84
464.808	256.94
465.266	245.44
465.724	250.24
466.181	243.14
466.639	242.04
467.097	263.34
467.555	271.44
468.012	270.84
468.47	283.54
468.928	296.34
469.385	301.34
469.843	319.34
470.3	310.34
470.758	312.44
471.215	337.14
471.673	358.64
472.13	363.24
472.588	369.64
473.045	328.54
473.503	342.14
473.96	351.74
474.417	358.94
474.875	380.94
475.332	423.44
475.789	418.24
476.246	419.44
476.704	434.84
477.161	455.24
477.618	471.84
478.075	500.04
478.532	551.34
478.989	614.34
479.446	706.14
479.903	684.74
480.36	708.24
480.817	774.54
481.274	874.84
481.731	979.24
482.188	1054.54
482.645	1179.14
483.102	1271.24
483.558	1389.84
484.015	1449.64
484.472	1429.34
484.929	1378.54
485.385	1336.04
485.842	1301.04
486.299	1241.34
486.755	1166.54
487.212	977.74
487.668	829.44
488.125	759.74
488.582	705.94
489.038	676.24
489.494	649.94
489.951	625.14
490.407	601.04
490.864	578.24
491.32	587.34
491.776	575.64
492.233	576.64
492.689	545.74
493.145	544.04
493.602	536.84
494.058	552.04
494.514	543.34
494.97	573.34
495.426	567.44
495.882	556.34
496.338	555.84
496.794	562.14
497.251	563.44
497.707	572.14
498.163	565.94
498.618	589.84
499.074	581.64
499.53	609.44
499.986	603.74
500.442	583.94
500.898	565.84
501.354	565.54
501.809	576.64
502.265	584.14
502.721	599.74
503.177	597.94
503.632	595.74
504.088	608.34
504.543	634.34
504.999	626.54
505.455	583.14
505.91	569.04
506.366	579.04
506.821	553.84
507.277	555.24
507.732	569.14
508.187	553.94
508.643	569.24
509.098	564.74
509.553	583.74
510.009	602.94
510.464	600.54
510.919	619.94
511.375	621.54
511.83	635.14
512.285	651.74
512.74	684.84
513.195	696.04
513.65	691.84
514.105	688.74
514.56	687.84
515.015	714.94
515.47	735.74
515.925	711.04
516.38	716.74
516.835	715.14
517.29	708.14
517.745	705.74
518.2	693.84
518.655	673.74
519.109	675.64
519.564	662.44
520.019	659.94
520.474	649.84
520.928	648.24
521.383	655.44
521.838	634.44
522.292	633.14
522.747	630.84
523.201	625.44
523.656	623.44
524.11	626.34
524.565	612.64
525.019	617.84
525.474	643.94
525.928	625.24
526.382	621.54
526.837	609.14
527.291	639.24
527.745	620.24
528.2	624.54
528.654	607.34
529.108	613.04
529.562	611.84
530.016	614.54
530.47	617.64
530.925	623.04
531.379	629.84
531.833	630.94
532.287	624.34
532.741	626.54
533.195	630.94
533.649	642.74
534.103	646.94
534.556	628.34
535.01	640.74
535.464	636.34
535.918	633.64
536.372	633.14
536.826	638.64
537.279	635.64
537.733	637.84
538.187	641.54
538.64	642.84
539.094	641.44
539.548	646.84
540.001	641.54
540.455	641.94
540.908	643.74
541.362	653.24
541.815	669.64
542.269	673.24
542.722	675.74
543.175	676.74
543.629	681.24
544.082	702.24
544.536	687.34
544.989	699.34
545.442	695.14
545.895	694.34
546.349	694.44
546.802	708.04
547.255	710.34
547.708	705.64
548.161	720.64
548.614	716.04
549.067	733.44
549.52	725.34
549.973	708.74
550.426	717.64
550.879	699.04
551.332	703.04
551.785	706.54
552.238	723.04
552.691	723.74
553.144	725.34
553.596	743.04
554.049	750.94
554.502	787.24
554.955	802.74
555.407	790.34
555.86	794.24
556.313	789.34
556.765	775.74
557.218	776.94
557.67	776.94
558.123	763.34
558.576	772.74
559.028	777.14
559.48	780.94
559.933	765.54
560.385	739.84
560.838	715.24
561.29	682.84
561.742	682.24
562.195	661.64
562.647	665.44
563.099	673.94
563.551	676.84
564.004	692.04
564.456	680.84
564.908	679.24
565.36	655.04
565.812	640.94
566.264	630.84
566.716	634.54
567.168	626.84
567.62	622.54
568.072	618.14
568.524	610.24
568.976	598.44
569.428	587.64
569.88	589.34
570.332	587.84
570.784	590.34
571.235	593.44
571.687	602.14
572.139	605.04
572.59	610.34
573.042	623.94
573.494	605.64
573.945	615.44
574.397	588.94
574.849	600.44
575.3	588.94
575.752	591.44
576.203	590.34
576.655	589.64
577.106	582.04
577.557	568.34
578.009	571.34
578.46	571.34
578.912	561.04
579.363	574.84
579.814	569.84
580.265	570.84
580.717	580.54
581.168	577.94
581.619	580.84
582.07	590.64
582.521	578.74
582.972	575.54
583.423	586.14
583.875	589.24
584.326	603.94
584.777	633.34
585.227	703.94
585.678	781.04
586.129	861.04
586.58	916.34
587.031	985.44
587.482	1142.84
587.933	1293.44
588.384	1117.84
588.834	834.04
589.285	689.94
589.736	667.54
590.186	661.44
590.637	661.44
591.088	635.64
591.538	632.74
591.989	621.04
592.439	619.44
592.89	615.64
593.34	607.74
593.791	610.54
594.241	611.44
594.692	605.14
595.142	597.64
595.593	597.74
596.043	613.24
596.493	610.44
596.943	599.84
597.394	608.64
597.844	610.24
598.294	625.44
598.744	644.84
599.195	666.24
599.645	695.14
600.095	728.14
600.545	778.64
600.995	815.94
601.445	878.74
601.895	925.64
602.345	967.34
602.795	951.24
603.245	908.04
603.695	859.94
604.145	812.24
604.594	770.24
605.044	730.64
605.494	676.64
605.944	639.74
606.393	621.44
606.843	609.04
607.293	626.84
607.743	620.54
608.192	627.04
608.642	638.44
609.091	646.94
609.541	647.24
609.99	651.34
610.44	647.34
610.889	601.54
611.339	590.74
611.788	578.44
612.238	584.74
612.687	606.34
613.136	607.14
613.586	615.64
614.035	618.24
614.484	629.44
614.933	637.64
615.383	631.14
615.832	616.74
616.281	601.54
616.73	581.54
617.179	558.54
617.628	542.34
618.077	526.24
618.526	525.34
618.975	522.34
619.424	517.14
619.873	514.94
620.322	525.34
620.771	503.24
621.22	504.54
621.669	496.34
622.118	492.34
622.567	488.74
623.015	467.54
623.464	474.04
623.913	465.64
624.361	455.34
624.81	457.04
625.259	467.94
625.707	463.14
626.156	460.14
626.604	473.44
627.053	468.94
627.501	464.74
627.95	473.04
628.398	480.34
628.847	475.64
629.295	473.44
629.744	474.44
630.192	475.44
630.64	471.14
631.089	465.34
631.537	476.14
631.985	478.34
632.433	501.34
632.881	505.14
633.33	534.84
633.778	522.44
634.226	457.64
634.674	467.94
635.122	474.04
635.57	480.94
636.018	513.94
636.466	481.54
636.914	452.34
637.362	474.44
637.81	471.94
638.258	482.74
638.705	476.94
639.153	499.54
639.601	509.44
640.049	529.44
640.497	554.44
640.944	575.24
641.392	528.84
641.84	502.34
642.287	488.14
642.735	464.64
643.182	474.04
643.63	473.44
644.078	475.94
644.525	477.54
644.973	484.14
645.42	497.04
645.867	506.74
646.315	525.44
646.762	538.34
647.21	564.34
647.657	583.24
648.104	615.14
648.551	633.14
648.999	687.64
649.446	750.64
649.893	813.74
650.34	938.24
650.787	1116.34
651.234	1382.54
651.682	1804.84
652.129	2456.84
652.576	3538.74
653.023	5243.84
653.47	7254.24
653.917	9211.24
654.363	10791.14
654.81	12164.04
655.257	11512.44
655.704	7466.64
656.151	4388.14
656.598	2838.34
657.044	1996.54
657.491	1546.64
657.938	1238.04
658.385	1019.14
658.831	881.94
659.278	793.74
659.724	700.04
660.171	646.24
660.618	587.84
661.064	558.74
661.511	544.64
661.957	521.94
662.404	518.64
662.85	524.14
663.296	501.94
663.743	459.24
664.189	444.44
664.635	437.04
665.082	433.44
665.528	434.04
665.974	421.54
666.42	419.34
666.867	412.04
667.313	391.74
667.759	392.34
668.205	391.24
668.651	392.34
669.097	397.54
669.543	406.84
669.989	381.04
670.435	368.94
670.881	363.44
671.327	365.14
671.773	371.24
672.219	400.74
672.665	444.54
673.11	477.64
673.556	510.34
674.002	546.74
674.448	532.44
674.893	443.44
675.339	390.24
675.785	361.44
676.23	339.74
676.676	319.44
677.122	309.94
677.567	296.94
678.013	289.24
678.458	284.84
678.904	290.34
679.349	285.44
679.794	277.94
680.24	280.54
680.685	285.74
681.131	278.04
681.576	280.24
682.021	285.44
682.466	278.54
682.912	271.14
683.357	279.44
683.802	312.84
684.247	331.84
684.692	359.84
685.137	394.94
685.583	442.04
686.028	457.54
686.473	423.84
686.918	358.34
687.363	346.24
687.807	319.14
688.252	298.14
688.697	286.64
689.142	278.54
689.587	265.74
690.032	257.24
690.477	268.54
690.921	275.94
691.366	304.94
691.811	317.64
692.255	346.44
692.7	374.54
693.145	394.44
693.589	546.34
694.034	892.64
694.478	1228.54
694.923	1428.64
695.367	1898.64
695.812	985.14
696.256	413.14
696.701	292.24
697.145	281.84
697.59	260.64
698.034	257.34
698.478	272.24
698.922	269.64
699.367	262.44
699.811	276.64
700.255	283.94
700.699	309.74
701.143	343.74
701.588	379.44
702.032	424.34
702.476	426.14
702.92	395.54
703.364	389.24
703.808	498.94
704.252	802.54
704.696	1156.84
705.14	1364.84
705.584	1774.94
706.027	865.84
706.471	422.74
706.915	321.24
707.359	276.94
707.803	254.94
708.246	243.14
708.69	246.44
709.134	252.24
709.577	251.04
710.021	257.74
710.465	245.94
710.908	238.74
711.352	234.64
711.795	243.24
712.239	279.74
712.682	305.04
713.126	339.34
713.569	374.04
714.012	299.64
714.456	260.74
714.899	245.94
715.342	222.44
715.786	210.24
716.229	212.04
716.672	210.74
717.115	196.94
717.558	203.54
718.002	199.34
718.445	215.14
718.888	225.44
719.331	236.54
719.774	254.24
720.217	245.64
720.66	226.14
721.103	219.14
721.546	201.24
721.989	197.44
722.432	184.54
722.874	192.84
723.317	182.24
723.76	188.04
724.203	209.24
724.645	254.04
725.088	349.14
725.531	455.14
725.974	526.14
726.416	450.74
726.859	248.04
727.301	200.74
727.744	191.34
728.187	183.94
728.629	187.94
729.071	197.94
729.514	205.24
729.956	219.24
730.399	221.44
730.841	237.44
731.283	215.14
731.726	219.74
732.168	207.14
732.61	215.44
733.053	226.74
733.495	252.04
733.937	281.64
734.379	315.84
734.821	350.44
735.263	432.54
735.705	642.04
736.148	1223.74
736.59	2043.54
737.032	2551.74
737.474	2063.24
737.916	656.14
738.357	344.34
738.799	260.64
739.241	233.84
739.683	220.24
740.125	233.74
740.567	240.04
741.008	255.84
741.45	252.74
741.892	250.24
742.334	283.24
742.775	293.04
743.217	283.64
743.658	218.14
744.1	196.84
744.542	213.34
744.983	253.24
745.425	280.44
745.866	281.64
746.307	233.74
746.749	229.24
747.19	248.64
747.632	345.04
748.073	666.84
748.514	1461.94
748.956	2280.24
749.397	2865.94
749.838	2392.04
750.279	2461.44
750.72	1244.04
751.162	441.44
751.603	261.44
752.044	199.24
752.485	171.84
752.926	162.94
753.367	164.74
753.808	156.14
754.249	151.64
754.69	143.34
755.131	147.34
755.572	142.64
756.013	138.84
756.453	145.14
756.894	157.54
757.335	148.84
757.776	160.34
758.216	154.24
758.657	157.04
759.098	159.14
759.538	181.74
759.979	205.94
760.42	284.34
760.86	540.74
761.301	1396.84
761.741	3491.74
762.182	5405.44
762.622	3791.44
763.063	1065.04
763.503	429.94
