Data from 20171114-ORNL-Ar_H_NY_Subt18_08-07-47-267.txt Node
Date: Tue Nov 14 08:07:47 EST 2017
User: Ender
Spectrometer: HR+D1039
Trigger mode: 0
Integration Time (sec): 2.730000E-2
Scans to average: 10
Electric dark correction enabled: true
Nonlinearity correction enabled: false
Boxcar width: 0
XAxis mode: Wavelengths
Number of Pixels in Spectrum: 2048
>>>>>Begin Spectral Data<<<<<
187.836	-2.25
188.309	-2.25
188.782	-2.25
189.255	-4.65
189.728	3.75
190.201	8.75
190.674	2.45
191.147	0.95
191.619	-4.55
192.092	1.75
192.565	5.65
193.038	-1.95
193.511	-2.25
193.984	1.85
194.456	-4.45
194.929	0.85
195.402	-5.15
195.874	-0.75
196.347	0.25
196.82	-7.05
197.292	4.15
197.765	0.55
198.237	-6.65
198.71	1.65
199.182	-3.35
199.655	4.25
200.127	1.75
200.6	-0.45
201.072	-6.65
201.544	-4.15
202.017	-5.65
202.489	-2.15
202.961	0.55
203.433	-5.45
203.906	-7.75
204.378	-8.55
204.85	-4.75
205.322	-7.55
205.794	-0.85
206.266	-7.15
206.739	-9.75
207.211	1.65
207.683	-8.95
208.155	-10.25
208.627	-11.55
209.099	-4.95
209.57	-8.75
210.042	-0.55
210.514	-2.95
210.986	2.05
211.458	-13.15
211.93	-1.55
212.402	-0.55
212.873	-9.25
213.345	-13.85
213.817	-11.05
214.288	-5.75
214.76	-11.45
215.232	-8.55
215.703	-4.95
216.175	1.25
216.646	-2.35
217.118	-3.65
217.589	-6.25
218.061	-4.15
218.532	-4.75
219.004	0.15
219.475	-6.35
219.946	0.05
220.418	-7.35
220.889	1.55
221.36	-2.15
221.832	-10.55
222.303	-9.25
222.774	-3.35
223.245	-8.95
223.717	-3.25
224.188	-3.15
224.659	-9.95
225.13	-0.65
225.601	1.25
226.072	1.75
226.543	-2.15
227.014	4.15
227.485	-1.75
227.956	-3.55
228.427	-0.15
228.898	-3.35
229.369	10.95
229.839	-1.05
230.31	-3.65
230.781	3.05
231.252	-0.35
231.722	-2.55
232.193	2.85
232.664	5.45
233.135	2.15
233.605	-0.55
234.076	-10.35
234.546	-2.15
235.017	0.15
235.487	-1.05
235.958	2.45
236.428	-2.95
236.899	2.85
237.369	0.65
237.84	-3.55
238.31	8.35
238.78	-0.85
239.251	-1.05
239.721	1.45
240.191	1.45
240.662	-0.15
241.132	5.85
241.602	-2.55
242.072	-1.55
242.542	5.25
243.013	0.65
243.483	1.35
243.953	5.55
244.423	3.05
244.893	1.65
245.363	6.25
245.833	1.55
246.303	-4.45
246.773	6.55
247.243	0.65
247.712	4.75
248.182	6.95
248.652	7.35
249.122	-1.35
249.592	15.15
250.061	17.15
250.531	25.75
251.001	19.65
251.471	14.95
251.94	15.25
252.41	5.85
252.879	-2.25
253.349	12.15
253.818	10.95
254.288	-2.25
254.757	3.85
255.227	3.05
255.696	3.05
256.166	5.15
256.635	6.95
257.105	11.05
257.574	1.65
258.043	13.65
258.513	7.85
258.982	12.95
259.451	8.15
259.92	9.55
260.389	10.75
260.859	16.35
261.328	13.45
261.797	14.05
262.266	5.85
262.735	6.95
263.204	1.65
263.673	-0.05
264.142	10.75
264.611	-3.45
265.08	-2.45
265.549	-1.75
266.018	7.35
266.487	-6.25
266.955	0.65
267.424	-5.75
267.893	-1.25
268.362	2.35
268.83	8.95
269.299	8.25
269.768	9.55
270.236	8.25
270.705	5.35
271.174	3.45
271.642	5.95
272.111	10.05
272.579	12.75
273.048	22.95
273.516	23.55
273.985	26.45
274.453	19.25
274.922	15.35
275.39	4.85
275.858	0.65
276.327	10.05
276.795	17.85
277.263	5.15
277.731	27.15
278.2	46.95
278.668	53.05
279.136	46.05
279.604	12.35
280.072	9.55
280.54	7.25
281.008	5.85
281.477	11.65
281.945	8.65
282.413	12.25
282.881	5.65
283.348	4.65
283.816	11.25
284.284	14.85
284.752	19.55
285.22	13.05
285.688	13.85
286.156	18.55
286.623	46.75
287.091	50.55
287.559	17.85
288.026	16.95
288.494	14.35
288.962	0.75
289.429	9.95
289.897	14.85
290.364	9.05
290.832	15.95
291.3	14.95
291.767	11.65
292.234	20.45
292.702	11.15
293.169	20.75
293.637	19.15
294.104	17.95
294.571	14.95
295.039	4.15
295.506	6.65
295.973	15.85
296.44	17.45
296.908	19.55
297.375	10.05
297.842	19.85
298.309	13.25
298.776	14.05
299.243	20.25
299.71	9.75
300.177	16.75
300.644	19.35
301.111	15.35
301.578	18.65
302.045	18.75
302.512	22.35
302.979	22.65
303.446	13.25
303.913	17.35
304.379	17.25
304.846	27.35
305.313	23.15
305.78	17.15
306.246	19.15
306.713	22.45
307.18	27.45
307.646	27.85
308.113	24.15
308.579	28.15
309.046	23.25
309.512	20.75
309.979	17.85
310.445	24.55
310.912	28.15
311.378	30.15
311.845	24.95
312.311	28.35
312.777	29.45
313.244	29.85
313.71	40.55
314.176	22.55
314.642	25.85
315.109	25.45
315.575	33.05
316.041	40.65
316.507	30.45
316.973	34.65
317.439	30.95
317.905	32.35
318.371	36.75
318.837	31.45
319.303	23.95
319.769	32.95
320.235	30.15
320.701	36.15
321.167	32.05
321.633	33.65
322.099	32.25
322.564	43.05
323.03	44.15
323.496	36.15
323.962	42.25
324.427	31.95
324.893	40.35
325.359	35.55
325.824	38.05
326.29	33.45
326.755	35.55
327.221	41.05
327.686	35.55
328.152	39.85
328.617	40.85
329.083	45.65
329.548	47.65
330.014	47.55
330.479	36.45
330.944	43.65
331.41	40.85
331.875	42.05
332.34	44.55
332.805	44.05
333.271	37.65
333.736	37.55
334.201	48.35
334.666	45.95
335.131	49.75
335.596	52.25
336.061	45.15
336.526	38.95
336.991	47.15
337.456	48.95
337.921	42.35
338.386	38.25
338.851	44.55
339.316	40.45
339.781	45.75
340.246	48.45
340.711	43.15
341.175	48.85
341.64	36.95
342.105	53.45
342.569	50.55
343.034	55.25
343.499	56.35
343.963	49.45
344.428	54.85
344.893	58.05
345.357	60.75
345.822	60.95
346.286	62.05
346.751	70.55
347.215	60.85
347.679	67.85
348.144	85.75
348.608	78.35
349.073	60.55
349.537	66.85
350.001	71.95
350.465	79.95
350.93	82.05
351.394	73.55
351.858	69.95
352.322	80.85
352.786	81.65
353.25	100.55
353.715	104.15
354.179	97.15
354.643	118.25
355.107	116.15
355.571	102.65
356.035	97.55
356.498	111.85
356.962	111.65
357.426	122.85
357.89	108.35
358.354	83.65
358.818	82.45
359.281	74.05
359.745	71.55
360.209	69.65
360.673	70.55
361.136	73.35
361.6	74.35
362.064	80.15
362.527	83.15
362.991	81.35
363.454	73.85
363.918	69.05
364.381	71.25
364.845	73.25
365.308	85.45
365.772	78.45
366.235	80.65
366.698	77.65
367.162	79.75
367.625	77.15
368.088	84.95
368.552	79.85
369.015	83.45
369.478	96.75
369.941	102.15
370.404	96.55
370.867	99.95
371.331	105.15
371.794	102.25
372.257	105.35
372.72	108.15
373.183	113.25
373.646	101.85
374.109	100.35
374.572	103.35
375.035	105.15
375.497	96.35
375.96	97.05
376.423	97.65
376.886	105.55
377.349	103.35
377.811	99.65
378.274	99.95
378.737	97.25
379.199	108.65
379.662	107.55
380.125	110.65
380.587	106.55
381.05	112.95
381.512	127.95
381.975	129.15
382.437	119.05
382.9	122.95
383.362	128.55
383.825	136.05
384.287	142.65
384.75	138.35
385.212	131.25
385.674	129.35
386.136	137.15
386.599	118.45
387.061	119.05
387.523	126.95
387.985	137.85
388.447	142.25
388.91	145.15
389.372	153.55
389.834	151.25
390.296	136.65
390.758	147.75
391.22	166.45
391.682	204.35
392.144	285.45
392.606	228.15
393.068	166.45
393.529	161.85
393.991	150.25
394.453	146.15
394.915	151.95
395.377	187.15
395.838	209.65
396.3	145.45
396.762	139.25
397.224	129.45
397.685	125.95
398.147	128.85
398.608	127.45
399.07	121.95
399.531	129.05
399.993	139.95
400.454	142.95
400.916	141.95
401.377	136.15
401.839	147.95
402.3	147.85
402.762	163.55
403.223	169.45
403.684	155.75
404.145	148.05
404.607	152.45
405.068	162.45
405.529	171.85
405.99	172.55
406.451	170.05
406.913	162.25
407.374	157.25
407.835	162.25
408.296	165.65
408.757	169.85
409.218	177.65
409.679	176.35
410.14	183.25
410.601	172.35
411.062	172.35
411.522	186.45
411.983	186.15
412.444	168.85
412.905	176.05
413.366	177.55
413.826	188.75
414.287	210.55
414.748	256.65
415.208	242.75
415.669	206.15
416.13	193.85
416.59	196.55
417.051	210.65
417.511	211.25
417.972	225.45
418.432	233.05
418.893	277.35
419.353	246.05
419.814	198.45
420.274	174.25
420.734	181.45
421.195	190.85
421.655	193.55
422.115	189.55
422.576	191.05
423.036	190.35
423.496	199.45
423.956	207.65
424.416	222.75
424.876	264.35
425.336	253.15
425.797	262.85
426.257	251.85
426.717	231.85
427.177	229.75
427.637	219.25
428.097	230.45
428.556	229.95
429.016	264.25
429.476	255.25
429.936	271.25
430.396	278.75
430.856	282.95
431.315	313.95
431.775	344.15
432.235	363.95
432.694	349.85
433.154	349.85
433.614	374.25
434.073	329.45
434.533	281.05
434.993	265.55
435.452	274.35
435.912	290.05
436.371	282.15
436.83	283.95
437.29	264.55
437.749	240.95
438.209	245.55
438.668	264.65
439.127	280.65
439.587	252.85
440.046	247.15
440.505	253.35
440.964	270.45
441.424	318.05
441.883	308.05
442.342	256.35
442.801	218.95
443.26	208.65
443.719	216.25
444.178	211.55
444.637	207.55
445.096	214.55
445.555	216.65
446.014	220.45
446.473	230.35
446.932	231.65
447.391	223.85
447.849	228.25
448.308	214.75
448.767	222.75
449.226	226.25
449.685	234.95
450.143	238.75
450.602	229.35
451.061	218.35
451.519	224.35
451.978	226.35
452.436	224.05
452.895	234.95
453.353	245.65
453.812	237.35
454.27	232.45
454.729	232.95
455.187	232.55
455.646	238.15
456.104	238.95
456.562	257.15
457.021	255.75
457.479	261.55
457.937	266.05
458.395	263.95
458.854	246.15
459.312	253.55
459.77	260.45
460.228	243.85
460.686	242.25
461.144	247.65
461.602	234.15
462.06	237.85
462.518	251.35
462.976	252.95
463.434	259.75
463.892	256.25
464.35	273.45
464.808	279.05
465.266	256.75
465.724	260.75
466.181	267.95
466.639	259.15
467.097	282.35
467.555	292.45
468.012	296.65
468.47	299.95
468.928	327.85
469.385	337.55
469.843	346.65
470.3	346.05
470.758	350.25
471.215	378.55
471.673	407.15
472.13	396.85
472.588	404.15
473.045	357.05
473.503	380.75
473.96	384.35
474.417	391.15
474.875	427.55
475.332	468.05
475.789	456.45
476.246	461.85
476.704	483.25
477.161	496.55
477.618	503.95
478.075	545.65
478.532	598.05
478.989	667.05
479.446	787.95
479.903	754.95
480.36	785.95
480.817	856.85
481.274	942.75
481.731	1040.45
482.188	1118.25
482.645	1268.85
483.102	1376.15
483.558	1501.95
484.015	1548.15
484.472	1529.35
484.929	1475.75
485.385	1426.95
485.842	1396.95
486.299	1326.55
486.755	1275.85
487.212	1072.95
487.668	908.25
488.125	824.35
488.582	758.55
489.038	717.65
489.494	692.45
489.951	669.95
490.407	649.45
490.864	630.85
491.32	623.85
491.776	629.05
492.233	638.05
492.689	595.85
493.145	593.75
493.602	580.75
494.058	607.95
494.514	597.55
494.97	628.35
495.426	639.95
495.882	600.55
496.338	597.95
496.794	615.95
497.251	604.75
497.707	618.15
498.163	621.95
498.618	622.95
499.074	634.35
499.53	661.95
499.986	658.95
500.442	651.15
500.898	628.05
501.354	612.05
501.809	618.45
502.265	636.75
502.721	652.05
503.177	661.05
503.632	656.25
504.088	654.65
504.543	697.85
504.999	694.85
505.455	636.75
505.91	611.15
506.366	618.45
506.821	612.35
507.277	618.75
507.732	616.25
508.187	621.25
508.643	620.35
509.098	619.55
509.553	638.15
510.009	657.05
510.464	660.65
510.919	673.45
511.375	684.95
511.83	694.15
512.285	713.05
512.74	743.65
513.195	766.65
513.65	748.45
514.105	758.15
514.56	752.35
515.015	774.55
515.47	791.75
515.925	768.35
516.38	770.25
516.835	761.45
517.29	764.25
517.745	765.55
518.2	742.75
518.655	724.15
519.109	720.85
519.564	729.55
520.019	726.75
520.474	708.85
520.928	706.65
521.383	705.35
521.838	696.15
522.292	694.85
522.747	703.35
523.201	689.75
523.656	685.05
524.11	676.75
524.565	678.65
525.019	685.55
525.474	694.55
525.928	688.15
526.382	680.45
526.837	680.95
527.291	681.05
527.745	678.35
528.2	673.05
528.654	682.75
529.108	679.65
529.562	685.35
530.016	681.55
530.47	677.05
530.925	681.85
531.379	690.35
531.833	694.55
532.287	677.25
532.741	692.05
533.195	683.35
533.649	701.85
534.103	699.05
534.556	691.45
535.01	689.65
535.464	698.55
535.918	699.25
536.372	699.95
536.826	703.15
537.279	691.05
537.733	693.65
538.187	715.65
538.64	703.15
539.094	710.05
539.548	723.25
540.001	709.15
540.455	715.75
540.908	717.45
541.362	726.85
541.815	735.95
542.269	744.85
542.722	740.75
543.175	754.45
543.629	762.35
544.082	775.15
544.536	785.05
544.989	777.65
545.442	776.75
545.895	775.05
546.349	774.55
546.802	785.15
547.255	782.65
547.708	789.85
548.161	796.45
548.614	814.25
549.067	812.75
549.52	801.55
549.973	795.75
550.426	797.15
550.879	779.35
551.332	788.05
551.785	781.05
552.238	797.55
552.691	804.15
553.144	824.85
553.596	830.15
554.049	853.15
554.502	889.05
554.955	899.55
555.407	880.65
555.86	885.25
556.313	878.45
556.765	867.45
557.218	870.35
557.67	861.65
558.123	864.05
558.576	853.85
559.028	861.95
559.48	871.35
559.933	857.95
560.385	824.15
560.838	790.85
561.29	775.75
561.742	774.95
562.195	754.35
562.647	754.45
563.099	758.35
563.551	759.15
564.004	774.15
564.456	764.25
564.908	751.25
565.36	729.55
565.812	722.45
566.264	722.85
566.716	723.25
567.168	715.55
567.62	704.75
568.072	694.85
568.524	682.15
568.976	676.95
569.428	664.45
569.88	669.45
570.332	672.05
570.784	671.85
571.235	671.15
571.687	685.25
572.139	687.55
572.59	707.35
573.042	696.45
573.494	697.85
573.945	691.85
574.397	675.35
574.849	694.95
575.3	673.65
575.752	674.25
576.203	664.95
576.655	680.85
577.106	659.65
577.557	664.75
578.009	658.25
578.46	664.15
578.912	650.45
579.363	659.95
579.814	661.35
580.265	659.65
580.717	661.55
581.168	660.75
581.619	657.85
582.07	678.65
582.521	667.05
582.972	662.25
583.423	672.15
583.875	678.85
584.326	698.65
584.777	737.35
585.227	823.95
585.678	900.65
586.129	985.05
586.58	1067.65
587.031	1146.15
587.482	1294.85
587.933	1467.75
588.384	1289.15
588.834	952.75
589.285	795.25
589.736	782.55
590.186	769.05
590.637	751.95
591.088	732.75
591.538	732.15
591.989	721.35
592.439	719.75
592.89	711.65
593.34	702.45
593.791	700.05
594.241	696.55
594.692	698.15
595.142	700.25
595.593	707.15
596.043	694.35
596.493	708.45
596.943	710.45
597.394	709.35
597.844	708.65
598.294	721.85
598.744	752.25
599.195	770.95
599.645	815.65
600.095	847.35
600.545	916.25
600.995	954.35
601.445	1017.75
601.895	1069.35
602.345	1126.25
602.795	1104.25
603.245	1049.45
603.695	1002.25
604.145	946.65
604.594	896.35
605.044	841.75
605.494	785.65
605.944	734.45
606.393	730.65
606.843	716.05
607.293	728.35
607.743	721.95
608.192	738.85
608.642	754.45
609.091	762.45
609.541	752.95
609.99	770.65
610.44	770.75
610.889	721.35
611.339	696.85
611.788	684.75
612.238	695.05
612.687	706.75
613.136	718.05
613.586	732.25
614.035	733.65
614.484	736.95
614.933	745.65
615.383	742.75
615.832	733.75
616.281	727.75
616.73	680.25
617.179	655.45
617.628	646.35
618.077	623.65
618.526	617.45
618.975	607.55
619.424	616.65
619.873	609.85
620.322	612.25
620.771	599.75
621.22	598.45
621.669	588.55
622.118	584.65
622.567	580.05
623.015	559.45
623.464	568.85
623.913	551.85
624.361	553.75
624.81	543.25
625.259	552.45
625.707	555.65
626.156	560.55
626.604	568.15
627.053	563.45
627.501	557.05
627.95	568.45
628.398	576.65
628.847	572.45
629.295	566.15
629.744	568.95
630.192	565.35
630.64	564.45
631.089	564.05
631.537	573.95
631.985	590.75
632.433	605.75
632.881	602.85
633.33	657.55
633.778	644.95
634.226	566.25
634.674	570.45
635.122	572.15
635.57	597.65
636.018	627.65
636.466	578.35
636.914	554.05
637.362	565.45
637.81	575.55
638.258	570.85
638.705	576.05
639.153	600.45
639.601	617.75
640.049	646.55
640.497	662.95
640.944	687.35
641.392	638.15
641.84	611.15
642.287	586.35
642.735	565.55
643.182	569.55
643.63	562.15
644.078	573.35
644.525	587.45
644.973	605.25
645.42	604.45
645.867	627.95
646.315	629.55
646.762	661.45
647.21	681.25
647.657	705.05
648.104	742.95
648.551	770.75
648.999	838.05
649.446	910.55
649.893	1009.35
650.34	1166.25
650.787	1385.75
651.234	1724.95
651.682	2251.25
652.129	3109.35
652.576	4472.65
653.023	6600.65
653.47	9028.75
653.917	11230.65
654.363	12894.25
654.81	14177.15
655.257	13506.85
655.704	8822.25
656.151	5221.05
656.598	3374.25
657.044	2389.45
657.491	1843.65
657.938	1468.35
658.385	1230.95
658.831	1070.65
659.278	952.95
659.724	854.25
660.171	786.45
660.618	719.65
661.064	685.15
661.511	657.25
661.957	657.45
662.404	641.35
662.85	650.05
663.296	616.55
663.743	556.05
664.189	534.95
664.635	528.05
665.082	516.05
665.528	519.15
665.974	522.85
666.42	515.05
666.867	514.05
667.313	491.05
667.759	475.55
668.205	483.45
668.651	481.85
669.097	473.25
669.543	510.25
669.989	469.65
670.435	443.85
670.881	444.55
671.327	450.55
671.773	467.65
672.219	494.85
672.665	546.35
673.11	585.55
673.556	616.95
674.002	662.45
674.448	637.95
674.893	543.75
675.339	459.85
675.785	430.25
676.23	413.65
676.676	389.95
677.122	386.95
677.567	371.75
678.013	363.85
678.458	360.35
678.904	359.95
679.349	339.25
679.794	350.75
680.24	348.15
680.685	344.35
681.131	341.85
681.576	357.65
682.021	354.15
682.466	347.75
682.912	348.65
683.357	345.75
683.802	380.05
684.247	411.65
684.692	451.45
685.137	504.35
685.583	537.65
686.028	555.15
686.473	509.45
686.918	443.85
687.363	409.75
687.807	390.95
688.252	366.95
688.697	356.15
689.142	330.15
689.587	328.75
690.032	326.65
690.477	337.15
690.921	357.65
691.366	382.15
691.811	400.55
692.255	421.85
692.7	458.75
693.145	503.55
693.589	709.45
694.034	1137.05
694.478	1526.95
694.923	1700.55
695.367	2221.95
695.812	1185.45
696.256	496.85
696.701	377.75
697.145	346.75
697.59	319.95
698.034	316.85
698.478	329.15
698.922	325.85
699.367	329.25
699.811	345.25
700.255	353.45
700.699	386.55
701.143	417.25
701.588	467.75
702.032	503.95
702.476	511.65
702.92	486.15
703.364	488.45
703.808	643.75
704.252	1035.65
704.696	1445.05
705.14	1650.05
705.584	2092.35
706.027	1049.65
706.471	515.75
706.915	393.25
707.359	348.15
707.803	318.75
708.246	307.85
708.69	312.35
709.134	307.25
709.577	308.15
710.021	311.35
710.465	311.25
710.908	301.65
711.352	302.95
711.795	308.65
712.239	344.65
712.682	389.15
713.126	403.45
713.569	463.45
714.012	361.65
714.456	322.85
714.899	300.05
715.342	271.25
715.786	266.35
716.229	260.95
716.672	252.65
717.115	246.85
717.558	243.65
718.002	246.15
718.445	258.55
718.888	284.55
719.331	281.65
719.774	302.45
720.217	304.65
720.66	289.05
721.103	259.85
721.546	250.85
721.989	245.05
722.432	229.25
722.874	243.65
723.317	228.25
723.76	236.45
724.203	255.75
724.645	318.95
725.088	450.35
725.531	569.75
725.974	637.15
726.416	538.25
726.859	305.85
727.301	241.35
727.744	238.45
728.187	228.35
728.629	235.15
729.071	240.55
729.514	255.65
729.956	269.05
730.399	280.55
730.841	286.25
731.283	271.05
731.726	269.35
732.168	254.25
732.61	266.35
733.053	283.25
733.495	310.75
733.937	350.15
734.379	401.15
734.821	431.85
735.263	545.25
735.705	842.75
736.148	1608.75
736.59	2566.45
737.032	2997.75
737.474	2423.25
737.916	803.65
738.357	426.85
738.799	322.65
739.241	295.65
739.683	281.75
740.125	298.85
740.567	296.25
741.008	313.65
741.45	315.95
741.892	318.15
742.334	340.75
742.775	356.95
743.217	333.15
743.658	266.15
744.1	252.85
744.542	260.05
744.983	313.75
745.425	337.15
745.866	337.65
746.307	281.45
746.749	288.55
747.19	326.35
747.632	462.05
748.073	892.75
748.514	1886.85
748.956	2834.15
749.397	3540.35
749.838	2937.65
750.279	2912.45
750.72	1470.25
751.162	544.95
751.603	317.75
752.044	252.75
752.485	220.65
752.926	203.35
753.367	200.05
753.808	192.85
754.249	187.35
754.69	190.05
755.131	184.25
755.572	181.35
756.013	179.05
756.453	184.65
756.894	182.35
757.335	193.25
757.776	198.15
758.216	189.15
758.657	198.35
759.098	199.65
759.538	221.25
759.979	268.55
760.42	382.65
760.86	722.35
761.301	1874.95
761.741	4461.55
762.182	6301.65
762.622	4429.85
