Data from 20171114-ORNL-Ar_H_NY_Subt18_08-08-52-264.txt Node
Date: Tue Nov 14 08:08:52 EST 2017
User: Ender
Spectrometer: HR+D1039
Trigger mode: 0
Integration Time (sec): 2.730000E-2
Scans to average: 10
Electric dark correction enabled: true
Nonlinearity correction enabled: false
Boxcar width: 0
XAxis mode: Wavelengths
Number of Pixels in Spectrum: 2048
>>>>>Begin Spectral Data<<<<<
187.836	0.32
188.309	0.32
188.782	0.32
189.255	-0.58
189.728	0.52
190.201	7.62
190.674	-1.98
191.147	1.92
191.619	-7.08
192.092	-2.48
192.565	2.22
193.038	-0.18
193.511	0.82
193.984	-1.08
194.456	-4.38
194.929	2.52
195.402	1.72
195.874	0.12
196.347	1.52
196.82	-6.68
197.292	2.82
197.765	0.62
198.237	-4.28
198.71	-0.18
199.182	-7.38
199.655	-0.18
200.127	1.92
200.6	2.42
201.072	-0.18
201.544	-10.48
202.017	-2.68
202.489	0.42
202.961	-0.98
203.433	-7.18
203.906	-2.68
204.378	-8.88
204.85	1.82
205.322	-8.18
205.794	-3.18
206.266	-1.28
206.739	-10.58
207.211	-3.78
207.683	-6.38
208.155	-12.78
208.627	-14.48
209.099	-5.28
209.57	-7.88
210.042	-6.48
210.514	-4.48
210.986	2.62
211.458	-15.78
211.93	-1.88
212.402	1.82
212.873	-8.38
213.345	-12.48
213.817	-11.38
214.288	-5.38
214.76	-12.48
215.232	-7.68
215.703	-2.78
216.175	-8.68
216.646	-4.58
217.118	-4.18
217.589	-6.48
218.061	-6.18
218.532	-6.88
219.004	-1.08
219.475	-5.88
219.946	0.72
220.418	-14.88
220.889	2.72
221.36	-7.18
221.832	-3.48
222.303	-9.98
222.774	-0.58
223.245	-8.68
223.717	-7.98
224.188	-5.28
224.659	-7.38
225.13	-6.28
225.601	-5.88
226.072	0.92
226.543	-3.48
227.014	-5.08
227.485	-3.98
227.956	-10.38
228.427	-3.78
228.898	0.02
229.369	-0.98
229.839	-9.38
230.31	-9.58
230.781	-3.08
231.252	-6.58
231.722	-5.48
232.193	-11.88
232.664	-7.98
233.135	-1.68
233.605	-1.38
234.076	-9.98
234.546	-3.18
235.017	3.32
235.487	0.72
235.958	-4.28
236.428	-3.38
236.899	-8.98
237.369	-6.78
237.84	-2.88
238.31	-2.28
238.78	-1.38
239.251	-12.68
239.721	-6.88
240.191	-3.58
240.662	-3.98
241.132	-7.78
241.602	-7.78
242.072	2.12
242.542	5.32
243.013	-0.28
243.483	-0.58
243.953	1.82
244.423	-4.88
244.893	-10.68
245.363	-2.28
245.833	-7.18
246.303	-3.88
246.773	-0.58
247.243	-4.88
247.712	-1.18
248.182	7.52
248.652	9.52
249.122	-9.48
249.592	0.42
250.061	-0.08
250.531	21.52
251.001	5.22
251.471	6.82
251.94	10.42
252.41	-0.48
252.879	-6.08
253.349	1.42
253.818	6.12
254.288	-1.58
254.757	-1.38
255.227	-6.98
255.696	4.22
256.166	-0.48
256.635	1.72
257.105	-1.78
257.574	3.82
258.043	7.02
258.513	0.72
258.982	9.62
259.451	-1.78
259.92	0.22
260.389	0.92
260.859	9.62
261.328	3.32
261.797	7.32
262.266	0.92
262.735	4.62
263.204	-0.18
263.673	-3.78
264.142	0.02
264.611	-8.98
265.08	-1.88
265.549	-2.58
266.018	-0.58
266.487	-3.08
266.955	-10.68
267.424	-6.28
267.893	1.32
268.362	-3.78
268.83	-9.08
269.299	9.92
269.768	3.92
270.236	-2.38
270.705	-6.18
271.174	-0.18
271.642	1.72
272.111	2.62
272.579	5.22
273.048	2.72
273.516	10.12
273.985	6.42
274.453	7.12
274.922	15.82
275.39	0.52
275.858	0.72
276.327	1.62
276.795	8.92
277.263	-4.58
277.731	17.72
278.2	27.72
278.668	26.72
279.136	19.92
279.604	3.82
280.072	7.12
280.54	0.82
281.008	5.22
281.477	0.52
281.945	4.32
282.413	11.82
282.881	11.22
283.348	2.12
283.816	10.92
284.284	11.52
284.752	11.12
285.22	2.02
285.688	7.42
286.156	11.82
286.623	26.62
287.091	20.42
287.559	14.42
288.026	8.42
288.494	8.32
288.962	-7.78
289.429	2.32
289.897	12.12
290.364	5.12
290.832	10.72
291.3	3.02
291.767	2.52
292.234	10.62
292.702	7.92
293.169	9.92
293.637	14.42
294.104	10.42
294.571	1.72
295.039	3.92
295.506	4.02
295.973	8.82
296.44	6.52
296.908	6.62
297.375	9.72
297.842	12.42
298.309	5.32
298.776	5.42
299.243	14.72
299.71	0.42
300.177	9.72
300.644	16.42
301.111	12.72
301.578	14.22
302.045	11.62
302.512	8.82
302.979	19.42
303.446	16.12
303.913	7.62
304.379	7.02
304.846	15.12
305.313	10.32
305.78	9.72
306.246	18.32
306.713	13.62
307.18	13.82
307.646	13.02
308.113	18.82
308.579	14.42
309.046	16.12
309.512	16.62
309.979	9.62
310.445	17.72
310.912	19.52
311.378	24.42
311.845	21.82
312.311	28.72
312.777	21.62
313.244	21.82
313.71	26.52
314.176	13.32
314.642	23.82
315.109	10.72
315.575	25.42
316.041	28.02
316.507	23.62
316.973	24.52
317.439	22.62
317.905	28.92
318.371	22.62
318.837	24.82
319.303	26.72
319.769	24.32
320.235	21.62
320.701	28.92
321.167	21.52
321.633	22.62
322.099	27.02
322.564	28.32
323.03	32.52
323.496	28.82
323.962	23.42
324.427	28.62
324.893	34.42
325.359	28.92
325.824	28.22
326.29	26.72
326.755	26.32
327.221	24.52
327.686	25.02
328.152	33.42
328.617	28.52
329.083	35.12
329.548	42.42
330.014	31.62
330.479	32.52
330.944	32.62
331.41	34.42
331.875	24.72
332.34	34.32
332.805	31.32
333.271	33.92
333.736	31.02
334.201	34.42
334.666	33.82
335.131	40.12
335.596	37.72
336.061	39.62
336.526	30.02
336.991	35.22
337.456	42.92
337.921	35.72
338.386	33.82
338.851	34.62
339.316	40.32
339.781	38.12
340.246	43.52
340.711	31.62
341.175	41.72
341.64	37.12
342.105	35.52
342.569	44.72
343.034	42.62
343.499	46.32
343.963	41.02
344.428	49.02
344.893	50.92
345.357	53.12
345.822	51.32
346.286	46.42
346.751	44.82
347.215	47.32
347.679	49.82
348.144	76.72
348.608	67.52
349.073	55.62
349.537	61.92
350.001	66.62
350.465	72.72
350.93	59.42
351.394	60.82
351.858	50.72
352.322	70.42
352.786	68.02
353.25	79.92
353.715	84.42
354.179	75.42
354.643	97.22
355.107	97.52
355.571	85.92
356.035	79.12
356.498	90.42
356.962	89.12
357.426	104.12
357.89	85.82
358.354	76.92
358.818	70.52
359.281	64.22
359.745	64.82
360.209	60.52
360.673	58.62
361.136	62.02
361.6	64.32
362.064	68.32
362.527	68.42
362.991	77.02
363.454	64.32
363.918	58.82
364.381	63.62
364.845	70.92
365.308	70.92
365.772	71.52
366.235	67.22
366.698	66.52
367.162	72.82
367.625	66.22
368.088	74.32
368.552	69.82
369.015	73.12
369.478	71.02
369.941	79.12
370.404	82.72
370.867	86.52
371.331	87.82
371.794	93.32
372.257	88.22
372.72	93.42
373.183	91.72
373.646	77.52
374.109	86.62
374.572	86.72
375.035	89.42
375.497	89.82
375.96	86.62
376.423	84.72
376.886	90.82
377.349	97.22
377.811	87.32
378.274	89.42
378.737	85.22
379.199	95.92
379.662	93.72
380.125	96.92
380.587	93.32
381.05	103.72
381.512	105.52
381.975	110.82
382.437	108.22
382.9	104.62
383.362	109.72
383.825	122.22
384.287	121.52
384.75	113.52
385.212	120.52
385.674	122.62
386.136	116.12
386.599	109.62
387.061	110.12
387.523	120.82
387.985	117.62
388.447	128.22
388.91	123.72
389.372	119.12
389.834	123.12
390.296	115.32
390.758	129.22
391.22	137.32
391.682	167.62
392.144	208.62
392.606	168.82
393.068	136.72
393.529	142.62
393.991	128.22
394.453	124.22
394.915	135.72
395.377	147.22
395.838	162.52
396.3	128.32
396.762	128.52
397.224	125.32
397.685	114.22
398.147	123.42
398.608	115.22
399.07	112.32
399.531	119.32
399.993	129.22
400.454	140.12
400.916	132.12
401.377	131.72
401.839	138.62
402.3	135.42
402.762	153.72
403.223	166.12
403.684	156.52
404.145	146.82
404.607	148.82
405.068	148.02
405.529	147.12
405.99	166.42
406.451	158.92
406.913	155.42
407.374	151.22
407.835	147.62
408.296	156.42
408.757	147.62
409.218	169.22
409.679	159.62
410.14	165.82
410.601	166.22
411.062	171.22
411.522	177.72
411.983	169.22
412.444	170.22
412.905	165.82
413.366	168.12
413.826	176.62
414.287	203.72
414.748	239.82
415.208	232.12
415.669	204.22
416.13	186.22
416.59	190.42
417.051	200.22
417.511	205.32
417.972	219.92
418.432	233.22
418.893	265.42
419.353	240.52
419.814	187.22
420.274	172.62
420.734	172.12
421.195	178.92
421.655	182.22
422.115	173.22
422.576	178.82
423.036	186.42
423.496	199.42
423.956	204.62
424.416	216.72
424.876	250.02
425.336	242.12
425.797	249.42
426.257	234.82
426.717	223.52
427.177	220.22
427.637	207.02
428.097	221.92
428.556	222.82
429.016	251.42
429.476	239.32
429.936	246.92
430.396	253.62
430.856	271.82
431.315	295.72
431.775	327.22
432.235	351.72
432.694	323.52
433.154	334.52
433.614	354.12
434.073	308.22
434.533	270.42
434.993	259.82
435.452	266.02
435.912	266.62
436.371	266.22
436.83	262.72
437.29	242.92
437.749	232.62
438.209	232.02
438.668	257.52
439.127	274.52
439.587	248.42
440.046	234.12
440.505	239.42
440.964	250.92
441.424	305.72
441.883	287.12
442.342	248.32
442.801	215.92
443.26	209.22
443.719	210.42
444.178	214.52
444.637	202.62
445.096	217.22
445.555	211.92
446.014	212.52
446.473	218.92
446.932	230.92
447.391	222.02
447.849	216.72
448.308	214.12
448.767	212.52
449.226	222.82
449.685	227.02
450.143	244.02
450.602	236.12
451.061	218.02
451.519	228.12
451.978	223.52
452.436	219.92
452.895	223.42
453.353	245.62
453.812	235.12
454.27	224.92
454.729	226.22
455.187	230.32
455.646	243.62
456.104	236.22
456.562	251.32
457.021	257.42
457.479	242.42
457.937	256.22
458.395	251.82
458.854	234.52
459.312	240.02
459.77	259.02
460.228	247.52
460.686	235.72
461.144	239.22
461.602	236.32
462.06	232.82
462.518	253.32
462.976	255.92
463.434	246.22
463.892	263.12
464.35	260.32
464.808	276.32
465.266	252.22
465.724	263.62
466.181	269.52
466.639	266.92
467.097	283.62
467.555	287.72
468.012	291.62
468.47	292.62
468.928	316.82
469.385	325.02
469.843	337.72
470.3	334.82
470.758	343.52
471.215	376.82
471.673	395.72
472.13	390.02
472.588	405.82
473.045	363.72
473.503	364.82
473.96	383.72
474.417	393.42
474.875	418.62
475.332	453.42
475.789	438.22
476.246	450.62
476.704	467.92
477.161	485.62
477.618	499.22
478.075	541.52
478.532	589.32
478.989	653.42
479.446	761.72
479.903	724.72
480.36	768.62
480.817	800.12
481.274	898.72
481.731	999.62
482.188	1062.12
482.645	1189.02
483.102	1280.12
483.558	1395.52
484.015	1433.32
484.472	1420.52
484.929	1371.22
485.385	1328.12
485.842	1291.82
486.299	1246.62
486.755	1202.42
487.212	1005.92
487.668	876.62
488.125	804.12
488.582	743.52
489.038	709.92
489.494	675.02
489.951	649.02
490.407	638.62
490.864	611.82
491.32	615.92
491.776	621.42
492.233	621.12
492.689	587.72
493.145	579.12
493.602	574.62
494.058	586.92
494.514	588.22
494.97	617.42
495.426	617.02
495.882	599.52
496.338	580.22
496.794	605.12
497.251	602.62
497.707	606.22
498.163	610.62
498.618	603.42
499.074	608.22
499.53	644.82
499.986	648.72
500.442	620.52
500.898	600.72
501.354	598.12
501.809	610.42
502.265	613.62
502.721	631.92
503.177	644.02
503.632	635.62
504.088	638.52
504.543	688.52
504.999	680.32
505.455	642.52
505.91	615.62
506.366	616.92
506.821	621.22
507.277	604.12
507.732	602.12
508.187	615.32
508.643	608.02
509.098	623.42
509.553	646.22
510.009	648.42
510.464	658.72
510.919	672.32
511.375	685.32
511.83	690.02
512.285	707.82
512.74	742.32
513.195	760.02
513.65	749.62
514.105	750.82
514.56	749.42
515.015	756.52
515.47	778.42
515.925	761.32
516.38	756.52
516.835	780.62
517.29	761.22
517.745	751.72
518.2	744.72
518.655	738.12
519.109	721.82
519.564	713.02
520.019	707.52
520.474	712.32
520.928	708.52
521.383	698.82
521.838	691.82
522.292	694.72
522.747	688.72
523.201	684.62
523.656	681.02
524.11	679.72
524.565	673.42
525.019	667.92
525.474	681.52
525.928	682.42
526.382	682.72
526.837	679.62
527.291	678.92
527.745	683.32
528.2	686.92
528.654	666.72
529.108	668.72
529.562	674.72
530.016	674.32
530.47	673.32
530.925	669.52
531.379	684.22
531.833	678.22
532.287	686.32
532.741	687.62
533.195	685.82
533.649	693.52
534.103	696.42
534.556	687.32
535.01	698.92
535.464	691.82
535.918	692.82
536.372	701.62
536.826	697.72
537.279	690.92
537.733	694.72
538.187	694.72
538.64	697.02
539.094	713.02
539.548	717.82
540.001	703.92
540.455	710.82
540.908	725.02
541.362	721.62
541.815	724.42
542.269	744.22
542.722	736.42
543.175	754.32
543.629	752.22
544.082	771.82
544.536	775.82
544.989	769.92
545.442	772.02
545.895	775.52
546.349	783.72
546.802	786.42
547.255	782.92
547.708	792.02
548.161	799.42
548.614	798.52
549.067	808.22
549.52	807.12
549.973	793.62
550.426	786.82
550.879	778.32
551.332	779.42
551.785	795.92
552.238	788.72
552.691	809.72
553.144	828.92
553.596	825.52
554.049	854.22
554.502	883.72
554.955	901.32
555.407	881.72
555.86	887.22
556.313	872.32
556.765	872.42
557.218	865.82
557.67	868.62
558.123	859.22
558.576	854.32
559.028	866.42
559.48	866.52
559.933	858.62
560.385	822.32
560.838	801.22
561.29	777.42
561.742	783.12
562.195	767.92
562.647	751.02
563.099	766.12
563.551	759.62
564.004	780.82
564.456	760.32
564.908	746.42
565.36	741.42
565.812	723.12
566.264	708.72
566.716	713.62
567.168	695.72
567.62	704.02
568.072	687.92
568.524	684.02
568.976	675.52
569.428	676.42
569.88	659.12
570.332	671.62
570.784	670.62
571.235	683.12
571.687	692.02
572.139	695.92
572.59	705.82
573.042	701.42
573.494	694.72
573.945	692.32
574.397	676.42
574.849	685.02
575.3	677.72
575.752	672.32
576.203	670.42
576.655	669.72
577.106	660.82
577.557	659.02
578.009	659.92
578.46	662.82
578.912	653.32
579.363	656.52
579.814	666.32
580.265	648.72
580.717	654.72
581.168	660.22
581.619	673.22
582.07	671.72
582.521	665.82
582.972	657.52
583.423	665.22
583.875	672.82
584.326	680.22
584.777	715.02
585.227	767.52
585.678	831.02
586.129	865.52
586.58	919.82
587.031	960.52
587.482	1056.92
587.933	1169.32
588.384	1058.62
588.834	873.02
589.285	783.82
589.736	774.72
590.186	764.92
590.637	759.72
591.088	740.52
591.538	732.92
591.989	721.32
592.439	718.52
592.89	722.32
593.34	702.42
593.791	714.72
594.241	703.82
594.692	706.22
595.142	698.92
595.593	689.32
596.043	698.12
596.493	706.22
596.943	709.12
597.394	721.62
597.844	706.32
598.294	724.62
598.744	741.92
599.195	772.42
599.645	816.62
600.095	859.62
600.545	921.92
600.995	968.62
601.445	1020.62
601.895	1069.52
602.345	1127.72
602.795	1120.02
603.245	1059.32
603.695	1009.52
604.145	961.62
604.594	906.82
605.044	861.92
605.494	791.12
605.944	751.32
606.393	739.52
606.843	720.72
607.293	726.22
607.743	722.82
608.192	743.72
608.642	739.62
609.091	747.42
609.541	764.52
609.99	760.92
610.44	757.62
610.889	705.62
611.339	695.82
611.788	683.92
612.238	686.82
612.687	701.12
613.136	696.72
613.586	714.42
614.035	706.32
614.484	723.72
614.933	734.22
615.383	714.62
615.832	722.02
616.281	713.32
616.73	675.12
617.179	657.32
617.628	652.02
618.077	638.32
618.526	623.92
618.975	619.22
619.424	610.02
619.873	607.02
620.322	608.02
620.771	598.42
621.22	597.12
621.669	583.02
622.118	577.42
622.567	575.12
623.015	559.22
623.464	565.52
623.913	557.42
624.361	541.62
624.81	549.62
625.259	547.62
625.707	548.92
626.156	547.32
626.604	562.22
627.053	558.22
627.501	559.02
627.95	565.62
628.398	577.82
628.847	563.92
629.295	563.72
629.744	576.22
630.192	572.42
630.64	570.02
631.089	552.42
631.537	559.32
631.985	568.22
632.433	570.52
632.881	566.72
633.33	603.72
633.778	580.92
634.226	547.02
634.674	556.52
635.122	557.32
635.57	574.62
636.018	600.42
636.466	576.42
636.914	568.02
637.362	575.02
637.81	576.02
638.258	581.62
638.705	591.42
639.153	627.42
639.601	618.62
640.049	649.32
640.497	674.72
640.944	694.52
641.392	643.32
641.84	614.42
642.287	578.92
642.735	566.32
643.182	566.62
643.63	568.62
644.078	561.32
644.525	579.92
644.973	585.62
645.42	591.92
645.867	618.62
646.315	641.22
646.762	653.02
647.21	678.62
647.657	700.02
648.104	736.72
648.551	753.72
648.999	821.52
649.446	894.12
649.893	985.52
650.34	1127.82
650.787	1344.52
651.234	1675.72
651.682	2173.72
652.129	2976.12
652.576	4251.12
653.023	6247.12
653.47	8423.92
653.917	10403.52
654.363	11932.92
654.81	13114.42
655.257	12420.92
655.704	8157.12
656.151	4899.42
656.598	3196.42
657.044	2290.22
657.491	1769.72
657.938	1420.62
658.385	1191.92
658.831	1057.52
659.278	936.62
659.724	831.12
660.171	763.12
660.618	701.52
661.064	667.62
661.511	658.72
661.957	653.22
662.404	644.02
662.85	644.62
663.296	615.62
663.743	562.42
664.189	534.62
664.635	533.02
665.082	526.62
665.528	535.12
665.974	510.42
666.42	512.12
666.867	501.62
667.313	494.62
667.759	476.02
668.205	468.12
668.651	457.12
669.097	457.52
669.543	468.12
669.989	453.32
670.435	442.82
670.881	443.62
671.327	455.92
671.773	482.12
672.219	495.72
672.665	557.02
673.11	603.12
673.556	641.42
674.002	670.02
674.448	650.52
674.893	559.82
675.339	478.82
675.785	446.52
676.23	421.42
676.676	387.32
677.122	386.22
677.567	373.92
678.013	375.72
678.458	366.32
678.904	367.62
679.349	353.52
679.794	358.22
680.24	357.42
680.685	356.22
681.131	351.62
681.576	349.92
682.021	352.02
682.466	347.92
682.912	353.42
683.357	350.02
683.802	381.62
684.247	416.92
684.692	460.42
685.137	503.32
685.583	535.02
686.028	564.32
686.473	510.52
686.918	454.32
687.363	417.92
687.807	397.72
688.252	366.22
688.697	359.52
689.142	336.02
689.587	334.62
690.032	324.62
690.477	340.22
690.921	358.32
691.366	391.52
691.811	407.62
692.255	437.12
692.7	462.72
693.145	515.32
693.589	721.92
694.034	1182.82
694.478	1578.02
694.923	1751.32
695.367	2271.72
695.812	1213.62
696.256	503.72
696.701	373.12
697.145	343.02
697.59	333.52
698.034	320.32
698.478	333.22
698.922	325.32
699.367	332.42
699.811	339.92
700.255	359.32
700.699	395.32
701.143	425.22
701.588	488.32
702.032	526.42
702.476	515.32
702.92	496.22
703.364	504.32
703.808	673.02
704.252	1088.02
704.696	1507.52
705.14	1687.92
705.584	2142.92
706.027	1081.82
706.471	535.32
706.915	392.22
707.359	350.82
707.803	326.32
708.246	311.42
708.69	319.32
709.134	325.72
709.577	306.72
710.021	311.62
710.465	307.12
710.908	297.32
711.352	306.22
711.795	322.32
712.239	356.62
712.682	393.22
713.126	414.42
713.569	462.82
714.012	365.12
714.456	317.32
714.899	292.92
715.342	270.62
715.786	264.22
716.229	258.22
716.672	255.12
717.115	253.82
717.558	250.62
718.002	259.42
718.445	261.62
718.888	282.52
719.331	299.12
719.774	319.02
720.217	309.32
720.66	286.02
721.103	270.72
721.546	255.72
721.989	254.72
722.432	240.22
722.874	235.42
723.317	230.62
723.76	235.02
724.203	262.02
724.645	321.32
725.088	460.72
725.531	595.42
725.974	647.32
726.416	545.42
726.859	305.72
727.301	248.82
727.744	242.82
728.187	236.82
728.629	251.52
729.071	247.02
729.514	253.62
729.956	276.22
730.399	289.22
730.841	289.52
731.283	274.92
731.726	268.22
732.168	266.12
732.61	270.02
733.053	292.92
733.495	319.92
733.937	361.52
734.379	403.52
734.821	446.62
735.263	568.72
735.705	885.92
736.148	1660.82
736.59	2685.82
737.032	3063.92
737.474	2514.12
737.916	828.22
738.357	435.12
738.799	335.12
739.241	304.42
739.683	292.62
740.125	291.72
740.567	295.82
741.008	317.72
741.45	315.22
741.892	330.32
742.334	354.82
742.775	370.52
743.217	347.92
743.658	283.22
744.1	260.12
744.542	272.02
744.983	327.72
745.425	347.92
745.866	348.52
746.307	285.12
746.749	288.62
747.19	327.02
747.632	481.22
748.073	942.82
748.514	1974.62
748.956	2904.42
749.397	3674.72
749.838	3050.62
750.279	2987.12
750.72	1515.52
751.162	557.92
751.603	328.22
752.044	250.82
752.485	218.82
752.926	212.92
753.367	208.22
753.808	195.22
754.249	202.22
754.69	194.12
755.131	188.32
755.572	187.02
756.013	179.52
756.453	190.92
756.894	186.42
757.335	191.62
757.776	205.62
758.216	197.72
758.657	197.52
759.098	209.32
759.538	236.22
759.979	279.42
760.42	402.02
760.86	772.02
761.301	1989.62
761.741	4656.02
762.182	6438.52
762.622	4557.22
763.063	1336.22
763.503	554.52
