Data from 20171114-ORNL-Ar_H_NY_Subt18_08-06-28-650.txt Node
Date: Tue Nov 14 08:06:28 EST 2017
User: Ender
Spectrometer: HR+D1039
Trigger mode: 0
Integration Time (sec): 2.730000E-2
Scans to average: 10
Electric dark correction enabled: true
Nonlinearity correction enabled: false
Boxcar width: 0
XAxis mode: Wavelengths
Number of Pixels in Spectrum: 2048
>>>>>Begin Spectral Data<<<<<
187.836	-7.26
188.309	-7.26
188.782	-7.26
189.255	-0.66
189.728	3.94
190.201	0.54
190.674	-1.96
191.147	5.74
191.619	-3.76
192.092	0.14
192.565	0.54
193.038	1.34
193.511	6.74
193.984	0.04
194.456	0.04
194.929	1.14
195.402	-0.06
195.874	-6.56
196.347	-3.36
196.82	-3.16
197.292	1.64
197.765	-2.16
198.237	-6.66
198.71	1.24
199.182	1.94
199.655	3.84
200.127	3.24
200.6	-0.86
201.072	1.74
201.544	-1.66
202.017	-1.56
202.489	6.24
202.961	-5.06
203.433	-4.56
203.906	-6.36
204.378	-10.06
204.85	-5.76
205.322	-9.16
205.794	-7.46
206.266	-3.96
206.739	-4.76
207.211	2.74
207.683	-12.46
208.155	-7.56
208.627	-6.46
209.099	-7.96
209.57	-5.56
210.042	2.84
210.514	-0.66
210.986	-3.16
211.458	-5.46
211.93	-6.56
212.402	-0.26
212.873	-10.96
213.345	-5.36
213.817	-7.26
214.288	-0.46
214.76	-14.96
215.232	2.24
215.703	-2.46
216.175	-4.36
216.646	1.24
217.118	-1.96
217.589	-0.16
218.061	-0.36
218.532	-0.76
219.004	2.04
219.475	1.04
219.946	-1.76
220.418	-6.86
220.889	0.34
221.36	0.24
221.832	-0.96
222.303	-14.26
222.774	3.64
223.245	-3.76
223.717	-1.36
224.188	0.34
224.659	-6.46
225.13	-6.86
225.601	-6.16
226.072	-5.76
226.543	-3.06
227.014	0.34
227.485	-0.66
227.956	-8.06
228.427	-3.96
228.898	5.54
229.369	1.54
229.839	-2.36
230.31	-6.26
230.781	-4.96
231.252	-4.86
231.722	-0.96
232.193	2.64
232.664	1.64
233.135	-2.56
233.605	0.54
234.076	-4.46
234.546	2.54
235.017	5.04
235.487	7.54
235.958	2.44
236.428	-4.66
236.899	1.14
237.369	5.44
237.84	-5.46
238.31	2.14
238.78	3.14
239.251	-3.16
239.721	5.04
240.191	3.84
240.662	-2.56
241.132	-0.06
241.602	-3.86
242.072	-1.26
242.542	2.44
243.013	2.74
243.483	2.34
243.953	3.74
244.423	2.94
244.893	-1.56
245.363	8.14
245.833	5.44
246.303	4.34
246.773	8.64
247.243	3.64
247.712	2.94
248.182	8.44
248.652	8.24
249.122	-3.06
249.592	13.54
250.061	21.24
250.531	34.74
251.001	9.84
251.471	19.34
251.94	18.94
252.41	7.84
252.879	5.54
253.349	11.34
253.818	9.24
254.288	1.94
254.757	2.24
255.227	-1.36
255.696	4.14
256.166	4.74
256.635	8.64
257.105	6.54
257.574	4.84
258.043	13.04
258.513	12.04
258.982	12.74
259.451	7.34
259.92	17.24
260.389	10.04
260.859	21.74
261.328	14.44
261.797	15.14
262.266	9.04
262.735	7.84
263.204	6.64
263.673	0.74
264.142	5.64
264.611	-1.96
265.08	1.04
265.549	3.34
266.018	4.24
266.487	-1.26
266.955	1.64
267.424	0.54
267.893	8.64
268.362	2.04
268.83	3.04
269.299	12.34
269.768	12.44
270.236	4.24
270.705	8.54
271.174	3.44
271.642	11.64
272.111	7.34
272.579	13.74
273.048	24.74
273.516	31.14
273.985	23.94
274.453	25.94
274.922	24.44
275.39	13.04
275.858	6.54
276.327	9.64
276.795	20.34
277.263	13.34
277.731	38.64
278.2	54.54
278.668	57.34
279.136	48.14
279.604	25.84
280.072	13.74
280.54	9.34
281.008	6.84
281.477	11.84
281.945	12.14
282.413	10.34
282.881	24.04
283.348	8.84
283.816	18.44
284.284	10.04
284.752	20.24
285.22	18.64
285.688	11.24
286.156	20.24
286.623	43.04
287.091	45.64
287.559	30.54
288.026	21.54
288.494	17.84
288.962	7.74
289.429	12.44
289.897	18.24
290.364	15.64
290.832	16.24
291.3	16.74
291.767	20.94
292.234	16.94
292.702	17.14
293.169	20.34
293.637	20.64
294.104	21.24
294.571	8.44
295.039	12.44
295.506	16.74
295.973	15.24
296.44	16.84
296.908	19.24
297.375	17.94
297.842	21.44
298.309	16.24
298.776	18.54
299.243	18.74
299.71	21.54
300.177	19.64
300.644	23.44
301.111	19.84
301.578	20.64
302.045	19.04
302.512	27.04
302.979	24.04
303.446	22.24
303.913	22.84
304.379	21.04
304.846	28.64
305.313	21.84
305.78	23.84
306.246	25.84
306.713	29.94
307.18	23.24
307.646	21.04
308.113	30.54
308.579	24.44
309.046	23.54
309.512	28.74
309.979	21.14
310.445	25.34
310.912	17.94
311.378	28.74
311.845	28.44
312.311	32.04
312.777	34.24
313.244	26.64
313.71	34.04
314.176	26.74
314.642	28.54
315.109	29.14
315.575	33.94
316.041	35.94
316.507	31.54
316.973	44.14
317.439	40.24
317.905	41.34
318.371	33.34
318.837	28.24
319.303	32.04
319.769	39.64
320.235	34.84
320.701	33.74
321.167	39.84
321.633	33.84
322.099	37.24
322.564	44.44
323.03	41.24
323.496	40.04
323.962	46.04
324.427	38.44
324.893	46.94
325.359	40.84
325.824	35.24
326.29	35.64
326.755	37.44
327.221	40.14
327.686	44.34
328.152	48.44
328.617	40.24
329.083	46.94
329.548	46.54
330.014	48.74
330.479	41.24
330.944	46.04
331.41	38.94
331.875	49.74
332.34	43.94
332.805	40.64
333.271	48.94
333.736	46.84
334.201	48.64
334.666	50.54
335.131	55.14
335.596	57.14
336.061	51.14
336.526	44.54
336.991	51.44
337.456	60.14
337.921	48.74
338.386	44.04
338.851	51.54
339.316	48.24
339.781	45.84
340.246	53.64
340.711	48.94
341.175	54.74
341.64	54.94
342.105	53.84
342.569	56.14
343.034	59.34
343.499	52.04
343.963	51.04
344.428	61.54
344.893	62.04
345.357	65.04
345.822	63.34
346.286	66.24
346.751	75.94
347.215	70.54
347.679	76.44
348.144	100.54
348.608	74.04
349.073	78.04
349.537	72.44
350.001	84.44
350.465	88.34
350.93	90.84
351.394	76.34
351.858	72.34
352.322	88.34
352.786	82.24
353.25	103.54
353.715	107.34
354.179	98.94
354.643	122.44
355.107	132.84
355.571	104.84
356.035	109.14
356.498	115.74
356.962	127.74
357.426	136.34
357.89	115.14
358.354	94.54
358.818	80.14
359.281	79.04
359.745	76.14
360.209	81.54
360.673	77.34
361.136	85.84
361.6	87.84
362.064	86.14
362.527	85.94
362.991	90.44
363.454	81.74
363.918	77.94
364.381	77.94
364.845	79.84
365.308	85.04
365.772	86.54
366.235	82.14
366.698	81.94
367.162	95.04
367.625	88.14
368.088	80.44
368.552	87.34
369.015	86.84
369.478	93.64
369.941	99.54
370.404	98.04
370.867	111.24
371.331	101.34
371.794	121.64
372.257	114.04
372.72	113.84
373.183	109.74
373.646	108.54
374.109	104.14
374.572	109.14
375.035	108.94
375.497	103.14
375.96	103.24
376.423	106.44
376.886	115.64
377.349	110.34
377.811	106.94
378.274	108.64
378.737	107.94
379.199	108.84
379.662	109.94
380.125	122.74
380.587	120.94
381.05	118.74
381.512	123.24
381.975	140.34
382.437	135.14
382.9	134.44
383.362	132.24
383.825	141.44
384.287	146.94
384.75	141.34
385.212	138.24
385.674	141.54
386.136	143.84
386.599	127.64
387.061	129.44
387.523	136.74
387.985	145.04
388.447	144.04
388.91	144.64
389.372	163.24
389.834	156.34
390.296	152.64
390.758	153.94
391.22	175.44
391.682	219.24
392.144	308.54
392.606	237.64
393.068	171.24
393.529	170.14
393.991	156.54
394.453	152.44
394.915	159.04
395.377	203.24
395.838	221.04
396.3	155.34
396.762	146.84
397.224	144.54
397.685	128.14
398.147	136.64
398.608	130.64
399.07	129.64
399.531	129.44
399.993	141.54
400.454	156.14
400.916	144.24
401.377	145.34
401.839	153.64
402.3	148.54
402.762	167.84
403.223	180.54
403.684	175.74
404.145	164.24
404.607	157.34
405.068	174.24
405.529	170.14
405.99	197.94
406.451	176.54
406.913	171.14
407.374	171.44
407.835	153.84
408.296	166.24
408.757	177.34
409.218	191.24
409.679	186.54
410.14	187.94
410.601	179.54
411.062	180.64
411.522	193.54
411.983	191.84
412.444	175.64
412.905	181.34
413.366	177.84
413.826	193.24
414.287	218.74
414.748	258.84
415.208	249.44
415.669	209.14
416.13	207.24
416.59	198.54
417.051	213.14
417.511	214.44
417.972	235.44
418.432	245.64
418.893	285.34
419.353	255.34
419.814	192.14
420.274	185.74
420.734	188.74
421.195	205.44
421.655	198.74
422.115	188.44
422.576	198.04
423.036	207.04
423.496	206.04
423.956	216.14
424.416	235.24
424.876	267.74
425.336	264.54
425.797	266.94
426.257	257.24
426.717	237.14
427.177	237.54
427.637	226.94
428.097	236.14
428.556	250.14
429.016	275.84
429.476	270.44
429.936	281.34
430.396	281.04
430.856	291.14
431.315	319.44
431.775	360.74
432.235	380.04
432.694	354.44
433.154	366.64
433.614	391.74
434.073	339.34
434.533	289.54
434.993	273.24
435.452	290.04
435.912	299.64
436.371	294.54
436.83	287.84
437.29	273.34
437.749	254.34
438.209	253.14
438.668	275.54
439.127	292.54
439.587	263.74
440.046	249.04
440.505	271.24
440.964	274.44
441.424	328.04
441.883	321.84
442.342	260.44
442.801	225.94
443.26	222.74
443.719	229.94
444.178	221.34
444.637	212.64
445.096	220.44
445.555	226.24
446.014	227.14
446.473	231.14
446.932	235.04
447.391	227.04
447.849	229.34
448.308	223.54
448.767	222.94
449.226	237.04
449.685	239.74
450.143	245.74
450.602	238.54
451.061	231.14
451.519	236.74
451.978	235.44
452.436	240.34
452.895	233.24
453.353	252.84
453.812	240.74
454.27	240.04
454.729	239.04
455.187	243.94
455.646	246.94
456.104	254.74
456.562	259.04
457.021	269.14
457.479	264.54
457.937	278.54
458.395	272.94
458.854	248.14
459.312	250.54
459.77	281.24
460.228	259.34
460.686	244.04
461.144	254.74
461.602	246.04
462.06	244.94
462.518	248.84
462.976	252.94
463.434	258.14
463.892	266.64
464.35	268.04
464.808	295.54
465.266	261.34
465.724	272.34
466.181	274.14
466.639	264.14
467.097	294.54
467.555	300.44
468.012	295.34
468.47	311.14
468.928	331.14
469.385	339.84
469.843	345.84
470.3	354.14
470.758	365.54
471.215	383.24
471.673	412.24
472.13	412.84
472.588	418.54
473.045	375.54
473.503	376.74
473.96	390.84
474.417	409.04
474.875	435.64
475.332	479.14
475.789	463.04
476.246	470.74
476.704	499.04
477.161	516.94
477.618	532.14
478.075	558.34
478.532	619.34
478.989	691.04
479.446	805.94
479.903	770.44
480.36	821.14
480.817	874.24
481.274	979.64
481.731	1090.64
482.188	1178.24
482.645	1314.64
483.102	1425.74
483.558	1560.44
484.015	1617.64
484.472	1593.24
484.929	1551.14
485.385	1485.74
485.842	1459.14
486.299	1381.94
486.755	1303.54
487.212	1110.94
487.668	938.14
488.125	860.34
488.582	793.24
489.038	746.64
489.494	715.74
489.951	681.14
490.407	668.54
490.864	647.94
491.32	649.94
491.776	646.44
492.233	650.84
492.689	607.14
493.145	607.34
493.602	604.34
494.058	618.04
494.514	622.74
494.97	644.14
495.426	647.04
495.882	624.54
496.338	615.24
496.794	631.84
497.251	626.54
497.707	634.64
498.163	630.54
498.618	651.54
499.074	643.04
499.53	668.34
499.986	675.44
500.442	653.64
500.898	643.94
501.354	629.14
501.809	630.54
502.265	651.34
502.721	653.04
503.177	663.84
503.632	671.74
504.088	675.14
504.543	710.94
504.999	715.14
505.455	658.14
505.91	631.74
506.366	632.44
506.821	628.14
507.277	626.74
507.732	626.24
508.187	618.94
508.643	632.34
509.098	633.54
509.553	641.04
510.009	663.24
510.464	664.54
510.919	685.34
511.375	692.74
511.83	714.24
512.285	724.54
512.74	755.44
513.195	782.54
513.65	778.14
514.105	763.14
514.56	769.04
515.015	795.84
515.47	802.54
515.925	788.94
516.38	785.44
516.835	794.14
517.29	782.94
517.745	773.14
518.2	766.94
518.655	744.34
519.109	732.84
519.564	743.14
520.019	726.54
520.474	733.54
520.928	724.24
521.383	719.54
521.838	709.74
522.292	710.54
522.747	710.54
523.201	709.34
523.656	696.04
524.11	690.24
524.565	699.54
525.019	691.84
525.474	698.54
525.928	707.54
526.382	692.44
526.837	694.64
527.291	714.14
527.745	699.64
528.2	697.64
528.654	689.94
529.108	684.64
529.562	694.04
530.016	690.44
530.47	697.24
530.925	700.14
531.379	695.14
531.833	698.64
532.287	708.54
532.741	702.34
533.195	711.84
533.649	719.54
534.103	720.94
534.556	715.74
535.01	721.84
535.464	708.54
535.918	726.24
536.372	717.74
536.826	713.94
537.279	710.94
537.733	705.74
538.187	717.94
538.64	712.54
539.094	724.54
539.548	731.64
540.001	724.84
540.455	725.54
540.908	731.94
541.362	737.44
541.815	744.34
542.269	761.74
542.722	760.94
543.175	762.84
543.629	763.84
544.082	779.44
544.536	795.84
544.989	784.44
545.442	793.64
545.895	796.04
546.349	783.44
546.802	788.34
547.255	794.74
547.708	804.94
548.161	815.34
548.614	829.94
549.067	827.54
549.52	819.84
549.973	807.04
550.426	796.24
550.879	794.24
551.332	790.44
551.785	808.24
552.238	813.84
552.691	806.74
553.144	828.94
553.596	845.94
554.049	855.94
554.502	893.04
554.955	901.34
555.407	903.84
555.86	889.84
556.313	892.64
556.765	884.94
557.218	880.84
557.67	875.24
558.123	868.64
558.576	871.14
559.028	881.84
559.48	873.54
559.933	869.74
560.385	838.74
560.838	799.64
561.29	789.94
561.742	784.34
562.195	769.14
562.647	762.54
563.099	771.54
563.551	768.94
564.004	783.54
564.456	774.34
564.908	777.54
565.36	747.74
565.812	731.14
566.264	716.14
566.716	738.84
567.168	713.34
567.62	730.44
568.072	700.34
568.524	701.94
568.976	690.84
569.428	671.54
569.88	670.14
570.332	682.74
570.784	678.74
571.235	677.74
571.687	692.64
572.139	695.84
572.59	707.34
573.042	710.94
573.494	712.24
573.945	708.14
574.397	680.84
574.849	687.64
575.3	691.14
575.752	687.94
576.203	671.64
576.655	681.94
577.106	662.54
577.557	654.04
578.009	665.44
578.46	672.64
578.912	659.04
579.363	660.74
579.814	669.84
580.265	661.64
580.717	666.14
581.168	671.14
581.619	669.54
582.07	683.54
582.521	676.64
582.972	664.24
583.423	674.64
583.875	685.74
584.326	703.64
584.777	748.24
585.227	826.94
585.678	923.84
586.129	1023.94
586.58	1090.34
587.031	1183.54
587.482	1342.64
587.933	1522.74
588.384	1323.84
588.834	980.04
589.285	808.64
589.736	784.04
590.186	776.34
590.637	766.94
591.088	747.54
591.538	737.04
591.989	729.24
592.439	723.34
592.89	730.24
593.34	705.04
593.791	703.74
594.241	702.94
594.692	711.64
595.142	702.94
595.593	691.64
596.043	702.64
596.493	711.64
596.943	725.64
597.394	712.54
597.844	706.94
598.294	718.44
598.744	748.84
599.195	771.64
599.645	816.44
600.095	850.54
600.545	912.84
600.995	956.54
601.445	1023.74
601.895	1073.44
602.345	1134.84
602.795	1107.84
603.245	1062.34
603.695	1007.24
604.145	954.94
604.594	908.84
605.044	860.84
605.494	792.34
605.944	754.84
606.393	733.84
606.843	719.54
607.293	729.94
607.743	723.44
608.192	744.84
608.642	756.24
609.091	765.04
609.541	753.84
609.99	765.54
610.44	767.94
610.889	710.74
611.339	700.34
611.788	693.44
612.238	695.54
612.687	711.24
613.136	723.84
613.586	737.74
614.035	733.44
614.484	756.04
614.933	760.64
615.383	756.54
615.832	733.04
616.281	726.04
616.73	681.24
617.179	657.54
617.628	645.84
618.077	630.24
618.526	628.04
618.975	617.54
619.424	607.14
619.873	613.64
620.322	620.24
620.771	612.64
621.22	604.94
621.669	587.64
622.118	588.74
622.567	578.04
623.015	573.54
623.464	569.74
623.913	566.04
624.361	549.74
624.81	547.74
625.259	543.24
625.707	550.44
626.156	539.74
626.604	571.34
627.053	566.24
627.501	557.04
627.95	562.64
628.398	576.74
628.847	564.34
629.295	566.84
629.744	566.04
630.192	571.94
630.64	565.74
631.089	564.34
631.537	574.54
631.985	586.04
632.433	601.34
632.881	611.54
633.33	661.94
633.778	637.54
634.226	569.54
634.674	573.54
635.122	580.24
635.57	595.24
636.018	627.64
636.466	570.94
636.914	549.14
637.362	566.34
637.81	573.84
638.258	582.44
638.705	575.04
639.153	610.64
639.601	603.24
640.049	640.34
640.497	667.44
640.944	685.74
641.392	632.54
641.84	604.54
642.287	586.94
642.735	556.64
643.182	575.94
643.63	575.34
644.078	587.14
644.525	596.24
644.973	588.34
645.42	594.54
645.867	617.84
646.315	640.84
646.762	659.44
647.21	685.14
647.657	714.74
648.104	756.84
648.551	769.64
648.999	827.84
649.446	906.44
649.893	1014.14
650.34	1169.24
650.787	1387.44
651.234	1738.04
651.682	2259.84
652.129	3100.04
652.576	4484.84
653.023	6627.14
653.47	9081.34
653.917	11347.04
654.363	13110.04
654.81	14488.64
655.257	13787.44
655.704	8987.94
656.151	5317.14
656.598	3430.64
657.044	2426.84
657.491	1860.84
657.938	1485.54
658.385	1253.24
658.831	1085.44
659.278	964.04
659.724	851.64
660.171	784.94
660.618	719.94
661.064	682.64
661.511	675.34
661.957	655.44
662.404	637.24
662.85	650.34
663.296	629.54
663.743	555.04
664.189	536.14
664.635	530.14
665.082	517.44
665.528	525.74
665.974	514.84
666.42	511.74
666.867	499.04
667.313	493.04
667.759	480.24
668.205	481.64
668.651	486.54
669.097	481.14
669.543	501.44
669.989	474.84
670.435	447.44
670.881	442.34
671.327	441.64
671.773	455.94
672.219	481.24
672.665	540.44
673.11	569.24
673.556	616.04
674.002	663.64
674.448	652.14
674.893	539.34
675.339	468.94
675.785	432.84
676.23	416.14
676.676	384.64
677.122	378.54
677.567	368.84
678.013	360.24
678.458	363.24
678.904	357.64
679.349	336.54
679.794	349.94
680.24	342.14
680.685	347.74
681.131	338.04
681.576	338.84
682.021	346.24
682.466	344.44
682.912	343.64
683.357	349.34
683.802	378.24
684.247	409.64
684.692	453.74
685.137	496.24
685.583	526.24
686.028	557.74
686.473	513.04
686.918	438.54
687.363	408.54
687.807	392.14
688.252	366.24
688.697	349.04
689.142	336.14
689.587	328.64
690.032	328.04
690.477	340.04
690.921	344.34
691.366	380.74
691.811	397.04
692.255	425.54
692.7	450.64
693.145	498.04
693.589	677.64
694.034	1124.94
694.478	1518.54
694.923	1703.34
695.367	2230.74
695.812	1170.24
696.256	495.84
696.701	360.44
697.145	339.54
697.59	321.34
698.034	317.04
698.478	328.34
698.922	320.04
699.367	320.74
699.811	336.34
700.255	351.54
700.699	389.74
701.143	425.94
701.588	473.54
702.032	507.64
702.476	505.24
702.92	476.54
703.364	484.04
703.808	615.24
704.252	1012.34
704.696	1416.54
705.14	1638.24
705.584	2085.24
706.027	1039.64
706.471	520.54
706.915	385.34
707.359	346.74
707.803	307.94
708.246	305.04
708.69	305.74
709.134	312.34
709.577	305.74
710.021	314.44
710.465	303.14
710.908	301.24
711.352	298.24
711.795	306.54
712.239	344.84
712.682	379.64
713.126	421.64
713.569	457.84
714.012	367.74
714.456	326.24
714.899	299.54
715.342	271.64
715.786	261.64
716.229	256.04
716.672	253.94
717.115	243.74
717.558	247.74
718.002	244.04
718.445	256.24
718.888	280.34
719.331	294.14
719.774	303.84
720.217	302.54
720.66	279.84
721.103	269.84
721.546	252.04
721.989	252.04
722.432	232.94
722.874	232.74
723.317	227.24
723.76	234.64
724.203	255.94
724.645	316.04
725.088	436.94
725.531	561.64
725.974	634.54
726.416	541.84
726.859	310.14
727.301	244.54
727.744	235.84
728.187	226.44
728.629	235.44
729.071	246.94
729.514	259.24
729.956	273.84
730.399	280.44
730.841	282.64
731.283	266.34
731.726	262.74
732.168	254.94
732.61	260.44
733.053	275.94
733.495	306.44
733.937	357.04
734.379	391.14
734.821	426.94
735.263	528.14
735.705	806.14
736.148	1553.34
736.59	2526.54
737.032	2992.54
737.474	2437.04
737.916	792.44
738.357	419.54
738.799	315.04
739.241	287.74
739.683	278.24
740.125	285.44
740.567	301.84
741.008	306.54
741.45	302.74
741.892	307.04
742.334	338.24
742.775	354.94
743.217	334.04
743.658	264.24
744.1	249.34
744.542	257.94
744.983	301.44
745.425	332.14
745.866	342.14
746.307	277.14
746.749	282.84
747.19	314.64
747.632	446.34
748.073	867.84
748.514	1817.34
748.956	2795.64
749.397	3490.44
749.838	2913.74
750.279	2887.14
750.72	1461.44
751.162	531.64
751.603	314.74
752.044	252.34
752.485	219.34
752.926	203.84
753.367	203.04
753.808	193.34
754.249	179.94
754.69	179.74
755.131	175.84
755.572	178.74
756.013	175.94
756.453	178.84
756.894	187.94
757.335	188.24
757.776	195.54
758.216	192.34
758.657	199.84
759.098	197.04
759.538	223.44
759.979	266.84
760.42	368.54
760.86	690.64
761.301	1767.44
761.741	4323.04
762.182	6294.04
762.622	4413.74
