Data from 20171114-ORNL-Ar_H_NY_Subt18_08-08-02-554.txt Node
Date: Tue Nov 14 08:08:02 EST 2017
User: Ender
Spectrometer: HR+D1039
Trigger mode: 0
Integration Time (sec): 2.730000E-2
Scans to average: 10
Electric dark correction enabled: true
Nonlinearity correction enabled: false
Boxcar width: 0
XAxis mode: Wavelengths
Number of Pixels in Spectrum: 2048
>>>>>Begin Spectral Data<<<<<
187.836	-1.45
188.309	-1.45
188.782	-1.45
189.255	1.05
189.728	-0.95
190.201	3.55
190.674	3.05
191.147	3.05
191.619	-14.55
192.092	3.65
192.565	8.05
193.038	0.45
193.511	-2.05
193.984	1.65
194.456	-3.05
194.929	0.45
195.402	-6.85
195.874	3.95
196.347	-4.45
196.82	-6.25
197.292	-1.05
197.765	1.35
198.237	-6.85
198.71	-1.45
199.182	-5.45
199.655	4.05
200.127	3.35
200.6	-1.05
201.072	-1.85
201.544	-7.85
202.017	-4.65
202.489	2.25
202.961	-4.75
203.433	-6.65
203.906	2.55
204.378	-3.65
204.85	-3.45
205.322	-8.25
205.794	-8.25
206.266	-0.35
206.739	-12.95
207.211	-2.05
207.683	-11.05
208.155	-1.85
208.627	-5.05
209.099	-4.35
209.57	-6.05
210.042	-9.55
210.514	-7.25
210.986	-4.65
211.458	-10.45
211.93	-7.75
212.402	-3.45
212.873	-5.15
213.345	-8.35
213.817	-10.65
214.288	-2.15
214.76	-9.85
215.232	-4.25
215.703	-8.65
216.175	-5.15
216.646	-6.65
217.118	-5.95
217.589	-5.65
218.061	-2.55
218.532	-7.25
219.004	-8.05
219.475	-6.95
219.946	-3.55
220.418	-3.85
220.889	4.05
221.36	0.75
221.832	-8.55
222.303	-10.35
222.774	0.75
223.245	-13.25
223.717	-5.65
224.188	-1.45
224.659	-5.25
225.13	-4.85
225.601	-4.15
226.072	-3.45
226.543	-3.05
227.014	-1.35
227.485	-1.25
227.956	-4.35
228.427	3.95
228.898	-0.05
229.369	-1.15
229.839	-5.95
230.31	-6.55
230.781	2.25
231.252	-0.25
231.722	-7.95
232.193	-11.65
232.664	-1.75
233.135	-0.35
233.605	0.05
234.076	-10.65
234.546	-4.05
235.017	5.25
235.487	-3.55
235.958	-2.05
236.428	-4.45
236.899	2.25
237.369	2.35
237.84	-0.55
238.31	6.75
238.78	0.45
239.251	-1.55
239.721	1.25
240.191	-4.75
240.662	-2.95
241.132	-3.55
241.602	-1.85
242.072	-1.35
242.542	4.75
243.013	-2.25
243.483	5.75
243.953	2.45
244.423	-1.75
244.893	-7.05
245.363	2.75
245.833	-3.55
246.303	-7.45
246.773	8.85
247.243	-4.75
247.712	-0.75
248.182	1.65
248.652	-2.85
249.122	-1.75
249.592	12.25
250.061	16.95
250.531	28.85
251.001	12.55
251.471	16.45
251.94	16.65
252.41	10.05
252.879	1.65
253.349	10.15
253.818	9.45
254.288	-1.95
254.757	6.35
255.227	2.55
255.696	-1.05
256.166	9.25
256.635	4.05
257.105	10.65
257.574	5.45
258.043	9.85
258.513	9.85
258.982	17.15
259.451	3.15
259.92	14.85
260.389	12.65
260.859	12.05
261.328	12.15
261.797	10.45
262.266	6.25
262.735	11.75
263.204	5.25
263.673	3.35
264.142	1.45
264.611	0.85
265.08	0.15
265.549	-1.25
266.018	5.65
266.487	-3.35
266.955	3.25
267.424	-0.85
267.893	5.35
268.362	2.65
268.83	0.15
269.299	4.65
269.768	3.35
270.236	2.65
270.705	0.05
271.174	0.15
271.642	-0.35
272.111	10.15
272.579	15.35
273.048	20.85
273.516	24.85
273.985	24.85
274.453	18.85
274.922	13.25
275.39	14.55
275.858	-0.85
276.327	7.35
276.795	12.85
277.263	7.65
277.731	28.35
278.2	56.05
278.668	54.95
279.136	44.05
279.604	19.65
280.072	15.75
280.54	13.95
281.008	10.35
281.477	9.85
281.945	7.15
282.413	12.25
282.881	13.15
283.348	6.25
283.816	12.85
284.284	12.75
284.752	25.45
285.22	8.85
285.688	12.55
286.156	11.75
286.623	40.85
287.091	47.35
287.559	27.05
288.026	13.15
288.494	17.75
288.962	1.95
289.429	9.55
289.897	20.85
290.364	11.65
290.832	14.85
291.3	12.85
291.767	23.55
292.234	15.55
292.702	13.65
293.169	14.85
293.637	23.65
294.104	16.35
294.571	4.65
295.039	12.05
295.506	13.05
295.973	19.45
296.44	15.25
296.908	16.75
297.375	14.65
297.842	20.05
298.309	17.65
298.776	11.35
299.243	17.85
299.71	9.75
300.177	24.55
300.644	15.05
301.111	19.25
301.578	24.65
302.045	12.25
302.512	20.35
302.979	21.95
303.446	21.15
303.913	19.35
304.379	14.85
304.846	23.65
305.313	30.35
305.78	18.65
306.246	29.15
306.713	24.95
307.18	24.15
307.646	26.45
308.113	21.25
308.579	21.75
309.046	24.85
309.512	24.85
309.979	12.05
310.445	24.05
310.912	25.25
311.378	36.05
311.845	32.05
312.311	25.85
312.777	26.35
313.244	29.35
313.71	36.15
314.176	28.05
314.642	30.65
315.109	30.65
315.575	34.85
316.041	40.45
316.507	30.85
316.973	39.55
317.439	31.45
317.905	33.95
318.371	32.75
318.837	34.75
319.303	28.35
319.769	34.05
320.235	32.65
320.701	35.05
321.167	39.95
321.633	32.45
322.099	33.65
322.564	36.65
323.03	37.25
323.496	30.65
323.962	38.95
324.427	29.95
324.893	38.75
325.359	37.85
325.824	33.65
326.29	33.05
326.755	33.85
327.221	40.75
327.686	33.05
328.152	41.05
328.617	38.25
329.083	46.75
329.548	49.25
330.014	49.15
330.479	36.75
330.944	37.05
331.41	39.85
331.875	43.55
332.34	47.75
332.805	45.85
333.271	50.45
333.736	47.45
334.201	41.65
334.666	49.95
335.131	49.75
335.596	54.15
336.061	48.45
336.526	41.55
336.991	45.85
337.456	54.75
337.921	51.55
338.386	47.05
338.851	44.95
339.316	38.05
339.781	43.95
340.246	50.05
340.711	47.35
341.175	47.55
341.64	40.25
342.105	51.45
342.569	53.45
343.034	52.15
343.499	54.55
343.963	47.55
344.428	59.95
344.893	53.65
345.357	55.95
345.822	51.95
346.286	67.85
346.751	67.65
347.215	69.15
347.679	73.25
348.144	95.15
348.608	79.85
349.073	64.15
349.537	70.15
350.001	77.65
350.465	87.55
350.93	82.55
351.394	80.35
351.858	70.05
352.322	85.15
352.786	81.65
353.25	96.45
353.715	108.05
354.179	98.25
354.643	116.35
355.107	125.05
355.571	104.45
356.035	96.15
356.498	117.85
356.962	122.95
357.426	133.45
357.89	118.85
358.354	86.75
358.818	83.85
359.281	74.75
359.745	81.05
360.209	72.95
360.673	73.45
361.136	81.25
361.6	83.35
362.064	82.65
362.527	81.75
362.991	91.75
363.454	72.35
363.918	77.65
364.381	74.55
364.845	80.35
365.308	88.85
365.772	86.85
366.235	86.25
366.698	85.65
367.162	84.45
367.625	84.55
368.088	91.25
368.552	92.55
369.015	89.45
369.478	91.25
369.941	98.65
370.404	95.55
370.867	96.75
371.331	108.85
371.794	118.55
372.257	114.75
372.72	124.75
373.183	115.25
373.646	102.35
374.109	98.75
374.572	108.65
375.035	111.35
375.497	106.75
375.96	110.05
376.423	107.25
376.886	113.25
377.349	110.05
377.811	110.05
378.274	108.85
378.737	100.45
379.199	102.45
379.662	114.15
380.125	119.05
380.587	121.55
381.05	121.45
381.512	127.25
381.975	134.85
382.437	121.85
382.9	130.05
383.362	130.65
383.825	141.75
384.287	154.35
384.75	139.55
385.212	133.45
385.674	138.55
386.136	135.45
386.599	126.55
387.061	127.95
387.523	128.55
387.985	139.75
388.447	150.45
388.91	147.75
389.372	167.05
389.834	156.85
390.296	140.35
390.758	154.55
391.22	173.55
391.682	215.65
392.144	308.05
392.606	234.75
393.068	169.95
393.529	171.85
393.991	156.95
394.453	144.25
394.915	155.65
395.377	201.05
395.838	228.25
396.3	157.25
396.762	146.65
397.224	136.85
397.685	133.45
398.147	129.95
398.608	127.45
399.07	132.15
399.531	136.75
399.993	145.35
400.454	153.55
400.916	142.35
401.377	147.15
401.839	156.75
402.3	149.65
402.762	163.75
403.223	181.25
403.684	166.75
404.145	168.55
404.607	161.75
405.068	169.75
405.529	171.45
405.99	190.15
406.451	172.95
406.913	169.55
407.374	161.65
407.835	163.25
408.296	167.15
408.757	174.35
409.218	189.35
409.679	180.55
410.14	176.55
410.601	181.55
411.062	181.35
411.522	186.15
411.983	199.35
412.444	179.55
412.905	180.35
413.366	187.25
413.826	190.45
414.287	209.45
414.748	262.95
415.208	251.05
415.669	212.75
416.13	202.05
416.59	201.75
417.051	211.25
417.511	220.15
417.972	233.65
418.432	250.35
418.893	289.35
419.353	254.55
419.814	200.75
420.274	182.05
420.734	181.15
421.195	205.75
421.655	198.65
422.115	195.45
422.576	189.95
423.036	200.45
423.496	207.95
423.956	221.85
424.416	230.85
424.876	261.55
425.336	254.35
425.797	260.95
426.257	257.15
426.717	246.65
427.177	231.25
427.637	230.55
428.097	239.95
428.556	250.85
429.016	271.85
429.476	278.45
429.936	285.35
430.396	279.85
430.856	302.55
431.315	325.55
431.775	349.55
432.235	394.65
432.694	364.75
433.154	369.35
433.614	398.55
434.073	345.25
434.533	287.25
434.993	273.05
435.452	289.25
435.912	291.15
436.371	289.25
436.83	286.55
437.29	271.55
437.749	254.45
438.209	254.95
438.668	278.15
439.127	295.15
439.587	268.15
440.046	249.35
440.505	263.85
440.964	282.05
441.424	320.25
441.883	310.55
442.342	263.85
442.801	220.25
443.26	218.65
443.719	218.05
444.178	229.75
444.637	212.95
445.096	228.85
445.555	229.55
446.014	225.45
446.473	231.35
446.932	236.25
447.391	222.45
447.849	227.25
448.308	218.65
448.767	215.55
449.226	230.95
449.685	238.45
450.143	247.25
450.602	232.95
451.061	227.55
451.519	234.55
451.978	225.45
452.436	237.35
452.895	241.65
453.353	253.45
453.812	240.05
454.27	243.85
454.729	242.25
455.187	245.05
455.646	248.75
456.104	249.35
456.562	270.25
457.021	271.75
457.479	262.75
457.937	276.35
458.395	267.75
458.854	248.15
459.312	259.65
459.77	270.35
460.228	268.35
460.686	236.75
461.144	245.75
461.602	236.85
462.06	245.95
462.518	250.55
462.976	242.25
463.434	255.45
463.892	268.35
464.35	277.55
464.808	292.35
465.266	276.45
465.724	268.85
466.181	274.65
466.639	272.05
467.097	285.15
467.555	297.15
468.012	305.05
468.47	302.15
468.928	324.85
469.385	339.45
469.843	347.15
470.3	352.65
470.758	363.45
471.215	391.55
471.673	411.15
472.13	407.35
472.588	423.15
473.045	380.25
473.503	375.45
473.96	389.15
474.417	409.25
474.875	435.95
475.332	476.95
475.789	456.75
476.246	467.95
476.704	479.85
477.161	499.05
477.618	525.45
478.075	561.25
478.532	622.15
478.989	695.65
479.446	804.15
479.903	773.35
480.36	804.15
480.817	868.35
481.274	970.15
481.731	1074.65
482.188	1165.85
482.645	1303.45
483.102	1396.55
483.558	1543.25
484.015	1591.85
484.472	1579.65
484.929	1523.75
485.385	1476.75
485.842	1439.05
486.299	1362.55
486.755	1288.25
487.212	1084.35
487.668	932.95
488.125	852.45
488.582	783.55
489.038	743.75
489.494	715.65
489.951	677.75
490.407	660.65
490.864	635.95
491.32	643.95
491.776	643.65
492.233	655.75
492.689	604.05
493.145	597.45
493.602	597.75
494.058	611.85
494.514	611.45
494.97	645.45
495.426	636.05
495.882	609.65
496.338	602.15
496.794	623.95
497.251	610.65
497.707	633.45
498.163	631.65
498.618	632.55
499.074	639.95
499.53	662.05
499.986	669.35
500.442	655.55
500.898	625.55
501.354	619.45
501.809	634.45
502.265	645.75
502.721	659.65
503.177	679.65
503.632	665.95
504.088	680.35
504.543	709.65
504.999	704.95
505.455	659.95
505.91	638.45
506.366	623.15
506.821	623.05
507.277	622.65
507.732	616.65
508.187	623.05
508.643	633.25
509.098	620.25
509.553	645.25
510.009	659.35
510.464	668.05
510.919	685.25
511.375	689.65
511.83	702.45
512.285	714.75
512.74	749.25
513.195	775.05
513.65	760.85
514.105	762.15
514.56	766.55
515.015	785.85
515.47	798.55
515.925	778.75
516.38	775.65
516.835	789.25
517.29	773.15
517.745	765.55
518.2	757.45
518.655	748.25
519.109	735.15
519.564	732.25
520.019	724.85
520.474	709.55
520.928	719.05
521.383	714.05
521.838	710.35
522.292	711.35
522.747	702.95
523.201	702.85
523.656	698.65
524.11	686.65
524.565	692.85
525.019	689.25
525.474	696.55
525.928	700.35
526.382	685.85
526.837	688.35
527.291	695.35
527.745	686.55
528.2	700.85
528.654	685.05
529.108	689.15
529.562	690.45
530.016	681.45
530.47	684.85
530.925	688.85
531.379	688.25
531.833	698.25
532.287	698.55
532.741	710.05
533.195	696.15
533.649	704.45
534.103	715.65
534.556	696.95
535.01	695.05
535.464	696.65
535.918	708.05
536.372	716.95
536.826	709.45
537.279	698.15
537.733	713.65
538.187	711.05
538.64	702.65
539.094	717.95
539.548	725.25
540.001	709.75
540.455	713.05
540.908	722.35
541.362	729.65
541.815	748.95
542.269	755.55
542.722	756.45
543.175	770.85
543.629	765.55
544.082	778.65
544.536	783.25
544.989	779.25
545.442	793.85
545.895	784.75
546.349	781.15
546.802	787.65
547.255	784.75
547.708	798.95
548.161	811.25
548.614	813.65
549.067	818.35
549.52	816.25
549.973	802.85
550.426	796.45
550.879	787.45
551.332	799.75
551.785	802.25
552.238	801.55
552.691	807.65
553.144	827.25
553.596	840.15
554.049	852.55
554.502	884.15
554.955	900.65
555.407	885.45
555.86	901.75
556.313	874.25
556.765	872.85
557.218	877.15
557.67	881.35
558.123	864.85
558.576	857.85
559.028	868.75
559.48	880.95
559.933	870.95
560.385	822.55
560.838	812.65
561.29	781.65
561.742	785.85
562.195	750.45
562.647	755.85
563.099	763.75
563.551	756.95
564.004	783.25
564.456	778.25
564.908	767.95
565.36	742.75
565.812	733.95
566.264	727.65
566.716	731.25
567.168	716.45
567.62	722.15
568.072	695.05
568.524	687.15
568.976	678.05
569.428	669.55
569.88	665.05
570.332	693.75
570.784	679.45
571.235	688.85
571.687	681.35
572.139	690.45
572.59	707.15
573.042	705.25
573.494	708.85
573.945	700.15
574.397	684.85
574.849	677.55
575.3	694.55
575.752	682.35
576.203	681.55
576.655	682.35
577.106	668.45
577.557	661.65
578.009	672.15
578.46	667.15
578.912	661.95
579.363	666.35
579.814	666.95
580.265	658.65
580.717	665.85
581.168	659.65
581.619	669.15
582.07	681.55
582.521	675.85
582.972	665.05
583.423	684.55
583.875	673.95
584.326	701.05
584.777	747.55
585.227	831.35
585.678	919.85
586.129	1016.25
586.58	1088.05
587.031	1159.55
587.482	1326.55
587.933	1521.25
588.384	1307.35
588.834	979.15
589.285	807.55
589.736	770.45
590.186	766.85
590.637	768.85
591.088	734.85
591.538	732.55
591.989	727.25
592.439	729.85
592.89	713.15
593.34	705.15
593.791	708.45
594.241	702.75
594.692	706.45
595.142	708.85
595.593	705.35
596.043	708.75
596.493	707.45
596.943	710.05
597.394	724.75
597.844	707.25
598.294	727.95
598.744	763.85
599.195	765.65
599.645	825.25
600.095	856.95
600.545	921.05
600.995	952.65
601.445	1019.75
601.895	1083.15
602.345	1126.45
602.795	1107.25
603.245	1077.95
603.695	1014.25
604.145	958.15
604.594	909.75
605.044	856.45
605.494	793.75
605.944	758.25
606.393	736.75
606.843	717.45
607.293	730.05
607.743	728.05
608.192	736.75
608.642	753.85
609.091	758.45
609.541	769.65
609.99	765.75
610.44	774.05
610.889	730.85
611.339	697.65
611.788	685.75
612.238	701.25
612.687	724.95
613.136	724.85
613.586	737.75
614.035	733.55
614.484	764.65
614.933	754.85
615.383	749.55
615.832	739.75
616.281	731.35
616.73	688.05
617.179	667.45
617.628	648.85
618.077	642.25
618.526	628.15
618.975	617.75
619.424	617.25
619.873	615.75
620.322	611.65
620.771	600.75
621.22	598.15
621.669	593.35
622.118	582.85
622.567	580.15
623.015	568.25
623.464	570.85
623.913	561.05
624.361	553.25
624.81	556.75
625.259	547.95
625.707	560.95
626.156	551.95
626.604	570.05
627.053	561.75
627.501	556.85
627.95	563.95
628.398	578.55
628.847	569.75
629.295	568.05
629.744	571.75
630.192	564.15
630.64	571.55
631.089	557.35
631.537	579.95
631.985	594.55
632.433	599.65
632.881	616.65
633.33	666.35
633.778	654.35
634.226	572.15
634.674	575.55
635.122	588.75
635.57	600.25
636.018	637.15
636.466	584.75
636.914	564.75
637.362	567.85
637.81	575.55
638.258	573.35
638.705	583.75
639.153	608.25
639.601	613.55
640.049	641.35
640.497	667.75
640.944	701.75
641.392	645.35
641.84	613.55
642.287	586.85
642.735	564.45
643.182	573.05
643.63	571.45
644.078	565.65
644.525	578.05
644.973	603.25
645.42	605.25
645.867	624.95
646.315	640.95
646.762	668.35
647.21	690.35
647.657	709.25
648.104	757.45
648.551	778.45
648.999	837.05
649.446	921.45
649.893	1017.45
650.34	1163.55
650.787	1407.95
651.234	1749.95
651.682	2286.05
652.129	3163.35
652.576	4546.05
653.023	6696.45
653.47	9152.55
653.917	11386.85
654.363	13058.35
654.81	14355.25
655.257	13693.65
655.704	8958.25
656.151	5277.15
656.598	3401.55
657.044	2422.65
657.491	1846.85
657.938	1492.85
658.385	1245.75
658.831	1074.65
659.278	957.65
659.724	850.55
660.171	788.55
660.618	717.45
661.064	690.25
661.511	663.75
661.957	657.05
662.404	646.35
662.85	649.15
663.296	625.65
663.743	563.75
664.189	536.35
664.635	537.15
665.082	530.15
665.528	524.25
665.974	523.55
666.42	510.05
666.867	507.05
667.313	498.05
667.759	482.75
668.205	489.55
668.651	488.05
669.097	485.85
669.543	518.45
669.989	465.25
670.435	452.25
670.881	447.75
671.327	448.75
671.773	476.25
672.219	486.55
672.665	539.55
673.11	582.95
673.556	613.45
674.002	667.15
674.448	653.25
674.893	542.05
675.339	471.35
675.785	440.65
676.23	416.15
676.676	392.35
677.122	381.55
677.567	363.05
678.013	363.45
678.458	351.95
678.904	359.35
679.349	352.95
679.794	356.25
680.24	348.15
680.685	346.65
681.131	349.75
681.576	346.95
682.021	353.75
682.466	341.75
682.912	349.35
683.357	357.15
683.802	382.85
684.247	407.15
684.692	443.05
685.137	496.55
685.583	532.25
686.028	563.25
686.473	518.65
686.918	444.45
687.363	409.55
687.807	394.15
688.252	364.55
688.697	348.15
689.142	344.25
689.587	331.45
690.032	331.25
690.477	338.15
690.921	348.55
691.366	386.45
691.811	399.05
692.255	434.35
692.7	464.75
693.145	506.45
693.589	709.75
694.034	1149.65
694.478	1558.65
694.923	1724.05
695.367	2220.05
695.812	1176.75
696.256	495.55
696.701	367.75
697.145	345.05
697.59	323.05
698.034	322.85
698.478	332.35
698.922	324.15
699.367	333.75
699.811	337.55
700.255	352.75
700.699	384.55
701.143	433.15
701.588	468.65
702.032	512.25
702.476	515.55
702.92	482.15
703.364	491.05
703.808	650.75
704.252	1053.55
704.696	1471.95
705.14	1650.45
705.584	2111.35
706.027	1054.35
706.471	517.65
706.915	398.25
707.359	342.15
707.803	316.95
708.246	311.65
708.69	309.05
709.134	310.75
709.577	307.25
710.021	322.25
710.465	311.15
710.908	304.85
711.352	297.25
711.795	315.65
712.239	348.05
712.682	380.45
713.126	418.35
713.569	462.35
714.012	372.25
714.456	325.15
714.899	305.45
715.342	273.85
715.786	266.65
716.229	258.15
716.672	257.85
717.115	250.35
717.558	243.25
718.002	251.45
718.445	260.95
718.888	286.65
719.331	295.55
719.774	312.65
720.217	311.15
720.66	280.45
721.103	262.15
721.546	253.35
721.989	249.15
722.432	226.45
722.874	237.95
723.317	227.05
723.76	233.15
724.203	256.15
724.645	327.75
725.088	455.65
725.531	563.55
725.974	628.25
726.416	547.55
726.859	313.05
727.301	246.85
727.744	240.85
728.187	229.15
728.629	239.95
729.071	242.25
729.514	260.65
729.956	278.05
730.399	289.35
730.841	282.85
731.283	271.35
731.726	263.55
732.168	260.95
732.61	267.75
733.053	291.95
733.495	322.35
733.937	353.55
734.379	398.55
734.821	433.65
735.263	540.95
735.705	849.45
736.148	1617.85
736.59	2592.55
737.032	3007.15
737.474	2438.45
737.916	798.55
738.357	422.75
738.799	322.25
739.241	301.45
739.683	281.25
740.125	294.35
740.567	290.35
741.008	309.85
741.45	313.05
741.892	315.85
742.334	348.55
742.775	357.35
743.217	335.25
743.658	272.95
744.1	256.45
744.542	262.85
744.983	312.45
745.425	342.45
745.866	338.75
746.307	283.05
746.749	284.65
747.19	331.25
747.632	466.35
748.073	910.05
748.514	1893.95
748.956	2826.75
749.397	3547.55
749.838	2964.15
750.279	2907.25
750.72	1478.35
751.162	547.55
751.603	333.75
752.044	248.25
752.485	214.95
752.926	213.05
753.367	207.45
753.808	194.25
754.249	192.25
754.69	185.85
755.131	178.15
755.572	179.15
756.013	171.15
756.453	179.25
756.894	192.25
757.335	192.45
757.776	193.35
758.216	196.75
758.657	200.95
759.098	197.45
759.538	224.15
759.979	267.25
760.42	376.05
760.86	725.05
761.301	1901.05
761.741	4472.25
762.182	6292.45
