Data from 20171114-ORNL-Ar_H_NY_Subt18_08-05-00-752.txt Node
Date: Tue Nov 14 08:05:00 EST 2017
User: Ender
Spectrometer: HR+D1039
Trigger mode: 0
Integration Time (sec): 2.730000E-2
Scans to average: 10
Electric dark correction enabled: true
Nonlinearity correction enabled: false
Boxcar width: 0
XAxis mode: Wavelengths
Number of Pixels in Spectrum: 2048
>>>>>Begin Spectral Data<<<<<
187.836	-7.25
188.309	-7.25
188.782	-7.25
189.255	-0.35
189.728	1.15
190.201	7.35
190.674	3.05
191.147	-0.85
191.619	-6.95
192.092	1.35
192.565	2.05
193.038	0.65
193.511	2.15
193.984	1.55
194.456	0.65
194.929	-1.85
195.402	0.55
195.874	-3.25
196.347	-0.55
196.82	-5.15
197.292	0.75
197.765	-3.55
198.237	-7.15
198.71	1.75
199.182	-4.15
199.655	-2.55
200.127	4.05
200.6	-1.05
201.072	0.95
201.544	-5.35
202.017	-0.45
202.489	4.15
202.961	-5.35
203.433	-3.75
203.906	-7.75
204.378	-4.25
204.85	-6.45
205.322	-8.85
205.794	-4.25
206.266	-8.15
206.739	-5.75
207.211	1.55
207.683	-6.15
208.155	-6.25
208.627	-2.85
209.099	-5.45
209.57	-8.45
210.042	-6.25
210.514	-3.65
210.986	3.35
211.458	-9.95
211.93	-4.55
212.402	-2.05
212.873	-5.05
213.345	-3.05
213.817	-9.25
214.288	-3.65
214.76	-8.15
215.232	-7.15
215.703	-1.85
216.175	-3.05
216.646	-7.45
217.118	-6.05
217.589	-4.75
218.061	-3.95
218.532	-4.75
219.004	-4.35
219.475	-0.15
219.946	-6.85
220.418	-2.25
220.889	5.05
221.36	3.75
221.832	-0.35
222.303	-1.75
222.774	-0.15
223.245	-4.55
223.717	-5.55
224.188	-1.65
224.659	-5.65
225.13	-7.95
225.601	-1.85
226.072	0.75
226.543	-1.25
227.014	1.75
227.485	-3.15
227.956	1.45
228.427	-3.65
228.898	-1.05
229.369	5.75
229.839	-4.15
230.31	-0.65
230.781	-0.15
231.252	-4.95
231.722	0.95
232.193	0.55
232.664	-0.25
233.135	-2.35
233.605	4.15
234.076	-8.75
234.546	-4.65
235.017	4.65
235.487	0.55
235.958	-1.75
236.428	-1.35
236.899	2.75
237.369	7.85
237.84	-0.45
238.31	9.75
238.78	-0.85
239.251	1.55
239.721	7.85
240.191	-3.95
240.662	-2.35
241.132	5.85
241.602	-2.95
242.072	5.35
242.542	7.05
243.013	0.25
243.483	9.25
243.953	-2.55
244.423	1.05
244.893	1.45
245.363	1.15
245.833	6.65
246.303	2.65
246.773	5.45
247.243	3.45
247.712	2.75
248.182	5.25
248.652	9.25
249.122	2.35
249.592	10.35
250.061	21.85
250.531	29.45
251.001	15.35
251.471	30.35
251.94	20.75
252.41	12.15
252.879	-0.05
253.349	13.05
253.818	5.65
254.288	5.25
254.757	8.05
255.227	13.25
255.696	5.25
256.166	7.35
256.635	3.45
257.105	7.15
257.574	12.05
258.043	12.45
258.513	12.05
258.982	19.65
259.451	9.95
259.92	15.65
260.389	18.15
260.859	20.75
261.328	11.75
261.797	21.45
262.266	7.05
262.735	12.75
263.204	9.15
263.673	-2.85
264.142	3.85
264.611	3.05
265.08	7.55
265.549	1.45
266.018	4.95
266.487	2.55
266.955	-3.95
267.424	2.35
267.893	7.85
268.362	3.55
268.83	6.45
269.299	12.25
269.768	11.95
270.236	11.65
270.705	6.55
271.174	7.35
271.642	16.05
272.111	8.95
272.579	14.25
273.048	24.45
273.516	26.85
273.985	26.95
274.453	27.35
274.922	26.45
275.39	12.95
275.858	9.95
276.327	15.15
276.795	23.25
277.263	12.95
277.731	33.55
278.2	54.75
278.668	66.85
279.136	49.85
279.604	27.15
280.072	24.35
280.54	9.85
281.008	15.05
281.477	20.15
281.945	15.65
282.413	15.95
282.881	16.85
283.348	11.05
283.816	15.55
284.284	11.85
284.752	27.85
285.22	17.75
285.688	15.45
286.156	22.95
286.623	49.55
287.091	53.85
287.559	34.45
288.026	23.55
288.494	17.15
288.962	7.85
289.429	9.25
289.897	19.55
290.364	15.35
290.832	17.35
291.3	12.95
291.767	17.35
292.234	21.15
292.702	18.45
293.169	24.45
293.637	26.75
294.104	20.55
294.571	16.05
295.039	10.45
295.506	15.25
295.973	19.85
296.44	20.45
296.908	23.45
297.375	19.75
297.842	21.35
298.309	20.65
298.776	16.15
299.243	21.45
299.71	16.45
300.177	26.15
300.644	23.15
301.111	18.15
301.578	22.75
302.045	22.65
302.512	24.05
302.979	28.95
303.446	24.55
303.913	22.15
304.379	18.65
304.846	32.45
305.313	24.75
305.78	19.75
306.246	27.05
306.713	27.15
307.18	29.05
307.646	27.05
308.113	30.15
308.579	23.05
309.046	24.25
309.512	30.65
309.979	20.45
310.445	24.45
310.912	27.35
311.378	42.55
311.845	28.75
312.311	29.75
312.777	33.45
313.244	39.95
313.71	39.35
314.176	31.05
314.642	35.35
315.109	32.05
315.575	37.35
316.041	42.25
316.507	31.95
316.973	42.35
317.439	31.85
317.905	33.95
318.371	43.45
318.837	38.95
319.303	30.95
319.769	35.85
320.235	37.45
320.701	39.85
321.167	36.35
321.633	34.55
322.099	45.75
322.564	45.15
323.03	42.95
323.496	45.85
323.962	48.35
324.427	36.65
324.893	42.15
325.359	37.55
325.824	41.25
326.29	39.25
326.755	44.05
327.221	41.65
327.686	41.85
328.152	52.55
328.617	40.25
329.083	55.65
329.548	54.55
330.014	48.45
330.479	43.15
330.944	44.65
331.41	42.65
331.875	47.95
332.34	46.55
332.805	42.75
333.271	53.35
333.736	47.95
334.201	53.95
334.666	55.45
335.131	51.65
335.596	50.45
336.061	48.35
336.526	48.25
336.991	49.75
337.456	62.05
337.921	54.75
338.386	45.85
338.851	44.95
339.316	46.15
339.781	48.45
340.246	55.95
340.711	49.25
341.175	54.35
341.64	51.85
342.105	54.45
342.569	61.35
343.034	59.75
343.499	58.15
343.963	55.65
344.428	60.95
344.893	57.45
345.357	60.95
345.822	60.75
346.286	65.25
346.751	75.25
347.215	69.05
347.679	72.85
348.144	100.55
348.608	81.75
349.073	71.35
349.537	75.25
350.001	81.05
350.465	92.55
350.93	92.75
351.394	84.25
351.858	75.85
352.322	86.45
352.786	91.15
353.25	98.35
353.715	110.75
354.179	101.85
354.643	117.65
355.107	128.95
355.571	110.25
356.035	108.35
356.498	120.85
356.962	121.25
357.426	133.25
357.89	113.55
358.354	91.95
358.818	85.65
359.281	77.05
359.745	75.15
360.209	79.65
360.673	78.35
361.136	82.85
361.6	85.85
362.064	86.05
362.527	85.95
362.991	89.65
363.454	79.85
363.918	75.65
364.381	76.15
364.845	84.25
365.308	84.15
365.772	84.65
366.235	85.35
366.698	82.05
367.162	88.55
367.625	88.85
368.088	92.15
368.552	84.45
369.015	84.25
369.478	95.35
369.941	98.55
370.404	98.95
370.867	106.65
371.331	111.05
371.794	111.15
372.257	111.55
372.72	115.25
373.183	105.45
373.646	106.15
374.109	102.65
374.572	110.25
375.035	105.55
375.497	105.45
375.96	110.05
376.423	102.45
376.886	114.35
377.349	108.55
377.811	106.35
378.274	100.15
378.737	102.25
379.199	115.85
379.662	106.65
380.125	117.95
380.587	115.75
381.05	124.35
381.512	128.35
381.975	137.05
382.437	128.45
382.9	125.35
383.362	131.95
383.825	141.35
384.287	149.55
384.75	131.65
385.212	140.85
385.674	138.95
386.136	133.95
386.599	122.45
387.061	127.15
387.523	120.85
387.985	134.75
388.447	144.45
388.91	140.85
389.372	150.75
389.834	139.85
390.296	145.35
390.758	152.25
391.22	166.65
391.682	205.05
392.144	292.35
392.606	221.25
393.068	162.75
393.529	159.95
393.991	145.95
394.453	142.55
394.915	145.85
395.377	181.95
395.838	216.65
396.3	156.75
396.762	143.35
397.224	138.15
397.685	125.65
398.147	121.55
398.608	126.45
399.07	124.25
399.531	131.55
399.993	138.75
400.454	151.75
400.916	142.25
401.377	145.65
401.839	151.75
402.3	142.65
402.762	158.75
403.223	175.15
403.684	168.95
404.145	158.25
404.607	154.85
405.068	162.75
405.529	170.25
405.99	187.05
406.451	169.15
406.913	171.15
407.374	155.95
407.835	160.05
408.296	165.55
408.757	168.05
409.218	187.25
409.679	168.35
410.14	174.15
410.601	166.55
411.062	182.25
411.522	187.15
411.983	180.15
412.444	163.95
412.905	181.55
413.366	186.05
413.826	195.25
414.287	210.35
414.748	255.45
415.208	238.05
415.669	206.65
416.13	202.75
416.59	195.95
417.051	204.25
417.511	215.75
417.972	219.65
418.432	239.65
418.893	278.55
419.353	247.35
419.814	197.45
420.274	180.25
420.734	172.45
421.195	192.15
421.655	196.75
422.115	183.85
422.576	185.55
423.036	195.25
423.496	206.85
423.956	205.35
424.416	229.75
424.876	255.25
425.336	254.55
425.797	257.05
426.257	251.65
426.717	229.95
427.177	226.65
427.637	220.45
428.097	220.95
428.556	239.55
429.016	265.15
429.476	253.55
429.936	270.65
430.396	267.95
430.856	286.05
431.315	306.75
431.775	339.75
432.235	368.25
432.694	345.65
433.154	354.55
433.614	378.95
434.073	330.65
434.533	282.75
434.993	268.25
435.452	278.85
435.912	284.95
436.371	281.75
436.83	275.25
437.29	264.15
437.749	247.25
438.209	241.15
438.668	267.75
439.127	272.85
439.587	259.65
440.046	239.55
440.505	259.65
440.964	267.05
441.424	304.85
441.883	301.85
442.342	248.75
442.801	218.25
443.26	217.15
443.719	214.35
444.178	207.25
444.637	200.75
445.096	214.95
445.555	213.45
446.014	220.75
446.473	221.15
446.932	229.25
447.391	218.05
447.849	218.35
448.308	215.55
448.767	209.25
449.226	224.65
449.685	224.95
450.143	236.25
450.602	224.45
451.061	220.85
451.519	229.75
451.978	227.05
452.436	219.25
452.895	228.95
453.353	247.75
453.812	235.15
454.27	233.15
454.729	229.75
455.187	236.45
455.646	238.25
456.104	237.15
456.562	254.45
457.021	265.85
457.479	250.35
457.937	268.55
458.395	253.35
458.854	232.95
459.312	248.25
459.77	263.05
460.228	251.55
460.686	231.55
461.144	237.65
461.602	238.75
462.06	231.95
462.518	245.95
462.976	246.85
463.434	251.35
463.892	258.35
464.35	274.45
464.808	280.35
465.266	261.15
465.724	265.95
466.181	260.85
466.639	265.75
467.097	285.75
467.555	292.55
468.012	296.85
468.47	300.25
468.928	314.95
469.385	331.95
469.843	340.65
470.3	338.25
470.758	338.75
471.215	371.15
471.673	391.65
472.13	388.65
472.588	405.75
473.045	362.55
473.503	360.85
473.96	377.75
474.417	392.75
474.875	422.15
475.332	458.15
475.789	448.35
476.246	454.95
476.704	480.25
477.161	491.45
477.618	501.95
478.075	540.45
478.532	597.85
478.989	667.65
479.446	778.55
479.903	756.75
480.36	778.15
480.817	842.05
481.274	952.95
481.731	1053.05
482.188	1151.25
482.645	1284.85
483.102	1383.45
483.558	1517.35
484.015	1579.35
484.472	1568.55
484.929	1504.15
485.385	1455.15
485.842	1423.75
486.299	1357.65
486.755	1276.55
487.212	1079.25
487.668	903.35
488.125	826.45
488.582	767.85
489.038	729.95
489.494	691.65
489.951	670.95
490.407	647.95
490.864	628.15
491.32	628.85
491.776	622.05
492.233	626.85
492.689	590.65
493.145	582.65
493.602	581.15
494.058	589.95
494.514	606.35
494.97	625.25
495.426	625.35
495.882	608.65
496.338	596.15
496.794	613.85
497.251	607.45
497.707	618.45
498.163	613.05
498.618	626.75
499.074	632.05
499.53	668.35
499.986	661.75
500.442	631.65
500.898	612.15
501.354	615.85
501.809	616.25
502.265	632.85
502.721	636.35
503.177	640.65
503.632	639.95
504.088	651.55
504.543	687.65
504.999	683.85
505.455	646.25
505.91	613.25
506.366	612.05
506.821	608.55
507.277	599.45
507.732	607.35
508.187	604.15
508.643	620.05
509.098	614.35
509.553	638.95
510.009	646.85
510.464	655.05
510.919	664.85
511.375	670.25
511.83	690.95
512.285	707.55
512.74	738.85
513.195	765.05
513.65	754.75
514.105	742.05
514.56	746.05
515.015	776.15
515.47	777.25
515.925	770.35
516.38	764.15
516.835	773.55
517.29	758.55
517.745	751.45
518.2	742.45
518.655	737.15
519.109	724.85
519.564	720.15
520.019	718.75
520.474	712.15
520.928	703.85
521.383	698.05
521.838	687.65
522.292	686.25
522.747	681.45
523.201	675.65
523.656	662.75
524.11	677.15
524.565	676.85
525.019	671.85
525.474	674.05
525.928	682.35
526.382	675.45
526.837	674.15
527.291	670.55
527.745	671.25
528.2	675.95
528.654	670.85
529.108	670.85
529.562	664.45
530.016	673.35
530.47	666.15
530.925	656.45
531.379	671.45
531.833	686.75
532.287	682.95
532.741	687.25
533.195	687.85
533.649	694.35
534.103	700.25
534.556	686.95
535.01	698.15
535.464	690.05
535.918	698.75
536.372	689.95
536.826	702.95
537.279	683.15
537.733	682.15
538.187	684.95
538.64	700.75
539.094	696.15
539.548	705.05
540.001	705.65
540.455	701.55
540.908	707.05
541.362	715.45
541.815	721.95
542.269	721.05
542.722	739.45
543.175	741.95
543.629	743.05
544.082	751.45
544.536	753.65
544.989	756.25
545.442	762.35
545.895	761.05
546.349	757.75
546.802	757.95
547.255	767.85
547.708	767.65
548.161	785.15
548.614	783.85
549.067	797.15
549.52	787.35
549.973	784.65
550.426	791.55
550.879	761.25
551.332	765.55
551.785	769.85
552.238	774.75
552.691	776.25
553.144	806.95
553.596	814.65
554.049	830.15
554.502	858.45
554.955	878.95
555.407	869.95
555.86	861.75
556.313	853.85
556.765	843.75
557.218	852.15
557.67	846.95
558.123	834.85
558.576	837.05
559.028	848.05
559.48	847.85
559.933	830.55
560.385	802.35
560.838	776.95
561.29	753.15
561.742	750.15
562.195	742.25
562.647	734.55
563.099	733.45
563.551	737.65
564.004	739.65
564.456	728.65
564.908	730.25
565.36	729.95
565.812	706.35
566.264	690.95
566.716	681.55
567.168	671.45
567.62	682.85
568.072	672.45
568.524	669.85
568.976	658.05
569.428	642.45
569.88	639.55
570.332	640.35
570.784	647.45
571.235	646.55
571.687	646.55
572.139	671.45
572.59	673.95
573.042	665.85
573.494	682.05
573.945	665.45
574.397	641.15
574.849	660.05
575.3	656.05
575.752	648.75
576.203	647.85
576.655	650.35
577.106	644.55
577.557	632.15
578.009	628.95
578.46	639.45
578.912	632.75
579.363	630.15
579.814	639.75
580.265	627.85
580.717	623.65
581.168	637.35
581.619	634.45
582.07	641.25
582.521	640.55
582.972	636.95
583.423	650.35
583.875	644.25
584.326	662.55
584.777	707.75
585.227	784.25
585.678	856.85
586.129	953.95
586.58	1025.35
587.031	1107.15
587.482	1269.15
587.933	1456.45
588.384	1250.05
588.834	927.95
589.285	754.35
589.736	736.45
590.186	723.65
590.637	722.75
591.088	689.05
591.538	689.35
591.989	690.05
592.439	688.05
592.89	691.55
593.34	673.85
593.791	683.95
594.241	664.05
594.692	663.75
595.142	661.55
595.593	658.45
596.043	666.85
596.493	667.85
596.943	681.35
597.394	681.05
597.844	673.75
598.294	677.95
598.744	700.15
599.195	724.55
599.645	757.45
600.095	789.85
600.545	856.15
600.995	885.65
601.445	959.55
601.895	1027.55
602.345	1063.55
602.795	1055.85
603.245	997.15
603.695	948.95
604.145	904.35
604.594	850.25
605.044	807.45
605.494	749.75
605.944	706.45
606.393	695.75
606.843	672.45
607.293	676.05
607.743	680.95
608.192	691.55
608.642	708.45
609.091	714.25
609.541	726.85
609.99	722.55
610.44	713.05
610.889	678.25
611.339	644.15
611.788	641.15
612.238	643.65
612.687	664.05
613.136	663.15
613.586	690.15
614.035	687.05
614.484	704.85
614.933	709.25
615.383	703.55
615.832	690.25
616.281	668.05
616.73	644.55
617.179	610.95
617.628	594.65
618.077	589.25
618.526	574.55
618.975	572.55
619.424	569.95
619.873	568.75
620.322	562.65
620.771	557.25
621.22	554.35
621.669	550.95
622.118	543.65
622.567	539.25
623.015	520.75
623.464	533.65
623.913	518.75
624.361	507.65
624.81	513.45
625.259	515.85
625.707	519.65
626.156	517.05
626.604	520.75
627.053	515.15
627.501	510.25
627.95	517.95
628.398	537.65
628.847	526.95
629.295	530.45
629.744	539.25
630.192	528.35
630.64	525.05
631.089	527.55
631.537	530.15
631.985	540.55
632.433	551.65
632.881	565.25
633.33	607.65
633.778	583.15
634.226	525.35
634.674	531.15
635.122	533.85
635.57	545.25
636.018	569.75
636.466	535.15
636.914	519.45
637.362	525.75
637.81	519.35
638.258	524.15
638.705	532.45
639.153	558.75
639.601	557.65
640.049	585.95
640.497	622.85
640.944	632.85
641.392	587.65
641.84	573.85
642.287	534.65
642.735	520.85
643.182	526.85
643.63	524.35
644.078	533.45
644.525	545.85
644.973	549.75
645.42	549.65
645.867	570.15
646.315	582.55
646.762	609.85
647.21	638.85
647.657	658.25
648.104	694.15
648.551	715.05
648.999	773.45
649.446	842.75
649.893	917.05
650.34	1057.35
650.787	1275.65
651.234	1580.95
651.682	2046.85
652.129	2798.75
652.576	4037.95
653.023	5982.05
653.47	8254.25
653.917	10401.55
654.363	12194.35
654.81	13574.75
655.257	12899.75
655.704	8427.65
656.151	4954.45
656.598	3156.55
657.044	2248.35
657.491	1716.05
657.938	1386.65
658.385	1149.75
658.831	996.15
659.278	888.95
659.724	787.25
660.171	727.05
660.618	652.85
661.064	630.45
661.511	605.45
661.957	600.05
662.404	587.35
662.85	583.15
663.296	571.95
663.743	521.55
664.189	483.15
664.635	481.95
665.082	476.95
665.528	479.25
665.974	467.45
666.42	462.75
666.867	456.35
667.313	449.55
667.759	435.75
668.205	438.35
668.651	444.35
669.097	446.85
669.543	456.05
669.989	429.55
670.435	401.65
670.881	404.65
671.327	407.35
671.773	425.15
672.219	440.15
672.665	485.25
673.11	530.65
673.556	564.45
674.002	613.75
674.448	589.85
674.893	485.75
675.339	430.55
675.785	400.05
676.23	383.25
676.676	347.35
677.122	348.25
677.567	335.65
678.013	331.25
678.458	324.95
678.904	320.85
679.349	320.35
679.794	324.15
680.24	323.85
680.685	310.25
681.131	306.65
681.576	310.35
682.021	318.55
682.466	311.95
682.912	316.05
683.357	318.25
683.802	342.75
684.247	365.85
684.692	406.75
685.137	439.25
685.583	481.45
686.028	506.55
686.473	469.75
686.918	395.35
687.363	371.65
687.807	357.55
688.252	325.25
688.697	319.45
689.142	299.25
689.587	294.35
690.032	291.05
690.477	306.65
690.921	310.55
691.366	343.65
691.811	359.75
692.255	389.75
692.7	420.15
693.145	449.05
693.589	618.65
694.034	996.65
694.478	1360.75
694.923	1570.55
695.367	2068.75
695.812	1070.15
696.256	453.25
696.701	331.25
697.145	308.85
697.59	305.05
698.034	286.55
698.478	296.45
698.922	291.55
699.367	287.65
699.811	298.75
700.255	312.75
700.699	342.45
701.143	378.25
701.588	429.95
702.032	471.15
702.476	456.35
702.92	440.55
703.364	439.55
703.808	569.45
704.252	898.35
704.696	1282.05
705.14	1515.45
705.584	1936.05
706.027	964.05
706.471	466.05
706.915	360.45
707.359	313.75
707.803	284.05
708.246	278.25
708.69	275.45
709.134	282.15
709.577	280.15
710.021	283.45
710.465	270.75
710.908	268.05
711.352	264.25
711.795	283.15
712.239	311.45
712.682	341.85
713.126	379.45
713.569	425.75
714.012	333.95
714.456	291.05
714.899	277.85
715.342	248.35
715.786	230.55
716.229	237.75
716.672	230.35
717.115	219.15
717.558	223.55
718.002	220.95
718.445	232.85
718.888	257.45
719.331	261.65
719.774	277.55
720.217	270.75
720.66	254.65
721.103	242.25
721.546	224.55
721.989	223.95
722.432	209.55
722.874	213.25
723.317	203.55
723.76	209.85
724.203	229.15
724.645	273.55
725.088	385.35
725.531	512.85
725.974	588.85
726.416	490.45
726.859	279.35
727.301	215.55
727.744	212.15
728.187	208.05
728.629	218.75
729.071	212.05
729.514	236.05
729.956	239.75
730.399	255.25
730.841	256.25
731.283	243.15
731.726	233.75
732.168	231.85
732.61	240.35
733.053	247.05
733.495	276.15
733.937	316.95
734.379	356.35
734.821	390.35
735.263	470.15
735.705	723.15
736.148	1366.15
736.59	2273.45
737.032	2778.55
737.474	2255.65
737.916	721.95
738.357	376.45
738.799	293.95
739.241	267.15
739.683	255.75
740.125	254.55
740.567	263.55
741.008	286.45
741.45	280.75
741.892	281.55
742.334	311.45
742.775	321.05
743.217	310.65
743.658	236.45
744.1	226.05
744.542	227.15
744.983	273.05
745.425	304.35
745.866	302.85
746.307	252.05
746.749	250.35
747.19	291.35
747.632	392.85
748.073	755.55
748.514	1615.15
748.956	2527.55
749.397	3158.75
749.838	2635.75
750.279	2678.45
750.72	1338.25
751.162	483.15
751.603	282.25
752.044	224.35
752.485	187.45
752.926	179.35
753.367	175.15
753.808	167.45
754.249	171.75
754.69	164.35
755.131	157.15
755.572	161.45
756.013	156.65
756.453	159.95
756.894	159.55
757.335	170.55
757.776	170.85
758.216	173.45
758.657	178.35
759.098	170.85
759.538	199.35
759.979	236.65
760.42	319.25
760.86	603.55
761.301	1557.85
761.741	3860.05
762.182	5868.45
762.622	4134.35
