Data from 20171114-ORNL-Ar_H_NY_Subt18_08-07-39-897.txt Node
Date: Tue Nov 14 08:07:39 EST 2017
User: Ender
Spectrometer: HR+D1039
Trigger mode: 0
Integration Time (sec): 2.730000E-2
Scans to average: 10
Electric dark correction enabled: true
Nonlinearity correction enabled: false
Boxcar width: 0
XAxis mode: Wavelengths
Number of Pixels in Spectrum: 2048
>>>>>Begin Spectral Data<<<<<
187.836	-3.08
188.309	-3.08
188.782	-3.08
189.255	-4.78
189.728	0.02
190.201	3.42
190.674	3.22
191.147	4.52
191.619	-8.38
192.092	2.02
192.565	5.62
193.038	2.72
193.511	-2.98
193.984	-1.48
194.456	1.92
194.929	4.72
195.402	-3.48
195.874	-3.98
196.347	1.62
196.82	-11.48
197.292	4.82
197.765	-2.58
198.237	-6.08
198.71	4.12
199.182	-0.38
199.655	7.12
200.127	3.72
200.6	-2.18
201.072	-7.68
201.544	-2.08
202.017	-9.78
202.489	0.92
202.961	-3.38
203.433	-4.18
203.906	-5.38
204.378	-2.78
204.85	-6.18
205.322	-12.28
205.794	1.32
206.266	-7.88
206.739	-5.28
207.211	0.22
207.683	0.12
208.155	-7.68
208.627	-2.48
209.099	-7.68
209.57	-8.68
210.042	-1.78
210.514	-3.58
210.986	0.02
211.458	-6.68
211.93	-4.88
212.402	2.92
212.873	-8.18
213.345	-12.08
213.817	-11.68
214.288	-4.08
214.76	-8.18
215.232	2.52
215.703	-2.18
216.175	-4.78
216.646	-7.98
217.118	-8.48
217.589	-6.78
218.061	-7.78
218.532	-6.48
219.004	-3.48
219.475	-3.78
219.946	-2.98
220.418	-1.88
220.889	-3.08
221.36	1.52
221.832	-4.38
222.303	-7.88
222.774	-2.98
223.245	-6.68
223.717	-8.38
224.188	-3.18
224.659	-5.98
225.13	-1.38
225.601	-1.98
226.072	2.02
226.543	-4.88
227.014	0.72
227.485	-6.98
227.956	-3.18
228.427	-4.18
228.898	5.32
229.369	6.42
229.839	-2.58
230.31	-2.08
230.781	3.12
231.252	-3.48
231.722	-5.28
232.193	-2.38
232.664	0.32
233.135	0.82
233.605	-0.18
234.076	-7.78
234.546	0.62
235.017	3.12
235.487	2.52
235.958	-1.08
236.428	-1.58
236.899	5.12
237.369	4.52
237.84	1.32
238.31	7.12
238.78	5.12
239.251	-4.28
239.721	0.62
240.191	-2.78
240.662	-2.38
241.132	1.92
241.602	-0.38
242.072	-1.98
242.542	8.72
243.013	-2.38
243.483	4.42
243.953	4.02
244.423	0.52
244.893	-6.58
245.363	2.42
245.833	1.12
246.303	-2.78
246.773	8.02
247.243	4.42
247.712	-0.68
248.182	6.62
248.652	6.02
249.122	-2.58
249.592	6.32
250.061	23.52
250.531	28.22
251.001	11.92
251.471	18.22
251.94	17.32
252.41	3.42
252.879	-3.68
253.349	8.52
253.818	8.12
254.288	7.12
254.757	3.82
255.227	3.52
255.696	6.22
256.166	3.92
256.635	7.82
257.105	10.92
257.574	4.52
258.043	0.32
258.513	3.42
258.982	11.02
259.451	13.02
259.92	7.52
260.389	9.92
260.859	12.82
261.328	13.02
261.797	17.12
262.266	10.32
262.735	9.32
263.204	6.12
263.673	6.32
264.142	7.92
264.611	-3.88
265.08	-3.58
265.549	-0.68
266.018	8.12
266.487	-1.68
266.955	-6.18
267.424	1.62
267.893	2.12
268.362	1.22
268.83	3.32
269.299	8.82
269.768	1.62
270.236	5.12
270.705	4.52
271.174	9.22
271.642	3.72
272.111	5.82
272.579	12.92
273.048	17.82
273.516	24.62
273.985	27.32
274.453	26.62
274.922	17.92
275.39	8.82
275.858	2.32
276.327	13.32
276.795	17.52
277.263	4.52
277.731	27.62
278.2	48.22
278.668	50.62
279.136	45.02
279.604	16.02
280.072	12.72
280.54	7.82
281.008	8.72
281.477	11.72
281.945	8.42
282.413	10.72
282.881	10.82
283.348	5.62
283.816	13.62
284.284	14.22
284.752	20.22
285.22	7.02
285.688	13.32
286.156	13.52
286.623	41.02
287.091	50.12
287.559	25.82
288.026	5.72
288.494	12.02
288.962	3.92
289.429	11.12
289.897	17.62
290.364	10.32
290.832	15.62
291.3	13.62
291.767	13.82
292.234	12.62
292.702	10.72
293.169	13.42
293.637	14.72
294.104	17.02
294.571	8.92
295.039	10.22
295.506	7.52
295.973	19.92
296.44	15.52
296.908	11.82
297.375	17.72
297.842	12.02
298.309	12.62
298.776	6.92
299.243	16.32
299.71	15.72
300.177	26.32
300.644	23.12
301.111	22.02
301.578	20.92
302.045	8.92
302.512	23.82
302.979	18.92
303.446	17.72
303.913	16.12
304.379	11.22
304.846	21.42
305.313	22.32
305.78	21.42
306.246	22.92
306.713	20.12
307.18	23.52
307.646	24.62
308.113	23.62
308.579	19.22
309.046	20.02
309.512	23.12
309.979	13.32
310.445	20.82
310.912	24.82
311.378	26.42
311.845	23.92
312.311	26.32
312.777	25.92
313.244	33.52
313.71	37.72
314.176	27.92
314.642	31.62
315.109	26.72
315.575	31.52
316.041	35.52
316.507	31.62
316.973	32.52
317.439	28.02
317.905	32.62
318.371	33.02
318.837	37.22
319.303	35.92
319.769	26.22
320.235	35.52
320.701	27.62
321.167	35.12
321.633	30.42
322.099	34.92
322.564	38.42
323.03	39.92
323.496	33.72
323.962	33.92
324.427	37.02
324.893	36.12
325.359	31.62
325.824	36.02
326.29	34.42
326.755	35.02
327.221	40.42
327.686	36.12
328.152	43.62
328.617	38.72
329.083	43.42
329.548	41.62
330.014	37.12
330.479	34.92
330.944	43.12
331.41	42.92
331.875	47.02
332.34	37.52
332.805	37.02
333.271	44.32
333.736	41.12
334.201	55.92
334.666	46.12
335.131	42.92
335.596	51.72
336.061	49.82
336.526	37.52
336.991	50.62
337.456	50.42
337.921	48.62
338.386	40.52
338.851	40.02
339.316	41.82
339.781	42.02
340.246	49.72
340.711	45.02
341.175	46.52
341.64	40.62
342.105	49.42
342.569	50.12
343.034	59.42
343.499	50.52
343.963	48.82
344.428	61.12
344.893	57.12
345.357	60.32
345.822	54.32
346.286	66.92
346.751	64.42
347.215	65.52
347.679	73.42
348.144	90.92
348.608	72.62
349.073	63.72
349.537	70.62
350.001	69.72
350.465	84.02
350.93	70.02
351.394	73.72
351.858	65.22
352.322	87.52
352.786	75.82
353.25	85.12
353.715	98.92
354.179	93.22
354.643	108.92
355.107	108.82
355.571	99.42
356.035	97.02
356.498	104.82
356.962	115.02
357.426	118.12
357.89	105.02
358.354	84.42
358.818	74.02
359.281	79.82
359.745	73.72
360.209	73.02
360.673	64.22
361.136	71.82
361.6	86.52
362.064	81.72
362.527	79.52
362.991	82.52
363.454	72.22
363.918	68.52
364.381	69.22
364.845	77.12
365.308	82.62
365.772	78.72
366.235	81.32
366.698	74.72
367.162	83.92
367.625	78.62
368.088	84.92
368.552	85.72
369.015	84.82
369.478	92.92
369.941	96.42
370.404	90.22
370.867	96.82
371.331	95.22
371.794	110.82
372.257	105.92
372.72	105.72
373.183	101.72
373.646	97.22
374.109	103.92
374.572	98.12
375.035	94.52
375.497	100.72
375.96	100.92
376.423	101.12
376.886	108.32
377.349	105.12
377.811	105.32
378.274	98.32
378.737	111.42
379.199	108.22
379.662	107.22
380.125	115.82
380.587	114.72
381.05	116.22
381.512	128.32
381.975	129.32
382.437	123.82
382.9	122.52
383.362	126.22
383.825	139.12
384.287	144.32
384.75	134.42
385.212	141.12
385.674	136.72
386.136	134.42
386.599	123.82
387.061	121.52
387.523	125.22
387.985	128.32
388.447	143.12
388.91	137.22
389.372	152.02
389.834	149.72
390.296	138.12
390.758	156.72
391.22	168.62
391.682	206.22
392.144	287.22
392.606	224.32
393.068	162.52
393.529	161.82
393.991	148.22
394.453	146.52
394.915	155.22
395.377	191.12
395.838	219.92
396.3	153.12
396.762	132.82
397.224	128.62
397.685	126.12
398.147	129.22
398.608	130.12
399.07	127.42
399.531	129.12
399.993	139.12
400.454	146.42
400.916	145.12
401.377	142.72
401.839	148.12
402.3	144.12
402.762	168.22
403.223	173.92
403.684	166.32
404.145	156.92
404.607	157.32
405.068	160.82
405.529	164.02
405.99	185.02
406.451	171.42
406.913	168.82
407.374	160.22
407.835	157.12
408.296	171.42
408.757	170.82
409.218	176.92
409.679	175.32
410.14	179.92
410.601	174.12
411.062	183.82
411.522	189.52
411.983	188.22
412.444	170.72
412.905	176.72
413.366	178.02
413.826	189.92
414.287	218.12
414.748	259.52
415.208	238.32
415.669	207.82
416.13	203.12
416.59	204.22
417.051	210.52
417.511	211.42
417.972	232.12
418.432	239.52
418.893	283.52
419.353	243.82
419.814	195.62
420.274	180.82
420.734	175.22
421.195	196.12
421.655	187.92
422.115	196.22
422.576	190.72
423.036	198.22
423.496	207.72
423.956	214.72
424.416	222.72
424.876	262.02
425.336	245.22
425.797	251.12
426.257	253.32
426.717	238.32
427.177	230.72
427.637	222.82
428.097	226.52
428.556	244.72
429.016	268.62
429.476	263.42
429.936	262.42
430.396	272.62
430.856	290.52
431.315	313.42
431.775	349.12
432.235	376.42
432.694	342.82
433.154	356.12
433.614	390.52
434.073	337.92
434.533	283.52
434.993	271.92
435.452	280.82
435.912	294.72
436.371	280.52
436.83	273.12
437.29	258.32
437.749	240.32
438.209	242.22
438.668	268.62
439.127	279.82
439.587	264.52
440.046	233.72
440.505	260.02
440.964	274.22
441.424	317.12
441.883	305.22
442.342	249.72
442.801	222.12
443.26	218.52
443.719	220.52
444.178	214.62
444.637	211.32
445.096	218.82
445.555	218.12
446.014	223.32
446.473	227.72
446.932	232.42
447.391	219.02
447.849	229.72
448.308	215.02
448.767	227.42
449.226	236.72
449.685	233.12
450.143	244.22
450.602	230.82
451.061	220.52
451.519	232.52
451.978	231.42
452.436	226.92
452.895	245.02
453.353	249.32
453.812	237.62
454.27	244.22
454.729	242.72
455.187	237.52
455.646	242.52
456.104	249.32
456.562	255.52
457.021	271.42
457.479	267.82
457.937	265.02
458.395	258.22
458.854	243.22
459.312	251.32
459.77	275.32
460.228	251.92
460.686	237.02
461.144	242.22
461.602	247.52
462.06	241.12
462.518	247.02
462.976	251.22
463.434	252.52
463.892	261.32
464.35	277.22
464.808	291.22
465.266	268.32
465.724	269.42
466.181	272.42
466.639	269.82
467.097	287.62
467.555	290.82
468.012	297.12
468.47	306.22
468.928	321.42
469.385	339.52
469.843	343.62
470.3	339.82
470.758	356.62
471.215	392.42
471.673	404.42
472.13	405.12
472.588	417.82
473.045	377.02
473.503	375.92
473.96	381.52
474.417	401.02
474.875	428.52
475.332	473.12
475.789	464.42
476.246	468.02
476.704	481.72
477.161	505.12
477.618	526.22
478.075	556.02
478.532	616.72
478.989	684.22
479.446	789.72
479.903	772.72
480.36	802.72
480.817	852.92
481.274	961.22
481.731	1062.32
482.188	1148.42
482.645	1281.52
483.102	1391.72
483.558	1525.42
484.015	1571.82
484.472	1535.72
484.929	1495.22
485.385	1449.12
485.842	1399.22
486.299	1341.72
486.755	1289.22
487.212	1085.62
487.668	923.42
488.125	845.32
488.582	772.52
489.038	750.62
489.494	702.12
489.951	684.82
490.407	659.42
490.864	643.62
491.32	636.52
491.776	635.32
492.233	635.42
492.689	612.52
493.145	600.12
493.602	597.32
494.058	612.52
494.514	616.22
494.97	636.42
495.426	643.12
495.882	612.82
496.338	602.52
496.794	621.52
497.251	618.52
497.707	619.72
498.163	630.62
498.618	636.42
499.074	641.02
499.53	666.92
499.986	677.52
500.442	646.52
500.898	625.12
501.354	620.42
501.809	637.92
502.265	645.72
502.721	667.32
503.177	671.72
503.632	675.42
504.088	677.72
504.543	705.32
504.999	707.82
505.455	655.72
505.91	637.12
506.366	632.52
506.821	627.72
507.277	619.62
507.732	623.82
508.187	619.32
508.643	630.02
509.098	631.62
509.553	655.02
510.009	660.22
510.464	677.42
510.919	677.12
511.375	697.32
511.83	709.82
512.285	716.12
512.74	751.42
513.195	784.12
513.65	770.02
514.105	758.12
514.56	769.62
515.015	788.02
515.47	802.32
515.925	785.62
516.38	790.42
516.835	793.12
517.29	775.22
517.745	773.32
518.2	767.62
518.655	744.82
519.109	737.82
519.564	748.12
520.019	727.32
520.474	725.52
520.928	715.62
521.383	726.22
521.838	709.22
522.292	710.32
522.747	705.32
523.201	701.22
523.656	693.62
524.11	693.12
524.565	695.02
525.019	682.12
525.474	708.82
525.928	694.42
526.382	696.52
526.837	691.62
527.291	695.82
527.745	689.52
528.2	689.22
528.654	694.42
529.108	690.12
529.562	695.02
530.016	683.22
530.47	682.22
530.925	690.82
531.379	693.22
531.833	706.42
532.287	693.72
532.741	709.72
533.195	707.82
533.649	708.22
534.103	716.62
534.556	707.02
535.01	709.72
535.464	702.52
535.918	710.62
536.372	719.12
536.826	714.02
537.279	695.32
537.733	710.12
538.187	711.22
538.64	712.12
539.094	726.12
539.548	725.32
540.001	720.92
540.455	719.92
540.908	732.62
541.362	738.32
541.815	752.92
542.269	758.32
542.722	755.92
543.175	772.22
543.629	758.62
544.082	794.02
544.536	794.12
544.989	791.82
545.442	798.22
545.895	791.62
546.349	780.32
546.802	784.32
547.255	798.02
547.708	798.12
548.161	813.22
548.614	813.82
549.067	814.92
549.52	820.12
549.973	815.92
550.426	805.72
550.879	793.02
551.332	795.42
551.785	795.42
552.238	801.12
552.691	816.32
553.144	831.42
553.596	847.02
554.049	858.82
554.502	893.92
554.955	906.32
555.407	898.82
555.86	890.02
556.313	893.92
556.765	877.62
557.218	882.22
557.67	875.22
558.123	872.72
558.576	869.22
559.028	883.02
559.48	880.92
559.933	867.82
560.385	843.52
560.838	805.82
561.29	781.02
561.742	786.92
562.195	775.42
562.647	760.62
563.099	788.42
563.551	767.92
564.004	782.62
564.456	767.12
564.908	764.02
565.36	757.32
565.812	736.02
566.264	727.82
566.716	727.02
567.168	718.42
567.62	721.52
568.072	707.32
568.524	690.82
568.976	693.92
569.428	685.32
569.88	679.32
570.332	690.42
570.784	690.82
571.235	676.52
571.687	694.82
572.139	703.82
572.59	710.62
573.042	708.52
573.494	710.42
573.945	698.42
574.397	682.22
574.849	689.52
575.3	696.32
575.752	685.52
576.203	689.22
576.655	675.22
577.106	670.92
577.557	672.32
578.009	679.42
578.46	663.12
578.912	662.32
579.363	668.22
579.814	665.52
580.265	664.72
580.717	663.92
581.168	671.02
581.619	678.72
582.07	692.22
582.521	679.32
582.972	672.42
583.423	677.02
583.875	681.52
584.326	707.52
584.777	751.82
585.227	821.92
585.678	919.92
586.129	1007.62
586.58	1069.52
587.031	1159.12
587.482	1309.02
587.933	1485.62
588.384	1287.32
588.834	964.82
589.285	801.82
589.736	782.62
590.186	774.12
590.637	778.72
591.088	752.22
591.538	737.42
591.989	722.72
592.439	725.72
592.89	728.22
593.34	711.42
593.791	708.32
594.241	707.92
594.692	712.22
595.142	705.02
595.593	704.82
596.043	702.82
596.493	716.62
596.943	711.32
597.394	715.62
597.844	711.02
598.294	737.32
598.744	754.22
599.195	785.22
599.645	822.32
600.095	852.52
600.545	908.52
600.995	972.72
601.445	1034.02
601.895	1087.62
602.345	1131.22
602.795	1120.02
603.245	1081.72
603.695	1010.32
604.145	957.12
604.594	907.52
605.044	865.42
605.494	802.52
605.944	763.32
606.393	743.82
606.843	723.52
607.293	736.22
607.743	740.42
608.192	758.42
608.642	760.72
609.091	769.72
609.541	767.52
609.99	775.62
610.44	763.12
610.889	720.22
611.339	713.62
611.788	694.72
612.238	702.02
612.687	721.12
613.136	721.02
613.586	743.92
614.035	740.82
614.484	746.22
614.933	758.62
615.383	749.02
615.832	739.42
616.281	724.12
616.73	688.32
617.179	674.52
617.628	648.42
618.077	636.62
618.526	631.12
618.975	623.92
619.424	616.02
619.873	627.52
620.322	619.52
620.771	618.72
621.22	611.22
621.669	594.82
622.118	593.02
622.567	588.82
623.015	574.12
623.464	568.82
623.913	559.62
624.361	560.52
624.81	551.32
625.259	557.12
625.707	557.72
626.156	562.12
626.604	572.72
627.053	569.42
627.501	569.82
627.95	569.82
628.398	579.72
628.847	569.72
629.295	576.72
629.744	573.72
630.192	576.62
630.64	571.22
631.089	563.82
631.537	584.42
631.985	584.02
632.433	598.22
632.881	618.02
633.33	664.22
633.778	646.32
634.226	573.42
634.674	575.22
635.122	579.92
635.57	604.62
636.018	634.22
636.466	580.42
636.914	565.42
637.362	576.72
637.81	569.62
638.258	575.72
638.705	589.62
639.153	616.12
639.601	620.82
640.049	640.62
640.497	674.52
640.944	707.12
641.392	644.22
641.84	615.12
642.287	590.02
642.735	577.22
643.182	577.72
643.63	577.32
644.078	580.22
644.525	590.62
644.973	601.62
645.42	613.72
645.867	628.62
646.315	650.22
646.762	669.42
647.21	693.42
647.657	722.32
648.104	752.82
648.551	779.32
648.999	841.62
649.446	919.42
649.893	1017.62
650.34	1184.02
650.787	1415.72
651.234	1748.92
651.682	2297.42
652.129	3139.62
652.576	4513.02
653.023	6653.82
653.47	9130.72
653.917	11357.82
654.363	13016.82
654.81	14330.22
655.257	13651.92
655.704	8909.42
656.151	5285.92
656.598	3414.72
657.044	2431.02
657.491	1856.62
657.938	1496.52
658.385	1244.62
658.831	1088.02
659.278	968.52
659.724	851.22
660.171	797.02
660.618	718.92
661.064	690.72
661.511	665.52
661.957	659.52
662.404	647.32
662.85	660.82
663.296	628.42
663.743	561.92
664.189	545.02
664.635	538.42
665.082	534.92
665.528	522.72
665.974	525.12
666.42	518.22
666.867	506.02
667.313	490.32
667.759	480.52
668.205	482.52
668.651	494.12
669.097	482.92
669.543	494.92
669.989	470.02
670.435	452.32
670.881	447.62
671.327	454.72
671.773	477.22
672.219	496.52
672.665	547.32
673.11	599.42
673.556	633.92
674.002	665.42
674.448	654.82
674.893	551.62
675.339	475.92
675.785	439.42
676.23	423.32
676.676	390.22
677.122	383.62
677.567	371.32
678.013	375.82
678.458	363.12
678.904	365.82
679.349	349.42
679.794	358.52
680.24	362.22
680.685	350.02
681.131	349.92
681.576	346.82
682.021	356.72
682.466	346.12
682.912	345.82
683.357	354.72
683.802	387.32
684.247	413.92
684.692	460.92
685.137	498.02
685.583	541.82
686.028	556.02
686.473	518.42
686.918	438.72
687.363	415.72
687.807	392.72
688.252	362.92
688.697	364.42
689.142	335.22
689.587	329.82
690.032	331.22
690.477	347.22
690.921	360.02
691.366	386.32
691.811	400.72
692.255	430.22
692.7	463.02
693.145	504.22
693.589	715.62
694.034	1161.12
694.478	1550.22
694.923	1733.12
695.367	2257.42
695.812	1196.62
696.256	500.42
696.701	369.02
697.145	347.52
697.59	334.82
698.034	323.72
698.478	328.12
698.922	332.92
699.367	334.52
699.811	346.32
700.255	359.12
700.699	390.02
701.143	432.12
701.588	476.12
702.032	517.62
702.476	516.92
702.92	496.72
703.364	498.42
703.808	657.32
704.252	1059.02
704.696	1466.52
705.14	1676.72
705.584	2121.12
706.027	1067.72
706.471	524.92
706.915	403.22
707.359	344.92
707.803	312.32
708.246	308.92
708.69	318.82
709.134	316.12
709.577	317.12
710.021	322.72
710.465	305.72
710.908	307.02
711.352	307.62
711.795	313.92
712.239	356.32
712.682	387.92
713.126	415.12
713.569	460.42
714.012	372.02
714.456	329.12
714.899	309.02
715.342	276.82
715.786	262.52
716.229	260.72
716.672	259.52
717.115	250.72
717.558	255.02
718.002	250.62
718.445	263.02
718.888	285.52
719.331	291.72
719.774	314.52
720.217	304.62
720.66	281.22
721.103	269.62
721.546	253.72
721.989	247.92
722.432	229.22
722.874	248.82
723.317	233.42
723.76	235.92
724.203	253.12
724.645	324.92
725.088	464.92
725.531	572.42
725.974	631.62
726.416	550.72
726.859	308.32
727.301	249.52
727.744	239.32
728.187	232.72
728.629	241.52
729.071	245.32
729.514	264.12
729.956	275.42
730.399	285.92
730.841	289.42
731.283	277.02
731.726	273.22
732.168	263.72
732.61	265.62
733.053	290.92
733.495	328.32
733.937	352.52
734.379	406.32
734.821	436.52
735.263	553.02
735.705	858.92
736.148	1635.22
736.59	2610.62
737.032	3025.12
737.474	2483.32
737.916	810.42
738.357	427.42
738.799	334.82
739.241	294.22
739.683	289.02
740.125	287.82
740.567	296.22
741.008	314.42
741.45	316.42
741.892	320.72
742.334	346.82
742.775	365.72
743.217	342.22
743.658	270.42
744.1	253.22
744.542	269.92
744.983	313.52
745.425	345.92
745.866	347.92
746.307	286.52
746.749	290.42
747.19	332.12
747.632	465.82
748.073	903.72
748.514	1909.22
748.956	2870.22
749.397	3586.62
749.838	2983.92
750.279	2941.22
750.72	1490.02
751.162	554.12
751.603	323.12
752.044	252.42
752.485	224.72
752.926	213.82
753.367	198.52
753.808	192.52
754.249	194.02
754.69	185.62
755.131	178.72
755.572	183.52
756.013	172.32
756.453	187.92
756.894	192.62
757.335	193.52
757.776	199.62
758.216	195.72
758.657	203.52
759.098	204.12
759.538	236.02
759.979	274.42
760.42	378.82
760.86	723.92
761.301	1881.32
761.741	4508.82
762.182	6407.32
762.622	4485.72
763.063	1317.82
