Data from 20171114-ORNL-Ar_H_NY_Subt18_08-06-01-899.txt Node
Date: Tue Nov 14 08:06:01 EST 2017
User: Ender
Spectrometer: HR+D1039
Trigger mode: 0
Integration Time (sec): 2.730000E-2
Scans to average: 10
Electric dark correction enabled: true
Nonlinearity correction enabled: false
Boxcar width: 0
XAxis mode: Wavelengths
Number of Pixels in Spectrum: 2048
>>>>>Begin Spectral Data<<<<<
187.836	-3.28
188.309	-3.28
188.782	-3.28
189.255	2.92
189.728	-4.28
190.201	8.72
190.674	1.22
191.147	1.42
191.619	-3.68
192.092	0.82
192.565	3.02
193.038	-0.08
193.511	-3.28
193.984	0.02
194.456	-4.88
194.929	1.82
195.402	-0.58
195.874	0.12
196.347	-0.38
196.82	-3.58
197.292	1.62
197.765	-1.08
198.237	-5.68
198.71	2.12
199.182	-4.78
199.655	9.92
200.127	3.42
200.6	-4.38
201.072	-5.68
201.544	-3.28
202.017	-4.58
202.489	-1.68
202.961	0.12
203.433	-2.18
203.906	-10.38
204.378	-4.78
204.85	-1.38
205.322	-4.08
205.794	-0.18
206.266	-0.58
206.739	-6.38
207.211	0.42
207.683	-4.68
208.155	-5.88
208.627	-4.68
209.099	-5.88
209.57	-1.28
210.042	-3.18
210.514	-1.48
210.986	-2.68
211.458	-10.18
211.93	-0.88
212.402	6.82
212.873	-3.08
213.345	-9.08
213.817	-7.48
214.288	-3.28
214.76	-11.48
215.232	-9.88
215.703	-2.58
216.175	-0.58
216.646	-9.68
217.118	-6.98
217.589	-8.28
218.061	-4.48
218.532	-6.38
219.004	0.72
219.475	-3.18
219.946	2.52
220.418	-6.98
220.889	6.42
221.36	-1.78
221.832	-7.08
222.303	-10.08
222.774	-1.48
223.245	-8.28
223.717	-5.48
224.188	-6.58
224.659	-4.98
225.13	-7.98
225.601	3.02
226.072	-0.48
226.543	-0.18
227.014	-1.68
227.485	-7.68
227.956	-6.48
228.427	2.62
228.898	-2.08
229.369	2.52
229.839	-4.48
230.31	-9.88
230.781	-2.08
231.252	0.42
231.722	-2.18
232.193	-5.28
232.664	1.52
233.135	-1.88
233.605	-1.58
234.076	-0.88
234.546	6.52
235.017	1.12
235.487	-0.58
235.958	2.82
236.428	0.12
236.899	5.82
237.369	-0.98
237.84	6.12
238.31	6.62
238.78	2.32
239.251	-3.18
239.721	2.72
240.191	4.12
240.662	-1.18
241.132	1.02
241.602	-0.98
242.072	0.52
242.542	2.22
243.013	1.62
243.483	3.22
243.953	3.62
244.423	0.72
244.893	0.02
245.363	1.92
245.833	-1.38
246.303	-4.18
246.773	-0.08
247.243	0.62
247.712	0.72
248.182	5.02
248.652	9.42
249.122	-3.48
249.592	8.82
250.061	22.42
250.531	30.82
251.001	14.72
251.471	20.22
251.94	18.02
252.41	12.22
252.879	6.12
253.349	14.42
253.818	10.82
254.288	4.12
254.757	8.42
255.227	6.12
255.696	6.42
256.166	4.12
256.635	8.62
257.105	5.62
257.574	5.72
258.043	0.72
258.513	13.72
258.982	20.62
259.451	4.42
259.92	9.82
260.389	8.92
260.859	16.52
261.328	14.72
261.797	10.82
262.266	7.72
262.735	6.92
263.204	10.02
263.673	1.22
264.142	0.92
264.611	-6.48
265.08	2.02
265.549	-3.38
266.018	2.22
266.487	-2.58
266.955	2.52
267.424	4.82
267.893	6.52
268.362	-1.28
268.83	8.62
269.299	11.92
269.768	5.42
270.236	9.12
270.705	2.62
271.174	7.42
271.642	9.42
272.111	13.32
272.579	21.52
273.048	25.42
273.516	32.82
273.985	25.22
274.453	22.42
274.922	22.32
275.39	6.92
275.858	6.82
276.327	12.42
276.795	14.32
277.263	7.32
277.731	28.52
278.2	52.02
278.668	59.12
279.136	46.62
279.604	21.62
280.072	16.12
280.54	11.82
281.008	13.72
281.477	16.12
281.945	15.12
282.413	10.82
282.881	14.92
283.348	10.22
283.816	7.42
284.284	13.62
284.752	18.32
285.22	10.12
285.688	15.62
286.156	20.72
286.623	42.02
287.091	55.22
287.559	32.42
288.026	21.42
288.494	14.82
288.962	9.42
289.429	10.82
289.897	28.52
290.364	19.52
290.832	21.92
291.3	16.32
291.767	23.52
292.234	19.32
292.702	17.62
293.169	18.12
293.637	22.02
294.104	15.72
294.571	13.52
295.039	18.82
295.506	17.22
295.973	17.12
296.44	18.82
296.908	17.92
297.375	23.52
297.842	19.92
298.309	22.32
298.776	19.82
299.243	15.02
299.71	17.72
300.177	21.12
300.644	25.02
301.111	25.62
301.578	28.52
302.045	20.52
302.512	25.62
302.979	26.52
303.446	22.92
303.913	25.72
304.379	20.72
304.846	23.72
305.313	26.12
305.78	20.62
306.246	25.82
306.713	32.92
307.18	26.32
307.646	34.22
308.113	27.32
308.579	23.92
309.046	22.62
309.512	25.42
309.979	19.32
310.445	30.32
310.912	28.12
311.378	35.72
311.845	26.52
312.311	34.22
312.777	36.62
313.244	32.02
313.71	37.32
314.176	33.72
314.642	35.52
315.109	26.32
315.575	38.22
316.041	42.72
316.507	36.02
316.973	41.02
317.439	34.42
317.905	37.42
318.371	36.72
318.837	37.22
319.303	35.42
319.769	34.52
320.235	40.82
320.701	36.92
321.167	31.42
321.633	37.52
322.099	36.52
322.564	49.42
323.03	42.32
323.496	41.02
323.962	41.72
324.427	34.32
324.893	43.32
325.359	37.22
325.824	41.02
326.29	39.62
326.755	39.92
327.221	47.52
327.686	49.12
328.152	48.32
328.617	41.72
329.083	45.12
329.548	52.82
330.014	48.22
330.479	43.02
330.944	45.82
331.41	46.52
331.875	48.02
332.34	49.02
332.805	44.22
333.271	49.12
333.736	48.92
334.201	52.22
334.666	57.12
335.131	61.32
335.596	51.52
336.061	54.32
336.526	46.92
336.991	49.02
337.456	62.92
337.921	51.42
338.386	53.92
338.851	48.32
339.316	49.32
339.781	47.12
340.246	57.42
340.711	51.62
341.175	50.92
341.64	49.22
342.105	49.62
342.569	58.12
343.034	65.72
343.499	60.62
343.963	56.42
344.428	65.42
344.893	63.92
345.357	66.82
345.822	63.42
346.286	65.62
346.751	80.62
347.215	70.52
347.679	78.02
348.144	102.32
348.608	83.92
349.073	64.62
349.537	78.12
350.001	84.42
350.465	98.72
350.93	84.42
351.394	85.62
351.858	79.62
352.322	92.82
352.786	85.32
353.25	109.62
353.715	108.82
354.179	102.42
354.643	118.12
355.107	133.22
355.571	113.82
356.035	115.52
356.498	127.02
356.962	135.72
357.426	140.82
357.89	126.32
358.354	92.62
358.818	86.32
359.281	82.82
359.745	79.32
360.209	82.92
360.673	82.42
361.136	86.12
361.6	87.22
362.064	86.62
362.527	86.12
362.991	90.02
363.454	93.02
363.918	83.32
364.381	90.12
364.845	81.92
365.308	89.82
365.772	94.52
366.235	88.42
366.698	91.22
367.162	89.72
367.625	89.62
368.088	93.92
368.552	95.72
369.015	96.52
369.478	98.62
369.941	105.02
370.404	97.52
370.867	103.02
371.331	109.72
371.794	121.52
372.257	115.62
372.72	118.92
373.183	121.32
373.646	109.72
374.109	107.32
374.572	109.82
375.035	115.32
375.497	112.02
375.96	113.92
376.423	107.82
376.886	121.22
377.349	112.92
377.811	105.02
378.274	107.42
378.737	118.72
379.199	119.52
379.662	121.12
380.125	119.42
380.587	122.82
381.05	125.42
381.512	128.62
381.975	143.32
382.437	130.22
382.9	128.92
383.362	135.42
383.825	151.62
384.287	155.42
384.75	149.42
385.212	145.52
385.674	145.62
386.136	138.72
386.599	134.42
387.061	140.72
387.523	133.62
387.985	133.42
388.447	154.72
388.91	156.32
389.372	172.32
389.834	159.92
390.296	156.42
390.758	167.32
391.22	180.72
391.682	212.92
392.144	303.62
392.606	241.32
393.068	175.82
393.529	172.22
393.991	162.12
394.453	164.22
394.915	156.72
395.377	196.72
395.838	219.12
396.3	158.82
396.762	148.42
397.224	135.82
397.685	143.82
398.147	134.82
398.608	139.52
399.07	136.52
399.531	143.62
399.993	146.62
400.454	164.62
400.916	157.12
401.377	149.12
401.839	155.72
402.3	152.12
402.762	177.22
403.223	190.92
403.684	181.32
404.145	174.72
404.607	166.72
405.068	174.62
405.529	180.62
405.99	198.42
406.451	188.62
406.913	185.62
407.374	169.32
407.835	165.92
408.296	172.12
408.757	181.02
409.218	194.42
409.679	189.82
410.14	182.52
410.601	185.92
411.062	202.02
411.522	204.02
411.983	200.72
412.444	182.12
412.905	187.12
413.366	188.72
413.826	200.42
414.287	228.32
414.748	270.72
415.208	260.32
415.669	228.12
416.13	219.62
416.59	211.02
417.051	218.62
417.511	235.92
417.972	239.82
418.432	259.02
418.893	298.82
419.353	264.02
419.814	200.32
420.274	193.02
420.734	192.82
421.195	214.12
421.655	198.82
422.115	208.32
422.576	200.12
423.036	206.22
423.496	215.62
423.956	225.92
424.416	243.02
424.876	283.42
425.336	273.52
425.797	279.62
426.257	270.72
426.717	249.52
427.177	239.32
427.637	230.12
428.097	247.42
428.556	258.32
429.016	274.42
429.476	275.32
429.936	296.52
430.396	292.92
430.856	305.22
431.315	334.42
431.775	371.52
432.235	405.72
432.694	366.92
433.154	391.22
433.614	416.92
434.073	363.62
434.533	299.12
434.993	287.72
435.452	291.72
435.912	310.42
436.371	304.02
436.83	293.82
437.29	279.82
437.749	265.42
438.209	264.22
438.668	295.72
439.127	298.72
439.587	275.62
440.046	255.62
440.505	273.72
440.964	288.82
441.424	337.92
441.883	325.22
442.342	276.92
442.801	236.22
443.26	227.52
443.719	227.22
444.178	226.92
444.637	222.32
445.096	238.02
445.555	232.52
446.014	235.62
446.473	239.52
446.932	245.12
447.391	232.82
447.849	233.72
448.308	222.52
448.767	232.12
449.226	243.62
449.685	238.12
450.143	260.32
450.602	249.62
451.061	243.02
451.519	240.72
451.978	239.82
452.436	240.02
452.895	251.12
453.353	259.22
453.812	250.22
454.27	250.02
454.729	246.52
455.187	254.62
455.646	261.32
456.104	250.32
456.562	273.62
457.021	276.52
457.479	267.42
457.937	281.62
458.395	277.22
458.854	263.32
459.312	265.22
459.77	289.82
460.228	268.82
460.686	254.52
461.144	254.32
461.602	257.32
462.06	251.32
462.518	275.12
462.976	261.92
463.434	266.32
463.892	273.42
464.35	286.12
464.808	294.82
465.266	272.42
465.724	288.62
466.181	286.42
466.639	277.22
467.097	307.02
467.555	310.22
468.012	313.82
468.47	320.72
468.928	343.62
469.385	360.72
469.843	362.62
470.3	359.42
470.758	379.22
471.215	402.42
471.673	423.72
472.13	418.52
472.588	435.32
473.045	387.42
473.503	394.32
473.96	413.02
474.417	422.22
474.875	450.42
475.332	490.42
475.789	482.32
476.246	484.52
476.704	503.62
477.161	525.02
477.618	558.22
478.075	585.32
478.532	640.52
478.989	717.02
479.446	844.32
479.903	800.12
480.36	834.12
480.817	901.92
481.274	1000.72
481.731	1104.02
482.188	1212.52
482.645	1358.52
483.102	1461.52
483.558	1599.22
484.015	1652.72
484.472	1620.52
484.929	1578.52
485.385	1534.72
485.842	1489.22
486.299	1420.52
486.755	1361.02
487.212	1132.62
487.668	962.42
488.125	880.92
488.582	805.02
489.038	772.82
489.494	740.82
489.951	713.22
490.407	693.72
490.864	667.32
491.32	668.22
491.776	661.22
492.233	675.22
492.689	639.42
493.145	629.22
493.602	624.52
494.058	635.22
494.514	635.12
494.97	658.22
495.426	669.92
495.882	638.02
496.338	633.52
496.794	649.42
497.251	644.12
497.707	660.02
498.163	663.82
498.618	658.52
499.074	668.62
499.53	699.52
499.986	709.82
500.442	680.72
500.898	649.72
501.354	639.42
501.809	655.02
502.265	660.02
502.721	681.72
503.177	690.52
503.632	683.42
504.088	700.02
504.543	733.92
504.999	732.62
505.455	672.42
505.91	658.52
506.366	658.12
506.821	646.12
507.277	636.62
507.732	648.92
508.187	644.52
508.643	657.52
509.098	657.82
509.553	680.42
510.009	683.32
510.464	690.92
510.919	703.62
511.375	722.82
511.83	730.42
512.285	738.92
512.74	778.42
513.195	807.22
513.65	796.72
514.105	780.72
514.56	791.22
515.015	818.62
515.47	825.62
515.925	815.22
516.38	808.42
516.835	817.02
517.29	803.12
517.745	793.12
518.2	792.82
518.655	769.32
519.109	767.02
519.564	759.62
520.019	756.02
520.474	739.72
520.928	741.82
521.383	737.72
521.838	730.72
522.292	737.22
522.747	727.72
523.201	726.72
523.656	722.02
524.11	717.22
524.565	719.02
525.019	714.52
525.474	737.22
525.928	715.02
526.382	706.82
526.837	716.72
527.291	727.22
527.745	713.12
528.2	717.92
528.654	709.32
529.108	711.32
529.562	707.62
530.016	717.82
530.47	713.82
530.925	710.92
531.379	716.52
531.833	726.02
532.287	711.42
532.741	724.12
533.195	720.72
533.649	735.42
534.103	731.92
534.556	729.62
535.01	733.22
535.464	735.12
535.918	735.22
536.372	733.52
536.826	732.82
537.279	727.72
537.733	729.52
538.187	735.22
538.64	726.72
539.094	744.42
539.548	743.42
540.001	745.72
540.455	739.72
540.908	751.82
541.362	753.62
541.815	771.72
542.269	772.12
542.722	777.12
543.175	795.32
543.629	788.42
544.082	808.02
544.536	806.02
544.989	798.32
545.442	814.62
545.895	809.92
546.349	806.42
546.802	804.82
547.255	819.52
547.708	824.82
548.161	832.42
548.614	845.32
549.067	845.82
549.52	834.72
549.973	831.22
550.426	834.72
550.879	807.22
551.332	815.02
551.785	821.22
552.238	820.52
552.691	834.92
553.144	851.02
553.596	867.22
554.049	883.22
554.502	916.42
554.955	922.32
555.407	929.12
555.86	926.22
556.313	907.22
556.765	906.02
557.218	904.42
557.67	895.82
558.123	890.32
558.576	894.42
559.028	899.12
559.48	899.62
559.933	894.12
560.385	854.12
560.838	821.52
561.29	796.72
561.742	790.12
562.195	787.32
562.647	777.82
563.099	788.92
563.551	776.62
564.004	794.62
564.456	790.42
564.908	781.52
565.36	758.52
565.812	750.32
566.264	744.72
566.716	739.62
567.168	722.42
567.62	732.02
568.072	710.72
568.524	700.52
568.976	703.52
569.428	682.82
569.88	682.12
570.332	692.32
570.784	690.12
571.235	690.72
571.687	707.92
572.139	715.82
572.59	719.82
573.042	732.92
573.494	721.92
573.945	720.02
574.397	698.02
574.849	704.42
575.3	697.22
575.752	693.92
576.203	689.92
576.655	693.72
577.106	689.42
577.557	675.02
578.009	691.92
578.46	670.92
578.912	674.42
579.363	676.12
579.814	676.42
580.265	672.52
580.717	678.02
581.168	680.42
581.619	683.62
582.07	697.42
582.521	685.82
582.972	682.22
583.423	688.12
583.875	687.92
584.326	704.82
584.777	753.92
585.227	826.92
585.678	909.72
586.129	997.82
586.58	1069.22
587.031	1135.62
587.482	1296.42
587.933	1480.72
588.384	1298.12
588.834	979.42
589.285	807.02
589.736	790.42
590.186	791.52
590.637	774.12
591.088	755.32
591.538	753.62
591.989	745.62
592.439	735.42
592.89	732.72
593.34	715.62
593.791	717.22
594.241	711.02
594.692	714.92
595.142	703.22
595.593	707.32
596.043	714.32
596.493	722.32
596.943	723.82
597.394	724.12
597.844	722.62
598.294	732.22
598.744	754.62
599.195	774.82
599.645	826.62
600.095	860.52
600.545	914.32
600.995	972.92
601.445	1041.22
601.895	1105.22
602.345	1131.22
602.795	1127.02
603.245	1062.32
603.695	1025.22
604.145	971.52
604.594	914.12
605.044	857.72
605.494	799.02
605.944	757.82
606.393	752.62
606.843	735.62
607.293	744.62
607.743	736.72
608.192	752.32
608.642	764.82
609.091	776.32
609.541	773.82
609.99	779.02
610.44	767.92
610.889	727.92
611.339	708.32
611.788	688.32
612.238	697.12
612.687	716.72
613.136	711.52
613.586	741.82
614.035	739.62
614.484	756.22
614.933	755.62
615.383	749.52
615.832	744.32
616.281	736.12
616.73	683.62
617.179	668.22
617.628	660.62
618.077	632.92
618.526	631.12
618.975	619.82
619.424	617.02
619.873	614.92
620.322	618.92
620.771	603.42
621.22	608.72
621.669	597.12
622.118	591.52
622.567	578.22
623.015	575.82
623.464	583.32
623.913	567.52
624.361	558.22
624.81	551.42
625.259	559.12
625.707	558.82
626.156	551.22
626.604	564.22
627.053	564.52
627.501	563.02
627.95	571.32
628.398	580.92
628.847	571.22
629.295	570.72
629.744	579.42
630.192	581.62
630.64	579.32
631.089	565.52
631.537	576.82
631.985	585.22
632.433	599.42
632.881	606.62
633.33	660.32
633.778	640.32
634.226	564.52
634.674	569.92
635.122	584.22
635.57	596.92
636.018	626.92
636.466	581.22
636.914	560.82
637.362	571.72
637.81	570.82
638.258	576.92
638.705	569.82
639.153	610.72
639.601	612.32
640.049	645.72
640.497	675.92
640.944	705.82
641.392	641.62
641.84	613.62
642.287	582.92
642.735	564.32
643.182	569.72
643.63	574.32
644.078	576.92
644.525	590.42
644.973	599.52
645.42	607.52
645.867	625.12
646.315	637.62
646.762	659.12
647.21	690.22
647.657	715.82
648.104	759.32
648.551	771.32
648.999	818.72
649.446	909.12
649.893	1000.52
650.34	1152.92
650.787	1388.12
651.234	1720.82
651.682	2236.22
652.129	3074.02
652.576	4423.02
653.023	6500.72
653.47	8928.72
653.917	11215.92
654.363	13019.72
654.81	14357.72
655.257	13659.62
655.704	8932.32
656.151	5307.32
656.598	3429.42
657.044	2431.22
657.491	1853.72
657.938	1491.82
658.385	1246.02
658.831	1083.72
659.278	965.62
659.724	857.42
660.171	780.42
660.618	721.12
661.064	691.02
661.511	663.52
661.957	648.12
662.404	637.62
662.85	638.02
663.296	626.42
663.743	557.12
664.189	538.62
664.635	524.92
665.082	522.92
665.528	527.32
665.974	522.82
666.42	503.52
666.867	502.22
667.313	490.92
667.759	474.12
668.205	476.72
668.651	484.02
669.097	477.92
669.543	494.42
669.989	467.12
670.435	440.92
670.881	429.72
671.327	444.12
671.773	465.12
672.219	486.02
672.665	534.32
673.11	578.82
673.556	627.42
674.002	655.12
674.448	652.52
674.893	543.32
675.339	467.82
675.785	436.92
676.23	414.12
676.676	389.02
677.122	384.62
677.567	365.82
678.013	364.32
678.458	353.32
678.904	354.72
679.349	344.62
679.794	353.82
680.24	350.42
680.685	344.32
681.131	342.52
681.576	350.42
682.021	347.62
682.466	346.12
682.912	343.62
683.357	350.72
683.802	377.72
684.247	413.62
684.692	448.22
685.137	494.32
685.583	523.82
686.028	554.62
686.473	504.62
686.918	441.92
687.363	405.82
687.807	388.82
688.252	362.02
688.697	354.62
689.142	338.02
689.587	325.82
690.032	323.12
690.477	326.32
690.921	347.12
691.366	382.92
691.811	393.32
692.255	425.52
692.7	458.42
693.145	493.02
693.589	680.82
694.034	1099.22
694.478	1505.62
694.923	1713.12
695.367	2251.62
695.812	1180.02
696.256	490.72
696.701	361.12
697.145	341.02
697.59	320.32
698.034	317.62
698.478	323.52
698.922	325.02
699.367	322.72
699.811	336.22
700.255	350.42
700.699	378.42
701.143	419.52
701.588	471.82
702.032	508.02
702.476	500.12
702.92	482.02
703.364	482.12
703.808	623.72
704.252	1001.52
704.696	1423.22
705.14	1642.12
705.584	2100.02
706.027	1046.42
706.471	523.42
706.915	389.12
707.359	341.22
707.803	316.42
708.246	308.22
708.69	312.92
709.134	307.82
709.577	299.62
710.021	307.22
710.465	305.52
710.908	301.02
711.352	289.62
711.795	312.32
712.239	352.82
712.682	375.12
713.126	409.82
713.569	456.12
714.012	370.82
714.456	314.62
714.899	295.12
715.342	273.62
715.786	260.72
716.229	249.62
716.672	248.12
717.115	246.52
717.558	243.42
718.002	245.02
718.445	262.92
718.888	273.32
719.331	280.92
719.774	307.42
720.217	313.32
720.66	286.42
721.103	257.92
721.546	249.92
721.989	248.42
722.432	229.52
722.874	234.42
723.317	224.42
723.76	227.12
724.203	246.42
724.645	315.02
725.088	431.62
725.531	558.12
725.974	629.42
726.416	533.82
726.859	305.82
727.301	239.72
727.744	238.02
728.187	225.62
728.629	229.82
729.071	239.42
729.514	259.62
729.956	265.72
730.399	271.52
730.841	286.22
731.283	266.02
731.726	261.72
732.168	256.92
732.61	262.22
733.053	284.92
733.495	305.42
733.937	347.52
734.379	393.32
734.821	430.52
735.263	530.62
735.705	805.22
736.148	1524.02
736.59	2516.22
737.032	2995.32
737.474	2434.82
737.916	793.02
738.357	418.92
738.799	322.92
739.241	295.82
739.683	284.62
740.125	283.62
740.567	294.92
741.008	312.92
741.45	311.82
741.892	312.42
742.334	346.12
742.775	366.92
743.217	337.42
743.658	266.72
744.1	250.02
744.542	253.52
744.983	304.42
745.425	336.02
745.866	343.82
746.307	281.82
746.749	275.92
747.19	322.12
747.632	439.92
748.073	854.92
748.514	1785.52
748.956	2792.62
749.397	3494.72
749.838	2899.52
750.279	2918.92
750.72	1480.02
751.162	538.12
751.603	314.62
752.044	248.62
752.485	210.82
752.926	203.32
753.367	196.22
753.808	189.52
754.249	188.12
754.69	183.72
755.131	174.62
755.572	178.22
756.013	176.52
756.453	182.82
756.894	184.02
757.335	189.62
757.776	193.22
758.216	194.22
758.657	199.72
759.098	196.12
759.538	221.42
759.979	260.82
760.42	356.02
760.86	677.72
761.301	1755.72
761.741	4293.32
762.182	6347.42
