Data from 20171114-ORNL-Ar_H_NY_Subt18_08-07-49-451.txt Node
Date: Tue Nov 14 08:07:49 EST 2017
User: Ender
Spectrometer: HR+D1039
Trigger mode: 0
Integration Time (sec): 2.730000E-2
Scans to average: 10
Electric dark correction enabled: true
Nonlinearity correction enabled: false
Boxcar width: 0
XAxis mode: Wavelengths
Number of Pixels in Spectrum: 2048
>>>>>Begin Spectral Data<<<<<
187.836	-2.74
188.309	-2.74
188.782	-2.74
189.255	1.96
189.728	-1.24
190.201	2.26
190.674	2.66
191.147	2.06
191.619	-9.54
192.092	3.36
192.565	6.06
193.038	-2.84
193.511	-0.14
193.984	0.36
194.456	-0.84
194.929	-1.44
195.402	-0.84
195.874	0.96
196.347	-6.34
196.82	-7.14
197.292	0.46
197.765	0.06
198.237	-7.64
198.71	1.26
199.182	-1.84
199.655	0.16
200.127	3.86
200.6	2.06
201.072	-0.94
201.544	-10.14
202.017	-1.14
202.489	-0.34
202.961	-3.94
203.433	-2.34
203.906	-8.54
204.378	0.06
204.85	-5.74
205.322	-6.64
205.794	0.16
206.266	-7.04
206.739	-13.94
207.211	5.26
207.683	-12.04
208.155	-7.14
208.627	-8.14
209.099	-5.84
209.57	-9.94
210.042	-3.14
210.514	-4.24
210.986	-6.74
211.458	-10.94
211.93	0.16
212.402	0.26
212.873	-6.44
213.345	-6.14
213.817	-12.64
214.288	-8.94
214.76	-10.64
215.232	-1.54
215.703	-5.34
216.175	-8.24
216.646	-2.14
217.118	-10.34
217.589	-4.34
218.061	-7.84
218.532	-8.64
219.004	-6.14
219.475	-8.04
219.946	-0.64
220.418	-2.84
220.889	0.36
221.36	-2.94
221.832	-5.14
222.303	-10.14
222.774	-0.94
223.245	-6.84
223.717	-7.54
224.188	-3.84
224.659	-7.04
225.13	-8.94
225.601	3.56
226.072	-5.94
226.543	-5.74
227.014	-1.94
227.485	0.36
227.956	-6.64
228.427	-0.44
228.898	1.96
229.369	-4.74
229.839	0.36
230.31	-8.64
230.781	-0.44
231.252	-6.74
231.722	-0.04
232.193	-2.44
232.664	-0.84
233.135	3.06
233.605	-0.14
234.076	-4.24
234.546	0.46
235.017	1.86
235.487	-3.14
235.958	-3.44
236.428	-3.54
236.899	-0.04
237.369	3.36
237.84	-4.44
238.31	5.56
238.78	-2.64
239.251	-3.04
239.721	4.56
240.191	5.56
240.662	0.56
241.132	3.26
241.602	-5.04
242.072	-5.04
242.542	6.06
243.013	-4.14
243.483	4.76
243.953	0.76
244.423	-0.24
244.893	-5.44
245.363	3.76
245.833	-0.54
246.303	-5.54
246.773	5.86
247.243	2.76
247.712	5.26
248.182	6.06
248.652	5.06
249.122	-5.04
249.592	12.56
250.061	21.86
250.531	30.46
251.001	11.56
251.471	13.96
251.94	19.76
252.41	5.56
252.879	-5.84
253.349	8.26
253.818	12.16
254.288	-1.44
254.757	3.96
255.227	3.16
255.696	4.16
256.166	2.46
256.635	3.86
257.105	9.46
257.574	11.66
258.043	5.36
258.513	5.86
258.982	13.76
259.451	4.86
259.92	7.76
260.389	9.26
260.859	9.86
261.328	6.96
261.797	13.86
262.266	6.36
262.735	10.86
263.204	6.96
263.673	3.16
264.142	-0.94
264.611	-3.64
265.08	-0.34
265.549	-3.44
266.018	2.26
266.487	-2.64
266.955	-4.04
267.424	0.06
267.893	-0.54
268.362	-2.84
268.83	3.76
269.299	7.26
269.768	1.96
270.236	7.96
270.705	7.76
271.174	3.36
271.642	6.76
272.111	7.96
272.579	13.16
273.048	23.06
273.516	26.36
273.985	24.76
274.453	24.56
274.922	16.46
275.39	13.76
275.858	3.46
276.327	13.26
276.795	13.76
277.263	11.16
277.731	28.46
278.2	47.36
278.668	55.56
279.136	48.96
279.604	18.66
280.072	17.46
280.54	5.86
281.008	3.36
281.477	11.66
281.945	9.66
282.413	11.96
282.881	11.16
283.348	3.16
283.816	8.36
284.284	11.26
284.752	12.86
285.22	7.06
285.688	11.76
286.156	14.06
286.623	41.46
287.091	49.06
287.559	21.26
288.026	16.06
288.494	10.26
288.962	4.26
289.429	6.26
289.897	21.76
290.364	9.76
290.832	20.06
291.3	11.66
291.767	15.06
292.234	14.66
292.702	9.76
293.169	21.96
293.637	19.86
294.104	16.26
294.571	9.46
295.039	13.96
295.506	13.56
295.973	18.06
296.44	15.46
296.908	18.76
297.375	18.86
297.842	16.26
298.309	15.56
298.776	15.26
299.243	19.26
299.71	10.96
300.177	19.86
300.644	20.36
301.111	16.46
301.578	24.66
302.045	20.26
302.512	18.76
302.979	21.56
303.446	19.66
303.913	15.56
304.379	16.16
304.846	27.66
305.313	24.56
305.78	20.66
306.246	20.16
306.713	28.36
307.18	26.76
307.646	28.66
308.113	27.56
308.579	22.46
309.046	20.76
309.512	22.16
309.979	17.36
310.445	19.36
310.912	25.96
311.378	30.66
311.845	31.16
312.311	28.76
312.777	26.96
313.244	26.66
313.71	36.96
314.176	29.06
314.642	27.76
315.109	26.96
315.575	31.96
316.041	36.76
316.507	30.86
316.973	39.76
317.439	31.06
317.905	34.16
318.371	32.26
318.837	30.86
319.303	26.26
319.769	30.06
320.235	27.56
320.701	33.46
321.167	38.46
321.633	36.86
322.099	39.76
322.564	41.66
323.03	39.36
323.496	31.76
323.962	37.96
324.427	35.86
324.893	39.56
325.359	35.46
325.824	33.16
326.29	30.56
326.755	37.86
327.221	38.86
327.686	37.06
328.152	51.06
328.617	36.66
329.083	46.66
329.548	44.06
330.014	42.96
330.479	37.56
330.944	34.46
331.41	36.26
331.875	42.96
332.34	45.06
332.805	33.86
333.271	38.16
333.736	46.26
334.201	44.36
334.666	52.06
335.131	52.46
335.596	48.46
336.061	41.86
336.526	39.26
336.991	43.36
337.456	52.76
337.921	48.66
338.386	40.06
338.851	42.36
339.316	39.16
339.781	40.66
340.246	47.86
340.711	49.56
341.175	51.26
341.64	42.96
342.105	53.56
342.569	46.46
343.034	58.66
343.499	55.76
343.963	47.66
344.428	56.76
344.893	59.26
345.357	64.06
345.822	65.56
346.286	59.76
346.751	75.26
347.215	68.86
347.679	72.46
348.144	90.16
348.608	76.86
349.073	65.06
349.537	67.46
350.001	79.66
350.465	78.76
350.93	74.36
351.394	85.26
351.858	70.96
352.322	86.66
352.786	78.16
353.25	97.26
353.715	104.66
354.179	90.26
354.643	121.16
355.107	126.86
355.571	102.06
356.035	99.96
356.498	111.96
356.962	120.26
357.426	121.36
357.89	110.06
358.354	89.26
358.818	79.36
359.281	73.16
359.745	79.36
360.209	73.36
360.673	73.06
361.136	67.36
361.6	79.26
362.064	78.56
362.527	76.96
362.991	87.86
363.454	79.06
363.918	76.56
364.381	79.36
364.845	82.06
365.308	89.06
365.772	83.06
366.235	84.26
366.698	76.66
367.162	81.36
367.625	80.06
368.088	79.46
368.552	82.86
369.015	91.96
369.478	98.76
369.941	97.46
370.404	88.46
370.867	98.46
371.331	100.86
371.794	112.16
372.257	105.56
372.72	109.26
373.183	110.36
373.646	101.66
374.109	103.36
374.572	100.36
375.035	101.36
375.497	104.06
375.96	98.26
376.423	102.86
376.886	110.46
377.349	107.76
377.811	102.96
378.274	108.76
378.737	105.36
379.199	106.96
379.662	106.86
380.125	113.26
380.587	116.66
381.05	117.96
381.512	128.26
381.975	130.36
382.437	122.46
382.9	120.56
383.362	130.76
383.825	134.76
384.287	143.16
384.75	138.36
385.212	130.26
385.674	136.76
386.136	132.46
386.599	120.86
387.061	127.66
387.523	125.36
387.985	134.56
388.447	143.86
388.91	145.76
389.372	154.26
389.834	150.26
390.296	146.06
390.758	159.46
391.22	166.46
391.682	209.66
392.144	289.06
392.606	234.06
393.068	169.76
393.529	159.46
393.991	157.76
394.453	136.96
394.915	153.26
395.377	189.46
395.838	210.26
396.3	154.66
396.762	142.06
397.224	126.46
397.685	126.26
398.147	127.76
398.608	130.86
399.07	126.46
399.531	131.56
399.993	140.96
400.454	148.96
400.916	153.26
401.377	149.66
401.839	151.46
402.3	150.46
402.762	158.56
403.223	176.36
403.684	169.06
404.145	165.36
404.607	161.36
405.068	162.56
405.529	165.06
405.99	188.86
406.451	175.06
406.913	177.86
407.374	166.76
407.835	164.16
408.296	171.86
408.757	175.26
409.218	188.26
409.679	173.36
410.14	171.96
410.601	184.66
411.062	180.76
411.522	192.26
411.983	185.16
412.444	181.16
412.905	179.06
413.366	186.26
413.826	194.36
414.287	213.46
414.748	261.56
415.208	236.16
415.669	203.66
416.13	207.76
416.59	201.36
417.051	211.26
417.511	225.66
417.972	237.66
418.432	245.46
418.893	290.16
419.353	249.56
419.814	198.56
420.274	185.46
420.734	187.66
421.195	202.66
421.655	195.96
422.115	192.56
422.576	189.76
423.036	199.06
423.496	201.76
423.956	210.26
424.416	226.36
424.876	266.36
425.336	255.06
425.797	259.76
426.257	255.26
426.717	241.46
427.177	232.66
427.637	215.86
428.097	226.36
428.556	243.56
429.016	274.26
429.476	269.26
429.936	282.66
430.396	284.06
430.856	286.36
431.315	320.16
431.775	346.66
432.235	379.26
432.694	351.46
433.154	357.26
433.614	395.96
434.073	340.06
434.533	281.26
434.993	270.56
435.452	285.36
435.912	299.06
436.371	286.86
436.83	274.46
437.29	273.16
437.749	250.16
438.209	251.06
438.668	274.66
439.127	287.36
439.587	260.46
440.046	247.06
440.505	261.76
440.964	275.46
441.424	319.86
441.883	304.66
442.342	259.26
442.801	226.76
443.26	222.46
443.719	219.66
444.178	217.56
444.637	205.66
445.096	224.36
445.555	227.86
446.014	219.96
446.473	229.96
446.932	238.86
447.391	223.46
447.849	234.36
448.308	219.06
448.767	220.76
449.226	231.66
449.685	231.86
450.143	247.36
450.602	237.56
451.061	228.86
451.519	229.06
451.978	233.96
452.436	230.26
452.895	237.16
453.353	248.06
453.812	244.46
454.27	241.26
454.729	239.96
455.187	236.56
455.646	241.16
456.104	253.46
456.562	261.96
457.021	270.26
457.479	258.56
457.937	275.66
458.395	263.96
458.854	255.76
459.312	251.66
459.77	275.06
460.228	258.36
460.686	247.76
461.144	254.96
461.602	246.26
462.06	245.26
462.518	249.56
462.976	250.96
463.434	262.26
463.892	261.96
464.35	274.36
464.808	284.26
465.266	265.06
465.724	268.96
466.181	277.46
466.639	266.56
467.097	290.06
467.555	296.36
468.012	293.56
468.47	307.96
468.928	321.56
469.385	342.06
469.843	356.46
470.3	344.36
470.758	360.66
471.215	383.96
471.673	398.06
472.13	408.16
472.588	420.96
473.045	376.46
473.503	374.66
473.96	396.46
474.417	397.36
474.875	421.96
475.332	475.16
475.789	463.96
476.246	472.26
476.704	482.46
477.161	516.96
477.618	525.26
478.075	561.36
478.532	622.16
478.989	688.46
479.446	807.96
479.903	779.26
480.36	816.16
480.817	859.06
481.274	969.66
481.731	1074.06
482.188	1159.16
482.645	1315.76
483.102	1415.16
483.558	1543.66
484.015	1594.76
484.472	1571.66
484.929	1522.66
485.385	1469.56
485.842	1430.16
486.299	1361.36
486.755	1305.66
487.212	1082.26
487.668	926.16
488.125	845.46
488.582	776.66
489.038	744.56
489.494	703.76
489.951	684.16
490.407	675.66
490.864	646.06
491.32	636.26
491.776	637.16
492.233	642.36
492.689	607.66
493.145	603.26
493.602	598.36
494.058	615.46
494.514	622.76
494.97	637.36
495.426	641.86
495.882	623.16
496.338	607.56
496.794	626.16
497.251	622.86
497.707	625.06
498.163	644.56
498.618	642.76
499.074	642.96
499.53	673.26
499.986	669.46
500.442	650.16
500.898	637.16
501.354	632.26
501.809	640.06
502.265	647.86
502.721	663.36
503.177	664.66
503.632	669.66
504.088	683.36
504.543	704.36
504.999	719.16
505.455	650.96
505.91	627.76
506.366	634.36
506.821	625.16
507.277	614.16
507.732	632.36
508.187	624.46
508.643	632.36
509.098	635.16
509.553	656.76
510.009	665.46
510.464	672.66
510.919	681.96
511.375	687.06
511.83	715.26
512.285	718.26
512.74	761.16
513.195	779.46
513.65	766.06
514.105	762.36
514.56	769.96
515.015	796.26
515.47	799.96
515.925	784.46
516.38	787.66
516.835	781.96
517.29	783.26
517.745	776.06
518.2	755.96
518.655	744.16
519.109	742.16
519.564	739.06
520.019	723.26
520.474	718.56
520.928	728.86
521.383	722.36
521.838	705.96
522.292	702.06
522.747	697.16
523.201	699.96
523.656	694.56
524.11	696.96
524.565	700.16
525.019	682.96
525.474	709.06
525.928	701.46
526.382	691.26
526.837	696.36
527.291	699.56
527.745	698.86
528.2	692.06
528.654	685.46
529.108	688.56
529.562	692.56
530.016	696.46
530.47	695.96
530.925	692.06
531.379	690.46
531.833	699.46
532.287	699.46
532.741	698.36
533.195	701.66
533.649	716.16
534.103	719.66
534.556	703.56
535.01	704.56
535.464	702.96
535.918	722.36
536.372	716.46
536.826	713.36
537.279	706.06
537.733	709.46
538.187	707.36
538.64	710.46
539.094	720.96
539.548	733.06
540.001	723.06
540.455	715.66
540.908	717.76
541.362	736.66
541.815	741.56
542.269	754.56
542.722	759.36
543.175	768.46
543.629	767.66
544.082	776.26
544.536	775.56
544.989	778.96
545.442	797.06
545.895	789.36
546.349	785.86
546.802	785.56
547.255	798.56
547.708	796.56
548.161	816.46
548.614	817.96
549.067	835.16
549.52	815.66
549.973	804.16
550.426	810.16
550.879	786.96
551.332	803.66
551.785	813.16
552.238	797.86
552.691	815.46
553.144	831.16
553.596	848.56
554.049	862.46
554.502	891.06
554.955	911.06
555.407	905.36
555.86	900.26
556.313	894.86
556.765	879.56
557.218	875.06
557.67	872.66
558.123	878.96
558.576	871.36
559.028	872.66
559.48	882.06
559.933	875.86
560.385	825.66
560.838	811.26
561.29	781.06
561.742	769.86
562.195	766.96
562.647	764.26
563.099	777.66
563.551	765.26
564.004	777.46
564.456	766.66
564.908	758.46
565.36	745.76
565.812	725.86
566.264	720.16
566.716	734.96
567.168	716.16
567.62	728.46
568.072	710.06
568.524	702.06
568.976	696.06
569.428	685.56
569.88	677.06
570.332	678.36
570.784	685.46
571.235	694.26
571.687	698.66
572.139	698.06
572.59	699.16
573.042	714.86
573.494	703.56
573.945	701.76
574.397	689.86
574.849	699.06
575.3	691.06
575.752	675.46
576.203	679.66
576.655	686.86
577.106	671.16
577.557	664.06
578.009	671.86
578.46	668.66
578.912	651.86
579.363	661.96
579.814	665.46
580.265	669.16
580.717	663.96
581.168	672.36
581.619	671.66
582.07	682.76
582.521	675.86
582.972	671.06
583.423	682.56
583.875	682.86
584.326	706.86
584.777	749.86
585.227	833.46
585.678	922.56
586.129	1010.56
586.58	1076.76
587.031	1161.56
587.482	1327.56
587.933	1515.76
588.384	1318.76
588.834	983.26
589.285	813.66
589.736	788.66
590.186	781.16
590.637	775.36
591.088	751.26
591.538	736.56
591.989	723.96
592.439	727.76
592.89	723.86
593.34	706.26
593.791	714.86
594.241	716.56
594.692	708.66
595.142	705.56
595.593	701.26
596.043	712.16
596.493	717.76
596.943	721.36
597.394	731.46
597.844	721.86
598.294	721.06
598.744	751.26
599.195	786.46
599.645	820.76
600.095	863.76
600.545	926.46
600.995	972.86
601.445	1037.36
601.895	1102.76
602.345	1130.06
602.795	1113.86
603.245	1060.06
603.695	1012.26
604.145	963.06
604.594	913.26
605.044	864.56
605.494	802.86
605.944	765.86
606.393	741.56
606.843	734.36
607.293	735.66
607.743	738.16
608.192	751.16
608.642	770.26
609.091	769.16
609.541	771.96
609.99	769.96
610.44	771.96
610.889	724.06
611.339	714.26
611.788	691.06
612.238	708.76
612.687	722.56
613.136	724.06
613.586	751.16
614.035	746.06
614.484	758.56
614.933	768.56
615.383	749.16
615.832	731.36
616.281	729.06
616.73	688.76
617.179	662.26
617.628	660.36
618.077	634.36
618.526	626.66
618.975	615.76
619.424	616.36
619.873	616.26
620.322	618.96
620.771	612.36
621.22	612.06
621.669	604.86
622.118	592.36
622.567	591.36
623.015	578.56
623.464	576.96
623.913	557.66
624.361	562.26
624.81	562.86
625.259	554.36
625.707	564.86
626.156	556.66
626.604	580.56
627.053	568.86
627.501	565.46
627.95	575.86
628.398	588.06
628.847	577.86
629.295	575.46
629.744	576.16
630.192	568.06
630.64	570.76
631.089	567.76
631.537	583.86
631.985	597.66
632.433	605.46
632.881	618.96
633.33	674.16
633.778	656.36
634.226	575.46
634.674	576.46
635.122	583.76
635.57	596.16
636.018	628.96
636.466	582.06
636.914	554.86
637.362	567.86
637.81	577.76
638.258	583.46
638.705	586.36
639.153	616.66
639.601	628.96
640.049	645.16
640.497	669.06
640.944	701.76
641.392	642.66
641.84	612.76
642.287	588.16
642.735	574.26
643.182	580.36
643.63	567.36
644.078	579.76
644.525	598.86
644.973	603.76
645.42	603.36
645.867	632.76
646.315	646.26
646.762	678.46
647.21	697.96
647.657	721.76
648.104	760.36
648.551	780.46
648.999	850.46
649.446	930.36
649.893	1014.26
650.34	1170.86
650.787	1415.96
651.234	1762.26
651.682	2303.06
652.129	3180.26
652.576	4604.16
653.023	6747.66
653.47	9240.26
653.917	11473.16
654.363	13187.96
654.81	14450.76
655.257	13761.16
655.704	9007.36
656.151	5310.16
656.598	3442.96
657.044	2451.46
657.491	1871.96
657.938	1490.56
658.385	1259.36
658.831	1086.66
659.278	968.36
659.724	863.66
660.171	794.06
660.618	728.66
661.064	696.06
661.511	664.96
661.957	661.26
662.404	646.86
662.85	653.76
663.296	621.26
663.743	569.36
664.189	532.86
664.635	536.16
665.082	528.56
665.528	535.76
665.974	523.06
666.42	517.96
666.867	512.86
667.313	492.26
667.759	485.66
668.205	488.16
668.651	498.16
669.097	490.56
669.543	502.36
669.989	475.06
670.435	448.06
670.881	452.06
671.327	452.46
671.773	467.86
672.219	485.76
672.665	542.66
673.11	592.36
673.556	632.66
674.002	678.16
674.448	655.16
674.893	557.06
675.339	475.06
675.785	435.96
676.23	419.36
676.676	398.16
677.122	381.56
677.567	363.06
678.013	372.56
678.458	360.76
678.904	367.66
679.349	349.06
679.794	356.46
680.24	353.26
680.685	349.56
681.131	355.86
681.576	357.96
682.021	354.36
682.466	351.86
682.912	357.66
683.357	349.36
683.802	385.66
684.247	425.16
684.692	456.06
685.137	494.56
685.583	536.46
686.028	564.66
686.473	518.86
686.918	447.06
687.363	411.66
687.807	395.16
688.252	369.26
688.697	365.16
689.142	338.96
689.587	337.66
690.032	332.06
690.477	345.56
690.921	354.06
691.366	382.06
691.811	413.46
692.255	422.26
692.7	459.36
693.145	510.56
693.589	710.96
694.034	1152.86
694.478	1557.76
694.923	1719.16
695.367	2247.46
695.812	1192.96
696.256	498.66
696.701	369.16
697.145	341.26
697.59	338.06
698.034	327.96
698.478	338.56
698.922	318.36
699.367	331.86
699.811	344.36
700.255	354.96
700.699	394.26
701.143	437.46
701.588	478.56
702.032	514.26
702.476	508.86
702.92	493.36
703.364	493.96
703.808	659.46
704.252	1064.16
704.696	1478.56
705.14	1672.96
705.584	2102.36
706.027	1058.96
706.471	520.16
706.915	395.16
707.359	345.56
707.803	328.86
708.246	309.06
708.69	317.06
709.134	314.96
709.577	306.36
710.021	316.86
710.465	303.16
710.908	300.86
711.352	299.96
711.795	315.96
712.239	347.26
712.682	386.46
713.126	406.76
713.569	456.26
714.012	379.96
714.456	326.76
714.899	307.06
715.342	276.56
715.786	260.56
716.229	262.76
716.672	259.16
717.115	254.46
717.558	253.26
718.002	248.96
718.445	262.96
718.888	297.86
719.331	291.46
719.774	304.66
720.217	300.36
720.66	289.76
721.103	270.26
721.546	257.76
721.989	251.36
722.432	231.26
722.874	235.86
723.317	231.86
723.76	241.16
724.203	262.06
724.645	332.66
725.088	457.16
725.531	575.76
725.974	644.06
726.416	554.56
726.859	302.56
727.301	250.76
727.744	240.26
728.187	235.86
728.629	240.66
729.071	244.26
729.514	267.56
729.956	275.96
730.399	290.26
730.841	293.66
731.283	275.86
731.726	269.86
732.168	261.86
732.61	266.46
733.053	294.86
733.495	315.16
733.937	360.96
734.379	402.76
734.821	443.16
735.263	552.16
735.705	870.26
736.148	1632.86
736.59	2613.16
737.032	3041.46
737.474	2460.96
737.916	815.76
738.357	434.16
738.799	328.66
739.241	300.56
739.683	289.06
740.125	285.26
740.567	300.76
741.008	320.96
741.45	319.36
741.892	317.06
742.334	354.86
742.775	366.46
743.217	336.96
743.658	278.16
744.1	253.66
744.542	276.66
744.983	313.06
745.425	343.66
745.866	343.36
746.307	287.56
746.749	288.76
747.19	325.96
747.632	469.46
748.073	907.16
748.514	1897.56
748.956	2871.66
749.397	3597.76
749.838	2989.16
750.279	2945.56
750.72	1479.26
751.162	551.96
751.603	328.16
752.044	260.66
752.485	220.56
752.926	208.76
753.367	206.46
753.808	192.66
754.249	193.36
754.69	180.46
755.131	181.76
755.572	188.56
756.013	185.16
756.453	195.56
756.894	188.06
757.335	190.16
757.776	199.66
758.216	199.06
758.657	197.06
759.098	206.36
759.538	229.06
759.979	257.56
760.42	382.86
760.86	727.56
761.301	1899.26
761.741	4490.86
762.182	6399.46
