Data from 20171114-ORNL-Ar_H_NY_Subt18_08-09-01-303.txt Node
Date: Tue Nov 14 08:09:01 EST 2017
User: Ender
Spectrometer: HR+D1039
Trigger mode: 0
Integration Time (sec): 2.730000E-2
Scans to average: 10
Electric dark correction enabled: true
Nonlinearity correction enabled: false
Boxcar width: 0
XAxis mode: Wavelengths
Number of Pixels in Spectrum: 2048
>>>>>Begin Spectral Data<<<<<
187.836	-0.75
188.309	-0.75
188.782	-0.75
189.255	2.25
189.728	-2.85
190.201	9.15
190.674	-0.05
191.147	2.45
191.619	-7.35
192.092	-1.85
192.565	8.15
193.038	2.65
193.511	-0.75
193.984	1.55
194.456	-4.65
194.929	-4.15
195.402	-4.65
195.874	0.85
196.347	-2.55
196.82	-10.25
197.292	5.15
197.765	-4.05
198.237	-8.75
198.71	5.25
199.182	0.75
199.655	-1.25
200.127	5.35
200.6	-5.15
201.072	1.65
201.544	-7.65
202.017	-4.65
202.489	3.45
202.961	-2.65
203.433	-8.55
203.906	-7.25
204.378	-4.25
204.85	-9.65
205.322	-14.55
205.794	2.05
206.266	0.55
206.739	-7.05
207.211	-1.45
207.683	-12.25
208.155	-7.75
208.627	-7.25
209.099	-5.25
209.57	-9.15
210.042	-4.65
210.514	-3.45
210.986	-1.45
211.458	-7.95
211.93	-7.85
212.402	2.25
212.873	-8.35
213.345	-7.35
213.817	-10.85
214.288	-6.35
214.76	-8.55
215.232	-5.85
215.703	-9.35
216.175	-10.85
216.646	-6.25
217.118	-8.05
217.589	-4.05
218.061	-2.25
218.532	-6.35
219.004	-6.95
219.475	-6.95
219.946	-8.75
220.418	-4.85
220.889	1.35
221.36	5.75
221.832	-2.85
222.303	-8.65
222.774	0.85
223.245	-8.65
223.717	-4.65
224.188	-1.95
224.659	-3.95
225.13	-10.35
225.601	-0.05
226.072	0.35
226.543	-3.35
227.014	1.55
227.485	-3.85
227.956	-3.25
228.427	-6.65
228.898	3.65
229.369	2.35
229.839	5.75
230.31	-12.65
230.781	-1.25
231.252	-4.15
231.722	-3.95
232.193	-4.65
232.664	-1.05
233.135	4.35
233.605	-1.95
234.076	-5.95
234.546	-0.65
235.017	0.45
235.487	-2.65
235.958	-0.75
236.428	-9.35
236.899	0.35
237.369	0.75
237.84	-4.45
238.31	-2.85
238.78	-5.85
239.251	-7.75
239.721	0.95
240.191	-8.75
240.662	-2.25
241.132	-1.65
241.602	-6.25
242.072	-7.05
242.542	9.15
243.013	-4.25
243.483	8.05
243.953	-2.95
244.423	-6.75
244.893	-8.65
245.363	-0.65
245.833	-3.45
246.303	-7.55
246.773	-0.25
247.243	-6.05
247.712	1.15
248.182	7.15
248.652	3.05
249.122	-9.35
249.592	-2.15
250.061	6.15
250.531	12.55
251.001	-1.65
251.471	5.35
251.94	4.65
252.41	-4.15
252.879	-6.95
253.349	2.45
253.818	6.55
254.288	5.65
254.757	-4.75
255.227	-1.45
255.696	-1.25
256.166	1.05
256.635	-2.05
257.105	1.35
257.574	-1.55
258.043	0.65
258.513	-5.15
258.982	-0.25
259.451	-2.35
259.92	-2.95
260.389	2.15
260.859	6.75
261.328	-2.15
261.797	5.65
262.266	-0.55
262.735	9.65
263.204	3.05
263.673	2.15
264.142	0.55
264.611	-2.15
265.08	0.55
265.549	-0.25
266.018	3.55
266.487	-4.45
266.955	-0.75
267.424	-6.55
267.893	-0.25
268.362	-4.75
268.83	1.65
269.299	3.85
269.768	-0.05
270.236	0.05
270.705	-5.05
271.174	5.95
271.642	-3.75
272.111	2.75
272.579	1.65
273.048	5.25
273.516	8.75
273.985	4.05
274.453	4.15
274.922	10.95
275.39	3.65
275.858	-3.05
276.327	6.65
276.795	6.05
277.263	-6.35
277.731	5.35
278.2	6.05
278.668	6.55
279.136	4.55
279.604	0.55
280.072	4.75
280.54	6.55
281.008	2.65
281.477	7.45
281.945	10.15
282.413	5.65
282.881	6.55
283.348	2.75
283.816	6.85
284.284	11.55
284.752	11.15
285.22	7.05
285.688	6.25
286.156	4.05
286.623	17.65
287.091	9.15
287.559	13.65
288.026	11.75
288.494	7.35
288.962	0.25
289.429	2.35
289.897	16.15
290.364	5.15
290.832	11.75
291.3	10.05
291.767	8.75
292.234	11.15
292.702	7.35
293.169	13.95
293.637	10.35
294.104	11.25
294.571	-2.55
295.039	3.95
295.506	3.65
295.973	10.45
296.44	6.05
296.908	16.65
297.375	8.25
297.842	9.05
298.309	8.25
298.776	2.45
299.243	11.55
299.71	2.95
300.177	13.75
300.644	13.05
301.111	14.35
301.578	17.25
302.045	9.35
302.512	19.35
302.979	16.95
303.446	13.85
303.913	8.05
304.379	10.95
304.846	17.25
305.313	15.45
305.78	12.95
306.246	16.85
306.713	15.35
307.18	17.65
307.646	21.45
308.113	21.45
308.579	15.45
309.046	18.55
309.512	15.45
309.979	14.35
310.445	21.95
310.912	21.75
311.378	23.65
311.845	26.55
312.311	20.25
312.777	19.45
313.244	15.55
313.71	30.05
314.176	22.65
314.642	19.35
315.109	22.95
315.575	26.25
316.041	25.55
316.507	19.05
316.973	26.75
317.439	17.15
317.905	24.55
318.371	17.65
318.837	23.45
319.303	21.05
319.769	28.85
320.235	21.95
320.701	24.15
321.167	28.85
321.633	16.85
322.099	28.35
322.564	34.55
323.03	26.05
323.496	28.85
323.962	26.25
324.427	25.65
324.893	28.85
325.359	27.95
325.824	31.15
326.29	22.85
326.755	29.85
327.221	35.05
327.686	31.35
328.152	33.75
328.617	32.45
329.083	36.65
329.548	42.55
330.014	42.15
330.479	29.25
330.944	35.45
331.41	29.65
331.875	34.15
332.34	35.45
332.805	32.85
333.271	32.95
333.736	28.15
334.201	37.25
334.666	41.75
335.131	42.55
335.596	39.25
336.061	39.05
336.526	27.95
336.991	37.25
337.456	45.75
337.921	38.25
338.386	29.85
338.851	38.35
339.316	41.75
339.781	38.05
340.246	44.35
340.711	31.45
341.175	42.65
341.64	36.95
342.105	39.45
342.569	37.85
343.034	47.85
343.499	43.75
343.963	43.95
344.428	52.35
344.893	50.05
345.357	49.75
345.822	46.55
346.286	50.55
346.751	57.45
347.215	54.35
347.679	55.35
348.144	73.65
348.608	64.15
349.073	59.05
349.537	61.25
350.001	63.85
350.465	70.75
350.93	61.55
351.394	63.85
351.858	63.45
352.322	71.45
352.786	67.05
353.25	74.55
353.715	91.05
354.179	75.55
354.643	99.05
355.107	96.55
355.571	81.25
356.035	73.45
356.498	84.75
356.962	92.95
357.426	99.05
357.89	87.25
358.354	75.25
358.818	69.35
359.281	68.55
359.745	66.25
360.209	64.75
360.673	60.75
361.136	65.95
361.6	66.95
362.064	68.25
362.527	69.25
362.991	81.65
363.454	63.85
363.918	66.95
364.381	66.15
364.845	72.65
365.308	77.65
365.772	77.05
366.235	75.55
366.698	70.55
367.162	75.05
367.625	70.75
368.088	77.85
368.552	74.25
369.015	75.25
369.478	84.05
369.941	82.75
370.404	86.95
370.867	87.65
371.331	91.85
371.794	91.05
372.257	85.05
372.72	92.35
373.183	88.55
373.646	82.45
374.109	91.45
374.572	95.35
375.035	87.05
375.497	95.25
375.96	90.65
376.423	95.15
376.886	94.85
377.349	90.85
377.811	86.05
378.274	89.75
378.737	97.55
379.199	93.05
379.662	97.15
380.125	99.85
380.587	95.95
381.05	97.85
381.512	104.35
381.975	104.45
382.437	101.55
382.9	99.65
383.362	109.95
383.825	118.75
384.287	109.95
384.75	102.15
385.212	114.25
385.674	118.45
386.136	115.05
386.599	114.35
387.061	108.95
387.523	106.45
387.985	115.65
388.447	120.85
388.91	116.45
389.372	117.25
389.834	117.15
390.296	118.55
390.758	122.55
391.22	126.75
391.682	137.25
392.144	142.85
392.606	126.85
393.068	126.95
393.529	138.05
393.991	116.85
394.453	115.65
394.915	125.95
395.377	129.35
395.838	121.85
396.3	124.75
396.762	127.15
397.224	125.55
397.685	121.85
398.147	123.35
398.608	121.05
399.07	119.85
399.531	128.05
399.993	134.05
400.454	144.45
400.916	132.95
401.377	129.65
401.839	142.35
402.3	150.55
402.762	151.15
403.223	166.55
403.684	163.55
404.145	149.45
404.607	148.65
405.068	147.95
405.529	160.85
405.99	170.35
406.451	164.65
406.913	161.05
407.374	158.05
407.835	157.75
408.296	151.75
408.757	164.45
409.218	173.35
409.679	167.95
410.14	171.25
410.601	167.35
411.062	169.65
411.522	172.15
411.983	170.15
412.444	168.15
412.905	176.85
413.366	171.85
413.826	190.55
414.287	206.05
414.748	254.65
415.208	241.55
415.669	201.85
416.13	201.15
416.59	194.05
417.051	207.75
417.511	220.15
417.972	228.65
418.432	242.45
418.893	283.25
419.353	250.15
419.814	194.55
420.274	178.75
420.734	180.35
421.195	194.45
421.655	187.35
422.115	187.55
422.576	185.45
423.036	194.75
423.496	202.75
423.956	213.25
424.416	224.25
424.876	255.35
425.336	257.05
425.797	254.45
426.257	248.65
426.717	228.25
427.177	228.45
427.637	215.75
428.097	221.75
428.556	236.25
429.016	260.85
429.476	253.35
429.936	259.85
430.396	273.35
430.856	275.05
431.315	295.75
431.775	328.35
432.235	360.95
432.694	333.45
433.154	346.45
433.614	363.95
434.073	316.65
434.533	270.45
434.993	257.35
435.452	268.45
435.912	281.35
436.371	267.55
436.83	269.55
437.29	255.05
437.749	242.95
438.209	237.35
438.668	265.05
439.127	270.15
439.587	253.15
440.046	237.75
440.505	259.65
440.964	271.05
441.424	312.35
441.883	298.75
442.342	258.95
442.801	224.15
443.26	221.25
443.719	225.15
444.178	221.35
444.637	208.75
445.096	220.55
445.555	223.45
446.014	216.15
446.473	222.25
446.932	230.15
447.391	229.85
447.849	231.55
448.308	219.85
448.767	224.05
449.226	235.35
449.685	239.55
450.143	254.15
450.602	231.75
451.061	232.45
451.519	233.75
451.978	231.45
452.436	227.15
452.895	240.85
453.353	252.15
453.812	237.15
454.27	233.15
454.729	240.95
455.187	237.85
455.646	246.25
456.104	249.75
456.562	260.75
457.021	271.45
457.479	264.25
457.937	273.05
458.395	262.75
458.854	253.05
459.312	259.05
459.77	272.35
460.228	259.75
460.686	247.65
461.144	255.85
461.602	255.05
462.06	244.55
462.518	265.05
462.976	253.05
463.434	264.25
463.892	267.75
464.35	275.55
464.808	290.45
465.266	272.75
465.724	275.35
466.181	280.85
466.639	282.15
467.097	286.25
467.555	307.85
468.012	291.85
468.47	315.35
468.928	325.95
469.385	354.45
469.843	351.15
470.3	348.45
470.758	356.35
471.215	381.45
471.673	403.95
472.13	411.45
472.588	419.75
473.045	376.75
473.503	380.75
473.96	386.65
474.417	402.55
474.875	425.95
475.332	467.55
475.789	456.35
476.246	463.65
476.704	492.75
477.161	501.15
477.618	522.45
478.075	554.15
478.532	611.25
478.989	675.65
479.446	770.15
479.903	744.65
480.36	775.35
480.817	829.15
481.274	920.05
481.731	1003.95
482.188	1068.45
482.645	1199.15
483.102	1275.45
483.558	1404.25
484.015	1443.75
484.472	1412.75
484.929	1374.05
485.385	1344.45
485.842	1304.95
486.299	1269.15
486.755	1205.25
487.212	1034.15
487.668	888.05
488.125	829.85
488.582	757.35
489.038	725.05
489.494	695.65
489.951	677.35
490.407	666.25
490.864	638.85
491.32	635.15
491.776	637.45
492.233	645.95
492.689	615.55
493.145	608.95
493.602	596.65
494.058	622.45
494.514	614.15
494.97	636.95
495.426	642.75
495.882	618.05
496.338	612.85
496.794	628.25
497.251	622.05
497.707	632.95
498.163	639.25
498.618	635.55
499.074	641.65
499.53	676.25
499.986	668.45
500.442	645.05
500.898	617.15
501.354	615.15
501.809	635.65
502.265	634.65
502.721	646.95
503.177	649.25
503.632	651.65
504.088	650.55
504.543	668.55
504.999	687.85
505.455	662.55
505.91	647.55
506.366	638.65
506.821	635.45
507.277	635.35
507.732	639.35
508.187	642.75
508.643	654.25
509.098	644.05
509.553	670.45
510.009	678.75
510.464	684.55
510.919	706.55
511.375	704.25
511.83	709.95
512.285	734.65
512.74	758.45
513.195	782.55
513.65	777.85
514.105	779.65
514.56	772.05
515.015	792.15
515.47	805.45
515.925	788.75
516.38	797.35
516.835	804.55
517.29	778.45
517.745	788.95
518.2	771.65
518.655	756.75
519.109	755.15
519.564	749.15
520.019	743.25
520.474	739.45
520.928	731.15
521.383	730.65
521.838	730.65
522.292	720.15
522.747	727.25
523.201	719.75
523.656	711.65
524.11	704.15
524.565	705.95
525.019	708.55
525.474	717.95
525.928	725.75
526.382	713.45
526.837	707.95
527.291	710.25
527.745	707.75
528.2	713.55
528.654	702.95
529.108	703.55
529.562	705.85
530.016	703.45
530.47	701.85
530.925	706.35
531.379	706.65
531.833	708.05
532.287	709.55
532.741	710.05
533.195	720.05
533.649	722.15
534.103	728.45
534.556	710.65
535.01	729.35
535.464	718.15
535.918	730.75
536.372	740.35
536.826	727.05
537.279	721.85
537.733	730.15
538.187	731.15
538.64	727.75
539.094	745.15
539.548	747.65
540.001	738.65
540.455	734.95
540.908	748.85
541.362	754.15
541.815	765.25
542.269	782.45
542.722	772.65
543.175	789.95
543.629	782.45
544.082	808.65
544.536	808.95
544.989	806.95
545.442	807.75
545.895	813.95
546.349	815.45
546.802	815.15
547.255	826.65
547.708	825.25
548.161	838.55
548.614	851.85
549.067	847.25
549.52	844.35
549.973	835.25
550.426	829.95
550.879	813.55
551.332	817.95
551.785	834.25
552.238	832.45
552.691	840.35
553.144	860.25
553.596	873.85
554.049	891.55
554.502	919.85
554.955	939.25
555.407	934.85
555.86	931.75
556.313	922.05
556.765	905.75
557.218	903.85
557.67	899.35
558.123	894.35
558.576	894.65
559.028	893.45
559.48	913.05
559.933	900.35
560.385	867.45
560.838	833.45
561.29	809.85
561.742	825.45
562.195	785.95
562.647	788.85
563.099	796.25
563.551	802.45
564.004	804.75
564.456	788.35
564.908	774.55
565.36	757.05
565.812	744.95
566.264	744.25
566.716	740.15
567.168	720.95
567.62	731.15
568.072	718.75
568.524	720.85
568.976	714.35
569.428	700.65
569.88	700.25
570.332	718.75
570.784	694.75
571.235	705.55
571.687	720.65
572.139	726.45
572.59	747.05
573.042	733.05
573.494	730.25
573.945	734.65
574.397	702.55
574.849	715.35
575.3	714.15
575.752	711.35
576.203	702.15
576.655	703.05
577.106	683.05
577.557	688.35
578.009	693.05
578.46	691.55
578.912	697.35
579.363	685.25
579.814	695.55
580.265	683.05
580.717	700.95
581.168	697.55
581.619	708.65
582.07	707.85
582.521	691.85
582.972	696.55
583.423	697.35
583.875	708.15
584.326	706.75
584.777	729.75
585.227	746.25
585.678	755.05
586.129	780.75
586.58	810.15
587.031	835.85
587.482	876.45
587.933	905.75
588.384	873.25
588.834	825.75
589.285	793.85
589.736	801.55
590.186	799.25
590.637	795.85
591.088	769.75
591.538	755.85
591.989	755.65
592.439	744.45
592.89	742.95
593.34	736.95
593.791	729.45
594.241	727.35
594.692	728.05
595.142	725.85
595.593	716.55
596.043	717.15
596.493	731.75
596.943	732.95
597.394	751.35
597.844	739.65
598.294	761.05
598.744	783.45
599.195	801.25
599.645	860.15
600.095	891.35
600.545	945.95
600.995	1009.35
601.445	1060.85
601.895	1124.25
602.345	1168.95
602.795	1158.15
603.245	1106.65
603.695	1052.05
604.145	996.15
604.594	941.95
605.044	891.85
605.494	836.55
605.944	785.25
606.393	775.45
606.843	758.45
607.293	752.55
607.743	757.45
608.192	764.05
608.642	776.85
609.091	790.55
609.541	793.25
609.99	791.15
610.44	784.25
610.889	737.85
611.339	726.85
611.788	717.15
612.238	707.35
612.687	728.75
613.136	718.25
613.586	741.65
614.035	727.45
614.484	728.25
614.933	739.55
615.383	722.55
615.832	724.15
616.281	735.15
616.73	697.65
617.179	677.95
617.628	667.15
618.077	648.95
618.526	645.95
618.975	633.25
619.424	640.35
619.873	628.15
620.322	634.95
620.771	628.35
621.22	624.35
621.669	614.35
622.118	611.15
622.567	602.15
623.015	593.45
623.464	586.75
623.913	583.75
624.361	576.05
624.81	566.85
625.259	578.25
625.707	583.15
626.156	582.65
626.604	594.15
627.053	580.85
627.501	589.25
627.95	590.05
628.398	602.15
628.847	595.35
629.295	580.45
629.744	590.95
630.192	589.15
630.64	578.25
631.089	571.35
631.537	567.25
631.985	556.65
632.433	559.75
632.881	552.55
633.33	562.05
633.778	548.65
634.226	553.05
634.674	554.45
635.122	566.75
635.57	573.85
636.018	582.25
636.466	586.35
636.914	582.05
637.362	588.05
637.81	597.15
638.258	606.25
638.705	608.35
639.153	635.35
639.601	650.85
640.049	669.35
640.497	690.95
640.944	713.55
641.392	684.35
641.84	637.75
642.287	609.75
642.735	585.15
643.182	585.35
643.63	592.95
644.078	585.65
644.525	594.75
644.973	604.35
645.42	617.45
645.867	633.65
646.315	651.25
646.762	680.65
647.21	706.55
647.657	725.95
648.104	755.95
648.551	773.45
648.999	845.95
649.446	917.55
649.893	1007.05
650.34	1152.55
650.787	1376.65
651.234	1697.15
651.682	2177.55
652.129	2956.35
652.576	4231.85
653.023	6132.65
653.47	8276.35
653.917	10212.75
654.363	11663.05
654.81	12803.55
655.257	12106.25
655.704	8013.05
656.151	4858.35
656.598	3192.55
657.044	2297.35
657.491	1776.75
657.938	1441.05
658.385	1218.95
658.831	1063.45
659.278	952.75
659.724	849.85
660.171	784.25
660.618	736.15
661.064	692.45
661.511	679.55
661.957	672.25
662.404	661.95
662.85	650.95
663.296	646.85
663.743	579.65
664.189	555.05
664.635	568.65
665.082	543.25
665.528	543.85
665.974	542.35
666.42	532.65
666.867	523.15
667.313	508.15
667.759	485.85
668.205	470.15
668.651	473.45
669.097	459.65
669.543	463.35
669.989	461.35
670.435	465.05
670.881	467.85
671.327	469.15
671.773	492.25
672.219	515.55
672.665	566.65
673.11	612.35
673.556	669.55
674.002	700.95
674.448	695.55
674.893	579.25
675.339	500.75
675.785	464.25
676.23	438.75
676.676	418.55
677.122	406.75
677.567	399.95
678.013	394.65
678.458	386.65
678.904	376.55
679.349	367.15
679.794	370.55
680.24	373.95
680.685	371.95
681.131	363.95
681.576	365.75
682.021	369.25
682.466	369.85
682.912	363.25
683.357	382.25
683.802	400.65
684.247	440.65
684.692	486.35
685.137	514.75
685.583	574.15
686.028	594.85
686.473	555.55
686.918	468.85
687.363	439.25
687.807	416.85
688.252	384.85
688.697	373.25
689.142	354.65
689.587	350.25
690.032	339.65
690.477	356.65
690.921	373.25
691.366	408.15
691.811	426.45
692.255	453.15
692.7	488.05
693.145	545.55
693.589	762.85
694.034	1232.25
694.478	1648.25
694.923	1819.65
695.367	2372.65
695.812	1267.15
696.256	535.65
696.701	392.75
697.145	357.35
697.59	340.25
698.034	341.15
698.478	345.95
698.922	338.15
699.367	344.35
699.811	356.85
700.255	371.75
700.699	406.25
701.143	448.95
701.588	515.25
702.032	547.05
702.476	548.25
702.92	521.05
703.364	530.05
703.808	701.95
704.252	1145.75
704.696	1578.55
705.14	1763.65
705.584	2244.35
706.027	1122.45
706.471	559.25
706.915	414.25
707.359	372.95
707.803	334.35
708.246	332.05
708.69	332.95
709.134	335.65
709.577	319.65
710.021	333.35
710.465	326.15
710.908	313.55
711.352	319.65
711.795	331.55
712.239	378.15
712.682	413.65
713.126	437.25
713.569	478.95
714.012	372.65
714.456	326.65
714.899	301.15
715.342	286.25
715.786	275.45
716.229	272.25
716.672	269.25
717.115	265.95
717.558	268.65
718.002	266.35
718.445	279.75
718.888	302.65
719.331	308.35
719.774	324.05
720.217	321.05
720.66	302.55
721.103	286.75
721.546	265.95
721.989	254.15
722.432	251.05
722.874	252.85
723.317	245.95
723.76	249.95
724.203	271.25
724.645	335.35
725.088	482.05
725.531	605.95
725.974	679.55
726.416	579.25
726.859	322.95
727.301	259.15
727.744	249.95
728.187	248.95
728.629	253.45
729.071	259.05
729.514	277.95
729.956	293.25
730.399	294.75
730.841	302.65
731.283	288.75
731.726	285.55
732.168	281.05
732.61	287.45
733.053	303.65
733.495	334.55
733.937	372.25
734.379	423.75
734.821	473.55
735.263	600.15
735.705	931.85
736.148	1758.75
736.59	2813.85
737.032	3193.85
737.474	2617.85
737.916	876.05
738.357	464.35
738.799	352.95
739.241	320.95
739.683	304.15
740.125	310.65
740.567	315.75
741.008	334.65
741.45	333.15
741.892	332.75
742.334	379.35
742.775	388.05
743.217	362.45
743.658	291.55
744.1	274.45
744.542	274.95
744.983	332.95
745.425	369.45
745.866	356.75
746.307	300.35
746.749	296.75
747.19	349.75
747.632	500.95
748.073	999.65
748.514	2082.85
748.956	3072.65
749.397	3870.65
749.838	3200.15
750.279	3122.45
750.72	1598.15
751.162	599.85
751.603	345.35
752.044	274.05
752.485	226.55
752.926	224.95
753.367	211.75
753.808	204.25
754.249	208.75
754.69	195.25
755.131	196.85
755.572	192.85
756.013	189.05
756.453	195.65
756.894	206.05
757.335	200.45
757.776	213.65
758.216	212.15
758.657	208.95
759.098	211.25
759.538	248.75
759.979	284.75
760.42	411.15
760.86	796.45
761.301	2097.15
761.741	4900.55
762.182	6743.75
762.622	4764.65
763.063	1416.55
763.503	579.35
763.943	355.35
