Data from 20171114-ORNL-Ar_H_NY_Subt18_08-06-51-034.txt Node
Date: Tue Nov 14 08:06:51 EST 2017
User: Ender
Spectrometer: HR+D1039
Trigger mode: 0
Integration Time (sec): 2.730000E-2
Scans to average: 10
Electric dark correction enabled: true
Nonlinearity correction enabled: false
Boxcar width: 0
XAxis mode: Wavelengths
Number of Pixels in Spectrum: 2048
>>>>>Begin Spectral Data<<<<<
187.836	-3.76
188.309	-3.76
188.782	-3.76
189.255	0.54
189.728	2.74
190.201	6.94
190.674	3.44
191.147	-0.06
191.619	-9.36
192.092	-2.76
192.565	-1.16
193.038	-4.26
193.511	-2.86
193.984	3.44
194.456	-1.16
194.929	8.74
195.402	0.94
195.874	-1.46
196.347	3.94
196.82	-4.96
197.292	4.54
197.765	-5.46
198.237	-8.86
198.71	0.84
199.182	-1.56
199.655	2.14
200.127	0.24
200.6	-2.26
201.072	-2.56
201.544	-7.86
202.017	-7.76
202.489	-0.46
202.961	-3.46
203.433	-0.56
203.906	-2.46
204.378	-6.26
204.85	-3.66
205.322	-8.56
205.794	-6.86
206.266	-3.66
206.739	-9.56
207.211	-4.06
207.683	-9.36
208.155	-9.36
208.627	-9.96
209.099	-3.76
209.57	-10.96
210.042	-1.46
210.514	-4.56
210.986	-3.06
211.458	-9.86
211.93	-3.96
212.402	-1.16
212.873	-7.86
213.345	-7.66
213.817	-12.66
214.288	-10.16
214.76	-8.66
215.232	-4.96
215.703	-7.26
216.175	-2.66
216.646	-6.36
217.118	-6.96
217.589	-6.26
218.061	-5.96
218.532	-4.36
219.004	-4.96
219.475	-6.76
219.946	-2.76
220.418	-6.06
220.889	-0.96
221.36	-0.86
221.832	-4.96
222.303	-8.26
222.774	1.24
223.245	-7.96
223.717	-2.96
224.188	-1.56
224.659	-9.06
225.13	-6.36
225.601	-3.86
226.072	-6.56
226.543	-4.86
227.014	-3.06
227.485	-0.56
227.956	-3.16
228.427	-7.46
228.898	-4.46
229.369	4.94
229.839	-2.76
230.31	-9.36
230.781	-0.86
231.252	-4.56
231.722	-4.86
232.193	-6.16
232.664	-5.96
233.135	-3.56
233.605	-1.06
234.076	-6.96
234.546	-1.16
235.017	2.14
235.487	-5.96
235.958	-9.36
236.428	-9.26
236.899	-1.96
237.369	-1.86
237.84	-6.16
238.31	0.84
238.78	0.04
239.251	-11.86
239.721	-5.86
240.191	-5.16
240.662	-9.76
241.132	-7.46
241.602	-1.86
242.072	2.34
242.542	8.54
243.013	-3.06
243.483	0.14
243.953	-3.46
244.423	-6.86
244.893	-6.56
245.363	-4.06
245.833	-0.76
246.303	-5.86
246.773	-0.86
247.243	-3.66
247.712	-4.96
248.182	3.44
248.652	-0.46
249.122	-5.66
249.592	-4.26
250.061	1.84
250.531	6.34
251.001	-0.76
251.471	3.74
251.94	8.94
252.41	-2.96
252.879	-6.96
253.349	4.54
253.818	1.64
254.288	-2.16
254.757	-0.56
255.227	-6.96
255.696	-1.96
256.166	4.24
256.635	0.84
257.105	-1.76
257.574	0.74
258.043	-7.56
258.513	-5.36
258.982	3.84
259.451	-4.26
259.92	-2.46
260.389	2.04
260.859	7.84
261.328	-0.06
261.797	-0.46
262.266	-4.76
262.735	6.24
263.204	-0.26
263.673	-2.96
264.142	2.04
264.611	-4.66
265.08	-6.36
265.549	-4.66
266.018	3.44
266.487	-0.96
266.955	-5.06
267.424	-3.86
267.893	4.44
268.362	0.44
268.83	3.84
269.299	11.84
269.768	1.94
270.236	3.74
270.705	-2.26
271.174	-0.46
271.642	2.64
272.111	1.04
272.579	-0.06
273.048	2.04
273.516	-0.86
273.985	9.54
274.453	12.14
274.922	7.84
275.39	4.74
275.858	-2.36
276.327	6.14
276.795	11.94
277.263	2.04
277.731	8.84
278.2	4.14
278.668	6.04
279.136	8.84
279.604	2.04
280.072	5.34
280.54	6.94
281.008	3.64
281.477	10.84
281.945	6.34
282.413	10.74
282.881	16.64
283.348	2.24
283.816	6.64
284.284	10.94
284.752	18.84
285.22	10.44
285.688	12.84
286.156	13.24
286.623	20.44
287.091	11.44
287.559	10.74
288.026	11.54
288.494	11.64
288.962	7.24
289.429	4.54
289.897	20.34
290.364	15.44
290.832	15.24
291.3	15.24
291.767	14.44
292.234	15.34
292.702	9.54
293.169	20.44
293.637	19.14
294.104	17.24
294.571	4.74
295.039	5.24
295.506	11.94
295.973	8.54
296.44	12.24
296.908	11.74
297.375	17.44
297.842	19.34
298.309	13.44
298.776	9.24
299.243	20.44
299.71	7.24
300.177	14.74
300.644	14.44
301.111	16.84
301.578	20.94
302.045	6.94
302.512	14.54
302.979	19.94
303.446	14.54
303.913	9.44
304.379	11.64
304.846	23.74
305.313	16.44
305.78	14.44
306.246	20.24
306.713	15.64
307.18	20.94
307.646	20.44
308.113	22.34
308.579	16.54
309.046	22.74
309.512	18.24
309.979	11.34
310.445	13.34
310.912	27.04
311.378	26.14
311.845	18.74
312.311	26.84
312.777	23.94
313.244	22.64
313.71	31.24
314.176	22.94
314.642	20.64
315.109	21.94
315.575	27.54
316.041	31.44
316.507	21.74
316.973	30.74
317.439	29.24
317.905	28.84
318.371	35.64
318.837	29.64
319.303	24.94
319.769	24.44
320.235	27.74
320.701	32.44
321.167	31.84
321.633	25.84
322.099	33.64
322.564	40.74
323.03	29.54
323.496	27.34
323.962	33.64
324.427	30.74
324.893	32.34
325.359	34.44
325.824	30.24
326.29	37.74
326.755	36.74
327.221	33.34
327.686	35.34
328.152	38.44
328.617	35.74
329.083	40.74
329.548	44.94
330.014	38.64
330.479	28.94
330.944	34.54
331.41	33.74
331.875	40.04
332.34	34.34
332.805	36.24
333.271	40.74
333.736	36.04
334.201	41.24
334.666	45.14
335.131	44.04
335.596	44.94
336.061	41.44
336.526	37.44
336.991	42.64
337.456	51.94
337.921	46.24
338.386	43.14
338.851	33.44
339.316	44.24
339.781	41.74
340.246	49.94
340.711	38.24
341.175	44.84
341.64	38.34
342.105	48.24
342.569	43.14
343.034	49.94
343.499	44.24
343.963	45.14
344.428	57.64
344.893	50.74
345.357	50.44
345.822	50.84
346.286	65.14
346.751	62.64
347.215	60.14
347.679	69.34
348.144	83.64
348.608	77.24
349.073	68.14
349.537	66.44
350.001	73.74
350.465	83.94
350.93	74.34
351.394	69.94
351.858	66.14
352.322	87.74
352.786	78.74
353.25	92.04
353.715	95.14
354.179	85.64
354.643	105.64
355.107	103.94
355.571	95.64
356.035	95.44
356.498	103.24
356.962	98.04
357.426	106.84
357.89	99.14
358.354	83.54
358.818	74.64
359.281	72.44
359.745	63.64
360.209	72.54
360.673	63.64
361.136	70.54
361.6	76.24
362.064	80.44
362.527	79.24
362.991	82.24
363.454	75.14
363.918	66.64
364.381	68.44
364.845	73.44
365.308	86.44
365.772	78.94
366.235	82.54
366.698	78.04
367.162	80.54
367.625	79.94
368.088	85.74
368.552	82.94
369.015	79.74
369.478	83.04
369.941	82.54
370.404	81.34
370.867	92.24
371.331	99.84
371.794	103.24
372.257	92.84
372.72	98.34
373.183	96.14
373.646	88.84
374.109	88.44
374.572	91.94
375.035	96.44
375.497	104.04
375.96	95.84
376.423	102.14
376.886	102.74
377.349	99.14
377.811	96.44
378.274	99.94
378.737	104.94
379.199	98.74
379.662	108.44
380.125	103.14
380.587	99.34
381.05	101.84
381.512	109.44
381.975	125.04
382.437	112.44
382.9	117.54
383.362	115.34
383.825	122.04
384.287	122.54
384.75	109.44
385.212	118.64
385.674	123.94
386.136	127.44
386.599	117.54
387.061	120.14
387.523	113.04
387.985	116.44
388.447	124.74
388.91	113.84
389.372	123.54
389.834	124.54
390.296	118.64
390.758	129.94
391.22	131.04
391.682	141.74
392.144	146.84
392.606	135.64
393.068	137.54
393.529	143.64
393.991	141.74
394.453	133.94
394.915	127.54
395.377	124.34
395.838	134.94
396.3	132.94
396.762	141.04
397.224	135.24
397.685	130.84
398.147	132.34
398.608	129.94
399.07	132.64
399.531	134.24
399.993	140.74
400.454	152.44
400.916	149.84
401.377	147.44
401.839	149.64
402.3	153.44
402.762	162.04
403.223	175.74
403.684	169.44
404.145	160.74
404.607	158.14
405.068	163.14
405.529	159.94
405.99	176.84
406.451	171.74
406.913	168.44
407.374	167.44
407.835	157.64
408.296	167.14
408.757	168.04
409.218	180.94
409.679	171.44
410.14	171.74
410.601	175.54
411.062	175.34
411.522	175.64
411.983	177.34
412.444	172.94
412.905	185.04
413.366	187.74
413.826	202.14
414.287	218.24
414.748	268.44
415.208	255.74
415.669	213.54
416.13	212.64
416.59	207.54
417.051	222.44
417.511	229.94
417.972	245.34
418.432	251.24
418.893	299.24
419.353	255.84
419.814	201.84
420.274	189.84
420.734	182.84
421.195	197.84
421.655	194.64
422.115	195.24
422.576	202.24
423.036	207.64
423.496	214.74
423.956	220.44
424.416	232.94
424.876	275.94
425.336	266.44
425.797	265.84
426.257	261.54
426.717	249.54
427.177	234.04
427.637	223.04
428.097	233.54
428.556	235.34
429.016	267.94
429.476	263.74
429.936	272.14
430.396	273.34
430.856	290.24
431.315	306.34
431.775	342.94
432.235	374.94
432.694	345.44
433.154	368.04
433.614	383.24
434.073	328.64
434.533	287.34
434.993	268.74
435.452	286.14
435.912	290.84
436.371	284.74
436.83	286.64
437.29	264.44
437.749	247.84
438.209	243.74
438.668	278.34
439.127	292.44
439.587	267.74
440.046	246.14
440.505	269.74
440.964	275.84
441.424	335.74
441.883	316.44
442.342	260.74
442.801	231.24
443.26	226.24
443.719	234.54
444.178	225.84
444.637	207.64
445.096	228.24
445.555	227.44
446.014	227.34
446.473	244.34
446.932	243.54
447.391	234.44
447.849	241.54
448.308	230.44
448.767	233.74
449.226	247.04
449.685	247.54
450.143	260.64
450.602	245.24
451.061	239.64
451.519	240.44
451.978	242.44
452.436	238.94
452.895	248.84
453.353	258.74
453.812	247.74
454.27	246.94
454.729	246.34
455.187	241.44
455.646	253.54
456.104	254.54
456.562	279.94
457.021	272.94
457.479	272.04
457.937	288.34
458.395	269.94
458.854	260.64
459.312	261.14
459.77	281.24
460.228	269.04
460.686	250.54
461.144	259.14
461.602	265.84
462.06	255.84
462.518	269.34
462.976	272.54
463.434	265.44
463.892	283.74
464.35	290.14
464.808	297.94
465.266	273.64
465.724	287.04
466.181	287.74
466.639	287.04
467.097	303.64
467.555	309.24
468.012	319.84
468.47	325.84
468.928	341.04
469.385	358.34
469.843	359.34
470.3	366.34
470.758	373.24
471.215	399.34
471.673	416.64
472.13	413.74
472.588	436.44
473.045	387.64
473.503	400.24
473.96	405.94
474.417	426.54
474.875	453.74
475.332	481.24
475.789	480.04
476.246	488.14
476.704	503.04
477.161	527.34
477.618	539.74
478.075	581.74
478.532	635.44
478.989	688.34
479.446	818.24
479.903	773.84
480.36	801.04
480.817	846.14
481.274	944.44
481.731	1030.74
482.188	1113.04
482.645	1225.54
483.102	1326.14
483.558	1452.84
484.015	1493.84
484.472	1458.74
484.929	1421.04
485.385	1381.34
485.842	1346.64
486.299	1297.44
486.755	1249.74
487.212	1074.64
487.668	925.14
488.125	850.24
488.582	785.64
489.038	758.44
489.494	720.14
489.951	708.64
490.407	689.44
490.864	657.04
491.32	659.04
491.776	656.24
492.233	661.44
492.689	628.14
493.145	627.24
493.602	620.14
494.058	635.24
494.514	639.44
494.97	660.54
495.426	658.74
495.882	639.04
496.338	637.94
496.794	650.34
497.251	643.04
497.707	652.24
498.163	656.54
498.618	663.84
499.074	659.04
499.53	697.34
499.986	698.44
500.442	660.34
500.898	648.44
501.354	631.64
501.809	641.44
502.265	654.04
502.721	656.74
503.177	668.54
503.632	669.34
504.088	674.84
504.543	693.24
504.999	709.64
505.455	675.24
505.91	657.14
506.366	660.54
506.821	663.04
507.277	656.54
507.732	663.54
508.187	650.94
508.643	668.74
509.098	666.54
509.553	684.84
510.009	696.14
510.464	705.24
510.919	718.04
511.375	726.84
511.83	739.84
512.285	744.74
512.74	784.54
513.195	809.44
513.65	800.24
514.105	792.54
514.56	798.54
515.015	808.14
515.47	822.74
515.925	814.34
516.38	820.04
516.835	814.84
517.29	808.74
517.745	814.14
518.2	790.54
518.655	785.54
519.109	778.84
519.564	775.44
520.019	759.04
520.474	755.64
520.928	764.74
521.383	749.24
521.838	735.74
522.292	738.84
522.747	742.84
523.201	738.74
523.656	718.64
524.11	723.14
524.565	726.24
525.019	719.44
525.474	730.24
525.928	721.94
526.382	713.44
526.837	720.44
527.291	728.04
527.745	719.04
528.2	732.64
528.654	721.04
529.108	712.94
529.562	720.94
530.016	719.64
530.47	711.94
530.925	716.74
531.379	715.04
531.833	718.44
532.287	725.14
532.741	729.14
533.195	734.74
533.649	744.04
534.103	740.24
534.556	736.44
535.01	727.74
535.464	733.14
535.918	752.74
536.372	751.44
536.826	746.54
537.279	732.44
537.733	740.64
538.187	738.54
538.64	744.64
539.094	753.64
539.548	753.94
540.001	752.54
540.455	757.34
540.908	763.54
541.362	768.94
541.815	775.64
542.269	781.94
542.722	792.34
543.175	808.64
543.629	797.24
544.082	816.64
544.536	823.64
544.989	816.44
545.442	834.74
545.895	823.24
546.349	829.34
546.802	832.54
547.255	829.94
547.708	852.04
548.161	853.64
548.614	854.94
549.067	859.14
549.52	858.74
549.973	847.34
550.426	836.84
550.879	830.44
551.332	835.84
551.785	854.64
552.238	840.64
552.691	851.24
553.144	871.54
553.596	885.24
554.049	892.84
554.502	926.44
554.955	943.14
555.407	940.74
555.86	933.44
556.313	933.04
556.765	913.94
557.218	919.14
557.67	918.74
558.123	911.44
558.576	903.64
559.028	911.44
559.48	916.94
559.933	911.44
560.385	886.04
560.838	849.24
561.29	824.84
561.742	817.44
562.195	804.74
562.647	790.74
563.099	814.64
563.551	804.84
564.004	827.14
564.456	808.44
564.908	793.74
565.36	774.14
565.812	762.84
566.264	759.74
566.716	742.94
567.168	734.64
567.62	730.14
568.072	725.64
568.524	720.04
568.976	721.04
569.428	698.84
569.88	704.34
570.332	719.84
570.784	712.94
571.235	719.24
571.687	718.84
572.139	730.54
572.59	742.24
573.042	740.34
573.494	738.24
573.945	730.94
574.397	715.84
574.849	720.94
575.3	720.34
575.752	709.84
576.203	706.34
576.655	710.34
577.106	705.24
577.557	698.24
578.009	696.24
578.46	694.34
578.912	688.84
579.363	686.34
579.814	685.04
580.265	690.24
580.717	693.54
581.168	697.14
581.619	696.64
582.07	707.44
582.521	689.74
582.972	693.64
583.423	702.04
583.875	703.44
584.326	703.04
584.777	726.14
585.227	745.94
585.678	757.74
586.129	771.64
586.58	788.14
587.031	807.24
587.482	843.74
587.933	864.64
588.384	847.54
588.834	820.44
589.285	792.24
589.736	802.94
590.186	799.44
590.637	780.34
591.088	770.54
591.538	761.14
591.989	752.44
592.439	753.84
592.89	737.44
593.34	731.24
593.791	730.34
594.241	716.04
594.692	717.94
595.142	714.44
595.593	709.84
596.043	723.74
596.493	733.84
596.943	732.24
597.394	742.74
597.844	745.14
598.294	758.84
598.744	791.24
599.195	818.04
599.645	852.04
600.095	891.84
600.545	952.64
600.995	994.24
601.445	1057.64
601.895	1125.94
602.345	1164.94
602.795	1141.34
603.245	1095.24
603.695	1045.94
604.145	994.04
604.594	953.14
605.044	893.94
605.494	824.54
605.944	775.94
606.393	765.44
606.843	745.04
607.293	760.94
607.743	756.94
608.192	760.64
608.642	781.54
609.091	777.54
609.541	784.54
609.99	787.04
610.44	778.64
610.889	737.24
611.339	716.64
611.788	702.04
612.238	719.34
612.687	718.84
613.136	710.34
613.586	732.34
614.035	720.84
614.484	730.84
614.933	732.14
615.383	717.34
615.832	725.24
616.281	719.64
616.73	689.24
617.179	669.44
617.628	662.54
618.077	644.74
618.526	628.64
618.975	633.64
619.424	625.44
619.873	628.14
620.322	637.84
620.771	618.84
621.22	625.54
621.669	612.74
622.118	599.34
622.567	592.94
623.015	583.04
623.464	571.84
623.913	578.74
624.361	565.84
624.81	568.64
625.259	564.04
625.707	579.54
626.156	576.94
626.604	586.24
627.053	577.24
627.501	582.24
627.95	577.94
628.398	605.14
628.847	584.44
629.295	588.24
629.744	596.84
630.192	581.14
630.64	566.84
631.089	560.94
631.537	558.54
631.985	545.74
632.433	539.94
632.881	536.04
633.33	550.94
633.778	540.04
634.226	541.94
634.674	556.44
635.122	551.64
635.57	561.44
636.018	578.54
636.466	586.74
636.914	569.74
637.362	575.94
637.81	588.84
638.258	597.04
638.705	594.14
639.153	624.74
639.601	632.34
640.049	658.74
640.497	687.24
640.944	714.04
641.392	651.24
641.84	630.14
642.287	593.84
642.735	575.84
643.182	576.14
643.63	564.64
644.078	578.84
644.525	585.34
644.973	593.44
645.42	609.44
645.867	630.44
646.315	637.44
646.762	660.44
647.21	685.64
647.657	711.74
648.104	742.14
648.551	767.74
648.999	826.84
649.446	896.24
649.893	972.84
650.34	1116.34
650.787	1334.24
651.234	1627.24
651.682	2088.14
652.129	2843.14
652.576	4043.24
653.023	5881.34
653.47	7979.84
653.917	9914.14
654.363	11469.34
654.81	12648.64
655.257	11929.34
655.704	7937.94
656.151	4788.04
656.598	3153.74
657.044	2264.84
657.491	1761.04
657.938	1424.04
658.385	1195.94
658.831	1049.74
659.278	946.14
659.724	833.14
660.171	768.04
660.618	707.64
661.064	680.84
661.511	663.94
661.957	662.54
662.404	645.74
662.85	648.54
663.296	634.94
663.743	563.54
664.189	549.64
664.635	547.94
665.082	534.44
665.528	527.14
665.974	519.34
666.42	517.74
666.867	523.64
667.313	498.14
667.759	467.04
668.205	464.34
668.651	458.14
669.097	453.84
669.543	445.44
669.989	453.34
670.435	455.54
670.881	463.14
671.327	466.24
671.773	488.94
672.219	498.44
672.665	554.04
673.11	595.54
673.556	645.44
674.002	682.24
674.448	671.94
674.893	574.64
675.339	489.74
675.785	454.14
676.23	430.74
676.676	405.84
677.122	396.04
677.567	386.94
678.013	380.64
678.458	370.94
678.904	370.44
679.349	362.64
679.794	367.14
680.24	361.54
680.685	361.34
681.131	362.44
681.576	358.74
682.021	364.74
682.466	354.74
682.912	356.84
683.357	362.24
683.802	395.14
684.247	420.94
684.692	468.34
685.137	516.24
685.583	556.54
686.028	585.64
686.473	535.34
686.918	462.04
687.363	432.74
687.807	409.94
688.252	373.64
688.697	358.14
689.142	351.24
689.587	346.84
690.032	335.54
690.477	348.24
690.921	359.74
691.366	388.84
691.811	413.64
692.255	440.44
692.7	471.64
693.145	520.64
693.589	721.84
694.034	1166.34
694.478	1588.14
694.923	1798.84
695.367	2347.34
695.812	1232.24
696.256	506.84
696.701	381.44
697.145	351.44
697.59	336.64
698.034	327.04
698.478	337.14
698.922	332.04
699.367	335.84
699.811	345.74
700.255	363.34
700.699	389.94
701.143	432.64
701.588	488.64
702.032	526.34
702.476	519.74
702.92	499.64
703.364	502.14
703.808	663.84
704.252	1070.94
704.696	1510.94
705.14	1724.94
705.584	2199.04
706.027	1093.64
706.471	540.74
706.915	410.64
707.359	362.64
707.803	337.74
708.246	326.54
708.69	324.34
709.134	320.94
709.577	315.14
710.021	323.14
710.465	309.64
710.908	307.34
711.352	308.94
711.795	331.44
712.239	358.34
712.682	391.94
713.126	432.64
713.569	471.94
714.012	369.34
714.456	309.84
714.899	298.54
715.342	283.34
715.786	264.44
716.229	262.34
716.672	259.04
717.115	253.44
717.558	255.54
718.002	257.14
718.445	272.84
718.888	293.74
719.331	295.74
719.774	312.34
720.217	314.54
720.66	291.04
721.103	271.14
721.546	256.54
721.989	256.64
722.432	236.64
722.874	247.74
723.317	233.04
723.76	236.34
724.203	261.44
724.645	330.34
725.088	460.84
725.531	589.14
725.974	664.04
726.416	567.84
726.859	316.84
727.301	251.84
727.744	239.04
728.187	240.64
728.629	242.34
729.071	241.54
729.514	268.04
729.956	276.14
730.399	294.24
730.841	301.34
731.283	281.84
731.726	276.64
732.168	269.74
732.61	271.74
733.053	297.14
733.495	317.84
733.937	366.24
734.379	416.64
734.821	448.64
735.263	564.84
735.705	869.64
736.148	1624.84
736.59	2672.44
737.032	3171.34
737.474	2576.94
737.916	851.74
738.357	446.44
738.799	340.84
739.241	310.84
739.683	288.74
740.125	293.64
740.567	309.84
741.008	330.54
741.45	319.54
741.892	325.04
742.334	357.54
742.775	372.84
743.217	363.74
743.658	285.44
744.1	264.04
744.542	274.14
744.983	321.94
745.425	362.64
745.866	352.04
746.307	288.84
746.749	288.84
747.19	338.84
747.632	475.04
748.073	916.24
748.514	1940.64
748.956	2960.04
749.397	3709.14
749.838	3074.64
750.279	3067.94
750.72	1552.84
751.162	567.74
751.603	338.24
752.044	259.64
752.485	231.34
752.926	219.84
753.367	206.04
753.808	199.54
754.249	198.34
754.69	195.24
755.131	189.04
755.572	190.94
756.013	184.44
756.453	193.64
756.894	188.04
757.335	195.64
757.776	205.04
758.216	203.84
758.657	199.54
759.098	205.54
759.538	229.14
759.979	262.54
760.42	382.14
760.86	733.14
761.301	1896.94
761.741	4611.74
762.182	6651.64
762.622	4706.74
