Data from 20171114-ORNL-Ar_H_NY_Subt18_08-06-46-394.txt Node
Date: Tue Nov 14 08:06:46 EST 2017
User: Ender
Spectrometer: HR+D1039
Trigger mode: 0
Integration Time (sec): 2.730000E-2
Scans to average: 10
Electric dark correction enabled: true
Nonlinearity correction enabled: false
Boxcar width: 0
XAxis mode: Wavelengths
Number of Pixels in Spectrum: 2048
>>>>>Begin Spectral Data<<<<<
187.836	-0.59
188.309	-0.59
188.782	-0.59
189.255	-3.69
189.728	-1.49
190.201	4.01
190.674	0.91
191.147	5.21
191.619	-7.99
192.092	2.21
192.565	6.01
193.038	2.91
193.511	-4.59
193.984	-0.49
194.456	0.81
194.929	0.81
195.402	-3.79
195.874	-0.29
196.347	2.71
196.82	-2.79
197.292	6.11
197.765	-2.29
198.237	-4.69
198.71	5.31
199.182	-4.09
199.655	5.81
200.127	8.81
200.6	0.01
201.072	-1.29
201.544	-4.19
202.017	0.11
202.489	7.01
202.961	-3.39
203.433	-1.19
203.906	-1.09
204.378	-8.99
204.85	-6.29
205.322	-12.29
205.794	1.21
206.266	-0.49
206.739	-10.09
207.211	0.01
207.683	-10.29
208.155	0.81
208.627	-5.29
209.099	-0.09
209.57	-6.79
210.042	-8.39
210.514	-4.59
210.986	1.81
211.458	-6.09
211.93	0.01
212.402	1.31
212.873	-7.19
213.345	-2.59
213.817	-10.39
214.288	-1.99
214.76	-8.99
215.232	-4.19
215.703	2.41
216.175	-2.29
216.646	-5.09
217.118	-5.39
217.589	-7.59
218.061	2.51
218.532	-5.09
219.004	-0.79
219.475	-4.09
219.946	-2.49
220.418	-4.99
220.889	-3.19
221.36	2.21
221.832	-6.39
222.303	-2.39
222.774	2.91
223.245	-7.59
223.717	-5.79
224.188	-3.49
224.659	-11.59
225.13	-5.29
225.601	-0.79
226.072	1.51
226.543	0.71
227.014	0.41
227.485	-2.29
227.956	-3.99
228.427	0.11
228.898	-0.39
229.369	3.31
229.839	-7.39
230.31	-1.29
230.781	3.31
231.252	5.31
231.722	-4.69
232.193	-7.39
232.664	-1.49
233.135	-3.49
233.605	-10.09
234.076	-7.49
234.546	-0.69
235.017	2.41
235.487	-0.09
235.958	-1.39
236.428	-3.69
236.899	0.61
237.369	5.41
237.84	-4.69
238.31	5.11
238.78	-6.19
239.251	-7.19
239.721	-3.09
240.191	4.01
240.662	-4.59
241.132	1.41
241.602	-1.19
242.072	-5.59
242.542	6.41
243.013	1.41
243.483	4.61
243.953	1.51
244.423	-0.09
244.893	-1.49
245.363	0.21
245.833	-3.19
246.303	-4.19
246.773	4.51
247.243	0.81
247.712	0.71
248.182	2.21
248.652	4.01
249.122	-7.29
249.592	-0.49
250.061	3.21
250.531	15.31
251.001	7.11
251.471	3.21
251.94	9.21
252.41	3.51
252.879	-4.99
253.349	15.01
253.818	3.61
254.288	4.31
254.757	3.51
255.227	-4.69
255.696	-1.99
256.166	2.11
256.635	1.81
257.105	0.11
257.574	-0.39
258.043	-2.59
258.513	2.41
258.982	4.71
259.451	-3.49
259.92	5.01
260.389	-0.19
260.859	8.51
261.328	6.11
261.797	2.51
262.266	3.21
262.735	4.61
263.204	5.81
263.673	2.91
264.142	7.61
264.611	1.61
265.08	1.31
265.549	-0.69
266.018	3.41
266.487	-1.99
266.955	-2.89
267.424	-1.79
267.893	4.51
268.362	-3.89
268.83	5.61
269.299	12.01
269.768	4.91
270.236	7.31
270.705	1.71
271.174	2.71
271.642	5.11
272.111	5.01
272.579	-0.09
273.048	5.41
273.516	7.21
273.985	7.61
274.453	5.91
274.922	8.91
275.39	6.91
275.858	3.31
276.327	10.81
276.795	15.31
277.263	2.71
277.731	16.61
278.2	14.71
278.668	1.91
279.136	10.71
279.604	7.41
280.072	13.61
280.54	9.41
281.008	10.01
281.477	11.51
281.945	7.91
282.413	14.31
282.881	13.21
283.348	4.91
283.816	12.81
284.284	18.11
284.752	11.41
285.22	8.81
285.688	8.81
286.156	6.61
286.623	16.31
287.091	16.01
287.559	17.71
288.026	17.81
288.494	14.01
288.962	2.01
289.429	10.01
289.897	19.61
290.364	13.01
290.832	20.31
291.3	11.71
291.767	17.61
292.234	15.81
292.702	11.81
293.169	15.81
293.637	22.61
294.104	20.31
294.571	8.61
295.039	17.21
295.506	13.41
295.973	13.51
296.44	13.51
296.908	19.61
297.375	17.21
297.842	17.11
298.309	17.91
298.776	15.11
299.243	19.31
299.71	11.51
300.177	18.21
300.644	24.51
301.111	17.01
301.578	25.31
302.045	18.21
302.512	24.41
302.979	23.41
303.446	23.51
303.913	19.71
304.379	23.21
304.846	26.31
305.313	30.01
305.78	25.91
306.246	28.81
306.713	22.91
307.18	23.81
307.646	23.21
308.113	26.71
308.579	19.81
309.046	26.51
309.512	26.21
309.979	16.91
310.445	27.31
310.912	29.41
311.378	29.61
311.845	33.31
312.311	29.61
312.777	32.71
313.244	30.11
313.71	41.01
314.176	29.71
314.642	30.51
315.109	28.61
315.575	39.71
316.041	35.31
316.507	31.21
316.973	36.61
317.439	35.21
317.905	29.91
318.371	31.51
318.837	30.81
319.303	33.41
319.769	35.91
320.235	31.31
320.701	28.81
321.167	28.11
321.633	32.91
322.099	37.81
322.564	39.41
323.03	40.81
323.496	38.81
323.962	38.41
324.427	34.61
324.893	41.01
325.359	37.51
325.824	36.41
326.29	34.61
326.755	36.41
327.221	44.61
327.686	35.51
328.152	44.41
328.617	46.61
329.083	46.51
329.548	52.11
330.014	45.81
330.479	45.91
330.944	45.11
331.41	40.71
331.875	44.81
332.34	40.71
332.805	41.51
333.271	44.21
333.736	40.71
334.201	49.01
334.666	46.61
335.131	51.11
335.596	52.11
336.061	50.61
336.526	45.81
336.991	47.71
337.456	54.11
337.921	45.31
338.386	41.01
338.851	49.31
339.316	45.01
339.781	47.51
340.246	56.21
340.711	43.71
341.175	58.71
341.64	46.81
342.105	50.01
342.569	50.31
343.034	54.21
343.499	57.71
343.963	54.11
344.428	65.01
344.893	62.11
345.357	59.71
345.822	57.61
346.286	62.61
346.751	75.51
347.215	73.01
347.679	73.31
348.144	90.21
348.608	82.51
349.073	70.21
349.537	76.81
350.001	78.71
350.465	87.41
350.93	76.81
351.394	86.11
351.858	63.81
352.322	82.51
352.786	84.81
353.25	93.11
353.715	108.01
354.179	97.21
354.643	113.11
355.107	123.91
355.571	104.41
356.035	98.71
356.498	105.61
356.962	115.81
357.426	122.41
357.89	112.91
358.354	91.21
358.818	91.11
359.281	78.31
359.745	76.11
360.209	75.21
360.673	73.31
361.136	73.11
361.6	78.31
362.064	78.91
362.527	89.21
362.991	88.51
363.454	83.41
363.918	81.31
364.381	79.61
364.845	87.11
365.308	91.11
365.772	95.81
366.235	92.31
366.698	90.81
367.162	87.11
367.625	81.61
368.088	92.31
368.552	94.11
369.015	91.41
369.478	96.41
369.941	99.81
370.404	95.61
370.867	102.41
371.331	97.41
371.794	107.21
372.257	104.61
372.72	108.01
373.183	106.61
373.646	101.81
374.109	91.71
374.572	99.31
375.035	99.81
375.497	108.21
375.96	106.11
376.423	105.61
376.886	117.11
377.349	113.31
377.811	105.71
378.274	107.41
378.737	103.81
379.199	114.01
379.662	115.61
380.125	120.71
380.587	114.41
381.05	112.91
381.512	117.31
381.975	122.81
382.437	124.31
382.9	116.91
383.362	121.31
383.825	130.81
384.287	124.71
384.75	119.51
385.212	130.01
385.674	134.61
386.136	137.61
386.599	126.21
387.061	125.71
387.523	125.51
387.985	128.11
388.447	135.91
388.91	125.01
389.372	128.71
389.834	137.61
390.296	133.81
390.758	140.21
391.22	142.31
391.682	148.51
392.144	156.11
392.606	146.41
393.068	146.81
393.529	155.11
393.991	150.01
394.453	136.61
394.915	142.31
395.377	141.41
395.838	141.81
396.3	140.61
396.762	149.71
397.224	138.91
397.685	137.31
398.147	148.41
398.608	144.91
399.07	137.91
399.531	143.51
399.993	156.51
400.454	159.11
400.916	148.61
401.377	152.71
401.839	154.91
402.3	161.71
402.762	179.81
403.223	187.61
403.684	177.21
404.145	161.11
404.607	168.51
405.068	168.21
405.529	174.41
405.99	192.01
406.451	179.11
406.913	185.11
407.374	173.71
407.835	175.11
408.296	171.41
408.757	183.11
409.218	193.21
409.679	187.31
410.14	180.11
410.601	188.31
411.062	184.71
411.522	189.51
411.983	188.01
412.444	183.51
412.905	194.21
413.366	193.51
413.826	202.71
414.287	237.41
414.748	288.11
415.208	269.01
415.669	226.61
416.13	220.51
416.59	213.41
417.051	236.01
417.511	241.81
417.972	253.11
418.432	270.11
418.893	312.21
419.353	267.51
419.814	215.91
420.274	196.81
420.734	196.71
421.195	207.01
421.655	203.71
422.115	211.01
422.576	205.41
423.036	218.91
423.496	228.31
423.956	236.61
424.416	248.71
424.876	284.31
425.336	282.71
425.797	279.51
426.257	273.51
426.717	256.51
427.177	245.31
427.637	228.11
428.097	245.81
428.556	252.41
429.016	279.31
429.476	275.81
429.936	287.01
430.396	284.81
430.856	302.01
431.315	326.31
431.775	355.61
432.235	390.61
432.694	366.21
433.154	375.01
433.614	402.01
434.073	350.81
434.533	299.01
434.993	287.41
435.452	290.81
435.912	305.81
436.371	298.61
436.83	289.01
437.29	280.71
437.749	258.21
438.209	262.31
438.668	290.71
439.127	302.31
439.587	282.21
440.046	261.51
440.505	278.51
440.964	289.21
441.424	334.61
441.883	338.61
442.342	278.71
442.801	238.21
443.26	236.11
443.719	233.91
444.178	237.61
444.637	225.21
445.096	236.71
445.555	241.01
446.014	242.41
446.473	242.51
446.932	250.41
447.391	247.01
447.849	245.41
448.308	244.01
448.767	244.21
449.226	256.91
449.685	257.61
450.143	272.51
450.602	258.41
451.061	241.61
451.519	249.41
451.978	255.21
452.436	250.71
452.895	256.71
453.353	266.51
453.812	257.01
454.27	264.91
454.729	264.41
455.187	269.61
455.646	270.21
456.104	267.31
456.562	284.51
457.021	287.21
457.479	283.51
457.937	299.71
458.395	290.11
458.854	270.91
459.312	281.41
459.77	299.01
460.228	277.11
460.686	262.11
461.144	264.41
461.602	275.01
462.06	264.51
462.518	277.51
462.976	284.01
463.434	279.71
463.892	283.11
464.35	292.51
464.808	309.91
465.266	300.11
465.724	293.31
466.181	301.41
466.639	298.41
467.097	316.81
467.555	323.31
468.012	320.41
468.47	336.31
468.928	355.11
469.385	365.91
469.843	372.51
470.3	382.21
470.758	388.91
471.215	416.91
471.673	435.41
472.13	435.11
472.588	449.11
473.045	408.71
473.503	412.31
473.96	424.91
474.417	429.11
474.875	468.01
475.332	514.11
475.789	492.91
476.246	502.11
476.704	525.21
477.161	546.81
477.618	565.01
478.075	597.71
478.532	657.81
478.989	727.41
479.446	840.41
479.903	791.71
480.36	830.11
480.817	880.41
481.274	978.01
481.731	1081.11
482.188	1155.11
482.645	1283.91
483.102	1369.51
483.558	1507.91
484.015	1543.01
484.472	1491.71
484.929	1467.41
485.385	1432.11
485.842	1400.41
486.299	1355.21
486.755	1305.01
487.212	1107.91
487.668	954.11
488.125	872.41
488.582	818.31
489.038	786.61
489.494	745.21
489.951	715.91
490.407	701.81
490.864	682.41
491.32	681.91
491.776	685.91
492.233	681.51
492.689	654.01
493.145	648.81
493.602	643.71
494.058	658.81
494.514	660.11
494.97	680.81
495.426	698.41
495.882	675.11
496.338	652.01
496.794	672.51
497.251	658.71
497.707	671.81
498.163	682.41
498.618	690.91
499.074	687.61
499.53	710.61
499.986	720.81
500.442	694.41
500.898	666.91
501.354	666.51
501.809	676.81
502.265	675.51
502.721	680.41
503.177	691.11
503.632	689.91
504.088	696.91
504.543	714.31
504.999	747.01
505.455	704.11
505.91	686.11
506.366	688.01
506.821	680.41
507.277	673.61
507.732	683.91
508.187	678.11
508.643	693.71
509.098	695.21
509.553	711.71
510.009	725.11
510.464	727.81
510.919	744.91
511.375	749.81
511.83	752.31
512.285	785.91
512.74	816.71
513.195	834.11
513.65	827.41
514.105	834.01
514.56	825.71
515.015	855.01
515.47	861.21
515.925	849.51
516.38	838.41
516.835	848.41
517.29	837.41
517.745	843.01
518.2	825.21
518.655	813.61
519.109	795.31
519.564	785.91
520.019	784.21
520.474	776.71
520.928	777.71
521.383	773.21
521.838	769.71
522.292	765.31
522.747	764.21
523.201	761.91
523.656	752.21
524.11	746.61
524.565	749.61
525.019	745.01
525.474	752.21
525.928	747.61
526.382	740.61
526.837	759.51
527.291	760.71
527.745	749.01
528.2	759.81
528.654	746.01
529.108	740.41
529.562	734.21
530.016	737.81
530.47	742.71
530.925	740.31
531.379	738.61
531.833	762.91
532.287	751.71
532.741	750.31
533.195	752.71
533.649	763.91
534.103	774.91
534.556	763.31
535.01	763.51
535.464	758.81
535.918	767.21
536.372	773.91
536.826	763.81
537.279	754.81
537.733	769.81
538.187	771.51
538.64	768.41
539.094	773.71
539.548	788.01
540.001	782.51
540.455	780.31
540.908	795.81
541.362	796.81
541.815	793.81
542.269	816.01
542.722	814.51
543.175	824.71
543.629	826.11
544.082	848.81
544.536	855.41
544.989	851.21
545.442	856.11
545.895	844.61
546.349	852.91
546.802	855.21
547.255	852.51
547.708	867.41
548.161	877.91
548.614	893.71
549.067	887.11
549.52	882.31
549.973	874.81
550.426	870.41
550.879	867.21
551.332	863.71
551.785	866.71
552.238	878.51
552.691	884.11
553.144	900.11
553.596	911.41
554.049	935.51
554.502	965.01
554.955	995.81
555.407	975.11
555.86	969.31
556.313	964.51
556.765	952.91
557.218	945.61
557.67	954.91
558.123	949.21
558.576	942.51
559.028	944.01
559.48	959.91
559.933	937.31
560.385	904.71
560.838	872.01
561.29	849.71
561.742	858.11
562.195	831.41
562.647	820.91
563.099	837.41
563.551	834.71
564.004	844.41
564.456	832.01
564.908	810.81
565.36	801.51
565.812	778.41
566.264	774.91
566.716	769.91
567.168	750.91
567.62	764.31
568.072	760.01
568.524	749.61
568.976	735.61
569.428	726.81
569.88	725.01
570.332	736.51
570.784	740.81
571.235	731.61
571.687	758.71
572.139	742.61
572.59	766.61
573.042	759.21
573.494	759.01
573.945	761.71
574.397	738.91
574.849	745.91
575.3	738.71
575.752	738.61
576.203	731.91
576.655	744.91
577.106	716.91
577.557	710.41
578.009	719.01
578.46	713.21
578.912	716.41
579.363	710.41
579.814	729.11
580.265	713.31
580.717	725.71
581.168	709.81
581.619	735.01
582.07	724.41
582.521	729.11
582.972	719.01
583.423	719.11
583.875	718.01
584.326	726.11
584.777	746.91
585.227	765.51
585.678	784.41
586.129	795.71
586.58	809.51
587.031	834.91
587.482	874.21
587.933	900.21
588.384	878.21
588.834	846.11
589.285	833.91
589.736	829.31
590.186	821.31
590.637	817.51
591.088	801.51
591.538	778.71
591.989	778.11
592.439	774.11
592.89	765.51
593.34	758.31
593.791	753.51
594.241	746.41
594.692	735.21
595.142	739.81
595.593	746.11
596.043	759.81
596.493	748.61
596.943	758.31
597.394	770.81
597.844	755.41
598.294	777.51
598.744	807.81
599.195	836.21
599.645	888.11
600.095	923.91
600.545	979.11
600.995	1034.51
601.445	1088.81
601.895	1159.61
602.345	1214.71
602.795	1179.81
603.245	1143.71
603.695	1073.51
604.145	1015.11
604.594	974.91
605.044	930.81
605.494	857.51
605.944	802.31
606.393	789.41
606.843	772.91
607.293	772.71
607.743	778.61
608.192	794.11
608.642	790.11
609.091	805.31
609.541	813.31
609.99	821.01
610.44	799.31
610.889	761.21
611.339	728.21
611.788	725.31
612.238	727.91
612.687	740.81
613.136	732.41
613.586	745.31
614.035	740.61
614.484	747.31
614.933	748.01
615.383	747.41
615.832	750.21
616.281	740.11
616.73	700.41
617.179	679.81
617.628	682.71
618.077	670.61
618.526	667.21
618.975	648.61
619.424	652.31
619.873	651.71
620.322	662.91
620.771	634.31
621.22	629.31
621.669	630.21
622.118	621.71
622.567	615.51
623.015	601.91
623.464	601.71
623.913	584.71
624.361	582.31
624.81	583.81
625.259	587.91
625.707	589.71
626.156	591.41
626.604	604.91
627.053	602.51
627.501	599.71
627.95	607.11
628.398	619.11
628.847	599.41
629.295	607.31
629.744	597.81
630.192	601.41
630.64	591.71
631.089	577.21
631.537	574.11
631.985	573.01
632.433	557.71
632.881	550.61
633.33	560.31
633.778	559.41
634.226	550.11
634.674	569.31
635.122	568.01
635.57	581.21
636.018	587.01
636.466	592.11
636.914	581.81
637.362	593.61
637.81	601.81
638.258	613.31
638.705	605.81
639.153	652.11
639.601	647.81
640.049	685.11
640.497	711.21
640.944	745.31
641.392	681.71
641.84	651.01
642.287	616.81
642.735	597.11
643.182	591.41
643.63	594.71
644.078	590.21
644.525	598.81
644.973	614.91
645.42	621.71
645.867	639.71
646.315	660.91
646.762	682.31
647.21	713.51
647.657	728.41
648.104	768.61
648.551	797.81
648.999	848.51
649.446	925.61
649.893	1012.51
650.34	1148.81
650.787	1376.41
651.234	1692.51
651.682	2177.71
652.129	2952.41
652.576	4145.61
653.023	6064.11
653.47	8182.71
653.917	10217.51
654.363	11741.41
654.81	12958.41
655.257	12283.01
655.704	8121.41
656.151	4936.01
656.598	3234.01
657.044	2326.21
657.491	1804.71
657.938	1457.31
658.385	1228.91
658.831	1074.61
659.278	955.61
659.724	865.11
660.171	802.81
660.618	739.11
661.064	709.21
661.511	684.31
661.957	672.01
662.404	656.61
662.85	676.71
663.296	642.71
663.743	587.81
664.189	571.21
664.635	560.11
665.082	553.31
665.528	550.11
665.974	544.11
666.42	536.41
666.867	535.61
667.313	509.81
667.759	497.81
668.205	477.31
668.651	481.51
669.097	473.11
669.543	460.71
669.989	468.11
670.435	473.71
670.881	464.41
671.327	474.61
671.773	498.21
672.219	522.81
672.665	575.71
673.11	623.01
673.556	665.21
674.002	704.91
674.448	693.01
674.893	578.71
675.339	507.01
675.785	470.41
676.23	442.11
676.676	421.71
677.122	406.71
677.567	404.01
678.013	394.31
678.458	384.11
678.904	386.11
679.349	370.21
679.794	381.81
680.24	376.11
680.685	368.71
681.131	386.41
681.576	365.21
682.021	375.01
682.466	367.41
682.912	369.11
683.357	379.71
683.802	414.41
684.247	436.91
684.692	481.21
685.137	524.51
685.583	572.91
686.028	596.11
686.473	550.81
686.918	469.71
687.363	445.91
687.807	413.91
688.252	387.91
688.697	374.11
689.142	360.81
689.587	353.01
690.032	348.81
690.477	364.11
690.921	379.01
691.366	412.91
691.811	426.41
692.255	456.61
692.7	487.31
693.145	531.91
693.589	739.41
694.034	1199.91
694.478	1625.21
694.923	1844.91
695.367	2399.21
695.812	1274.11
696.256	533.51
696.701	388.41
697.145	362.51
697.59	346.51
698.034	333.61
698.478	348.31
698.922	344.11
699.367	341.81
699.811	356.71
700.255	375.81
700.699	408.61
701.143	443.21
701.588	496.01
702.032	544.71
702.476	551.91
702.92	517.41
703.364	530.01
703.808	680.21
704.252	1102.61
704.696	1536.61
705.14	1766.81
705.584	2259.31
706.027	1133.21
706.471	563.71
706.915	426.91
707.359	374.61
707.803	342.61
708.246	325.61
708.69	330.01
709.134	331.91
709.577	330.41
710.021	333.21
710.465	325.11
710.908	318.41
711.352	317.51
711.795	325.71
712.239	378.21
712.682	408.11
713.126	437.11
713.569	477.91
714.012	375.81
714.456	324.51
714.899	305.61
715.342	292.71
715.786	285.61
716.229	274.71
716.672	268.91
717.115	267.21
717.558	257.41
718.002	260.31
718.445	272.81
718.888	304.01
719.331	312.51
719.774	319.71
720.217	325.51
720.66	294.21
721.103	277.81
721.546	272.31
721.989	270.91
722.432	244.51
722.874	250.81
723.317	236.01
723.76	249.81
724.203	273.31
724.645	338.11
725.088	471.51
725.531	607.31
725.974	688.21
726.416	584.21
726.859	323.51
727.301	254.01
727.744	246.71
728.187	243.41
728.629	258.81
729.071	252.41
729.514	269.21
729.956	285.71
730.399	289.41
730.841	301.41
731.283	283.11
731.726	284.91
732.168	278.51
732.61	286.01
733.053	300.31
733.495	328.81
733.937	371.81
734.379	416.21
734.821	466.11
735.263	587.41
735.705	890.31
736.148	1690.61
736.59	2776.01
737.032	3248.21
737.474	2641.91
737.916	870.31
738.357	463.01
738.799	349.41
739.241	316.61
739.683	304.61
740.125	312.01
740.567	318.61
741.008	336.11
741.45	331.01
741.892	338.31
742.334	368.51
742.775	384.01
743.217	364.91
743.658	301.31
744.1	270.51
744.542	281.01
744.983	338.21
745.425	378.51
745.866	374.41
746.307	301.11
746.749	296.51
747.19	343.51
747.632	495.71
748.073	940.21
748.514	1989.81
748.956	3029.11
749.397	3803.91
749.838	3174.21
750.279	3146.91
750.72	1596.51
751.162	586.21
751.603	347.81
752.044	274.41
752.485	229.71
752.926	220.01
753.367	208.41
753.808	206.11
754.249	205.81
754.69	200.41
755.131	192.41
755.572	195.91
756.013	193.41
756.453	198.11
756.894	197.11
757.335	206.51
757.776	206.31
758.216	201.21
758.657	214.11
759.098	215.41
759.538	246.21
759.979	284.71
760.42	399.61
760.86	750.51
761.301	1949.11
761.741	4713.11
762.182	6821.31
762.622	4815.71
763.063	1388.21
