Data from 20171114-ORNL-Ar_H_NY_Subt18_08-05-31-052.txt Node
Date: Tue Nov 14 08:05:31 EST 2017
User: Ender
Spectrometer: HR+D1039
Trigger mode: 0
Integration Time (sec): 2.730000E-2
Scans to average: 10
Electric dark correction enabled: true
Nonlinearity correction enabled: false
Boxcar width: 0
XAxis mode: Wavelengths
Number of Pixels in Spectrum: 2048
>>>>>Begin Spectral Data<<<<<
187.836	-3.05
188.309	-3.05
188.782	-3.05
189.255	-3.95
189.728	-3.75
190.201	2.25
190.674	5.35
191.147	0.85
191.619	-5.25
192.092	2.35
192.565	7.35
193.038	2.05
193.511	1.95
193.984	-0.55
194.456	-2.95
194.929	2.55
195.402	-3.35
195.874	-1.85
196.347	-2.45
196.82	-4.75
197.292	7.25
197.765	-0.65
198.237	-10.65
198.71	3.95
199.182	-4.35
199.655	0.35
200.127	0.25
200.6	-3.45
201.072	-3.85
201.544	-4.45
202.017	-5.85
202.489	-3.95
202.961	-0.15
203.433	-4.35
203.906	-6.55
204.378	-8.65
204.85	-2.65
205.322	-10.65
205.794	-2.95
206.266	-3.15
206.739	-11.15
207.211	-2.65
207.683	-5.45
208.155	-5.05
208.627	-7.65
209.099	-1.85
209.57	-7.75
210.042	-1.35
210.514	-5.55
210.986	-1.35
211.458	-6.45
211.93	-0.25
212.402	-3.65
212.873	-6.05
213.345	-9.55
213.817	-10.45
214.288	-5.85
214.76	-12.15
215.232	-7.25
215.703	3.65
216.175	-4.25
216.646	2.65
217.118	-3.35
217.589	-4.55
218.061	0.25
218.532	-0.65
219.004	-3.25
219.475	-4.55
219.946	-2.15
220.418	-12.75
220.889	1.55
221.36	-0.15
221.832	-1.55
222.303	-4.85
222.774	2.95
223.245	-10.85
223.717	-7.75
224.188	-2.15
224.659	-8.15
225.13	-3.25
225.601	-8.15
226.072	-1.15
226.543	-2.05
227.014	1.35
227.485	0.25
227.956	-4.45
228.427	0.65
228.898	-4.05
229.369	5.85
229.839	-4.45
230.31	-4.65
230.781	0.85
231.252	-5.45
231.722	-2.15
232.193	-5.55
232.664	-2.65
233.135	-0.25
233.605	0.85
234.076	-1.75
234.546	3.25
235.017	4.45
235.487	1.15
235.958	-2.15
236.428	-4.05
236.899	8.95
237.369	5.35
237.84	-4.15
238.31	4.15
238.78	1.95
239.251	-6.95
239.721	0.65
240.191	2.25
240.662	-5.05
241.132	0.15
241.602	-1.15
242.072	3.85
242.542	3.95
243.013	1.65
243.483	-1.15
243.953	0.75
244.423	2.45
244.893	-3.75
245.363	3.25
245.833	3.05
246.303	0.05
246.773	10.55
247.243	1.65
247.712	-0.25
248.182	10.65
248.652	3.65
249.122	-0.75
249.592	13.95
250.061	14.15
250.531	36.35
251.001	15.55
251.471	24.95
251.94	15.55
252.41	11.65
252.879	-0.05
253.349	7.85
253.818	14.95
254.288	-0.15
254.757	2.05
255.227	0.55
255.696	5.65
256.166	7.65
256.635	8.35
257.105	9.25
257.574	6.95
258.043	9.15
258.513	11.05
258.982	16.25
259.451	6.45
259.92	13.95
260.389	12.25
260.859	17.75
261.328	11.85
261.797	14.95
262.266	9.05
262.735	9.95
263.204	5.25
263.673	-4.05
264.142	9.85
264.611	-1.55
265.08	0.35
265.549	4.55
266.018	9.65
266.487	-1.05
266.955	-2.65
267.424	1.85
267.893	7.65
268.362	4.65
268.83	8.35
269.299	8.15
269.768	8.85
270.236	10.95
270.705	2.45
271.174	2.85
271.642	10.45
272.111	7.25
272.579	17.25
273.048	24.15
273.516	26.25
273.985	30.25
274.453	21.95
274.922	21.05
275.39	8.35
275.858	3.85
276.327	11.55
276.795	16.75
277.263	10.45
277.731	30.65
278.2	57.65
278.668	61.65
279.136	44.15
279.604	22.25
280.072	19.05
280.54	9.65
281.008	9.65
281.477	13.15
281.945	13.95
282.413	13.35
282.881	17.15
283.348	12.25
283.816	21.05
284.284	17.45
284.752	23.25
285.22	10.45
285.688	17.15
286.156	20.35
286.623	42.15
287.091	60.25
287.559	25.65
288.026	13.05
288.494	18.75
288.962	6.95
289.429	11.45
289.897	17.35
290.364	16.75
290.832	17.65
291.3	15.55
291.767	19.75
292.234	18.25
292.702	10.55
293.169	18.55
293.637	22.95
294.104	25.45
294.571	14.95
295.039	10.05
295.506	13.45
295.973	19.75
296.44	18.75
296.908	21.05
297.375	20.75
297.842	20.15
298.309	13.85
298.776	11.85
299.243	17.75
299.71	19.75
300.177	21.85
300.644	21.05
301.111	22.55
301.578	27.35
302.045	19.45
302.512	27.45
302.979	29.15
303.446	22.15
303.913	21.65
304.379	20.45
304.846	26.25
305.313	28.85
305.78	25.05
306.246	30.65
306.713	24.15
307.18	32.35
307.646	22.95
308.113	30.55
308.579	22.55
309.046	21.25
309.512	23.45
309.979	19.05
310.445	32.95
310.912	27.75
311.378	31.75
311.845	25.45
312.311	31.65
312.777	32.45
313.244	34.05
313.71	35.55
314.176	31.55
314.642	34.75
315.109	31.85
315.575	33.35
316.041	40.35
316.507	35.95
316.973	45.45
317.439	35.65
317.905	39.15
318.371	40.15
318.837	35.75
319.303	32.15
319.769	30.05
320.235	30.15
320.701	42.25
321.167	32.75
321.633	34.75
322.099	33.55
322.564	44.15
323.03	39.15
323.496	40.05
323.962	43.85
324.427	37.65
324.893	38.35
325.359	36.55
325.824	41.75
326.29	45.25
326.755	40.05
327.221	42.05
327.686	46.15
328.152	49.05
328.617	41.55
329.083	52.95
329.548	51.05
330.014	54.75
330.479	38.85
330.944	46.65
331.41	48.95
331.875	47.45
332.34	44.15
332.805	43.85
333.271	49.55
333.736	42.05
334.201	57.45
334.666	60.65
335.131	55.75
335.596	53.55
336.061	55.15
336.526	47.95
336.991	48.05
337.456	55.95
337.921	49.05
338.386	47.35
338.851	51.15
339.316	48.45
339.781	50.65
340.246	52.05
340.711	48.35
341.175	50.75
341.64	45.55
342.105	50.45
342.569	58.15
343.034	60.25
343.499	51.95
343.963	53.15
344.428	65.15
344.893	60.65
345.357	60.65
345.822	63.95
346.286	66.75
346.751	78.75
347.215	69.05
347.679	78.55
348.144	101.65
348.608	88.35
349.073	75.05
349.537	79.75
350.001	85.95
350.465	86.25
350.93	82.65
351.394	82.65
351.858	76.35
352.322	78.65
352.786	88.75
353.25	103.05
353.715	110.25
354.179	98.75
354.643	125.45
355.107	131.35
355.571	108.65
356.035	104.25
356.498	116.25
356.962	131.05
357.426	131.85
357.89	122.35
358.354	92.45
358.818	88.95
359.281	85.35
359.745	80.05
360.209	79.95
360.673	80.05
361.136	80.05
361.6	83.75
362.064	86.35
362.527	85.65
362.991	88.15
363.454	84.85
363.918	79.05
364.381	82.45
364.845	85.75
365.308	85.25
365.772	89.85
366.235	88.55
366.698	87.55
367.162	89.45
367.625	88.05
368.088	90.05
368.552	88.95
369.015	89.95
369.478	104.15
369.941	100.15
370.404	94.45
370.867	110.45
371.331	113.45
371.794	119.05
372.257	106.95
372.72	121.45
373.183	106.45
373.646	106.15
374.109	107.65
374.572	107.35
375.035	110.65
375.497	108.35
375.96	108.45
376.423	105.95
376.886	118.15
377.349	115.75
377.811	100.25
378.274	109.05
378.737	104.55
379.199	110.25
379.662	108.85
380.125	120.75
380.587	116.05
381.05	120.75
381.512	124.55
381.975	139.85
382.437	131.45
382.9	122.05
383.362	135.65
383.825	144.95
384.287	148.05
384.75	141.05
385.212	145.75
385.674	137.15
386.136	137.05
386.599	125.35
387.061	128.45
387.523	127.25
387.985	133.05
388.447	144.95
388.91	148.95
389.372	158.05
389.834	151.45
390.296	146.45
390.758	148.85
391.22	166.05
391.682	211.75
392.144	295.15
392.606	232.25
393.068	172.65
393.529	171.05
393.991	145.55
394.453	146.95
394.915	150.45
395.377	184.25
395.838	211.35
396.3	156.05
396.762	147.55
397.224	131.55
397.685	129.95
398.147	134.75
398.608	132.35
399.07	129.65
399.531	135.35
399.993	145.45
400.454	153.35
400.916	148.75
401.377	144.55
401.839	151.35
402.3	147.95
402.762	166.25
403.223	177.45
403.684	172.25
404.145	159.15
404.607	163.55
405.068	171.75
405.529	169.45
405.99	192.45
406.451	179.35
406.913	176.55
407.374	167.05
407.835	165.85
408.296	171.35
408.757	174.45
409.218	194.55
409.679	180.15
410.14	178.75
410.601	181.15
411.062	183.15
411.522	192.55
411.983	189.55
412.444	175.65
412.905	186.45
413.366	184.55
413.826	195.95
414.287	220.05
414.748	263.75
415.208	250.95
415.669	217.55
416.13	209.35
416.59	198.85
417.051	215.75
417.511	219.95
417.972	239.85
418.432	245.95
418.893	290.45
419.353	252.15
419.814	203.45
420.274	187.25
420.734	182.35
421.195	196.05
421.655	196.85
422.115	198.15
422.576	198.25
423.036	195.15
423.496	208.65
423.956	215.25
424.416	228.15
424.876	260.35
425.336	262.65
425.797	264.25
426.257	252.15
426.717	236.55
427.177	226.55
427.637	227.55
428.097	236.05
428.556	250.75
429.016	274.65
429.476	268.25
429.936	274.85
430.396	286.05
430.856	297.55
431.315	312.55
431.775	359.05
432.235	379.15
432.694	359.45
433.154	369.15
433.614	402.45
434.073	342.45
434.533	287.95
434.993	275.25
435.452	291.05
435.912	300.55
436.371	290.55
436.83	287.65
437.29	272.45
437.749	253.75
438.209	247.25
438.668	277.15
439.127	294.75
439.587	270.25
440.046	256.55
440.505	260.45
440.964	277.85
441.424	333.05
441.883	314.45
442.342	263.25
442.801	223.05
443.26	215.15
443.719	221.55
444.178	221.55
444.637	212.55
445.096	221.45
445.555	227.55
446.014	225.85
446.473	228.15
446.932	231.15
447.391	227.65
447.849	219.65
448.308	218.25
448.767	227.55
449.226	238.55
449.685	242.05
450.143	250.45
450.602	228.15
451.061	234.45
451.519	238.75
451.978	238.45
452.436	238.15
452.895	234.05
453.353	253.25
453.812	241.95
454.27	242.95
454.729	231.95
455.187	241.05
455.646	246.35
456.104	249.65
456.562	261.55
457.021	280.15
457.479	249.55
457.937	278.35
458.395	269.85
458.854	249.35
459.312	252.85
459.77	275.05
460.228	256.55
460.686	235.65
461.144	257.25
461.602	245.75
462.06	243.75
462.518	257.85
462.976	258.15
463.434	260.15
463.892	273.75
464.35	280.95
464.808	297.25
465.266	266.75
465.724	278.85
466.181	275.15
466.639	271.05
467.097	286.25
467.555	304.15
468.012	300.15
468.47	316.05
468.928	336.85
469.385	355.05
469.843	359.45
470.3	361.15
470.758	370.95
471.215	387.85
471.673	408.85
472.13	414.85
472.588	421.25
473.045	375.05
473.503	389.95
473.96	395.55
474.417	407.95
474.875	439.15
475.332	478.55
475.789	467.75
476.246	476.55
476.704	491.75
477.161	516.15
477.618	526.15
478.075	562.05
478.532	631.55
478.989	701.45
479.446	816.55
479.903	779.65
480.36	820.25
480.817	876.35
481.274	974.05
481.731	1085.85
482.188	1171.95
482.645	1313.65
483.102	1417.35
483.558	1560.05
484.015	1613.65
484.472	1577.25
484.929	1533.65
485.385	1493.85
485.842	1440.95
486.299	1372.95
486.755	1322.45
487.212	1118.55
487.668	939.15
488.125	864.35
488.582	782.85
489.038	761.35
489.494	722.95
489.951	697.85
490.407	672.55
490.864	662.25
491.32	654.45
491.776	646.75
492.233	658.85
492.689	625.35
493.145	625.45
493.602	606.35
494.058	609.45
494.514	619.25
494.97	643.05
495.426	661.45
495.882	636.35
496.338	611.85
496.794	628.35
497.251	622.25
497.707	644.75
498.163	648.95
498.618	646.75
499.074	658.75
499.53	682.05
499.986	685.45
500.442	662.55
500.898	636.55
501.354	623.35
501.809	634.15
502.265	650.15
502.721	679.95
503.177	691.25
503.632	672.85
504.088	686.35
504.543	720.35
504.999	720.05
505.455	665.25
505.91	638.45
506.366	644.65
506.821	632.35
507.277	630.25
507.732	632.25
508.187	639.15
508.643	639.25
509.098	646.95
509.553	667.35
510.009	671.65
510.464	685.65
510.919	701.15
511.375	704.55
511.83	703.65
512.285	728.25
512.74	776.95
513.195	794.25
513.65	783.45
514.105	776.65
514.56	778.05
515.015	801.45
515.47	815.25
515.925	797.45
516.38	794.45
516.835	805.15
517.29	782.55
517.745	789.45
518.2	768.65
518.655	759.75
519.109	754.15
519.564	751.75
520.019	741.65
520.474	747.55
520.928	736.35
521.383	731.65
521.838	722.05
522.292	723.55
522.747	715.45
523.201	715.15
523.656	711.55
524.11	702.45
524.565	693.65
525.019	693.25
525.474	710.35
525.928	708.05
526.382	699.55
526.837	710.35
527.291	708.65
527.745	705.55
528.2	705.25
528.654	697.95
529.108	691.95
529.562	689.95
530.016	692.95
530.47	687.85
530.925	699.55
531.379	695.75
531.833	708.15
532.287	696.05
532.741	701.65
533.195	713.75
533.649	726.45
534.103	729.95
534.556	713.55
535.01	715.75
535.464	715.45
535.918	727.05
536.372	727.25
536.826	725.85
537.279	718.35
537.733	721.85
538.187	717.55
538.64	708.95
539.094	733.55
539.548	736.45
540.001	733.25
540.455	728.45
540.908	734.25
541.362	746.55
541.815	750.35
542.269	753.85
542.722	756.45
543.175	780.25
543.629	768.85
544.082	787.25
544.536	791.45
544.989	783.75
545.442	789.55
545.895	795.75
546.349	788.55
546.802	801.75
547.255	793.35
547.708	811.55
548.161	819.95
548.614	834.65
549.067	824.65
549.52	817.25
549.973	818.75
550.426	821.45
550.879	794.45
551.332	800.35
551.785	808.65
552.238	809.05
552.691	816.75
553.144	838.65
553.596	840.15
554.049	861.45
554.502	899.35
554.955	909.25
555.407	915.55
555.86	908.75
556.313	894.35
556.765	885.05
557.218	887.45
557.67	893.35
558.123	892.75
558.576	876.85
559.028	891.85
559.48	891.05
559.933	872.45
560.385	840.85
560.838	817.95
561.29	779.95
561.742	777.45
562.195	757.05
562.647	753.55
563.099	767.95
563.551	774.55
564.004	772.95
564.456	773.95
564.908	765.35
565.36	752.65
565.812	739.55
566.264	721.45
566.716	725.75
567.168	712.95
567.62	729.05
568.072	705.05
568.524	691.75
568.976	696.05
569.428	674.75
569.88	664.85
570.332	675.75
570.784	683.35
571.235	681.65
571.687	691.55
572.139	695.95
572.59	709.65
573.042	713.85
573.494	709.15
573.945	706.15
574.397	686.25
574.849	692.35
575.3	697.25
575.752	680.25
576.203	674.75
576.655	683.55
577.106	674.85
577.557	660.95
578.009	664.65
578.46	673.95
578.912	658.95
579.363	668.45
579.814	664.95
580.265	664.25
580.717	665.65
581.168	670.75
581.619	672.45
582.07	666.15
582.521	672.95
582.972	663.95
583.423	664.85
583.875	680.45
584.326	697.95
584.777	732.05
585.227	809.15
585.678	900.85
586.129	971.75
586.58	1049.15
587.031	1122.45
587.482	1264.65
587.933	1460.45
588.384	1260.45
588.834	959.65
589.285	783.25
589.736	771.35
590.186	766.95
590.637	765.85
591.088	739.15
591.538	728.25
591.989	730.75
592.439	723.15
592.89	709.75
593.34	702.15
593.791	709.45
594.241	698.85
594.692	700.75
595.142	687.85
595.593	696.75
596.043	704.25
596.493	700.45
596.943	701.85
597.394	718.25
597.844	708.55
598.294	723.25
598.744	734.85
599.195	767.05
599.645	804.25
600.095	844.05
600.545	895.65
600.995	954.95
601.445	1016.35
601.895	1069.55
602.345	1110.65
602.795	1090.85
603.245	1061.25
603.695	1004.25
604.145	937.85
604.594	893.65
605.044	843.85
605.494	785.05
605.944	753.55
606.393	737.35
606.843	721.45
607.293	722.85
607.743	718.75
608.192	745.25
608.642	759.65
609.091	759.65
609.541	759.95
609.99	761.65
610.44	749.05
610.889	716.15
611.339	683.45
611.788	675.75
612.238	686.95
612.687	702.15
613.136	705.35
613.586	720.25
614.035	711.95
614.484	733.65
614.933	738.95
615.383	730.15
615.832	728.55
616.281	710.45
616.73	668.65
617.179	653.65
617.628	643.35
618.077	622.95
618.526	609.05
618.975	608.65
619.424	607.35
619.873	602.05
620.322	604.95
620.771	601.05
621.22	589.95
621.669	583.75
622.118	578.35
622.567	564.45
623.015	561.95
623.464	561.35
623.913	550.75
624.361	536.95
624.81	532.95
625.259	542.25
625.707	545.95
626.156	540.65
626.604	555.05
627.053	551.55
627.501	552.35
627.95	552.75
628.398	562.65
628.847	562.65
629.295	557.85
629.744	564.45
630.192	561.05
630.64	553.15
631.089	555.65
631.537	559.05
631.985	572.15
632.433	570.65
632.881	600.65
633.33	632.35
633.778	623.45
634.226	556.95
634.674	556.65
635.122	558.95
635.57	577.35
636.018	604.85
636.466	565.85
636.914	545.35
637.362	552.65
637.81	555.25
638.258	567.95
638.705	567.55
639.153	587.65
639.601	604.05
640.049	628.35
640.497	650.25
640.944	667.65
641.392	622.55
641.84	593.95
642.287	573.55
642.735	548.15
643.182	563.05
643.63	555.05
644.078	558.65
644.525	570.65
644.973	582.15
645.42	590.65
645.867	601.95
646.315	617.95
646.762	642.65
647.21	670.55
647.657	686.25
648.104	726.85
648.551	745.15
648.999	805.65
649.446	889.85
649.893	969.75
650.34	1128.15
650.787	1337.35
651.234	1668.05
651.682	2166.45
652.129	2966.15
652.576	4251.45
653.023	6285.05
653.47	8636.15
653.917	10832.65
654.363	12599.35
654.81	13980.75
655.257	13294.15
655.704	8679.95
656.151	5135.35
656.598	3328.85
657.044	2356.45
657.491	1824.85
657.938	1451.75
658.385	1210.85
658.831	1048.65
659.278	933.45
659.724	828.85
660.171	764.75
660.618	707.75
661.064	664.45
661.511	646.15
661.957	647.55
662.404	621.85
662.85	639.55
663.296	598.25
663.743	550.55
664.189	523.65
664.635	514.05
665.082	506.85
665.528	508.05
665.974	505.55
666.42	490.95
666.867	494.85
667.313	467.95
667.759	466.55
668.205	462.45
668.651	462.05
669.097	458.95
669.543	470.25
669.989	453.05
670.435	434.45
670.881	424.15
671.327	437.65
671.773	458.95
672.219	470.55
672.665	524.25
673.11	563.15
673.556	598.75
674.002	647.75
674.448	629.95
674.893	531.95
675.339	462.35
675.785	427.25
676.23	400.25
676.676	377.05
677.122	361.35
677.567	353.35
678.013	350.55
678.458	338.25
678.904	341.65
679.349	330.85
679.794	338.65
680.24	336.75
680.685	327.95
681.131	333.05
681.576	334.95
682.021	340.55
682.466	330.05
682.912	337.25
683.357	342.35
683.802	363.95
684.247	387.65
684.692	432.45
685.137	479.45
685.583	522.65
686.028	538.95
686.473	503.25
686.918	426.65
687.363	392.15
687.807	376.05
688.252	348.25
688.697	338.05
689.142	324.45
689.587	318.65
690.032	311.75
690.477	312.15
690.921	341.35
691.366	361.45
691.811	382.25
692.255	409.55
692.7	439.65
693.145	474.25
693.589	652.35
694.034	1066.55
694.478	1461.35
694.923	1658.75
695.367	2200.85
695.812	1157.05
696.256	476.85
696.701	348.45
697.145	331.05
697.59	310.45
698.034	303.75
698.478	317.75
698.922	314.95
699.367	314.75
699.811	327.15
700.255	346.25
700.699	367.55
701.143	402.65
701.588	447.15
702.032	489.15
702.476	487.05
702.92	463.65
703.364	464.85
703.808	605.65
704.252	963.45
704.696	1368.85
705.14	1619.15
705.584	2057.75
706.027	1022.75
706.471	498.45
706.915	384.05
707.359	334.25
707.803	311.65
708.246	287.95
708.69	295.95
709.134	299.95
709.577	296.65
710.021	305.65
710.465	288.05
710.908	288.15
711.352	279.25
711.795	300.45
712.239	336.55
712.682	373.95
713.126	401.65
713.569	447.35
714.012	354.15
714.456	311.15
714.899	292.55
715.342	256.25
715.786	244.55
716.229	251.45
716.672	237.95
717.115	233.25
717.558	231.25
718.002	236.65
718.445	252.15
718.888	273.55
719.331	280.45
719.774	292.55
720.217	287.75
720.66	272.65
721.103	261.75
721.546	240.85
721.989	240.35
722.432	220.65
722.874	221.25
723.317	216.45
723.76	226.35
724.203	240.85
724.645	306.85
725.088	419.95
725.531	538.95
725.974	618.45
726.416	521.45
726.859	287.45
727.301	222.85
727.744	227.35
728.187	221.55
728.629	231.95
729.071	233.05
729.514	243.55
729.956	255.15
730.399	268.15
730.841	272.05
731.283	262.45
731.726	255.05
732.168	245.05
732.61	250.75
733.053	269.65
733.495	300.15
733.937	332.95
734.379	381.65
734.821	411.55
735.263	507.55
735.705	779.95
736.148	1476.65
736.59	2434.95
737.032	2937.45
737.474	2396.55
737.916	766.65
738.357	407.35
738.799	307.85
739.241	283.05
739.683	266.95
740.125	279.95
740.567	279.15
741.008	298.75
741.45	295.85
741.892	300.45
742.334	328.15
742.775	337.75
743.217	326.35
743.658	254.25
744.1	232.15
744.542	249.55
744.983	291.25
745.425	323.25
745.866	330.65
746.307	265.15
746.749	265.55
747.19	300.35
747.632	425.35
748.073	812.75
748.514	1735.75
748.956	2710.35
749.397	3397.45
749.838	2816.35
750.279	2846.95
750.72	1433.55
751.162	512.25
751.603	299.75
752.044	238.55
752.485	207.75
752.926	194.85
753.367	193.05
753.808	186.35
754.249	173.05
754.69	173.75
755.131	172.25
755.572	167.45
756.013	168.15
756.453	182.25
756.894	179.25
757.335	187.75
757.776	183.75
758.216	189.55
758.657	180.55
759.098	191.15
759.538	216.35
759.979	244.45
760.42	351.65
760.86	652.35
761.301	1684.45
761.741	4131.85
762.182	6180.65
