Data from 20171114-ORNL-Ar_H_NY_Subt18_08-07-33-891.txt Node
Date: Tue Nov 14 08:07:33 EST 2017
User: Ender
Spectrometer: HR+D1039
Trigger mode: 0
Integration Time (sec): 2.730000E-2
Scans to average: 10
Electric dark correction enabled: true
Nonlinearity correction enabled: false
Boxcar width: 0
XAxis mode: Wavelengths
Number of Pixels in Spectrum: 2048
>>>>>Begin Spectral Data<<<<<
187.836	-8.1
188.309	-8.1
188.782	-8.1
189.255	-1.1
189.728	-3.8
190.201	7.5
190.674	5.9
191.147	3
191.619	-2.8
192.092	2.3
192.565	5.1
193.038	0.9
193.511	4.4
193.984	1.5
194.456	-4.1
194.929	0.2
195.402	-6.3
195.874	-4.6
196.347	-2.3
196.82	-7.1
197.292	8.8
197.765	2.3
198.237	-8
198.71	4.9
199.182	-1.4
199.655	0.8
200.127	-1.2
200.6	-5.2
201.072	-3.4
201.544	-3.6
202.017	0.3
202.489	2.7
202.961	3.5
203.433	-1.9
203.906	-8.2
204.378	-7
204.85	-7.9
205.322	-4.5
205.794	-6
206.266	-6.8
206.739	-11.2
207.211	-0.2
207.683	-6.8
208.155	-6.7
208.627	-7.3
209.099	-3.6
209.57	-6.9
210.042	-5.8
210.514	-3.1
210.986	-2.7
211.458	-8.8
211.93	-2.6
212.402	-2
212.873	-2.2
213.345	-8.3
213.817	-4.2
214.288	-7.1
214.76	-13.1
215.232	-7.1
215.703	-5
216.175	-8
216.646	-7.3
217.118	-9
217.589	-2.8
218.061	-4.1
218.532	-7.8
219.004	-1.9
219.475	-6.3
219.946	-8.4
220.418	-3.2
220.889	-1
221.36	1.3
221.832	-3.2
222.303	-7.3
222.774	-4
223.245	-8.1
223.717	-4
224.188	-10.5
224.659	-5.3
225.13	-4.8
225.601	-3.7
226.072	-0.5
226.543	-3.7
227.014	-7.5
227.485	-6
227.956	-10.6
228.427	-1.9
228.898	-6
229.369	3.4
229.839	-3.4
230.31	-5.7
230.781	5.4
231.252	-2.6
231.722	-1.4
232.193	-7.3
232.664	3.4
233.135	-4.5
233.605	0
234.076	-7.1
234.546	0.1
235.017	-1.5
235.487	-0.5
235.958	3.1
236.428	-3.2
236.899	0.2
237.369	0.9
237.84	-0.3
238.31	7.7
238.78	2.1
239.251	-3.8
239.721	2.6
240.191	1.9
240.662	3.3
241.132	1.9
241.602	-2.8
242.072	-4.2
242.542	2.7
243.013	-2.8
243.483	0.7
243.953	-2.6
244.423	0.6
244.893	1.9
245.363	5.2
245.833	-3.2
246.303	-1.5
246.773	1.1
247.243	2.3
247.712	-0.4
248.182	6.5
248.652	6.6
249.122	-2.8
249.592	13
250.061	20.6
250.531	30.1
251.001	14.2
251.471	9.8
251.94	15.9
252.41	7.6
252.879	-2.8
253.349	11.6
253.818	8.2
254.288	4.1
254.757	6.7
255.227	0.6
255.696	-2.2
256.166	7.8
256.635	5.1
257.105	4.5
257.574	2.8
258.043	4.6
258.513	7.7
258.982	12.4
259.451	3.5
259.92	10.6
260.389	7.8
260.859	15.7
261.328	12.1
261.797	14
262.266	8.3
262.735	7.5
263.204	-2.3
263.673	-1.4
264.142	6.2
264.611	-6.5
265.08	-7.2
265.549	-1.3
266.018	1.2
266.487	-4.2
266.955	-1.8
267.424	0.9
267.893	8.8
268.362	-0.1
268.83	-0.2
269.299	7.5
269.768	3.6
270.236	5.3
270.705	1.6
271.174	-0.8
271.642	3.3
272.111	5.4
272.579	11.5
273.048	18
273.516	22.2
273.985	23.4
274.453	17.4
274.922	19.2
275.39	5.1
275.858	1.7
276.327	7.6
276.795	17.1
277.263	5.8
277.731	29.5
278.2	39.3
278.668	54.1
279.136	37.5
279.604	13.8
280.072	14.1
280.54	7.7
281.008	6.8
281.477	10.9
281.945	10
282.413	15.4
282.881	9.8
283.348	7.5
283.816	10.3
284.284	13.8
284.752	14.7
285.22	9.2
285.688	9.3
286.156	10.4
286.623	41
287.091	45.1
287.559	19.3
288.026	10.2
288.494	12.9
288.962	2
289.429	7.4
289.897	16.7
290.364	12.7
290.832	13.4
291.3	9.2
291.767	6.6
292.234	12
292.702	14.2
293.169	14.4
293.637	11.8
294.104	14.4
294.571	7.9
295.039	8.8
295.506	6.3
295.973	16.4
296.44	10.2
296.908	13.9
297.375	14.4
297.842	15.4
298.309	10
298.776	9.3
299.243	14.3
299.71	3.8
300.177	8.2
300.644	20.6
301.111	17.4
301.578	18.6
302.045	13.4
302.512	24.1
302.979	21.6
303.446	13.1
303.913	15.9
304.379	13
304.846	18.6
305.313	19.8
305.78	15.4
306.246	24.4
306.713	21.1
307.18	20.3
307.646	16.5
308.113	21.9
308.579	13.6
309.046	21.2
309.512	22.2
309.979	13.2
310.445	24.3
310.912	22.3
311.378	23.3
311.845	19.6
312.311	20.4
312.777	18.9
313.244	24.6
313.71	32.3
314.176	23.2
314.642	24.7
315.109	19.1
315.575	24.1
316.041	24.8
316.507	30.3
316.973	29.9
317.439	24.8
317.905	27.1
318.371	27.2
318.837	28.1
319.303	25.7
319.769	31.6
320.235	30.6
320.701	25.3
321.167	31
321.633	28.6
322.099	33.3
322.564	35.6
323.03	33.2
323.496	27.5
323.962	32.2
324.427	31.8
324.893	35.7
325.359	32.5
325.824	27.8
326.29	27.6
326.755	24.3
327.221	27.8
327.686	30.3
328.152	43.4
328.617	34.2
329.083	36
329.548	36.7
330.014	37.6
330.479	28
330.944	34.7
331.41	36.3
331.875	36
332.34	32.8
332.805	38.1
333.271	35.5
333.736	36
334.201	43.5
334.666	39.3
335.131	45.2
335.596	44.9
336.061	37.9
336.526	37.4
336.991	39.6
337.456	54.4
337.921	44.7
338.386	34.4
338.851	34.7
339.316	36.9
339.781	39
340.246	42.5
340.711	40.1
341.175	40.8
341.64	32.9
342.105	43.8
342.569	43.3
343.034	48
343.499	43.3
343.963	41
344.428	50
344.893	57.2
345.357	54.4
345.822	48
346.286	53.4
346.751	55.7
347.215	57.3
347.679	56.6
348.144	75.4
348.608	62.8
349.073	58.8
349.537	61.5
350.001	64.1
350.465	67.6
350.93	73.6
351.394	67
351.858	61.1
352.322	69.7
352.786	67.7
353.25	90.1
353.715	88.2
354.179	81.9
354.643	99.7
355.107	104.1
355.571	89.4
356.035	89.4
356.498	101.4
356.962	105.6
357.426	103
357.89	93.5
358.354	76.7
358.818	71
359.281	64.8
359.745	67
360.209	63.1
360.673	65.9
361.136	68.1
361.6	81.4
362.064	72.6
362.527	80.2
362.991	79.3
363.454	64.4
363.918	69.2
364.381	70.5
364.845	68.9
365.308	76
365.772	79.5
366.235	76.5
366.698	76.8
367.162	75.2
367.625	71.5
368.088	75.7
368.552	79.3
369.015	76
369.478	86.5
369.941	86.7
370.404	78.2
370.867	92.7
371.331	93.3
371.794	99.6
372.257	99
372.72	102.4
373.183	106.1
373.646	92.7
374.109	89.9
374.572	90.4
375.035	88.5
375.497	91.8
375.96	92.2
376.423	92.7
376.886	96.9
377.349	94.8
377.811	87.7
378.274	87.3
378.737	96
379.199	99.3
379.662	98.8
380.125	106.1
380.587	113.3
381.05	114
381.512	117
381.975	118
382.437	112.4
382.9	119.2
383.362	119.4
383.825	127.8
384.287	139.2
384.75	128.3
385.212	127.7
385.674	127.1
386.136	121.5
386.599	116.4
387.061	121.4
387.523	119.2
387.985	123.1
388.447	127.1
388.91	125.4
389.372	153.6
389.834	137.4
390.296	131.9
390.758	143.6
391.22	158.6
391.682	201.2
392.144	280.9
392.606	215.3
393.068	149.7
393.529	153.4
393.991	138.5
394.453	131.5
394.915	146.5
395.377	176.5
395.838	200.5
396.3	137.4
396.762	129.6
397.224	123.4
397.685	119.1
398.147	115
398.608	112.7
399.07	111.1
399.531	117.6
399.993	124.7
400.454	137
400.916	134.8
401.377	127.2
401.839	135
402.3	128.1
402.762	155.2
403.223	166.1
403.684	159.5
404.145	152.5
404.607	141.1
405.068	148.8
405.529	155.9
405.99	167.5
406.451	158.6
406.913	162.5
407.374	150.5
407.835	150.2
408.296	151.6
408.757	160.8
409.218	168
409.679	165.5
410.14	168.4
410.601	159.7
411.062	178
411.522	180.8
411.983	179.7
412.444	165.6
412.905	166.2
413.366	167.3
413.826	178.9
414.287	199.4
414.748	243.9
415.208	229.7
415.669	205
416.13	191.9
416.59	191.9
417.051	200.5
417.511	202.9
417.972	211.3
418.432	224.1
418.893	261
419.353	229.7
419.814	184.8
420.274	169.6
420.734	167.2
421.195	190
421.655	183.8
422.115	172.9
422.576	179.5
423.036	181.8
423.496	193.5
423.956	195
424.416	213
424.876	252.2
425.336	242.1
425.797	242.5
426.257	238.8
426.717	228.1
427.177	216.7
427.637	209.4
428.097	219.1
428.556	223.2
429.016	253.2
429.476	243.5
429.936	262.2
430.396	260.6
430.856	269.1
431.315	295.6
431.775	329.9
432.235	356.9
432.694	325.6
433.154	333.6
433.614	358.5
434.073	311
434.533	265.9
434.993	249.6
435.452	260.6
435.912	271.5
436.371	265.5
436.83	263.1
437.29	256.2
437.749	233.7
438.209	225.8
438.668	252.1
439.127	264.3
439.587	262.8
440.046	229.9
440.505	238.4
440.964	255.4
441.424	299.1
441.883	286.4
442.342	244.9
442.801	216.3
443.26	207.4
443.719	209.9
444.178	203
444.637	197
445.096	211.2
445.555	210.7
446.014	209.4
446.473	216.9
446.932	221.1
447.391	219.7
447.849	206.8
448.308	207.9
448.767	202
449.226	222.9
449.685	227.3
450.143	233.3
450.602	218.1
451.061	216.3
451.519	227.1
451.978	220.1
452.436	219.9
452.895	227.9
453.353	236.5
453.812	224.2
454.27	220.5
454.729	225.4
455.187	222.5
455.646	232.7
456.104	229.4
456.562	242.3
457.021	253.5
457.479	243.8
457.937	256.9
458.395	245.5
458.854	235.1
459.312	238.3
459.77	258
460.228	238.6
460.686	227.9
461.144	232.4
461.602	227.5
462.06	235.3
462.518	236.3
462.976	241.4
463.434	238.6
463.892	250.4
464.35	252.5
464.808	270.2
465.266	256.4
465.724	254
466.181	256.4
466.639	256.7
467.097	276.1
467.555	276.5
468.012	284.7
468.47	292.9
468.928	315.6
469.385	328.8
469.843	328.5
470.3	328.2
470.758	344
471.215	369.6
471.673	378.9
472.13	389.7
472.588	397.4
473.045	357.4
473.503	363.5
473.96	375.7
474.417	380.7
474.875	410
475.332	448
475.789	443.9
476.246	452
476.704	463.7
477.161	483.6
477.618	490.4
478.075	532.3
478.532	582.7
478.989	652.9
479.446	755.7
479.903	744.2
480.36	770.1
480.817	835
481.274	930.7
481.731	1022.2
482.188	1118.2
482.645	1248.2
483.102	1354.1
483.558	1484
484.015	1528.2
484.472	1502.9
484.929	1460.3
485.385	1414.5
485.842	1364.2
486.299	1300.1
486.755	1249.2
487.212	1034.7
487.668	883.7
488.125	809.8
488.582	741.9
489.038	708.4
489.494	674.3
489.951	649.8
490.407	645.6
490.864	625.9
491.32	612.2
491.776	615.1
492.233	612.6
492.689	588.4
493.145	587
493.602	564.2
494.058	585.4
494.514	580.4
494.97	604
495.426	614.8
495.882	593.4
496.338	580
496.794	591.4
497.251	601.7
497.707	599.3
498.163	597.8
498.618	611.5
499.074	612.6
499.53	640.1
499.986	652.4
500.442	623.3
500.898	608.2
501.354	603.2
501.809	612
502.265	619.1
502.721	634.9
503.177	652.4
503.632	645.7
504.088	660.6
504.543	692.8
504.999	678
505.455	620
505.91	604.9
506.366	602.4
506.821	606.4
507.277	596.5
507.732	593.2
508.187	592.2
508.643	607.3
509.098	606.8
509.553	617.9
510.009	631.8
510.464	641.3
510.919	654.4
511.375	657.3
511.83	684.8
512.285	690.8
512.74	729.9
513.195	753.8
513.65	735.7
514.105	737.4
514.56	726.5
515.015	759.7
515.47	779.1
515.925	764.3
516.38	750.7
516.835	758.4
517.29	756.1
517.745	741.6
518.2	725.1
518.655	723.9
519.109	715.4
519.564	706.1
520.019	696.4
520.474	690
520.928	706.9
521.383	691
521.838	698.8
522.292	685
522.747	678.3
523.201	676.7
523.656	669.8
524.11	677.7
524.565	671.5
525.019	660.2
525.474	678.8
525.928	682.3
526.382	670.3
526.837	667.6
527.291	679.1
527.745	664.5
528.2	662.9
528.654	662.1
529.108	659.2
529.562	665.1
530.016	663.6
530.47	671.1
530.925	670
531.379	678.2
531.833	685
532.287	679.6
532.741	683.2
533.195	666.7
533.649	684.6
534.103	699.9
534.556	688.5
535.01	674.1
535.464	677.2
535.918	688.5
536.372	688.6
536.826	685.2
537.279	679.5
537.733	683
538.187	686.6
538.64	695.5
539.094	697.9
539.548	698.1
540.001	705
540.455	702.6
540.908	705.5
541.362	720
541.815	719.9
542.269	730.3
542.722	741.2
543.175	747
543.629	747.5
544.082	764.1
544.536	758.2
544.989	768.5
545.442	762.7
545.895	761.6
546.349	765
546.802	771.1
547.255	768.4
547.708	779.4
548.161	779.7
548.614	793.5
549.067	803.1
549.52	797.5
549.973	779
550.426	778.3
550.879	757.6
551.332	765.2
551.785	779.8
552.238	780.4
552.691	794.2
553.144	798.3
553.596	812.5
554.049	826.9
554.502	858.2
554.955	883
555.407	876.1
555.86	862
556.313	865.3
556.765	846
557.218	857
557.67	843.8
558.123	846
558.576	842.3
559.028	840.5
559.48	854.2
559.933	843.9
560.385	808.3
560.838	788.5
561.29	759.1
561.742	757.9
562.195	735.7
562.647	740.4
563.099	747.3
563.551	742.7
564.004	764.4
564.456	741.8
564.908	740.5
565.36	734.4
565.812	713.9
566.264	705.6
566.716	709.3
567.168	706.6
567.62	706.2
568.072	692
568.524	672.5
568.976	671
569.428	663.4
569.88	653.6
570.332	665.2
570.784	660.5
571.235	659.3
571.687	665.4
572.139	684
572.59	682.3
573.042	690.2
573.494	691.5
573.945	688
574.397	662.2
574.849	664.5
575.3	670.6
575.752	668.6
576.203	661
576.655	662.6
577.106	651.4
577.557	644.9
578.009	643.5
578.46	640.8
578.912	643.6
579.363	653.9
579.814	638.4
580.265	639
580.717	656.6
581.168	651.1
581.619	656.1
582.07	668.2
582.521	655.8
582.972	658
583.423	661.6
583.875	660
584.326	690
584.777	736
585.227	807.3
585.678	899.1
586.129	1004
586.58	1071.1
587.031	1151.1
587.482	1320.9
587.933	1498.6
588.384	1300.9
588.834	955.8
589.285	803.1
589.736	762.3
590.186	758.5
590.637	751.6
591.088	729.8
591.538	715.1
591.989	711.1
592.439	716
592.89	707.5
593.34	697.2
593.791	693.8
594.241	681.1
594.692	692.4
595.142	679.6
595.593	678.2
596.043	690.8
596.493	694.1
596.943	689.3
597.394	708.9
597.844	697.5
598.294	715.2
598.744	733
599.195	760.7
599.645	809.2
600.095	833.9
600.545	892.3
600.995	940.7
601.445	1000.8
601.895	1060.7
602.345	1112.8
602.795	1084.2
603.245	1040.5
603.695	975.2
604.145	932.9
604.594	875.4
605.044	833.1
605.494	780.3
605.944	734.3
606.393	723
606.843	712.3
607.293	729.9
607.743	723
608.192	738.3
608.642	750
609.091	748.8
609.541	751.9
609.99	758.6
610.44	745.7
610.889	706.9
611.339	684.6
611.788	669.6
612.238	692.7
612.687	714.6
613.136	703.9
613.586	726.3
614.035	719.1
614.484	743.6
614.933	743.5
615.383	734
615.832	734.1
616.281	712.3
616.73	671.6
617.179	651.9
617.628	642.2
618.077	624
618.526	607.3
618.975	594.1
619.424	606.9
619.873	596.5
620.322	606
620.771	582.4
621.22	593.9
621.669	581.5
622.118	580.7
622.567	566.2
623.015	560.5
623.464	558.5
623.913	552.6
624.361	547
624.81	530.7
625.259	540.3
625.707	541.3
626.156	543.1
626.604	561.4
627.053	556.6
627.501	552.8
627.95	549.2
628.398	569.2
628.847	559.8
629.295	559.3
629.744	570.8
630.192	566.6
630.64	568
631.089	549.3
631.537	568.4
631.985	575.8
632.433	595.9
632.881	604
633.33	663.8
633.778	636.4
634.226	559.2
634.674	555.4
635.122	564.2
635.57	591.2
636.018	621.8
636.466	568.3
636.914	549
637.362	558.8
637.81	563.6
638.258	569.7
638.705	566.7
639.153	595.7
639.601	604.7
640.049	621.7
640.497	664.5
640.944	678.3
641.392	626
641.84	593.5
642.287	564.6
642.735	559.9
643.182	570.8
643.63	566.8
644.078	569.5
644.525	572.9
644.973	580.8
645.42	599.1
645.867	608.7
646.315	628.6
646.762	651.7
647.21	682.5
647.657	696.3
648.104	735
648.551	758.9
648.999	824.8
649.446	896.7
649.893	989.5
650.34	1154.2
650.787	1361.8
651.234	1726.8
651.682	2232.5
652.129	3111
652.576	4454.3
653.023	6622.6
653.47	9024
653.917	11216.5
654.363	12879.8
654.81	14202
655.257	13527.6
655.704	8799.7
656.151	5193.4
656.598	3373.3
657.044	2378.8
657.491	1827.7
657.938	1459.3
658.385	1218.2
658.831	1061.6
659.278	940
659.724	833.1
660.171	771.6
660.618	715.3
661.064	677.5
661.511	656.6
661.957	637.7
662.404	632.8
662.85	646.5
663.296	618.8
663.743	553.5
664.189	529
664.635	519.1
665.082	514.2
665.528	523.1
665.974	515.4
666.42	498.5
666.867	496.3
667.313	486.2
667.759	484.1
668.205	473.5
668.651	482.4
669.097	483.5
669.543	495.9
669.989	453.9
670.435	445.9
670.881	437.6
671.327	438.2
671.773	460.2
672.219	474
672.665	542.1
673.11	577.5
673.556	623
674.002	657.8
674.448	637.5
674.893	538.4
675.339	472.6
675.785	434.4
676.23	413.9
676.676	381.5
677.122	378.2
677.567	364.9
678.013	360.8
678.458	352.7
678.904	350.6
679.349	339.6
679.794	341.1
680.24	341.3
680.685	340.5
681.131	336.5
681.576	353.2
682.021	339.6
682.466	332.5
682.912	340.7
683.357	352.5
683.802	375.5
684.247	408.9
684.692	450.9
685.137	481.1
685.583	517.8
686.028	545.1
686.473	504.2
686.918	430.5
687.363	399.9
687.807	386.7
688.252	363.8
688.697	349.7
689.142	325.3
689.587	328.5
690.032	323.4
690.477	336.7
690.921	343.6
691.366	369.7
691.811	395.6
692.255	414.7
692.7	451.5
693.145	508.4
693.589	694.4
694.034	1113.9
694.478	1512.5
694.923	1691.9
695.367	2200
695.812	1163.9
696.256	492
696.701	362.2
697.145	336
697.59	318.5
698.034	314.6
698.478	323.2
698.922	315.5
699.367	316.8
699.811	334
700.255	358
700.699	375.3
701.143	423.1
701.588	467.3
702.032	499.7
702.476	507.3
702.92	480.4
703.364	481.9
703.808	625.4
704.252	1024.8
704.696	1430.7
705.14	1632.9
705.584	2072.5
706.027	1040.9
706.471	509.3
706.915	388.8
707.359	355.3
707.803	314.3
708.246	304.6
708.69	305.2
709.134	310.3
709.577	309.3
710.021	295.2
710.465	303.3
710.908	300.4
711.352	295.4
711.795	307.7
712.239	339.9
712.682	383
713.126	404.8
713.569	454.6
714.012	365.8
714.456	316.9
714.899	293.7
715.342	270.5
715.786	254.6
716.229	250.2
716.672	258.4
717.115	246.8
717.558	238.9
718.002	250
718.445	262.9
718.888	278.1
719.331	290.4
719.774	303
720.217	296.8
720.66	277.4
721.103	267
721.546	249.1
721.989	235.4
722.432	222.5
722.874	234.3
723.317	230.7
723.76	229.7
724.203	251.1
724.645	325.3
725.088	447.5
725.531	567.1
725.974	621.8
726.416	533.6
726.859	301.6
727.301	248.8
727.744	235.1
728.187	229
728.629	240.9
729.071	247.5
729.514	254.3
729.956	265.6
730.399	278.4
730.841	280.7
731.283	265.3
731.726	261.9
732.168	255.9
732.61	262.5
733.053	283.8
733.495	314.8
733.937	350.5
734.379	393.4
734.821	430.6
735.263	537.5
735.705	838.9
736.148	1572.8
736.59	2542.4
737.032	2963.5
737.474	2415.5
737.916	792.6
738.357	421.6
738.799	322.6
739.241	295.9
739.683	277.1
740.125	287.1
740.567	289.5
741.008	309.5
741.45	310.2
741.892	306.3
742.334	339
742.775	346.1
743.217	334.4
743.658	261.9
744.1	239.9
744.542	254.8
744.983	304.8
745.425	328.1
745.866	324.7
746.307	278.7
746.749	274.6
747.19	320.3
747.632	448
748.073	884.6
748.514	1858.6
748.956	2792.5
749.397	3508.2
749.838	2896.2
750.279	2883.5
750.72	1445.2
751.162	538.7
751.603	304
752.044	252.9
752.485	215.6
752.926	205.7
753.367	200.2
753.808	192
754.249	184.7
754.69	183.1
755.131	182
755.572	177.8
756.013	182.1
756.453	181.1
756.894	184.3
757.335	187.2
757.776	193.7
758.216	186.2
758.657	191.5
759.098	201.6
759.538	220.1
759.979	270.8
760.42	363.1
760.86	715.3
761.301	1830.8
761.741	4396.3
762.182	6226.4
762.622	4385.6
763.063	1281.3
763.503	533.5
763.943	337.6
764.384	344.7
764.824	407.5
765.264	448.3
765.705	305.3
766.145	205.9
766.585	181
767.025	182.1
767.465	188.9
767.906	242.7
768.346	324
768.786	345.7
769.226	260.5
769.666	311
770.106	627
770.546	1553.9
770.986	2561.9
771.426	2292.1
771.866	767.9
772.306	317.1
772.745	204.1
773.185	166.5
773.625	169.4
774.065	165.9
774.505	202.1
774.944	316.4
775.384	701
775.824	1229.3
776.263	1187.4
776.703	507.8
777.142	221.6
777.582	153.6
778.021	145.6
778.461	140.7
778.9	138.3
779.34	137.8
779.779	119.2
780.219	110.1
780.658	107.1
781.097	101.6
781.537	103.9
781.976	114.3
782.415	111.4
782.855	109
783.294	105.3
783.733	108.1
784.172	104.2
784.611	105.8
785.05	106.3
785.489	106.1
785.928	111
786.367	115.9
786.806	109.8
787.245	126.6
787.684	132.3
788.123	141.9
788.562	130.2
789.001	126.3
789.44	118.1
789.879	116.4
790.317	121.4
790.756	124.6
791.195	121.7
791.634	142.8
792.072	201.4
792.511	368.2
792.95	1007.9
793.388	2114.1
793.827	1884.4
794.265	676
794.704	274.6
795.142	173.3
795.581	150
796.019	137.2
796.458	130.4
796.896	120.2
797.334	125.3
797.773	155.6
798.211	217.8
798.649	447.1
799.087	1005.7
799.526	1564.3
799.964	1983.9
800.402	1954.7
800.84	734.1
801.278	293.3
801.716	183.2
802.154	152.7
802.592	138.2
803.03	132.5
803.468	135.2
803.906	135.4
804.344	141.7
804.782	130.3
805.22	127
805.658	124.7
806.096	145.5
806.533	152.1
806.971	171.7
807.409	211.3
807.847	319
808.284	662.6
808.722	1847.5
