Data from 20171114-ORNL-Ar_H_NY_Subt18_08-05-03-482.txt Node
Date: Tue Nov 14 08:05:03 EST 2017
User: Ender
Spectrometer: HR+D1039
Trigger mode: 0
Integration Time (sec): 2.730000E-2
Scans to average: 10
Electric dark correction enabled: true
Nonlinearity correction enabled: false
Boxcar width: 0
XAxis mode: Wavelengths
Number of Pixels in Spectrum: 2048
>>>>>Begin Spectral Data<<<<<
187.836	-5.41
188.309	-5.41
188.782	-5.41
189.255	0.69
189.728	-0.51
190.201	6.59
190.674	-1.11
191.147	10.79
191.619	-9.11
192.092	-4.41
192.565	1.39
193.038	2.99
193.511	3.69
193.984	-0.11
194.456	-7.51
194.929	0.89
195.402	0.79
195.874	0.39
196.347	-0.51
196.82	-7.01
197.292	1.99
197.765	0.29
198.237	-8.91
198.71	7.69
199.182	-2.11
199.655	1.09
200.127	2.39
200.6	-3.91
201.072	-3.11
201.544	-7.11
202.017	0.79
202.489	8.49
202.961	-6.21
203.433	-5.61
203.906	-8.71
204.378	-9.71
204.85	-1.41
205.322	-6.31
205.794	-6.31
206.266	1.59
206.739	-10.31
207.211	1.49
207.683	-9.11
208.155	-5.51
208.627	-4.21
209.099	-5.31
209.57	-9.71
210.042	-5.41
210.514	-0.51
210.986	1.99
211.458	-5.61
211.93	-1.31
212.402	-0.61
212.873	-7.21
213.345	-16.41
213.817	-17.41
214.288	-2.01
214.76	-11.01
215.232	-2.71
215.703	-0.31
216.175	-2.71
216.646	-2.71
217.118	-6.61
217.589	-5.21
218.061	-1.31
218.532	-12.71
219.004	0.59
219.475	-4.31
219.946	-0.11
220.418	-0.01
220.889	0.59
221.36	0.49
221.832	-0.11
222.303	-6.41
222.774	-1.61
223.245	-10.11
223.717	-4.51
224.188	-5.61
224.659	-4.21
225.13	-3.01
225.601	-2.21
226.072	-4.31
226.543	-9.51
227.014	5.09
227.485	-3.01
227.956	-7.41
228.427	-1.61
228.898	0.89
229.369	4.49
229.839	-3.21
230.31	-12.21
230.781	0.59
231.252	0.59
231.722	1.79
232.193	-6.01
232.664	2.19
233.135	0.99
233.605	-1.51
234.076	-8.51
234.546	-0.41
235.017	-0.61
235.487	2.89
235.958	-1.61
236.428	4.59
236.899	6.69
237.369	6.39
237.84	-5.01
238.31	4.79
238.78	3.69
239.251	1.19
239.721	6.49
240.191	0.79
240.662	5.69
241.132	1.69
241.602	6.29
242.072	3.09
242.542	8.29
243.013	4.09
243.483	0.39
243.953	2.99
244.423	-2.71
244.893	1.99
245.363	4.09
245.833	0.99
246.303	0.29
246.773	9.89
247.243	5.99
247.712	3.49
248.182	8.49
248.652	4.99
249.122	-1.61
249.592	12.89
250.061	22.49
250.531	35.49
251.001	18.29
251.471	15.59
251.94	20.29
252.41	11.29
252.879	3.99
253.349	15.79
253.818	12.89
254.288	4.19
254.757	8.39
255.227	2.89
255.696	2.09
256.166	5.49
256.635	6.79
257.105	10.09
257.574	6.79
258.043	10.99
258.513	11.79
258.982	15.29
259.451	12.59
259.92	14.79
260.389	16.19
260.859	15.69
261.328	14.99
261.797	21.39
262.266	10.79
262.735	16.39
263.204	4.99
263.673	7.19
264.142	6.89
264.611	-0.41
265.08	4.99
265.549	3.69
266.018	3.99
266.487	2.39
266.955	-4.01
267.424	4.19
267.893	10.69
268.362	0.29
268.83	2.99
269.299	8.19
269.768	7.79
270.236	13.79
270.705	4.39
271.174	8.69
271.642	15.29
272.111	15.79
272.579	21.89
273.048	27.09
273.516	27.99
273.985	31.59
274.453	22.79
274.922	24.09
275.39	12.99
275.858	7.79
276.327	14.19
276.795	21.89
277.263	13.39
277.731	38.09
278.2	63.39
278.668	59.79
279.136	58.79
279.604	24.69
280.072	17.39
280.54	15.59
281.008	12.49
281.477	15.29
281.945	19.79
282.413	22.19
282.881	21.49
283.348	16.79
283.816	17.49
284.284	15.59
284.752	23.49
285.22	18.49
285.688	15.19
286.156	21.89
286.623	45.39
287.091	53.79
287.559	29.79
288.026	22.99
288.494	16.39
288.962	6.79
289.429	8.99
289.897	28.29
290.364	15.49
290.832	20.19
291.3	14.19
291.767	19.69
292.234	19.99
292.702	20.69
293.169	23.79
293.637	23.19
294.104	22.39
294.571	11.29
295.039	13.09
295.506	13.69
295.973	22.49
296.44	15.79
296.908	17.39
297.375	16.59
297.842	24.69
298.309	14.69
298.776	12.99
299.243	26.09
299.71	11.09
300.177	28.09
300.644	21.09
301.111	22.99
301.578	29.89
302.045	20.19
302.512	27.39
302.979	25.69
303.446	21.59
303.913	24.69
304.379	25.49
304.846	25.49
305.313	27.89
305.78	22.39
306.246	27.69
306.713	29.49
307.18	26.79
307.646	28.59
308.113	28.79
308.579	25.49
309.046	33.29
309.512	29.19
309.979	17.69
310.445	21.29
310.912	28.09
311.378	37.59
311.845	29.99
312.311	31.19
312.777	37.19
313.244	32.89
313.71	41.49
314.176	34.49
314.642	34.49
315.109	34.39
315.575	39.19
316.041	39.89
316.507	32.79
316.973	40.79
317.439	38.59
317.905	37.69
318.371	33.19
318.837	32.89
319.303	39.99
319.769	39.59
320.235	38.59
320.701	36.29
321.167	37.09
321.633	38.29
322.099	41.19
322.564	47.79
323.03	47.59
323.496	45.39
323.962	45.69
324.427	40.99
324.893	47.29
325.359	44.19
325.824	45.49
326.29	41.09
326.755	44.59
327.221	44.09
327.686	40.89
328.152	50.09
328.617	45.09
329.083	48.89
329.548	56.99
330.014	49.19
330.479	43.69
330.944	47.09
331.41	43.19
331.875	42.59
332.34	44.39
332.805	41.29
333.271	50.59
333.736	43.29
334.201	55.19
334.666	57.59
335.131	55.39
335.596	52.39
336.061	51.49
336.526	48.69
336.991	49.99
337.456	60.29
337.921	49.69
338.386	43.49
338.851	45.39
339.316	55.69
339.781	50.29
340.246	55.19
340.711	49.89
341.175	53.79
341.64	49.39
342.105	54.49
342.569	53.69
343.034	61.89
343.499	56.29
343.963	56.39
344.428	67.59
344.893	63.39
345.357	63.79
345.822	62.09
346.286	66.29
346.751	81.59
347.215	72.19
347.679	77.09
348.144	104.79
348.608	85.79
349.073	75.89
349.537	73.59
350.001	83.49
350.465	88.69
350.93	86.09
351.394	89.29
351.858	74.59
352.322	85.99
352.786	87.89
353.25	104.39
353.715	114.09
354.179	104.39
354.643	118.19
355.107	123.19
355.571	106.29
356.035	104.19
356.498	120.69
356.962	120.59
357.426	134.89
357.89	115.19
358.354	96.09
358.818	85.19
359.281	82.29
359.745	80.49
360.209	85.39
360.673	76.39
361.136	84.09
361.6	90.89
362.064	85.99
362.527	78.59
362.991	92.19
363.454	85.89
363.918	80.59
364.381	78.79
364.845	80.59
365.308	86.69
365.772	83.09
366.235	85.89
366.698	89.29
367.162	91.69
367.625	84.69
368.088	83.09
368.552	86.09
369.015	92.19
369.478	95.79
369.941	106.19
370.404	95.39
370.867	105.09
371.331	108.89
371.794	121.29
372.257	111.69
372.72	119.59
373.183	106.79
373.646	100.89
374.109	102.29
374.572	110.29
375.035	107.39
375.497	109.09
375.96	107.39
376.423	106.29
376.886	114.29
377.349	111.19
377.811	105.59
378.274	107.09
378.737	112.69
379.199	110.29
379.662	117.99
380.125	116.09
380.587	115.09
381.05	118.79
381.512	128.89
381.975	133.49
382.437	126.49
382.9	116.39
383.362	129.09
383.825	132.59
384.287	140.79
384.75	138.59
385.212	134.79
385.674	143.19
386.136	143.59
386.599	125.89
387.061	126.89
387.523	120.29
387.985	134.89
388.447	148.39
388.91	137.79
389.372	157.39
389.834	148.49
390.296	144.09
390.758	148.19
391.22	169.29
391.682	207.49
392.144	294.89
392.606	224.29
393.068	163.59
393.529	165.79
393.991	153.59
394.453	143.29
394.915	151.99
395.377	185.29
395.838	207.49
396.3	152.29
396.762	143.29
397.224	135.89
397.685	130.49
398.147	128.69
398.608	129.99
399.07	129.39
399.531	128.09
399.993	137.69
400.454	147.59
400.916	143.69
401.377	149.39
401.839	149.99
402.3	152.09
402.762	167.19
403.223	181.99
403.684	174.09
404.145	168.19
404.607	164.59
405.068	159.59
405.529	162.99
405.99	184.99
406.451	175.89
406.913	172.79
407.374	158.99
407.835	156.89
408.296	167.99
408.757	174.49
409.218	182.29
409.679	174.89
410.14	169.39
410.601	175.79
411.062	180.29
411.522	180.09
411.983	190.69
412.444	172.29
412.905	178.09
413.366	182.19
413.826	182.59
414.287	214.89
414.748	266.19
415.208	239.49
415.669	207.29
416.13	200.29
416.59	200.89
417.051	213.39
417.511	215.99
417.972	232.89
418.432	246.69
418.893	278.39
419.353	253.59
419.814	195.59
420.274	177.69
420.734	183.79
421.195	194.79
421.655	194.59
422.115	191.39
422.576	188.09
423.036	194.39
423.496	202.79
423.956	217.19
424.416	225.69
424.876	261.59
425.336	258.39
425.797	257.29
426.257	255.49
426.717	234.09
427.177	232.89
427.637	218.39
428.097	232.19
428.556	241.09
429.016	268.19
429.476	255.59
429.936	271.49
430.396	273.39
430.856	288.19
431.315	308.29
431.775	347.19
432.235	375.19
432.694	346.59
433.154	359.09
433.614	381.99
434.073	329.09
434.533	279.99
434.993	264.39
435.452	281.99
435.912	290.59
436.371	279.09
436.83	272.49
437.29	263.89
437.749	247.99
438.209	241.69
438.668	265.99
439.127	285.29
439.587	254.89
440.046	245.49
440.505	255.69
440.964	268.09
441.424	318.89
441.883	307.79
442.342	248.89
442.801	221.89
443.26	212.59
443.719	221.49
444.178	210.59
444.637	212.39
445.096	210.59
445.555	222.99
446.014	215.89
446.473	217.79
446.932	235.59
447.391	223.49
447.849	225.29
448.308	214.09
448.767	218.99
449.226	225.99
449.685	231.89
450.143	247.89
450.602	236.39
451.061	223.79
451.519	231.39
451.978	228.99
452.436	228.29
452.895	232.59
453.353	248.19
453.812	236.69
454.27	234.39
454.729	242.49
455.187	237.79
455.646	247.29
456.104	237.19
456.562	254.69
457.021	260.19
457.479	261.79
457.937	271.69
458.395	257.79
458.854	239.09
459.312	248.69
459.77	272.29
460.228	247.59
460.686	240.59
461.144	246.79
461.602	240.09
462.06	242.29
462.518	246.59
462.976	253.39
463.434	254.29
463.892	264.29
464.35	275.89
464.808	285.09
465.266	262.59
465.724	260.19
466.181	272.39
466.639	267.09
467.097	288.89
467.555	300.39
468.012	295.29
468.47	314.39
468.928	325.89
469.385	339.19
469.843	340.99
470.3	343.99
470.758	356.79
471.215	383.69
471.673	400.69
472.13	397.79
472.588	399.39
473.045	356.69
473.503	373.29
473.96	389.59
474.417	391.59
474.875	424.79
475.332	467.29
475.789	453.39
476.246	462.19
476.704	477.39
477.161	501.19
477.618	519.39
478.075	549.29
478.532	606.49
478.989	687.89
479.446	790.19
479.903	760.09
480.36	800.99
480.817	853.99
481.274	959.19
481.731	1057.19
482.188	1143.29
482.645	1276.69
483.102	1386.79
483.558	1513.59
484.015	1578.49
484.472	1549.79
484.929	1498.69
485.385	1451.39
485.842	1407.69
486.299	1332.99
486.755	1281.39
487.212	1078.79
487.668	907.79
488.125	837.29
488.582	765.99
489.038	744.59
489.494	712.19
489.951	679.19
490.407	664.29
490.864	643.89
491.32	630.79
491.776	634.49
492.233	637.39
492.689	601.19
493.145	595.69
493.602	590.99
494.058	603.39
494.514	614.79
494.97	622.09
495.426	634.89
495.882	618.29
496.338	599.79
496.794	624.89
497.251	626.79
497.707	634.79
498.163	632.29
498.618	641.79
499.074	643.99
499.53	668.89
499.986	677.49
500.442	648.99
500.898	630.79
501.354	626.49
501.809	633.49
502.265	632.19
502.721	650.19
503.177	669.59
503.632	654.89
504.088	667.79
504.543	709.59
504.999	702.49
505.455	654.19
505.91	618.69
506.366	621.09
506.821	624.29
507.277	615.99
507.732	618.09
508.187	618.99
508.643	625.49
509.098	629.69
509.553	648.09
510.009	651.49
510.464	666.79
510.919	674.39
511.375	680.19
511.83	692.09
512.285	725.69
512.74	743.09
513.195	768.09
513.65	759.99
514.105	762.59
514.56	764.79
515.015	787.49
515.47	800.09
515.925	779.59
516.38	782.09
516.835	795.89
517.29	766.69
517.745	776.39
518.2	757.59
518.655	742.49
519.109	729.19
519.564	729.69
520.019	720.19
520.474	719.99
520.928	718.79
521.383	707.99
521.838	700.39
522.292	715.69
522.747	700.99
523.201	694.19
523.656	689.59
524.11	677.19
524.565	691.09
525.019	682.79
525.474	694.49
525.928	692.09
526.382	683.49
526.837	683.99
527.291	685.89
527.745	686.29
528.2	689.09
528.654	683.89
529.108	673.09
529.562	684.49
530.016	685.69
530.47	686.49
530.925	678.39
531.379	683.69
531.833	694.99
532.287	688.99
532.741	696.19
533.195	702.79
533.649	699.89
534.103	709.59
534.556	706.69
535.01	709.39
535.464	699.29
535.918	709.19
536.372	704.99
536.826	698.79
537.279	693.99
537.733	698.69
538.187	699.69
538.64	703.49
539.094	712.09
539.548	719.79
540.001	711.59
540.455	721.09
540.908	728.59
541.362	720.09
541.815	727.89
542.269	743.79
542.722	748.79
543.175	758.89
543.629	749.09
544.082	772.99
544.536	763.99
544.989	769.99
545.442	779.19
545.895	769.59
546.349	779.19
546.802	768.39
547.255	785.59
547.708	786.29
548.161	795.49
548.614	810.39
549.067	810.69
549.52	802.79
549.973	792.69
550.426	793.19
550.879	780.39
551.332	782.49
551.785	794.79
552.238	789.89
552.691	801.69
553.144	813.69
553.596	836.19
554.049	853.69
554.502	881.59
554.955	887.49
555.407	892.99
555.86	888.29
556.313	860.19
556.765	860.39
557.218	858.59
557.67	855.79
558.123	858.89
558.576	864.29
559.028	851.19
559.48	848.09
559.933	842.89
560.385	808.29
560.838	790.09
561.29	756.59
561.742	756.99
562.195	744.99
562.647	751.59
563.099	749.89
563.551	744.19
564.004	766.49
564.456	747.89
564.908	738.79
565.36	726.09
565.812	718.59
566.264	713.79
566.716	700.29
567.168	688.59
567.62	704.89
568.072	685.69
568.524	665.79
568.976	674.49
569.428	647.69
569.88	656.89
570.332	667.09
570.784	666.79
571.235	659.79
571.687	667.79
572.139	678.99
572.59	692.49
573.042	692.69
573.494	690.09
573.945	687.99
574.397	664.99
574.849	667.29
575.3	675.69
575.752	662.19
576.203	665.49
576.655	666.89
577.106	650.19
577.557	643.39
578.009	648.39
578.46	651.59
578.912	634.79
579.363	641.59
579.814	650.89
580.265	638.49
580.717	647.69
581.168	643.59
581.619	655.09
582.07	658.29
582.521	642.99
582.972	642.99
583.423	650.89
583.875	664.09
584.326	669.59
584.777	713.29
585.227	784.59
585.678	852.29
586.129	953.19
586.58	1023.99
587.031	1087.79
587.482	1234.89
587.933	1410.69
588.384	1238.39
588.834	919.99
589.285	772.19
589.736	743.39
590.186	739.89
590.637	726.99
591.088	703.29
591.538	702.89
591.989	696.29
592.439	691.69
592.89	683.79
593.34	688.49
593.791	670.49
594.241	679.39
594.692	675.19
595.142	661.99
595.593	672.89
596.043	673.59
596.493	680.89
596.943	677.69
597.394	682.99
597.844	688.69
598.294	694.89
598.744	720.89
599.195	743.69
599.645	769.29
600.095	810.39
600.545	868.89
600.995	917.09
601.445	984.69
601.895	1037.59
602.345	1086.79
602.795	1060.59
603.245	1012.19
603.695	962.29
604.145	915.49
604.594	858.69
605.044	818.49
605.494	760.59
605.944	723.79
606.393	720.59
606.843	689.49
607.293	694.09
607.743	696.89
608.192	704.19
608.642	726.19
609.091	726.29
609.541	730.99
609.99	730.39
610.44	726.89
610.889	692.29
611.339	661.69
611.788	646.99
612.238	664.89
612.687	674.89
613.136	672.89
613.586	696.59
614.035	693.49
614.484	708.69
614.933	707.29
615.383	703.59
615.832	691.99
616.281	681.09
616.73	638.69
617.179	636.49
617.628	620.39
618.077	598.99
618.526	587.49
618.975	582.49
619.424	583.59
619.873	578.89
620.322	587.89
620.771	569.69
621.22	563.29
621.669	564.19
622.118	551.99
622.567	546.99
623.015	532.39
623.464	532.39
623.913	524.49
624.361	518.59
624.81	521.09
625.259	519.59
625.707	526.09
626.156	526.59
626.604	530.69
627.053	527.49
627.501	529.49
627.95	533.39
628.398	548.79
628.847	536.99
629.295	531.89
629.744	543.69
630.192	529.79
630.64	530.19
631.089	529.39
631.537	548.29
631.985	546.79
632.433	559.09
632.881	567.49
633.33	608.99
633.778	591.69
634.226	535.09
634.674	530.79
635.122	536.19
635.57	547.89
636.018	590.19
636.466	545.19
636.914	534.09
637.362	534.59
637.81	543.59
638.258	543.59
638.705	533.39
639.153	566.69
639.601	580.79
640.049	606.89
640.497	636.19
640.944	646.79
641.392	605.29
641.84	574.79
642.287	545.39
642.735	536.39
643.182	525.89
643.63	528.29
644.078	536.19
644.525	549.49
644.973	559.49
645.42	558.59
645.867	572.79
646.315	594.19
646.762	615.19
647.21	638.39
647.657	662.19
648.104	700.99
648.551	719.49
648.999	778.49
649.446	838.79
649.893	927.99
650.34	1066.39
650.787	1276.09
651.234	1586.19
651.682	2046.99
652.129	2796.09
652.576	4040.09
653.023	5973.19
653.47	8201.99
653.917	10367.49
654.363	12068.39
654.81	13493.59
655.257	12805.59
655.704	8340.39
656.151	4929.39
656.598	3187.39
657.044	2253.59
657.491	1733.69
657.938	1388.79
658.385	1147.29
658.831	1011.09
659.278	904.39
659.724	799.79
660.171	730.59
660.618	670.09
661.064	632.49
661.511	616.09
661.957	606.29
662.404	598.29
662.85	595.69
663.296	572.79
663.743	514.29
664.189	496.99
664.635	492.49
665.082	490.19
665.528	483.09
665.974	469.89
666.42	473.89
666.867	472.69
667.313	456.09
667.759	439.09
668.205	442.09
668.651	452.19
669.097	450.79
669.543	465.19
669.989	436.59
670.435	414.39
670.881	407.19
671.327	412.09
671.773	432.89
672.219	447.19
672.665	498.59
673.11	529.19
673.556	578.89
674.002	622.89
674.448	608.29
674.893	506.89
675.339	435.89
675.785	401.69
676.23	385.99
676.676	359.49
677.122	358.69
677.567	348.49
678.013	337.19
678.458	334.09
678.904	332.09
679.349	316.89
679.794	329.99
680.24	320.69
680.685	329.09
681.131	322.99
681.576	317.39
682.021	324.49
682.466	319.19
682.912	320.19
683.357	319.09
683.802	346.89
684.247	375.49
684.692	416.49
685.137	462.49
685.583	481.39
686.028	514.79
686.473	478.09
686.918	411.59
687.363	382.19
687.807	362.59
688.252	334.29
688.697	328.59
689.142	308.99
689.587	301.79
690.032	296.09
690.477	312.29
690.921	316.99
691.366	359.09
691.811	371.69
692.255	395.09
692.7	422.49
693.145	456.49
693.589	617.59
694.034	998.79
694.478	1398.99
694.923	1608.79
695.367	2119.19
695.812	1103.89
696.256	454.79
696.701	341.79
697.145	319.39
697.59	309.29
698.034	293.79
698.478	304.19
698.922	297.59
699.367	303.69
699.811	311.09
700.255	320.19
700.699	348.89
701.143	381.09
701.588	436.49
702.032	469.99
702.476	473.49
702.92	445.29
703.364	444.39
703.808	561.59
704.252	916.49
704.696	1316.49
705.14	1542.59
705.584	1980.89
706.027	977.59
706.471	475.99
706.915	366.69
707.359	312.19
707.803	283.99
708.246	282.69
708.69	284.99
709.134	286.29
709.577	276.79
710.021	287.99
710.465	283.49
710.908	275.39
711.352	264.19
711.795	281.69
712.239	322.59
712.682	353.69
713.126	380.49
713.569	428.59
714.012	341.49
714.456	294.39
714.899	261.69
715.342	253.89
715.786	241.69
716.229	234.49
716.672	237.29
717.115	227.09
717.558	224.69
718.002	230.59
718.445	232.99
718.888	259.99
719.331	265.79
719.774	275.09
720.217	273.69
720.66	265.39
721.103	240.79
721.546	227.69
721.989	226.99
722.432	203.59
722.874	220.19
723.317	204.89
723.76	215.89
724.203	232.19
724.645	293.39
725.088	395.19
725.531	511.89
725.974	593.89
726.416	506.89
726.859	279.99
727.301	224.99
727.744	217.49
728.187	214.49
728.629	216.99
729.071	215.19
729.514	236.29
729.956	244.39
730.399	257.39
730.841	268.49
731.283	249.89
731.726	241.59
732.168	235.69
732.61	239.59
733.053	255.69
733.495	283.39
733.937	322.49
734.379	363.49
734.821	394.89
735.263	485.59
735.705	736.39
736.148	1390.79
736.59	2335.89
737.032	2823.79
737.474	2305.29
737.916	728.89
738.357	384.39
738.799	296.19
739.241	274.49
739.683	250.89
740.125	270.09
740.567	273.19
741.008	285.79
741.45	292.79
741.892	285.39
742.334	309.69
742.775	325.19
743.217	317.29
743.658	245.99
744.1	226.99
744.542	241.19
744.983	281.59
745.425	309.89
745.866	315.19
746.307	263.69
746.749	255.19
747.19	295.99
747.632	405.49
748.073	768.29
748.514	1653.19
748.956	2589.69
749.397	3239.29
749.838	2707.59
750.279	2752.59
750.72	1372.59
751.162	501.19
751.603	282.79
752.044	218.89
752.485	198.59
752.926	194.69
753.367	180.49
753.808	175.79
754.249	179.49
754.69	163.59
755.131	162.79
755.572	165.99
756.013	161.29
756.453	168.49
756.894	168.49
757.335	178.69
757.776	177.49
758.216	174.29
758.657	173.49
759.098	177.29
759.538	208.69
759.979	241.29
760.42	332.09
760.86	616.49
761.301	1588.59
761.741	3942.19
762.182	5980.09
