Data from 20171114-ORNL-Ar_H_NY_Subt18_08-06-24-010.txt Node
Date: Tue Nov 14 08:06:24 EST 2017
User: Ender
Spectrometer: HR+D1039
Trigger mode: 0
Integration Time (sec): 2.730000E-2
Scans to average: 10
Electric dark correction enabled: true
Nonlinearity correction enabled: false
Boxcar width: 0
XAxis mode: Wavelengths
Number of Pixels in Spectrum: 2048
>>>>>Begin Spectral Data<<<<<
187.836	-9.33
188.309	-9.33
188.782	-9.33
189.255	-1.33
189.728	-5.53
190.201	6.27
190.674	-2.23
191.147	2.67
191.619	-8.53
192.092	3.47
192.565	6.37
193.038	-1.13
193.511	5.17
193.984	4.07
194.456	-2.93
194.929	0.27
195.402	-0.53
195.874	3.27
196.347	-1.23
196.82	-1.63
197.292	0.07
197.765	1.87
198.237	-4.33
198.71	-0.73
199.182	-1.93
199.655	-2.73
200.127	1.17
200.6	-5.13
201.072	-1.53
201.544	-7.83
202.017	-0.53
202.489	4.57
202.961	-5.03
203.433	-8.53
203.906	-4.93
204.378	-5.23
204.85	0.57
205.322	-8.03
205.794	-4.53
206.266	-5.93
206.739	-9.33
207.211	4.07
207.683	-3.13
208.155	-5.23
208.627	-2.23
209.099	-5.23
209.57	-7.43
210.042	-0.33
210.514	-1.93
210.986	-5.33
211.458	-5.93
211.93	-4.23
212.402	-3.73
212.873	-1.23
213.345	-10.03
213.817	-6.53
214.288	-4.33
214.76	-8.93
215.232	-0.83
215.703	-5.23
216.175	-5.93
216.646	-2.23
217.118	-2.53
217.589	-2.53
218.061	-4.33
218.532	-6.73
219.004	-9.03
219.475	-1.73
219.946	-0.03
220.418	-12.63
220.889	3.77
221.36	-1.93
221.832	-3.73
222.303	-8.83
222.774	-1.33
223.245	-5.43
223.717	-7.23
224.188	-6.43
224.659	-4.33
225.13	-2.03
225.601	-1.33
226.072	1.97
226.543	1.37
227.014	-5.73
227.485	1.37
227.956	-4.63
228.427	-2.23
228.898	-3.13
229.369	5.67
229.839	-2.23
230.31	-6.03
230.781	-3.63
231.252	-1.23
231.722	-3.13
232.193	-4.43
232.664	1.77
233.135	2.87
233.605	2.27
234.076	-1.93
234.546	-0.73
235.017	7.87
235.487	-1.73
235.958	1.07
236.428	-2.13
236.899	4.47
237.369	-2.13
237.84	1.37
238.31	4.17
238.78	4.97
239.251	1.87
239.721	-0.93
240.191	0.07
240.662	-3.93
241.132	2.07
241.602	-0.93
242.072	2.57
242.542	1.67
243.013	-3.53
243.483	2.47
243.953	0.57
244.423	-1.53
244.893	-8.33
245.363	6.27
245.833	1.17
246.303	2.47
246.773	8.27
247.243	6.07
247.712	2.67
248.182	10.17
248.652	6.27
249.122	1.17
249.592	14.47
250.061	21.57
250.531	32.37
251.001	18.27
251.471	23.47
251.94	18.17
252.41	2.87
252.879	2.07
253.349	10.57
253.818	8.97
254.288	0.77
254.757	3.47
255.227	4.67
255.696	5.47
256.166	12.77
256.635	4.17
257.105	10.07
257.574	7.97
258.043	8.47
258.513	13.97
258.982	9.37
259.451	2.67
259.92	18.87
260.389	10.57
260.859	16.07
261.328	11.37
261.797	24.87
262.266	13.37
262.735	10.47
263.204	7.17
263.673	1.17
264.142	8.77
264.611	-4.33
265.08	7.47
265.549	-1.73
266.018	3.07
266.487	0.57
266.955	-0.63
267.424	-0.43
267.893	8.97
268.362	3.67
268.83	-0.63
269.299	11.77
269.768	1.87
270.236	7.27
270.705	0.77
271.174	8.17
271.642	7.67
272.111	9.27
272.579	22.17
273.048	16.97
273.516	29.07
273.985	30.37
274.453	30.17
274.922	21.77
275.39	10.27
275.858	4.97
276.327	15.07
276.795	18.77
277.263	7.47
277.731	33.07
278.2	53.47
278.668	59.87
279.136	53.27
279.604	20.07
280.072	21.37
280.54	8.77
281.008	11.27
281.477	12.07
281.945	14.27
282.413	9.27
282.881	16.07
283.348	7.07
283.816	16.97
284.284	14.87
284.752	22.07
285.22	17.77
285.688	13.17
286.156	19.97
286.623	42.97
287.091	51.37
287.559	29.57
288.026	17.67
288.494	15.77
288.962	9.37
289.429	9.77
289.897	16.67
290.364	21.07
290.832	15.57
291.3	19.97
291.767	18.97
292.234	23.17
292.702	10.87
293.169	17.17
293.637	29.87
294.104	19.97
294.571	6.47
295.039	11.07
295.506	15.47
295.973	16.17
296.44	11.77
296.908	20.37
297.375	19.47
297.842	23.37
298.309	16.97
298.776	16.17
299.243	23.27
299.71	10.27
300.177	20.27
300.644	22.27
301.111	24.97
301.578	28.07
302.045	20.87
302.512	17.47
302.979	25.37
303.446	23.77
303.913	14.87
304.379	17.57
304.846	27.67
305.313	28.37
305.78	19.47
306.246	32.97
306.713	30.17
307.18	30.57
307.646	29.57
308.113	29.77
308.579	29.87
309.046	30.27
309.512	25.37
309.979	17.67
310.445	33.77
310.912	29.07
311.378	30.97
311.845	27.57
312.311	29.77
312.777	31.77
313.244	31.17
313.71	36.27
314.176	30.47
314.642	36.67
315.109	29.27
315.575	41.77
316.041	40.57
316.507	34.77
316.973	40.37
317.439	29.77
317.905	31.97
318.371	31.67
318.837	35.27
319.303	37.17
319.769	34.47
320.235	33.47
320.701	34.67
321.167	34.57
321.633	31.57
322.099	38.57
322.564	41.77
323.03	36.57
323.496	32.67
323.962	39.57
324.427	39.27
324.893	43.77
325.359	38.27
325.824	38.77
326.29	40.17
326.755	40.07
327.221	43.27
327.686	36.07
328.152	47.67
328.617	41.37
329.083	51.17
329.548	57.27
330.014	47.67
330.479	40.47
330.944	38.37
331.41	43.37
331.875	41.57
332.34	41.67
332.805	44.27
333.271	46.27
333.736	42.37
334.201	56.97
334.666	51.47
335.131	48.57
335.596	49.97
336.061	50.47
336.526	43.87
336.991	48.47
337.456	63.27
337.921	45.77
338.386	43.57
338.851	44.37
339.316	41.57
339.781	46.77
340.246	50.37
340.711	49.07
341.175	47.57
341.64	41.57
342.105	52.57
342.569	56.77
343.034	63.67
343.499	48.37
343.963	52.47
344.428	65.67
344.893	60.17
345.357	57.37
345.822	57.77
346.286	61.67
346.751	72.97
347.215	68.97
347.679	78.17
348.144	99.37
348.608	84.57
349.073	68.47
349.537	75.77
350.001	79.57
350.465	86.67
350.93	81.47
351.394	83.17
351.858	76.57
352.322	95.47
352.786	80.37
353.25	101.77
353.715	108.17
354.179	106.17
354.643	124.37
355.107	133.27
355.571	110.07
356.035	110.57
356.498	117.77
356.962	124.77
357.426	132.37
357.89	121.77
358.354	92.97
358.818	79.37
359.281	82.67
359.745	78.77
360.209	72.47
360.673	76.27
361.136	80.17
361.6	89.97
362.064	83.47
362.527	89.17
362.991	95.57
363.454	80.57
363.918	75.17
364.381	72.77
364.845	78.67
365.308	91.47
365.772	88.67
366.235	88.47
366.698	86.97
367.162	84.07
367.625	89.97
368.088	86.97
368.552	89.67
369.015	81.87
369.478	92.67
369.941	99.77
370.404	92.47
370.867	104.87
371.331	105.67
371.794	117.27
372.257	103.47
372.72	114.77
373.183	111.37
373.646	105.87
374.109	104.87
374.572	115.67
375.035	105.47
375.497	111.27
375.96	106.67
376.423	96.47
376.886	113.97
377.349	110.57
377.811	105.27
378.274	106.67
378.737	107.87
379.199	116.17
379.662	109.27
380.125	120.27
380.587	113.67
381.05	127.67
381.512	129.17
381.975	132.27
382.437	131.07
382.9	126.17
383.362	138.37
383.825	144.87
384.287	152.37
384.75	138.97
385.212	139.57
385.674	139.77
386.136	138.07
386.599	128.67
387.061	131.27
387.523	128.07
387.985	136.07
388.447	147.77
388.91	136.37
389.372	159.07
389.834	153.47
390.296	151.47
390.758	156.37
391.22	164.17
391.682	207.67
392.144	295.17
392.606	225.17
393.068	168.67
393.529	164.07
393.991	150.37
394.453	154.87
394.915	153.17
395.377	189.97
395.838	218.07
396.3	161.67
396.762	142.97
397.224	131.27
397.685	129.47
398.147	134.67
398.608	129.07
399.07	127.17
399.531	138.37
399.993	141.87
400.454	155.07
400.916	149.67
401.377	146.67
401.839	151.67
402.3	148.47
402.762	168.57
403.223	183.17
403.684	169.97
404.145	161.57
404.607	161.57
405.068	168.67
405.529	172.97
405.99	189.27
406.451	179.47
406.913	181.17
407.374	165.87
407.835	164.67
408.296	163.17
408.757	169.47
409.218	193.37
409.679	176.87
410.14	175.77
410.601	181.67
411.062	180.77
411.522	195.17
411.983	187.67
412.444	171.47
412.905	178.07
413.366	185.67
413.826	191.77
414.287	215.87
414.748	263.47
415.208	251.17
415.669	217.07
416.13	211.47
416.59	208.17
417.051	216.27
417.511	220.07
417.972	237.07
418.432	243.57
418.893	286.37
419.353	255.67
419.814	200.67
420.274	181.27
420.734	187.67
421.195	202.07
421.655	198.57
422.115	197.07
422.576	188.77
423.036	195.67
423.496	206.57
423.956	215.77
424.416	230.87
424.876	268.57
425.336	266.07
425.797	265.97
426.257	247.07
426.717	245.27
427.177	234.97
427.637	224.27
428.097	237.67
428.556	248.37
429.016	267.47
429.476	261.87
429.936	279.67
430.396	278.07
430.856	291.37
431.315	308.57
431.775	345.57
432.235	379.37
432.694	358.27
433.154	366.77
433.614	398.37
434.073	348.87
434.533	284.17
434.993	269.57
435.452	285.57
435.912	298.57
436.371	289.67
436.83	289.87
437.29	274.27
437.749	255.47
438.209	251.77
438.668	274.17
439.127	290.17
439.587	271.17
440.046	255.47
440.505	266.47
440.964	281.87
441.424	321.77
441.883	313.57
442.342	270.27
442.801	228.87
443.26	218.27
443.719	221.27
444.178	221.57
444.637	213.97
445.096	216.07
445.555	225.37
446.014	226.27
446.473	223.77
446.932	233.27
447.391	232.97
447.849	228.87
448.308	218.07
448.767	219.57
449.226	236.87
449.685	233.57
450.143	253.77
450.602	234.67
451.061	225.77
451.519	230.77
451.978	227.77
452.436	235.67
452.895	242.07
453.353	251.57
453.812	235.37
454.27	245.07
454.729	243.47
455.187	236.77
455.646	247.27
456.104	248.87
456.562	262.47
457.021	269.17
457.479	264.47
457.937	270.77
458.395	274.57
458.854	255.57
459.312	249.47
459.77	279.37
460.228	249.77
460.686	246.77
461.144	251.97
461.602	246.37
462.06	248.07
462.518	252.67
462.976	251.17
463.434	259.77
463.892	265.67
464.35	276.87
464.808	286.67
465.266	267.47
465.724	275.07
466.181	273.37
466.639	265.37
467.097	287.27
467.555	296.67
468.012	302.27
468.47	314.27
468.928	335.87
469.385	342.47
469.843	353.47
470.3	358.37
470.758	361.77
471.215	385.87
471.673	413.77
472.13	412.87
472.588	411.77
473.045	380.27
473.503	368.67
473.96	401.37
474.417	410.17
474.875	440.07
475.332	481.07
475.789	462.87
476.246	470.87
476.704	493.97
477.161	508.17
477.618	517.57
478.075	571.57
478.532	621.97
478.989	703.47
479.446	815.37
479.903	783.37
480.36	814.57
480.817	877.37
481.274	983.07
481.731	1085.57
482.188	1173.47
482.645	1319.07
483.102	1422.97
483.558	1565.17
484.015	1613.77
484.472	1588.77
484.929	1540.27
485.385	1488.57
485.842	1446.87
486.299	1387.67
486.755	1310.07
487.212	1108.57
487.668	932.57
488.125	865.47
488.582	784.67
489.038	750.87
489.494	721.17
489.951	698.77
490.407	673.87
490.864	648.17
491.32	653.97
491.776	643.77
492.233	658.47
492.689	616.47
493.145	610.37
493.602	604.07
494.058	622.87
494.514	628.07
494.97	643.67
495.426	656.37
495.882	638.47
496.338	628.87
496.794	630.27
497.251	622.07
497.707	641.27
498.163	639.57
498.618	643.77
499.074	657.77
499.53	681.97
499.986	689.77
500.442	665.47
500.898	636.27
501.354	633.57
501.809	640.97
502.265	644.97
502.721	667.07
503.177	685.37
503.632	673.47
504.088	680.27
504.543	720.17
504.999	718.17
505.455	670.87
505.91	641.67
506.366	641.77
506.821	637.87
507.277	623.97
507.732	632.97
508.187	630.57
508.643	639.17
509.098	634.97
509.553	668.77
510.009	676.87
510.464	683.47
510.919	690.67
511.375	695.07
511.83	717.27
512.285	724.27
512.74	760.27
513.195	785.27
513.65	776.47
514.105	774.27
514.56	777.17
515.015	806.27
515.47	816.47
515.925	800.27
516.38	798.37
516.835	808.07
517.29	786.37
517.745	777.27
518.2	760.27
518.655	748.57
519.109	755.37
519.564	745.67
520.019	751.17
520.474	738.47
520.928	738.07
521.383	719.47
521.838	714.57
522.292	724.37
522.747	725.47
523.201	717.97
523.656	700.57
524.11	689.17
524.565	701.77
525.019	701.57
525.474	701.27
525.928	712.77
526.382	700.67
526.837	706.07
527.291	705.47
527.745	703.97
528.2	719.67
528.654	692.77
529.108	695.47
529.562	701.97
530.016	698.57
530.47	700.87
530.925	696.17
531.379	702.97
531.833	710.87
532.287	710.47
532.741	712.27
533.195	721.77
533.649	731.17
534.103	728.87
534.556	718.27
535.01	718.97
535.464	713.97
535.918	729.47
536.372	725.27
536.826	724.47
537.279	714.67
537.733	719.57
538.187	734.47
538.64	723.87
539.094	734.27
539.548	737.27
540.001	733.47
540.455	733.77
540.908	733.17
541.362	744.57
541.815	754.07
542.269	760.67
542.722	766.07
543.175	774.37
543.629	779.07
544.082	792.57
544.536	793.77
544.989	792.87
545.442	797.97
545.895	798.87
546.349	797.47
546.802	803.97
547.255	796.97
547.708	816.37
548.161	830.27
548.614	831.07
549.067	833.77
549.52	832.67
549.973	819.47
550.426	823.97
550.879	803.07
551.332	812.17
551.785	811.87
552.238	810.17
552.691	828.27
553.144	842.17
553.596	854.77
554.049	870.77
554.502	903.67
554.955	915.17
555.407	913.37
555.86	918.67
556.313	903.07
556.765	901.27
557.218	887.17
557.67	896.17
558.123	889.47
558.576	876.77
559.028	901.37
559.48	894.67
559.933	879.97
560.385	848.97
560.838	820.77
561.29	795.17
561.742	795.17
562.195	780.67
562.647	772.47
563.099	774.37
563.551	780.87
564.004	796.67
564.456	781.47
564.908	774.77
565.36	743.67
565.812	734.97
566.264	742.77
566.716	729.87
567.168	718.57
567.62	732.57
568.072	706.97
568.524	705.77
568.976	695.57
569.428	679.17
569.88	681.37
570.332	694.87
570.784	691.17
571.235	693.87
571.687	705.97
572.139	704.57
572.59	717.27
573.042	724.07
573.494	721.77
573.945	710.77
574.397	690.97
574.849	703.37
575.3	690.27
575.752	695.17
576.203	690.27
576.655	687.07
577.106	670.77
577.557	676.57
578.009	679.27
578.46	666.07
578.912	672.07
579.363	673.17
579.814	685.17
580.265	667.17
580.717	667.97
581.168	675.07
581.619	684.37
582.07	696.87
582.521	687.97
582.972	677.77
583.423	689.67
583.875	694.57
584.326	708.97
584.777	750.67
585.227	827.57
585.678	912.07
586.129	1003.27
586.58	1071.47
587.031	1156.87
587.482	1309.77
587.933	1485.87
588.384	1287.27
588.834	975.87
589.285	810.37
589.736	802.17
590.186	781.37
590.637	772.67
591.088	747.87
591.538	742.07
591.989	736.07
592.439	736.27
592.89	722.87
593.34	708.97
593.791	713.77
594.241	714.87
594.692	717.17
595.142	710.57
595.593	706.37
596.043	719.27
596.493	714.97
596.943	717.37
597.394	727.57
597.844	724.27
598.294	738.27
598.744	755.57
599.195	788.87
599.645	817.47
600.095	857.07
600.545	912.07
600.995	976.77
601.445	1038.67
601.895	1091.87
602.345	1138.67
602.795	1116.17
603.245	1078.07
603.695	1016.87
604.145	962.27
604.594	917.77
605.044	869.97
605.494	804.07
605.944	755.97
606.393	741.47
606.843	734.97
607.293	742.77
607.743	730.27
608.192	757.47
608.642	774.97
609.091	772.07
609.541	768.17
609.99	779.87
610.44	771.47
610.889	727.17
611.339	700.27
611.788	693.97
612.238	709.67
612.687	727.47
613.136	728.67
613.586	742.47
614.035	745.47
614.484	764.87
614.933	757.37
615.383	749.77
615.832	745.57
616.281	722.17
616.73	689.87
617.179	665.87
617.628	650.67
618.077	638.37
618.526	626.27
618.975	622.37
619.424	622.17
619.873	614.87
620.322	619.27
620.771	617.57
621.22	606.77
621.669	597.47
622.118	590.67
622.567	583.87
623.015	575.57
623.464	582.47
623.913	568.97
624.361	558.87
624.81	549.47
625.259	562.07
625.707	557.97
626.156	564.27
626.604	573.47
627.053	570.87
627.501	569.67
627.95	573.17
628.398	589.87
628.847	582.67
629.295	570.17
629.744	575.97
630.192	561.57
630.64	568.87
631.089	567.17
631.537	579.27
631.985	589.47
632.433	594.97
632.881	604.57
633.33	661.67
633.778	631.97
634.226	568.67
634.674	564.57
635.122	586.57
635.57	595.07
636.018	628.97
636.466	579.67
636.914	558.27
637.362	569.97
637.81	579.97
638.258	589.37
638.705	578.57
639.153	613.67
639.601	621.57
640.049	652.37
640.497	677.97
640.944	699.07
641.392	646.77
641.84	608.77
642.287	587.97
642.735	570.77
643.182	577.97
643.63	569.67
644.078	578.97
644.525	587.27
644.973	599.47
645.42	609.47
645.867	624.77
646.315	642.77
646.762	660.57
647.21	696.37
647.657	712.17
648.104	749.77
648.551	764.97
648.999	846.87
649.446	919.57
649.893	1005.17
650.34	1156.77
650.787	1398.37
651.234	1731.57
651.682	2263.07
652.129	3112.17
652.576	4475.87
653.023	6631.57
653.47	9064.67
653.917	11357.67
654.363	13085.67
654.81	14463.57
655.257	13772.17
655.704	8973.97
656.151	5309.47
656.598	3456.97
657.044	2435.37
657.491	1873.27
657.938	1494.67
658.385	1244.97
658.831	1081.97
659.278	969.07
659.724	858.57
660.171	799.67
660.618	719.57
661.064	693.97
661.511	660.77
661.957	665.67
662.404	645.07
662.85	657.17
663.296	623.47
663.743	558.67
664.189	540.87
664.635	540.97
665.082	529.07
665.528	526.17
665.974	513.97
666.42	502.27
666.867	499.27
667.313	504.57
667.759	479.07
668.205	473.87
668.651	489.87
669.097	486.47
669.543	505.87
669.989	472.47
670.435	457.47
670.881	444.17
671.327	456.87
671.773	471.07
672.219	487.87
672.665	550.27
673.11	590.67
673.556	625.37
674.002	664.97
674.448	661.67
674.893	546.87
675.339	473.17
675.785	443.07
676.23	422.37
676.676	396.87
677.122	382.37
677.567	376.17
678.013	373.27
678.458	353.77
678.904	357.87
679.349	352.17
679.794	348.67
680.24	355.07
680.685	349.17
681.131	348.37
681.576	353.57
682.021	356.67
682.466	354.17
682.912	347.37
683.357	352.07
683.802	369.27
684.247	411.67
684.692	453.57
685.137	493.37
685.583	528.17
686.028	557.57
686.473	514.67
686.918	449.07
687.363	413.07
687.807	392.77
688.252	364.37
688.697	357.17
689.142	334.87
689.587	330.17
690.032	324.87
690.477	338.07
690.921	351.27
691.366	384.07
691.811	399.97
692.255	424.07
692.7	464.57
693.145	501.37
693.589	685.17
694.034	1126.47
694.478	1525.97
694.923	1715.17
695.367	2261.57
695.812	1174.87
696.256	498.07
696.701	369.07
697.145	351.97
697.59	331.77
698.034	323.57
698.478	329.67
698.922	322.67
699.367	323.07
699.811	340.77
700.255	349.57
700.699	382.27
701.143	422.17
701.588	478.37
702.032	509.97
702.476	504.17
702.92	489.47
703.364	491.07
703.808	627.57
704.252	1031.27
704.696	1440.17
705.14	1663.07
705.584	2125.37
706.027	1063.67
706.471	522.07
706.915	397.07
707.359	345.17
707.803	315.67
708.246	308.87
708.69	306.67
709.134	318.17
709.577	316.47
710.021	320.77
710.465	305.07
710.908	294.17
711.352	298.77
711.795	304.37
712.239	350.07
712.682	384.27
713.126	416.27
713.569	460.37
714.012	365.57
714.456	323.17
714.899	306.07
715.342	275.87
715.786	258.57
716.229	253.47
716.672	257.97
717.115	251.87
717.558	248.87
718.002	256.57
718.445	256.27
718.888	284.87
719.331	287.27
719.774	307.97
720.217	298.17
720.66	281.07
721.103	264.67
721.546	250.17
721.989	238.77
722.432	228.37
722.874	237.57
723.317	230.47
723.76	239.37
724.203	255.47
724.645	311.57
725.088	442.97
725.531	555.37
725.974	641.97
726.416	544.97
726.859	299.47
727.301	241.37
727.744	239.57
728.187	236.97
728.629	235.97
729.071	243.57
729.514	255.07
729.956	268.07
730.399	276.17
730.841	292.77
731.283	277.37
731.726	261.17
732.168	259.87
732.61	270.87
733.053	281.27
733.495	307.37
733.937	352.97
734.379	391.07
734.821	435.47
735.263	538.17
735.705	833.97
736.148	1559.77
736.59	2564.77
737.032	3034.37
737.474	2462.67
737.916	797.97
738.357	427.27
738.799	324.97
739.241	300.37
739.683	283.47
740.125	293.07
740.567	297.37
741.008	319.17
741.45	306.37
741.892	315.57
742.334	341.77
742.775	360.87
743.217	338.87
743.658	267.77
744.1	249.07
744.542	262.57
744.983	309.67
745.425	340.47
745.866	338.07
746.307	281.27
746.749	282.17
747.19	316.67
747.632	458.37
748.073	869.77
748.514	1848.47
748.956	2829.67
749.397	3547.97
749.838	2942.57
750.279	2927.07
750.72	1474.77
751.162	550.37
751.603	313.47
752.044	246.17
752.485	209.77
752.926	205.77
753.367	201.47
753.808	193.57
754.249	191.87
754.69	182.97
755.131	188.37
755.572	182.27
756.013	178.67
756.453	180.47
756.894	183.17
757.335	188.37
757.776	191.77
758.216	200.47
758.657	198.57
759.098	197.97
759.538	221.47
759.979	267.57
760.42	371.47
760.86	708.27
761.301	1785.37
761.741	4346.87
762.182	6371.47
