Data from 20171114-ORNL-Ar_H_NY_Subt18_08-09-04-033.txt Node
Date: Tue Nov 14 08:09:04 EST 2017
User: Ender
Spectrometer: HR+D1039
Trigger mode: 0
Integration Time (sec): 2.730000E-2
Scans to average: 10
Electric dark correction enabled: true
Nonlinearity correction enabled: false
Boxcar width: 0
XAxis mode: Wavelengths
Number of Pixels in Spectrum: 2048
>>>>>Begin Spectral Data<<<<<
187.836	-5.46
188.309	-5.46
188.782	-5.46
189.255	3.34
189.728	-4.26
190.201	-1.06
190.674	-2.76
191.147	3.64
191.619	-6.76
192.092	0.64
192.565	7.94
193.038	1.94
193.511	-1.26
193.984	-0.56
194.456	-0.66
194.929	6.94
195.402	-1.16
195.874	-0.56
196.347	-0.86
196.82	-10.36
197.292	5.44
197.765	-3.66
198.237	-7.96
198.71	-1.96
199.182	-3.36
199.655	1.44
200.127	2.84
200.6	-5.66
201.072	-4.96
201.544	-0.66
202.017	-2.46
202.489	-1.36
202.961	-1.96
203.433	-5.36
203.906	-8.66
204.378	-8.96
204.85	-11.06
205.322	-9.16
205.794	-5.66
206.266	-4.46
206.739	-11.26
207.211	-0.86
207.683	-10.96
208.155	-5.86
208.627	-10.06
209.099	-4.06
209.57	-8.56
210.042	-6.76
210.514	-4.26
210.986	1.44
211.458	-7.86
211.93	-3.86
212.402	-3.16
212.873	-9.46
213.345	-8.76
213.817	-7.36
214.288	-6.06
214.76	-6.96
215.232	3.54
215.703	0.24
216.175	-5.36
216.646	-9.76
217.118	-9.86
217.589	-9.76
218.061	5.24
218.532	1.64
219.004	1.84
219.475	-2.36
219.946	-3.96
220.418	-2.16
220.889	-5.16
221.36	-0.36
221.832	-9.86
222.303	-7.76
222.774	-0.26
223.245	-10.26
223.717	-9.36
224.188	-7.26
224.659	-5.36
225.13	-11.76
225.601	-4.06
226.072	-5.86
226.543	-3.26
227.014	7.34
227.485	-0.46
227.956	-8.56
228.427	-6.06
228.898	-3.66
229.369	2.54
229.839	-6.06
230.31	-11.16
230.781	-1.26
231.252	-1.06
231.722	-11.26
232.193	-6.16
232.664	-3.16
233.135	-5.86
233.605	-3.46
234.076	-4.76
234.546	0.44
235.017	3.04
235.487	1.24
235.958	-1.86
236.428	-7.46
236.899	0.74
237.369	-0.86
237.84	-12.36
238.31	1.84
238.78	-5.26
239.251	-5.56
239.721	-3.46
240.191	-3.16
240.662	-0.36
241.132	-5.26
241.602	-9.86
242.072	-3.66
242.542	6.34
243.013	-2.26
243.483	-2.86
243.953	-2.16
244.423	-4.36
244.893	-4.16
245.363	0.84
245.833	-1.66
246.303	-5.76
246.773	0.14
247.243	-2.26
247.712	-0.26
248.182	1.74
248.652	3.14
249.122	-12.36
249.592	-0.96
250.061	0.34
250.531	8.34
251.001	-7.96
251.471	1.84
251.94	4.54
252.41	-5.36
252.879	-8.26
253.349	7.74
253.818	4.14
254.288	-3.96
254.757	-6.46
255.227	-3.36
255.696	-0.56
256.166	4.34
256.635	-2.66
257.105	-0.26
257.574	-1.96
258.043	-2.86
258.513	-8.16
258.982	6.94
259.451	-8.46
259.92	1.54
260.389	-1.26
260.859	10.44
261.328	1.74
261.797	5.44
262.266	-3.06
262.735	5.84
263.204	-0.96
263.673	-5.96
264.142	6.34
264.611	-4.26
265.08	-3.96
265.549	-6.36
266.018	1.14
266.487	-4.86
266.955	-9.06
267.424	-4.96
267.893	-0.06
268.362	0.54
268.83	-0.96
269.299	2.94
269.768	0.74
270.236	4.64
270.705	-6.76
271.174	-0.76
271.642	-1.86
272.111	-1.06
272.579	3.14
273.048	0.34
273.516	-2.86
273.985	4.44
274.453	0.84
274.922	10.84
275.39	7.64
275.858	-6.16
276.327	6.34
276.795	7.04
277.263	1.64
277.731	12.54
278.2	11.24
278.668	7.34
279.136	10.74
279.604	0.34
280.072	6.04
280.54	8.64
281.008	4.74
281.477	4.54
281.945	5.84
282.413	9.94
282.881	5.24
283.348	4.74
283.816	2.74
284.284	9.94
284.752	15.54
285.22	5.54
285.688	3.64
286.156	3.14
286.623	15.34
287.091	8.14
287.559	10.64
288.026	7.34
288.494	5.34
288.962	-1.86
289.429	7.14
289.897	19.94
290.364	9.44
290.832	11.24
291.3	7.54
291.767	8.84
292.234	14.84
292.702	0.34
293.169	11.44
293.637	13.84
294.104	14.14
294.571	2.74
295.039	3.84
295.506	6.34
295.973	15.04
296.44	4.34
296.908	14.14
297.375	12.24
297.842	12.24
298.309	7.54
298.776	5.54
299.243	11.14
299.71	7.64
300.177	13.94
300.644	12.94
301.111	12.94
301.578	13.44
302.045	12.64
302.512	17.34
302.979	14.64
303.446	10.04
303.913	8.24
304.379	7.14
304.846	13.04
305.313	15.84
305.78	18.74
306.246	20.04
306.713	20.64
307.18	19.94
307.646	18.44
308.113	21.14
308.579	19.14
309.046	19.54
309.512	18.24
309.979	12.14
310.445	18.04
310.912	12.14
311.378	19.44
311.845	21.34
312.311	21.94
312.777	28.44
313.244	23.94
313.71	26.54
314.176	22.04
314.642	14.44
315.109	21.14
315.575	22.94
316.041	30.24
316.507	24.54
316.973	22.84
317.439	28.24
317.905	27.14
318.371	24.04
318.837	22.94
319.303	23.34
319.769	25.94
320.235	25.14
320.701	29.34
321.167	25.54
321.633	27.74
322.099	22.34
322.564	35.34
323.03	24.44
323.496	31.84
323.962	27.64
324.427	25.64
324.893	35.04
325.359	30.84
325.824	30.94
326.29	28.54
326.755	28.24
327.221	34.04
327.686	29.44
328.152	35.64
328.617	30.14
329.083	40.14
329.548	39.74
330.014	41.94
330.479	31.14
330.944	30.44
331.41	26.94
331.875	36.34
332.34	31.44
332.805	31.94
333.271	36.64
333.736	33.34
334.201	37.94
334.666	41.24
335.131	43.64
335.596	42.74
336.061	40.44
336.526	34.94
336.991	37.74
337.456	39.84
337.921	36.54
338.386	36.54
338.851	39.04
339.316	42.64
339.781	37.94
340.246	47.14
340.711	38.44
341.175	41.04
341.64	31.64
342.105	40.64
342.569	46.64
343.034	42.14
343.499	39.84
343.963	37.04
344.428	54.94
344.893	52.14
345.357	48.74
345.822	46.44
346.286	53.34
346.751	60.24
347.215	54.04
347.679	58.34
348.144	73.04
348.608	64.34
349.073	58.34
349.537	58.74
350.001	66.04
350.465	65.54
350.93	59.74
351.394	64.44
351.858	63.24
352.322	76.74
352.786	67.54
353.25	78.54
353.715	94.04
354.179	78.74
354.643	91.94
355.107	97.94
355.571	79.84
356.035	80.74
356.498	95.64
356.962	93.34
357.426	109.54
357.89	89.84
358.354	72.74
358.818	71.74
359.281	67.34
359.745	71.74
360.209	67.54
360.673	64.34
361.136	69.74
361.6	68.14
362.064	68.14
362.527	79.04
362.991	79.74
363.454	68.04
363.918	66.14
364.381	71.84
364.845	67.74
365.308	74.94
365.772	74.94
366.235	72.74
366.698	66.14
367.162	77.04
367.625	75.54
368.088	74.14
368.552	77.34
369.015	77.74
369.478	81.74
369.941	88.04
370.404	78.94
370.867	81.74
371.331	85.94
371.794	95.44
372.257	82.64
372.72	91.44
373.183	89.34
373.646	79.94
374.109	86.14
374.572	85.44
375.035	97.54
375.497	99.64
375.96	97.44
376.423	91.34
376.886	98.04
377.349	100.64
377.811	88.84
378.274	83.24
378.737	96.34
379.199	98.54
379.662	96.24
380.125	98.04
380.587	99.04
381.05	104.44
381.512	106.84
381.975	107.44
382.437	107.04
382.9	103.24
383.362	111.04
383.825	115.64
384.287	118.44
384.75	107.74
385.212	116.54
385.674	121.44
386.136	117.64
386.599	109.54
387.061	113.54
387.523	111.14
387.985	120.34
388.447	121.74
388.91	117.14
389.372	117.14
389.834	120.24
390.296	120.64
390.758	124.34
391.22	130.54
391.682	137.74
392.144	152.04
392.606	138.34
393.068	130.64
393.529	152.54
393.991	127.14
394.453	122.64
394.915	124.64
395.377	135.24
395.838	131.44
396.3	130.94
396.762	130.14
397.224	123.84
397.685	123.24
398.147	121.64
398.608	121.34
399.07	122.74
399.531	132.84
399.993	135.04
400.454	140.84
400.916	141.94
401.377	136.94
401.839	145.54
402.3	145.14
402.762	163.24
403.223	167.94
403.684	158.64
404.145	154.54
404.607	155.54
405.068	156.34
405.529	159.34
405.99	178.64
406.451	171.94
406.913	170.84
407.374	159.64
407.835	153.34
408.296	159.64
408.757	164.94
409.218	178.64
409.679	170.04
410.14	173.04
410.601	170.54
411.062	174.14
411.522	172.24
411.983	170.84
412.444	167.54
412.905	176.34
413.366	183.44
413.826	196.14
414.287	219.14
414.748	259.54
415.208	244.24
415.669	207.54
416.13	204.84
416.59	201.24
417.051	214.44
417.511	217.74
417.972	228.74
418.432	246.14
418.893	287.94
419.353	246.24
419.814	196.44
420.274	187.04
420.734	178.04
421.195	197.54
421.655	187.54
422.115	194.44
422.576	190.04
423.036	201.64
423.496	206.14
423.956	220.84
424.416	227.34
424.876	265.04
425.336	261.64
425.797	252.74
426.257	251.54
426.717	232.94
427.177	226.34
427.637	219.44
428.097	229.14
428.556	238.14
429.016	266.14
429.476	249.94
429.936	262.14
430.396	267.44
430.856	285.64
431.315	299.94
431.775	341.14
432.235	364.14
432.694	346.94
433.154	351.84
433.614	379.04
434.073	322.34
434.533	278.74
434.993	260.44
435.452	275.94
435.912	281.14
436.371	272.84
436.83	272.74
437.29	252.24
437.749	247.34
438.209	243.24
438.668	272.14
439.127	279.14
439.587	262.34
440.046	244.64
440.505	259.84
440.964	268.54
441.424	312.54
441.883	300.14
442.342	257.74
442.801	227.14
443.26	222.54
443.719	224.74
444.178	222.34
444.637	218.14
445.096	220.04
445.555	225.34
446.014	231.34
446.473	232.34
446.932	237.34
447.391	230.14
447.849	233.14
448.308	232.14
448.767	230.94
449.226	244.24
449.685	246.74
450.143	258.04
450.602	247.84
451.061	237.34
451.519	235.84
451.978	232.74
452.436	236.14
452.895	242.94
453.353	255.54
453.812	247.94
454.27	250.14
454.729	240.24
455.187	245.04
455.646	253.54
456.104	247.44
456.562	267.04
457.021	274.34
457.479	266.74
457.937	277.94
458.395	270.44
458.854	248.84
459.312	256.44
459.77	285.14
460.228	260.54
460.686	246.24
461.144	252.74
461.602	250.94
462.06	248.74
462.518	259.24
462.976	255.84
463.434	266.14
463.892	267.04
464.35	282.44
464.808	291.94
465.266	275.84
465.724	281.64
466.181	287.54
466.639	275.84
467.097	293.74
467.555	304.74
468.012	308.04
468.47	314.54
468.928	337.04
469.385	347.74
469.843	352.94
470.3	348.04
470.758	366.04
471.215	390.84
471.673	418.34
472.13	418.04
472.588	416.84
473.045	372.84
473.503	388.64
473.96	398.84
474.417	410.64
474.875	441.44
475.332	479.24
475.789	467.94
476.246	473.64
476.704	493.24
477.161	511.34
477.618	531.34
478.075	566.54
478.532	612.34
478.989	684.14
479.446	778.54
479.903	752.24
480.36	790.54
480.817	837.34
481.274	929.24
481.731	1017.84
482.188	1086.74
482.645	1205.14
483.102	1303.94
483.558	1419.04
484.015	1451.34
484.472	1438.04
484.929	1392.24
485.385	1337.14
485.842	1320.24
486.299	1272.24
486.755	1245.04
487.212	1045.04
487.668	895.84
488.125	823.24
488.582	768.84
489.038	749.14
489.494	706.34
489.951	679.24
490.407	674.94
490.864	641.94
491.32	635.14
491.776	649.24
492.233	660.14
492.689	607.84
493.145	619.74
493.602	610.34
494.058	630.14
494.514	622.64
494.97	643.84
495.426	660.34
495.882	633.04
496.338	629.44
496.794	631.74
497.251	630.54
497.707	644.14
498.163	643.14
498.618	652.74
499.074	655.34
499.53	673.14
499.986	674.74
500.442	645.74
500.898	638.04
501.354	625.24
501.809	643.84
502.265	636.84
502.721	643.74
503.177	656.14
503.632	648.44
504.088	666.34
504.543	691.04
504.999	707.34
505.455	667.34
505.91	656.44
506.366	653.74
506.821	642.74
507.277	645.64
507.732	656.04
508.187	656.44
508.643	666.24
509.098	655.14
509.553	678.94
510.009	688.24
510.464	692.64
510.919	708.14
511.375	710.34
511.83	729.44
512.285	738.74
512.74	772.44
513.195	804.24
513.65	786.94
514.105	778.64
514.56	779.74
515.015	794.94
515.47	814.84
515.925	799.94
516.38	805.04
516.835	813.04
517.29	798.14
517.745	797.34
518.2	778.24
518.655	762.64
519.109	754.84
519.564	755.54
520.019	753.04
520.474	742.14
520.928	734.04
521.383	735.84
521.838	720.14
522.292	730.84
522.747	734.64
523.201	729.64
523.656	726.74
524.11	706.84
524.565	717.14
525.019	713.04
525.474	716.54
525.928	715.94
526.382	722.94
526.837	729.44
527.291	728.24
527.745	721.24
528.2	725.54
528.654	694.44
529.108	710.74
529.562	701.04
530.016	715.54
530.47	708.74
530.925	712.14
531.379	712.94
531.833	715.34
532.287	716.24
532.741	714.44
533.195	721.74
533.649	728.64
534.103	739.04
534.556	721.64
535.01	729.74
535.464	724.94
535.918	734.14
536.372	732.44
536.826	730.24
537.279	728.94
537.733	731.04
538.187	730.34
538.64	732.44
539.094	745.34
539.548	744.54
540.001	744.34
540.455	750.54
540.908	754.54
541.362	769.14
541.815	760.64
542.269	785.24
542.722	782.54
543.175	789.84
543.629	795.54
544.082	812.14
544.536	815.14
544.989	813.04
545.442	823.74
545.895	818.44
546.349	821.24
546.802	817.24
547.255	832.64
547.708	829.54
548.161	849.44
548.614	851.64
549.067	847.34
549.52	846.34
549.973	835.94
550.426	843.84
550.879	822.64
551.332	820.64
551.785	829.54
552.238	829.34
552.691	848.24
553.144	857.14
553.596	883.04
554.049	898.54
554.502	919.44
554.955	942.74
555.407	936.14
555.86	934.74
556.313	920.84
556.765	926.84
557.218	913.04
557.67	907.54
558.123	902.54
558.576	909.24
559.028	902.14
559.48	909.74
559.933	904.34
560.385	872.44
560.838	844.84
561.29	832.94
561.742	806.84
562.195	798.44
562.647	790.64
563.099	801.54
563.551	799.84
564.004	813.04
564.456	791.74
564.908	787.24
565.36	776.44
565.812	754.04
566.264	747.14
566.716	746.64
567.168	724.74
567.62	730.94
568.072	730.04
568.524	720.24
568.976	722.84
569.428	707.04
569.88	696.74
570.332	709.54
570.784	713.94
571.235	723.34
571.687	734.44
572.139	734.84
572.59	744.04
573.042	738.54
573.494	745.04
573.945	737.74
574.397	720.14
574.849	720.04
575.3	717.54
575.752	706.04
576.203	711.44
576.655	714.94
577.106	697.84
577.557	700.64
578.009	689.64
578.46	692.54
578.912	687.94
579.363	696.34
579.814	696.44
580.265	688.34
580.717	700.94
581.168	693.44
581.619	699.44
582.07	704.74
582.521	697.54
582.972	700.34
583.423	697.64
583.875	703.44
584.326	718.44
584.777	735.84
585.227	754.74
585.678	767.94
586.129	800.64
586.58	817.14
587.031	850.14
587.482	890.24
587.933	923.44
588.384	894.34
588.834	824.54
589.285	804.84
589.736	797.64
590.186	806.74
590.637	797.14
591.088	779.04
591.538	777.24
591.989	763.64
592.439	758.34
592.89	750.84
593.34	734.64
593.791	735.74
594.241	723.34
594.692	727.84
595.142	723.94
595.593	715.34
596.043	735.94
596.493	730.84
596.943	736.94
597.394	753.84
597.844	750.04
598.294	767.64
598.744	793.24
599.195	818.64
599.645	850.74
600.095	900.04
600.545	956.54
600.995	1008.44
601.445	1060.04
601.895	1137.04
602.345	1195.14
602.795	1170.04
603.245	1121.94
603.695	1064.94
604.145	995.84
604.594	948.74
605.044	900.74
605.494	837.44
605.944	794.34
606.393	781.64
606.843	766.24
607.293	759.54
607.743	760.34
608.192	777.74
608.642	791.94
609.091	783.14
609.541	793.94
609.99	796.74
610.44	790.24
610.889	741.14
611.339	735.84
611.788	713.74
612.238	719.54
612.687	726.04
613.136	717.64
613.586	739.74
614.035	723.54
614.484	740.64
614.933	742.64
615.383	730.04
615.832	720.84
616.281	727.44
616.73	700.94
617.179	681.94
617.628	681.34
618.077	657.44
618.526	648.84
618.975	641.54
619.424	637.94
619.873	648.24
620.322	649.04
620.771	633.04
621.22	623.04
621.669	612.74
622.118	615.04
622.567	612.74
623.015	597.84
623.464	596.04
623.913	591.14
624.361	577.74
624.81	566.34
625.259	576.94
625.707	578.54
626.156	575.84
626.604	600.64
627.053	597.64
627.501	591.94
627.95	594.84
628.398	606.64
628.847	604.64
629.295	600.84
629.744	594.44
630.192	591.34
630.64	580.24
631.089	574.24
631.537	577.74
631.985	555.34
632.433	563.14
632.881	558.44
633.33	563.74
633.778	558.54
634.226	554.64
634.674	572.44
635.122	572.04
635.57	582.64
636.018	582.54
636.466	585.84
636.914	582.04
637.362	591.44
637.81	599.34
638.258	607.34
638.705	608.54
639.153	646.04
639.601	647.14
640.049	680.54
640.497	699.04
640.944	727.54
641.392	675.54
641.84	647.94
642.287	623.04
642.735	594.34
643.182	591.44
643.63	589.64
644.078	588.74
644.525	594.44
644.973	601.64
645.42	614.64
645.867	645.14
646.315	659.14
646.762	690.24
647.21	708.64
647.657	727.44
648.104	762.54
648.551	786.24
648.999	842.84
649.446	921.74
649.893	1005.14
650.34	1165.74
650.787	1389.44
651.234	1702.44
651.682	2205.24
652.129	2991.14
652.576	4273.44
653.023	6218.44
653.47	8343.24
653.917	10317.44
654.363	11752.04
654.81	12888.34
655.257	12205.44
655.704	8089.14
656.151	4881.64
656.598	3208.24
657.044	2309.74
657.491	1803.74
657.938	1440.24
658.385	1223.44
658.831	1077.74
659.278	961.24
659.724	861.44
660.171	796.44
660.618	727.64
661.064	694.74
661.511	684.74
661.957	669.04
662.404	655.84
662.85	658.14
663.296	649.74
663.743	578.94
664.189	552.94
664.635	549.74
665.082	544.24
665.528	548.84
665.974	541.24
666.42	538.44
666.867	522.74
667.313	507.34
667.759	491.64
668.205	478.44
668.651	471.74
669.097	465.94
669.543	471.54
669.989	472.84
670.435	466.34
670.881	466.74
671.327	475.94
671.773	505.44
672.219	512.34
672.665	580.24
673.11	614.34
673.556	678.24
674.002	706.84
674.448	690.24
674.893	582.34
675.339	501.54
675.785	466.24
676.23	448.94
676.676	421.84
677.122	401.54
677.567	394.84
678.013	388.74
678.458	377.54
678.904	384.64
679.349	362.94
679.794	374.74
680.24	382.14
680.685	362.54
681.131	366.94
681.576	374.44
682.021	376.04
682.466	373.44
682.912	360.84
683.357	374.04
683.802	403.94
684.247	442.54
684.692	482.84
685.137	531.64
685.583	571.34
686.028	585.04
686.473	552.94
686.918	480.04
687.363	442.04
687.807	423.94
688.252	389.24
688.697	376.74
689.142	356.04
689.587	348.14
690.032	341.84
690.477	365.74
690.921	372.44
691.366	402.44
691.811	425.34
692.255	457.64
692.7	490.34
693.145	550.14
693.589	769.54
694.034	1241.64
694.478	1684.34
694.923	1846.54
695.367	2383.84
695.812	1274.84
696.256	530.34
696.701	392.24
697.145	368.84
697.59	356.94
698.034	347.64
698.478	352.94
698.922	339.44
699.367	347.84
699.811	358.74
700.255	377.74
700.699	405.24
701.143	451.54
701.588	511.04
702.032	547.94
702.476	548.14
702.92	524.34
703.364	528.84
703.808	708.24
704.252	1149.24
704.696	1575.74
705.14	1782.74
705.584	2255.64
706.027	1130.14
706.471	555.94
706.915	427.54
707.359	382.24
707.803	340.04
708.246	330.04
708.69	326.04
709.134	330.14
709.577	333.54
710.021	335.24
710.465	321.04
710.908	312.94
711.352	315.44
711.795	326.34
712.239	375.04
712.682	405.14
713.126	444.94
713.569	482.64
714.012	380.34
714.456	322.54
714.899	316.74
715.342	286.74
715.786	271.34
716.229	274.64
716.672	268.04
717.115	261.54
717.558	280.94
718.002	273.64
718.445	271.84
718.888	304.64
719.331	316.14
719.774	327.74
720.217	325.04
720.66	306.24
721.103	282.64
721.546	273.04
721.989	254.34
722.432	254.14
722.874	255.84
723.317	245.54
723.76	247.04
724.203	278.94
724.645	346.94
725.088	491.74
725.531	612.44
725.974	676.44
726.416	581.04
726.859	325.44
727.301	266.64
727.744	254.24
728.187	251.94
728.629	251.34
729.071	261.74
729.514	277.84
729.956	290.14
730.399	297.44
730.841	302.64
731.283	295.44
731.726	291.14
732.168	273.34
732.61	283.64
733.053	304.54
733.495	348.84
733.937	384.94
734.379	432.84
734.821	473.84
735.263	599.64
735.705	940.54
736.148	1761.64
736.59	2822.14
737.032	3229.94
737.474	2653.14
737.916	882.34
738.357	463.44
738.799	352.74
739.241	320.14
739.683	296.74
740.125	315.74
740.567	325.64
741.008	342.74
741.45	338.34
741.892	341.74
742.334	376.44
742.775	380.64
743.217	363.24
743.658	288.34
744.1	280.84
744.542	287.04
744.983	339.94
745.425	379.34
745.866	367.64
746.307	303.14
746.749	295.84
747.19	358.34
747.632	503.24
748.073	1009.34
748.514	2098.74
748.956	3082.44
749.397	3885.24
749.838	3219.04
750.279	3135.84
750.72	1613.74
751.162	594.94
751.603	346.14
752.044	270.64
752.485	239.34
752.926	221.44
753.367	220.84
753.808	211.14
754.249	200.64
754.69	198.94
755.131	199.84
755.572	195.44
756.013	186.24
756.453	202.14
756.894	204.84
757.335	205.64
757.776	204.94
758.216	208.54
758.657	205.84
759.098	220.14
759.538	250.84
759.979	293.74
760.42	417.34
760.86	801.84
761.301	2107.84
761.741	4925.84
762.182	6787.14
762.622	4806.74
763.063	1438.94
