Data from 20171114-ORNL-Ar_H_NY_Subt18_08-04-24-446.txt Node
Date: Tue Nov 14 08:04:24 EST 2017
User: Ender
Spectrometer: HR+D1039
Trigger mode: 0
Integration Time (sec): 2.730000E-2
Scans to average: 10
Electric dark correction enabled: true
Nonlinearity correction enabled: false
Boxcar width: 0
XAxis mode: Wavelengths
Number of Pixels in Spectrum: 2048
>>>>>Begin Spectral Data<<<<<
187.836	-6.76
188.309	-6.76
188.782	-6.76
189.255	-0.16
189.728	-1.46
190.201	6.34
190.674	-2.26
191.147	2.84
191.619	-6.76
192.092	0.74
192.565	4.74
193.038	1.44
193.511	3.04
193.984	-0.76
194.456	-1.26
194.929	-0.76
195.402	-5.16
195.874	6.14
196.347	0.04
196.82	-6.76
197.292	4.54
197.765	2.54
198.237	-10.96
198.71	1.64
199.182	-2.36
199.655	4.54
200.127	3.34
200.6	0.44
201.072	-3.26
201.544	-4.16
202.017	-1.36
202.489	6.54
202.961	0.04
203.433	-6.66
203.906	-3.66
204.378	-5.66
204.85	-3.26
205.322	-8.16
205.794	-4.26
206.266	-1.06
206.739	-7.26
207.211	1.84
207.683	-11.46
208.155	-6.66
208.627	-6.36
209.099	-3.76
209.57	-9.96
210.042	-2.46
210.514	1.24
210.986	-4.46
211.458	-8.16
211.93	-1.66
212.402	3.04
212.873	-8.16
213.345	-9.06
213.817	-6.76
214.288	0.14
214.76	-9.36
215.232	-2.86
215.703	-4.76
216.175	-5.56
216.646	-10.26
217.118	-10.46
217.589	-2.16
218.061	-0.06
218.532	-9.66
219.004	-5.16
219.475	-0.56
219.946	-4.16
220.418	-6.26
220.889	6.74
221.36	2.24
221.832	-4.86
222.303	-5.56
222.774	2.94
223.245	-6.46
223.717	-7.16
224.188	0.24
224.659	-7.96
225.13	-1.36
225.601	-6.36
226.072	-3.56
226.543	0.64
227.014	-2.66
227.485	0.24
227.956	-3.16
228.427	-3.76
228.898	4.54
229.369	3.04
229.839	-9.16
230.31	-6.66
230.781	4.44
231.252	2.14
231.722	-2.76
232.193	2.04
232.664	0.74
233.135	9.04
233.605	0.64
234.076	1.04
234.546	5.24
235.017	7.04
235.487	6.34
235.958	2.04
236.428	-3.26
236.899	3.54
237.369	5.94
237.84	-2.46
238.31	8.34
238.78	3.64
239.251	-2.16
239.721	5.64
240.191	4.04
240.662	-1.36
241.132	1.94
241.602	-4.06
242.072	3.44
242.542	9.04
243.013	2.74
243.483	6.84
243.953	0.74
244.423	3.64
244.893	-4.26
245.363	5.04
245.833	8.74
246.303	2.14
246.773	6.14
247.243	4.04
247.712	4.84
248.182	6.84
248.652	10.14
249.122	-2.06
249.592	18.74
250.061	19.74
250.531	33.84
251.001	19.14
251.471	21.54
251.94	20.44
252.41	9.94
252.879	0.04
253.349	14.64
253.818	13.04
254.288	6.34
254.757	1.14
255.227	6.64
255.696	3.14
256.166	9.74
256.635	3.74
257.105	9.74
257.574	5.14
258.043	10.44
258.513	13.14
258.982	19.24
259.451	13.34
259.92	21.84
260.389	12.74
260.859	16.34
261.328	12.34
261.797	14.44
262.266	10.44
262.735	16.34
263.204	8.74
263.673	5.04
264.142	10.54
264.611	-0.96
265.08	9.94
265.549	5.64
266.018	4.84
266.487	2.44
266.955	-4.86
267.424	1.14
267.893	3.64
268.362	1.74
268.83	3.54
269.299	17.74
269.768	8.14
270.236	10.54
270.705	7.64
271.174	9.54
271.642	9.44
272.111	13.84
272.579	21.74
273.048	23.54
273.516	29.54
273.985	22.84
274.453	22.34
274.922	18.64
275.39	11.54
275.858	3.54
276.327	12.64
276.795	19.54
277.263	9.94
277.731	28.94
278.2	50.24
278.668	64.84
279.136	47.34
279.604	17.34
280.072	17.84
280.54	11.54
281.008	12.34
281.477	18.54
281.945	10.74
282.413	18.14
282.881	17.84
283.348	9.74
283.816	15.34
284.284	14.54
284.752	21.94
285.22	21.04
285.688	16.64
286.156	19.14
286.623	38.14
287.091	50.34
287.559	31.34
288.026	16.94
288.494	15.14
288.962	10.74
289.429	17.04
289.897	21.44
290.364	19.44
290.832	21.94
291.3	16.74
291.767	18.34
292.234	18.14
292.702	16.74
293.169	14.04
293.637	26.64
294.104	23.64
294.571	13.54
295.039	12.84
295.506	13.54
295.973	16.54
296.44	11.94
296.908	18.54
297.375	17.94
297.842	18.14
298.309	21.34
298.776	10.54
299.243	18.64
299.71	15.24
300.177	26.24
300.644	29.14
301.111	24.54
301.578	20.54
302.045	21.44
302.512	24.04
302.979	27.24
303.446	21.94
303.913	18.34
304.379	22.04
304.846	22.94
305.313	28.84
305.78	21.64
306.246	25.54
306.713	24.24
307.18	24.44
307.646	27.44
308.113	32.74
308.579	21.44
309.046	28.34
309.512	26.34
309.979	13.74
310.445	31.04
310.912	28.14
311.378	36.94
311.845	28.34
312.311	25.84
312.777	32.34
313.244	31.34
313.71	34.04
314.176	26.14
314.642	33.84
315.109	31.94
315.575	41.04
316.041	38.54
316.507	29.64
316.973	40.04
317.439	30.44
317.905	39.44
318.371	35.24
318.837	33.84
319.303	34.34
319.769	37.04
320.235	42.04
320.701	37.64
321.167	40.44
321.633	30.94
322.099	40.24
322.564	43.24
323.03	34.84
323.496	35.34
323.962	35.64
324.427	34.94
324.893	41.94
325.359	38.44
325.824	34.44
326.29	38.44
326.755	36.94
327.221	36.74
327.686	35.74
328.152	49.24
328.617	37.94
329.083	49.34
329.548	47.44
330.014	52.04
330.479	40.34
330.944	40.84
331.41	39.44
331.875	43.44
332.34	43.34
332.805	45.14
333.271	51.04
333.736	45.84
334.201	45.74
334.666	54.74
335.131	52.04
335.596	48.14
336.061	45.44
336.526	41.54
336.991	44.84
337.456	59.34
337.921	51.54
338.386	45.34
338.851	45.74
339.316	44.84
339.781	41.84
340.246	49.04
340.711	40.54
341.175	51.44
341.64	40.84
342.105	51.14
342.569	53.84
343.034	57.34
343.499	56.54
343.963	53.44
344.428	66.04
344.893	62.14
345.357	62.74
345.822	53.64
346.286	60.14
346.751	71.64
347.215	62.04
347.679	72.94
348.144	93.94
348.608	78.14
349.073	71.04
349.537	67.84
350.001	78.04
350.465	80.34
350.93	80.14
351.394	71.94
351.858	66.34
352.322	81.64
352.786	76.24
353.25	94.44
353.715	103.34
354.179	100.34
354.643	112.54
355.107	121.74
355.571	103.74
356.035	97.74
356.498	108.24
356.962	114.44
357.426	122.94
357.89	108.74
358.354	84.54
358.818	80.14
359.281	72.94
359.745	73.54
360.209	74.04
360.673	72.94
361.136	68.34
361.6	85.04
362.064	75.64
362.527	77.34
362.991	82.34
363.454	72.14
363.918	73.34
364.381	72.64
364.845	82.84
365.308	83.34
365.772	86.84
366.235	81.84
366.698	78.34
367.162	76.64
367.625	80.54
368.088	79.04
368.552	81.84
369.015	86.04
369.478	92.84
369.941	91.24
370.404	88.64
370.867	99.54
371.331	92.24
371.794	102.24
372.257	98.74
372.72	104.04
373.183	98.94
373.646	96.84
374.109	94.34
374.572	97.34
375.035	96.64
375.497	103.34
375.96	96.84
376.423	99.84
376.886	96.84
377.349	99.94
377.811	96.44
378.274	92.04
378.737	94.04
379.199	101.04
379.662	103.24
380.125	115.64
380.587	109.74
381.05	109.64
381.512	118.94
381.975	125.64
382.437	119.34
382.9	117.14
383.362	118.94
383.825	122.74
384.287	136.84
384.75	129.44
385.212	128.34
385.674	129.34
386.136	131.74
386.599	114.24
387.061	112.74
387.523	118.54
387.985	127.64
388.447	137.04
388.91	131.04
389.372	138.94
389.834	136.04
390.296	127.74
390.758	144.14
391.22	152.74
391.682	188.74
392.144	264.74
392.606	202.44
393.068	144.14
393.529	153.64
393.991	136.44
394.453	137.64
394.915	140.74
395.377	176.24
395.838	192.74
396.3	139.44
396.762	122.04
397.224	122.04
397.685	120.74
398.147	120.14
398.608	125.44
399.07	109.84
399.531	126.64
399.993	130.84
400.454	135.34
400.916	128.84
401.377	135.64
401.839	139.74
402.3	132.14
402.762	148.14
403.223	172.04
403.684	159.34
404.145	149.14
404.607	148.14
405.068	148.94
405.529	158.34
405.99	167.44
406.451	162.04
406.913	163.64
407.374	146.34
407.835	146.34
408.296	154.54
408.757	154.64
409.218	164.74
409.679	160.84
410.14	156.14
410.601	164.34
411.062	164.64
411.522	176.34
411.983	168.84
412.444	166.64
412.905	171.94
413.366	166.04
413.826	176.44
414.287	193.64
414.748	238.74
415.208	229.24
415.669	191.54
416.13	186.74
416.59	188.14
417.051	191.44
417.511	205.44
417.972	209.04
418.432	219.54
418.893	260.44
419.353	231.44
419.814	175.84
420.274	169.34
420.734	165.64
421.195	178.84
421.655	177.84
422.115	171.54
422.576	176.04
423.036	174.14
423.496	186.94
423.956	198.24
424.416	209.44
424.876	243.04
425.336	241.74
425.797	239.54
426.257	226.64
426.717	213.54
427.177	210.44
427.637	199.34
428.097	214.94
428.556	220.54
429.016	246.24
429.476	244.44
429.936	249.44
430.396	247.44
430.856	262.84
431.315	279.24
431.775	309.04
432.235	334.94
432.694	317.34
433.154	321.74
433.614	348.44
434.073	296.54
434.533	261.34
434.993	240.84
435.452	254.34
435.912	260.64
436.371	250.64
436.83	250.44
437.29	239.04
437.749	224.74
438.209	216.64
438.668	242.24
439.127	260.34
439.587	235.24
440.046	226.54
440.505	232.94
440.964	246.74
441.424	282.04
441.883	274.64
442.342	232.24
442.801	198.44
443.26	196.94
443.719	206.14
444.178	199.54
444.637	199.24
445.096	197.44
445.555	213.54
446.014	203.54
446.473	200.64
446.932	207.04
447.391	203.44
447.849	202.74
448.308	201.34
448.767	201.64
449.226	222.04
449.685	223.14
450.143	222.74
450.602	218.34
451.061	210.74
451.519	207.84
451.978	215.64
452.436	214.44
452.895	213.74
453.353	225.84
453.812	216.04
454.27	213.14
454.729	221.64
455.187	219.64
455.646	226.04
456.104	227.94
456.562	231.24
457.021	238.64
457.479	240.84
457.937	234.94
458.395	236.24
458.854	221.14
459.312	216.34
459.77	234.64
460.228	231.74
460.686	224.34
461.144	223.74
461.602	221.34
462.06	220.04
462.518	230.74
462.976	233.04
463.434	232.94
463.892	243.44
464.35	252.94
464.808	265.74
465.266	245.64
465.724	245.04
466.181	248.04
466.639	242.84
467.097	268.04
467.555	271.44
468.012	276.94
468.47	277.94
468.928	302.24
469.385	310.94
469.843	316.74
470.3	310.04
470.758	327.74
471.215	344.54
471.673	362.64
472.13	353.54
472.588	374.64
473.045	340.74
473.503	345.74
473.96	353.64
474.417	368.74
474.875	391.44
475.332	419.24
475.789	411.94
476.246	418.24
476.704	438.64
477.161	455.54
477.618	470.94
478.075	505.64
478.532	552.44
478.989	614.74
479.446	708.54
479.903	698.34
480.36	731.14
480.817	773.14
481.274	884.04
481.731	974.54
482.188	1045.04
482.645	1169.94
483.102	1265.64
483.558	1396.14
484.015	1438.34
484.472	1420.44
484.929	1371.44
485.385	1330.34
485.842	1295.14
486.299	1236.84
486.755	1167.04
487.212	977.14
487.668	840.44
488.125	764.94
488.582	710.04
489.038	674.74
489.494	642.64
489.951	617.94
490.407	611.14
490.864	590.24
491.32	579.64
491.776	586.94
492.233	586.04
492.689	553.44
493.145	550.34
493.602	542.34
494.058	556.04
494.514	557.44
494.97	575.04
495.426	581.34
495.882	565.74
496.338	557.04
496.794	561.64
497.251	555.64
497.707	581.04
498.163	577.04
498.618	590.74
499.074	586.14
499.53	614.74
499.986	611.34
500.442	591.94
500.898	573.74
501.354	569.74
501.809	578.74
502.265	585.54
502.721	600.44
503.177	601.54
503.632	606.84
504.088	602.14
504.543	647.04
504.999	642.24
505.455	590.74
505.91	568.44
506.366	572.94
506.821	563.24
507.277	567.04
507.732	566.74
508.187	557.64
508.643	561.94
509.098	572.74
509.553	584.04
510.009	600.24
510.464	604.04
510.919	626.54
511.375	622.94
511.83	650.64
512.285	649.34
512.74	681.84
513.195	708.74
513.65	701.04
514.105	706.94
514.56	704.44
515.015	722.64
515.47	733.24
515.925	718.74
516.38	717.54
516.835	726.94
517.29	702.64
517.745	701.64
518.2	683.94
518.655	676.64
519.109	674.24
519.564	672.24
520.019	671.74
520.474	654.94
520.928	667.64
521.383	652.74
521.838	646.14
522.292	646.14
522.747	633.54
523.201	630.74
523.656	625.14
524.11	622.44
524.565	616.84
525.019	621.34
525.474	636.04
525.928	632.14
526.382	627.14
526.837	624.04
527.291	624.14
527.745	634.94
528.2	628.94
528.654	623.74
529.108	618.34
529.562	619.94
530.016	615.14
530.47	621.24
530.925	627.34
531.379	623.14
531.833	630.84
532.287	626.04
532.741	636.54
533.195	637.44
533.649	641.24
534.103	646.74
534.556	641.04
535.01	643.54
535.464	633.04
535.918	646.74
536.372	652.84
536.826	645.24
537.279	634.24
537.733	634.74
538.187	640.04
538.64	640.14
539.094	641.24
539.548	648.24
540.001	647.04
540.455	646.54
540.908	644.44
541.362	657.34
541.815	661.24
542.269	677.84
542.722	673.24
543.175	690.34
543.629	689.74
544.082	710.04
544.536	701.04
544.989	698.24
545.442	704.64
545.895	707.54
546.349	694.64
546.802	696.54
547.255	708.24
547.708	716.04
548.161	740.64
548.614	735.34
549.067	738.34
549.52	735.94
549.973	722.94
550.426	722.84
550.879	701.04
551.332	713.44
551.785	717.44
552.238	715.64
552.691	729.04
553.144	738.34
553.596	760.24
554.049	765.84
554.502	800.74
554.955	817.04
555.407	811.14
555.86	803.04
556.313	791.44
556.765	779.14
557.218	772.84
557.67	785.74
558.123	772.14
558.576	770.54
559.028	780.64
559.48	782.04
559.933	770.54
560.385	738.94
560.838	719.94
561.29	692.24
561.742	686.74
562.195	672.14
562.647	673.14
563.099	689.24
563.551	678.64
564.004	689.74
564.456	681.24
564.908	677.14
565.36	653.94
565.812	643.54
566.264	632.04
566.716	629.04
567.168	625.04
567.62	637.54
568.072	614.94
568.524	609.94
568.976	610.04
569.428	585.84
569.88	584.84
570.332	598.24
570.784	599.84
571.235	598.14
571.687	608.54
572.139	617.14
572.59	621.24
573.042	631.84
573.494	624.44
573.945	613.14
574.397	602.04
574.849	606.84
575.3	608.14
575.752	605.04
576.203	598.34
576.655	587.94
577.106	586.14
577.557	581.14
578.009	588.04
578.46	587.24
578.912	578.94
579.363	576.84
579.814	565.24
580.265	575.34
580.717	583.44
581.168	577.54
581.619	588.54
582.07	590.84
582.521	586.64
582.972	581.24
583.423	579.44
583.875	588.84
584.326	607.54
584.777	631.54
585.227	709.04
585.678	769.44
586.129	856.34
586.58	928.14
587.031	989.94
587.482	1139.34
587.933	1273.64
588.384	1113.64
588.834	836.34
589.285	699.14
589.736	674.44
590.186	667.74
590.637	658.64
591.088	639.34
591.538	636.04
591.989	626.04
592.439	624.34
592.89	615.94
593.34	619.64
593.791	610.84
594.241	598.04
594.692	610.74
595.142	609.04
595.593	594.84
596.043	599.14
596.493	611.44
596.943	612.24
597.394	615.54
597.844	610.74
598.294	627.94
598.744	648.14
599.195	671.64
599.645	696.34
600.095	726.64
600.545	779.54
600.995	823.14
601.445	878.74
601.895	932.84
602.345	969.94
602.795	954.04
603.245	917.54
603.695	864.54
604.145	816.94
604.594	783.94
605.044	741.84
605.494	679.34
605.944	642.04
606.393	628.14
606.843	615.74
607.293	631.34
607.743	624.14
608.192	625.44
608.642	641.34
609.091	645.64
609.541	658.74
609.99	649.54
610.44	643.44
610.889	609.04
611.339	587.14
611.788	584.44
612.238	595.14
612.687	607.74
613.136	607.94
613.586	619.64
614.035	624.84
614.484	641.94
614.933	646.44
615.383	634.64
615.832	618.74
616.281	607.34
616.73	579.24
617.179	565.94
617.628	546.64
618.077	535.14
618.526	522.04
618.975	528.24
619.424	521.14
619.873	508.44
620.322	522.24
620.771	506.94
621.22	512.34
621.669	507.44
622.118	493.64
622.567	487.14
623.015	473.24
623.464	477.74
623.913	473.94
624.361	461.74
624.81	463.54
625.259	458.94
625.707	473.24
626.156	471.84
626.604	479.74
627.053	468.94
627.501	471.84
627.95	475.54
628.398	489.04
628.847	483.04
629.295	469.84
629.744	481.14
630.192	480.64
630.64	473.44
631.089	473.14
631.537	476.94
631.985	477.04
632.433	493.84
632.881	495.94
633.33	537.54
633.778	525.64
634.226	468.74
634.674	479.34
635.122	478.94
635.57	491.94
636.018	527.14
636.466	488.94
636.914	461.04
637.362	472.64
637.81	480.04
638.258	481.94
638.705	481.94
639.153	509.44
639.601	515.54
640.049	530.44
640.497	547.14
640.944	576.54
641.392	537.14
641.84	507.74
642.287	491.54
642.735	470.34
643.182	466.44
643.63	473.74
644.078	484.04
644.525	491.54
644.973	496.64
645.42	502.14
645.867	515.34
646.315	522.64
646.762	543.64
647.21	580.34
647.657	592.54
648.104	619.44
648.551	641.74
648.999	687.14
649.446	748.04
649.893	828.74
650.34	951.14
650.787	1130.14
651.234	1395.14
651.682	1825.84
652.129	2470.14
652.576	3532.74
653.023	5248.14
653.47	7228.04
653.917	9164.34
654.363	10775.94
654.81	12135.24
655.257	11567.64
655.704	7503.04
656.151	4392.74
656.598	2859.64
657.044	2022.34
657.491	1543.94
657.938	1244.34
658.385	1040.54
658.831	898.84
659.278	799.54
659.724	702.84
660.171	650.14
660.618	593.14
661.064	563.04
661.511	543.94
661.957	537.64
662.404	522.94
662.85	525.74
663.296	504.14
663.743	458.44
664.189	433.24
664.635	440.14
665.082	425.54
665.528	424.74
665.974	426.84
666.42	418.54
666.867	419.74
667.313	399.44
667.759	396.84
668.205	390.44
668.651	405.54
669.097	393.54
669.543	412.74
669.989	387.74
670.435	368.74
670.881	361.24
671.327	367.84
671.773	382.54
672.219	395.54
672.665	440.94
673.11	478.44
673.556	514.04
674.002	549.04
674.448	539.34
674.893	460.24
675.339	397.64
675.785	362.14
676.23	334.04
676.676	321.24
677.122	308.94
677.567	300.34
678.013	301.64
678.458	297.14
678.904	290.24
679.349	276.64
679.794	285.84
680.24	287.84
680.685	283.84
681.131	279.74
681.576	286.04
682.021	289.04
682.466	285.74
682.912	282.74
683.357	286.24
683.802	303.64
684.247	332.44
684.692	360.64
685.137	399.84
685.583	443.94
686.028	461.14
686.473	421.24
686.918	366.34
687.363	339.94
687.807	317.64
688.252	296.74
688.697	281.84
689.142	268.34
689.587	274.44
690.032	265.44
690.477	281.14
690.921	284.14
691.366	307.54
691.811	327.34
692.255	355.34
692.7	387.64
693.145	401.14
693.589	539.94
694.034	890.24
694.478	1227.84
694.923	1439.94
695.367	1923.94
695.812	984.34
696.256	404.04
696.701	296.44
697.145	281.94
697.59	267.84
698.034	260.74
698.478	263.54
698.922	263.84
699.367	264.84
699.811	270.14
700.255	286.14
700.699	312.64
701.143	348.64
701.588	389.24
702.032	423.74
702.476	419.74
702.92	398.24
703.364	391.94
703.808	502.54
704.252	812.74
704.696	1155.74
705.14	1378.64
705.584	1789.24
706.027	877.64
706.471	433.34
706.915	324.34
707.359	284.64
707.803	263.54
708.246	247.64
708.69	252.94
709.134	258.64
709.577	256.34
710.021	265.14
710.465	241.44
710.908	239.54
711.352	239.84
711.795	252.24
712.239	284.84
712.682	308.54
713.126	334.94
713.569	381.24
714.012	303.34
714.456	258.44
714.899	239.84
715.342	223.14
715.786	213.24
716.229	213.84
716.672	206.74
717.115	199.04
717.558	203.14
718.002	204.84
718.445	209.84
718.888	225.24
719.331	233.24
719.774	249.24
720.217	244.64
720.66	232.64
721.103	214.94
721.546	207.04
721.989	205.14
722.432	183.84
722.874	194.24
723.317	190.74
723.76	192.94
724.203	211.64
724.645	252.74
725.088	348.44
725.531	457.74
725.974	531.94
726.416	449.94
726.859	249.84
727.301	187.24
727.744	187.64
728.187	191.94
728.629	194.34
729.071	195.14
729.514	208.44
729.956	214.94
730.399	225.94
730.841	239.34
731.283	216.64
731.726	218.64
732.168	213.64
732.61	210.44
733.053	226.74
733.495	251.24
733.937	283.34
734.379	320.64
734.821	347.34
735.263	435.04
735.705	652.24
736.148	1218.04
736.59	2053.94
737.032	2553.34
737.474	2073.94
737.916	660.04
738.357	342.84
738.799	262.24
739.241	231.64
739.683	226.24
740.125	236.24
740.567	242.34
741.008	257.24
741.45	267.54
741.892	257.74
742.334	282.84
742.775	295.04
743.217	282.34
743.658	219.94
744.1	203.94
744.542	209.24
744.983	253.94
745.425	283.74
745.866	284.84
746.307	229.44
746.749	232.34
747.19	257.04
747.632	361.84
748.073	679.64
748.514	1454.94
748.956	2319.04
749.397	2903.44
749.838	2405.84
750.279	2473.64
750.72	1236.14
751.162	448.94
751.603	254.54
752.044	209.24
752.485	177.04
752.926	176.04
753.367	166.54
753.808	151.84
754.249	148.84
754.69	152.14
755.131	153.84
755.572	143.24
756.013	144.24
756.453	149.14
756.894	145.64
757.335	147.44
757.776	155.14
758.216	155.74
758.657	155.14
759.098	158.54
759.538	181.14
759.979	214.64
760.42	295.24
760.86	546.04
761.301	1416.04
761.741	3504.34
762.182	5444.04
762.622	3840.84
763.063	1079.54
763.503	440.24
