Data from 20171114-ORNL-Ar_H_NY_Subt18_08-07-59-551.txt Node
Date: Tue Nov 14 08:07:59 EST 2017
User: Ender
Spectrometer: HR+D1039
Trigger mode: 0
Integration Time (sec): 2.730000E-2
Scans to average: 10
Electric dark correction enabled: true
Nonlinearity correction enabled: false
Boxcar width: 0
XAxis mode: Wavelengths
Number of Pixels in Spectrum: 2048
>>>>>Begin Spectral Data<<<<<
187.836	-1.7
188.309	-1.7
188.782	-1.7
189.255	4.2
189.728	-1.7
190.201	5.3
190.674	3.4
191.147	4
191.619	-9.8
192.092	1.1
192.565	2.9
193.038	-2.7
193.511	2.9
193.984	-0.2
194.456	-0.2
194.929	-0.3
195.402	-2.1
195.874	-5.1
196.347	1.6
196.82	-5.2
197.292	7.1
197.765	-1.7
198.237	-2.8
198.71	2.7
199.182	0.7
199.655	3.3
200.127	7.3
200.6	1.7
201.072	0.6
201.544	-0.6
202.017	2.6
202.489	3
202.961	-0.3
203.433	-4.8
203.906	0
204.378	-4.4
204.85	2.7
205.322	-9.8
205.794	1.9
206.266	-4.6
206.739	-11.7
207.211	1.3
207.683	-6.1
208.155	-2
208.627	-6.4
209.099	-1.8
209.57	-7.8
210.042	-6.4
210.514	-0.5
210.986	1.2
211.458	-12.4
211.93	-9.8
212.402	2.7
212.873	-4
213.345	-14.3
213.817	-11
214.288	-0.8
214.76	-10
215.232	-3.3
215.703	-6
216.175	-0
216.646	-5.2
217.118	-4.7
217.589	-5.7
218.061	-3.4
218.532	-1.6
219.004	-0.7
219.475	-3.8
219.946	-5.1
220.418	-0.2
220.889	5.5
221.36	2
221.832	-4.4
222.303	-7.1
222.774	4.1
223.245	-4.9
223.717	-4.1
224.188	-2.4
224.659	-4.1
225.13	-7.1
225.601	-0.4
226.072	-1.5
226.543	-2.7
227.014	-3.4
227.485	-0
227.956	-6
228.427	-2.4
228.898	2.5
229.369	0.5
229.839	1.4
230.31	-5.3
230.781	3.6
231.252	-0.7
231.722	-1.9
232.193	-2
232.664	0.7
233.135	1.1
233.605	1.5
234.076	-3.4
234.546	-2.3
235.017	3.4
235.487	-1.6
235.958	-0.4
236.428	-7.6
236.899	1
237.369	7.8
237.84	2.9
238.31	7.1
238.78	0.6
239.251	-1.3
239.721	-0.4
240.191	1.5
240.662	-3
241.132	0.7
241.602	2.9
242.072	0.7
242.542	10.4
243.013	0.2
243.483	3.3
243.953	-0.2
244.423	1.9
244.893	0.3
245.363	6.7
245.833	5.3
246.303	-2.3
246.773	9.1
247.243	8.1
247.712	6.7
248.182	13.6
248.652	9
249.122	-1.2
249.592	15.1
250.061	27
250.531	38.7
251.001	15.3
251.471	21.3
251.94	19.8
252.41	3.6
252.879	-1.7
253.349	12.8
253.818	9.3
254.288	7.8
254.757	8.6
255.227	1.6
255.696	2.8
256.166	7.6
256.635	11.7
257.105	6.7
257.574	6.1
258.043	8.6
258.513	11.2
258.982	12
259.451	3.8
259.92	16.8
260.389	12.3
260.859	17.5
261.328	13.9
261.797	22
262.266	7.7
262.735	9
263.204	4.8
263.673	-3.7
264.142	7.3
264.611	-6.8
265.08	-2.2
265.549	-0.2
266.018	10.9
266.487	4.1
266.955	-2.3
267.424	5.4
267.893	6.9
268.362	2.5
268.83	8.7
269.299	14.6
269.768	5.7
270.236	8.1
270.705	4.6
271.174	3.3
271.642	11.6
272.111	6.5
272.579	14.9
273.048	21.6
273.516	32.2
273.985	28
274.453	24.4
274.922	17.6
275.39	12
275.858	-2.9
276.327	15.8
276.795	14.7
277.263	7.4
277.731	31.5
278.2	52.9
278.668	59.2
279.136	44.5
279.604	21.2
280.072	14.3
280.54	4.1
281.008	7.2
281.477	13.1
281.945	12.2
282.413	13.7
282.881	10.8
283.348	6.2
283.816	15.3
284.284	11.2
284.752	20.7
285.22	12.1
285.688	19
286.156	23.3
286.623	39.8
287.091	49.1
287.559	30.5
288.026	18.2
288.494	13.9
288.962	9
289.429	10.6
289.897	17
290.364	16.3
290.832	17.4
291.3	15.9
291.767	17.7
292.234	17
292.702	15.1
293.169	22.2
293.637	29.1
294.104	24.8
294.571	15.4
295.039	19.9
295.506	16.8
295.973	15.2
296.44	19.2
296.908	23.7
297.375	21.4
297.842	16.2
298.309	17.4
298.776	13.7
299.243	19.4
299.71	16
300.177	20
300.644	20.6
301.111	20.3
301.578	25.3
302.045	20.8
302.512	23.5
302.979	18.8
303.446	23.7
303.913	17
304.379	11.3
304.846	31.9
305.313	25.4
305.78	22.3
306.246	18.6
306.713	22.1
307.18	25.6
307.646	29.1
308.113	25.8
308.579	25.9
309.046	29.1
309.512	28.7
309.979	17
310.445	29.2
310.912	31.9
311.378	30.3
311.845	32.7
312.311	31
312.777	30.3
313.244	29.4
313.71	37
314.176	31.4
314.642	29
315.109	33.8
315.575	38.5
316.041	35.6
316.507	40
316.973	36.9
317.439	34.4
317.905	37
318.371	36.3
318.837	33.1
319.303	34.2
319.769	35
320.235	29.7
320.701	35.1
321.167	42.2
321.633	36.3
322.099	43
322.564	46.7
323.03	45.9
323.496	41.2
323.962	39.8
324.427	43.7
324.893	44.5
325.359	40.8
325.824	35.6
326.29	31.7
326.755	36
327.221	39.9
327.686	39.1
328.152	46.1
328.617	43
329.083	39.4
329.548	45.7
330.014	48.7
330.479	36.4
330.944	42.8
331.41	41.7
331.875	49.9
332.34	43.9
332.805	41.7
333.271	44.3
333.736	45.3
334.201	54.7
334.666	54.2
335.131	54.7
335.596	52.7
336.061	50.5
336.526	37.8
336.991	48.3
337.456	59.2
337.921	48.5
338.386	41.2
338.851	48.5
339.316	50.5
339.781	41.9
340.246	55.9
340.711	51.9
341.175	52.4
341.64	41.2
342.105	53
342.569	53.3
343.034	57.6
343.499	57
343.963	58.4
344.428	61
344.893	64.8
345.357	61.7
345.822	63.8
346.286	65.6
346.751	78.4
347.215	67.1
347.679	73
348.144	91
348.608	75.7
349.073	62.8
349.537	70.5
350.001	79.7
350.465	85.8
350.93	78.6
351.394	82.5
351.858	75.2
352.322	87.1
352.786	88.2
353.25	99.4
353.715	108.5
354.179	97.4
354.643	126.6
355.107	117.2
355.571	103.5
356.035	109.1
356.498	119.4
356.962	129.5
357.426	133.9
357.89	113.3
358.354	86.5
358.818	83.4
359.281	79.6
359.745	76.3
360.209	75.1
360.673	82.7
361.136	78.6
361.6	83.4
362.064	83.2
362.527	84.2
362.991	92.8
363.454	77.5
363.918	78.5
364.381	74.4
364.845	84.9
365.308	85.7
365.772	91.9
366.235	88.7
366.698	86.5
367.162	86.1
367.625	96.1
368.088	82.8
368.552	93.4
369.015	84.9
369.478	95.5
369.941	98.7
370.404	95.6
370.867	107.9
371.331	114.4
371.794	114.6
372.257	115.7
372.72	117.2
373.183	110.8
373.646	102
374.109	96.9
374.572	107.5
375.035	104.8
375.497	117.2
375.96	104.8
376.423	106.5
376.886	116
377.349	108
377.811	103.6
378.274	108.1
378.737	110
379.199	116.5
379.662	114.5
380.125	118.9
380.587	119.6
381.05	126.9
381.512	131.9
381.975	139.4
382.437	131.3
382.9	130.5
383.362	136.1
383.825	143.4
384.287	152.2
384.75	143.8
385.212	146.3
385.674	148.1
386.136	139.4
386.599	130.6
387.061	130.9
387.523	136.3
387.985	139.7
388.447	151.6
388.91	147.1
389.372	160
389.834	151.8
390.296	141.7
390.758	157.8
391.22	169.5
391.682	213.7
392.144	308.6
392.606	235.6
393.068	171.8
393.529	171.3
393.991	156.8
394.453	152.6
394.915	158.9
395.377	200.5
395.838	221.4
396.3	161.5
396.762	138.6
397.224	140.3
397.685	134
398.147	133.2
398.608	129.3
399.07	129.7
399.531	137.2
399.993	148.7
400.454	156.3
400.916	151
401.377	153.1
401.839	155.1
402.3	152.7
402.762	166.5
403.223	182.7
403.684	176
404.145	168.9
404.607	166.8
405.068	167
405.529	174.3
405.99	192
406.451	181.1
406.913	178
407.374	168.7
407.835	162.7
408.296	166.3
408.757	174.4
409.218	193.4
409.679	183.6
410.14	177.3
410.601	181
411.062	183.4
411.522	196.8
411.983	197.6
412.444	177.7
412.905	180.6
413.366	184.1
413.826	202.4
414.287	218
414.748	262.5
415.208	246.3
415.669	216.9
416.13	208.3
416.59	201.1
417.051	217.4
417.511	220.4
417.972	244.4
418.432	247.9
418.893	296.1
419.353	255.3
419.814	201.5
420.274	174.7
420.734	183.8
421.195	202
421.655	201.7
422.115	198.3
422.576	198.4
423.036	208.1
423.496	209.2
423.956	222.6
424.416	233.3
424.876	269.8
425.336	262.1
425.797	269.5
426.257	264.3
426.717	249.4
427.177	239.8
427.637	227.5
428.097	237.3
428.556	252.4
429.016	276.4
429.476	264
429.936	284.8
430.396	288.2
430.856	295.9
431.315	316.1
431.775	363.4
432.235	390.5
432.694	354.6
433.154	373.1
433.614	403.8
434.073	342.8
434.533	291.7
434.993	272.4
435.452	296.7
435.912	303.5
436.371	294.8
436.83	290
437.29	279.9
437.749	258.9
438.209	253
438.668	275.4
439.127	293.7
439.587	265.7
440.046	250.6
440.505	267.6
440.964	291.3
441.424	330.7
441.883	317
442.342	261.1
442.801	228.8
443.26	227.6
443.719	232.7
444.178	222.1
444.637	212.9
445.096	222.3
445.555	226.6
446.014	228.3
446.473	233.7
446.932	242.5
447.391	228.6
447.849	231.4
448.308	225
448.767	222.4
449.226	240
449.685	240.9
450.143	258.1
450.602	240.2
451.061	232.8
451.519	236.8
451.978	232.8
452.436	238
452.895	243.2
453.353	263.4
453.812	249.6
454.27	246.6
454.729	243.7
455.187	242.5
455.646	244.8
456.104	255.2
456.562	267
457.021	271.5
457.479	258
457.937	276
458.395	266.8
458.854	256.6
459.312	252
459.77	276.2
460.228	269.2
460.686	246.9
461.144	252.9
461.602	247.4
462.06	245.7
462.518	259.2
462.976	253.9
463.434	263.6
463.892	261.8
464.35	279
464.808	299
465.266	267.2
465.724	270.2
466.181	276.9
466.639	274.2
467.097	286
467.555	300.4
468.012	307.4
468.47	313.4
468.928	332.8
469.385	340.8
469.843	350
470.3	351.3
470.758	369.6
471.215	402.4
471.673	411.2
472.13	413.4
472.588	423.4
473.045	376.1
473.503	385.2
473.96	400.3
474.417	417.1
474.875	441
475.332	486.6
475.789	469.5
476.246	475.1
476.704	483.6
477.161	514.4
477.618	534.8
478.075	569.7
478.532	623.3
478.989	705.3
479.446	814.7
479.903	776.4
480.36	818.9
480.817	880.4
481.274	986.1
481.731	1078.6
482.188	1174.6
482.645	1309.4
483.102	1426.2
483.558	1564
484.015	1612.5
484.472	1589.7
484.929	1537.9
485.385	1498.2
485.842	1448.6
486.299	1382.2
486.755	1305.3
487.212	1101.9
487.668	934.8
488.125	866.2
488.582	783.8
489.038	756.6
489.494	707.3
489.951	689
490.407	667.6
490.864	649.6
491.32	650.1
491.776	648.2
492.233	652.4
492.689	614.1
493.145	618.8
493.602	602.3
494.058	628.5
494.514	616.7
494.97	646.2
495.426	665
495.882	633.3
496.338	620.1
496.794	634
497.251	625.8
497.707	636.1
498.163	642.2
498.618	643.5
499.074	651.6
499.53	677.2
499.986	681.7
500.442	654.1
500.898	644.1
501.354	634.8
501.809	647.3
502.265	652.5
502.721	668.7
503.177	679.5
503.632	674.1
504.088	692.2
504.543	720.4
504.999	717.7
505.455	660.3
505.91	635
506.366	641.2
506.821	637.1
507.277	637.4
507.732	641.2
508.187	633
508.643	651.8
509.098	630.7
509.553	659.8
510.009	660.5
510.464	683
510.919	694.5
511.375	703
511.83	717.8
512.285	732.6
512.74	759.3
513.195	797.5
513.65	774
514.105	766.7
514.56	786.8
515.015	805.6
515.47	814.8
515.925	798.6
516.38	791.4
516.835	795.4
517.29	786.4
517.745	790.1
518.2	776.4
518.655	761.5
519.109	745.4
519.564	745.3
520.019	732.2
520.474	736.7
520.928	725.6
521.383	722.1
521.838	710.5
522.292	709.7
522.747	716.2
523.201	712.8
523.656	701.9
524.11	695.6
524.565	704.3
525.019	700.3
525.474	701.8
525.928	709.4
526.382	704.9
526.837	700.9
527.291	705.6
527.745	703.8
528.2	703.6
528.654	690.5
529.108	694.5
529.562	693.6
530.016	701.7
530.47	692.7
530.925	700.9
531.379	699.7
531.833	702.8
532.287	702.1
532.741	700.2
533.195	706.9
533.649	724.3
534.103	727.5
534.556	716.9
535.01	708.9
535.464	717.2
535.918	722
536.372	728.6
536.826	725.1
537.279	713.2
537.733	711.4
538.187	720.4
538.64	722.3
539.094	726.8
539.548	733.9
540.001	731.9
540.455	729.5
540.908	737.3
541.362	751.9
541.815	750.5
542.269	768.8
542.722	767.9
543.175	780.4
543.629	782.8
544.082	796
544.536	795.7
544.989	785.5
545.442	799.7
545.895	796.5
546.349	789.9
546.802	800.8
547.255	810.1
547.708	811
548.161	825.6
548.614	822.6
549.067	836.2
549.52	820.4
549.973	815.3
550.426	804.7
550.879	793.9
551.332	805.8
551.785	816.4
552.238	813.3
552.691	823.5
553.144	831.4
553.596	855.4
554.049	867
554.502	892.5
554.955	913.5
555.407	920
555.86	905.9
556.313	909.5
556.765	891.3
557.218	892.3
557.67	885.6
558.123	878.9
558.576	868.3
559.028	878.1
559.48	898.4
559.933	875.1
560.385	842.9
560.838	813.8
561.29	787.5
561.742	777.4
562.195	776.5
562.647	773.1
563.099	772.2
563.551	786.9
564.004	783.9
564.456	786.3
564.908	768.4
565.36	760.3
565.812	738.2
566.264	738.6
566.716	733.3
567.168	727.6
567.62	730.7
568.072	719.1
568.524	706.1
568.976	694.7
569.428	678.5
569.88	685.9
570.332	695.1
570.784	687
571.235	684.1
571.687	701.4
572.139	705.1
572.59	718.5
573.042	715
573.494	718.5
573.945	717.3
574.397	687.7
574.849	701.2
575.3	698.1
575.752	687.8
576.203	681.9
576.655	698.8
577.106	680.1
577.557	671.7
578.009	677.1
578.46	671.3
578.912	669.2
579.363	669
579.814	678.3
580.265	667.4
580.717	682.8
581.168	669.9
581.619	690.2
582.07	694.7
582.521	676.6
582.972	684.5
583.423	687.5
583.875	687.2
584.326	713.2
584.777	770.4
585.227	841.2
585.678	940.2
586.129	1036.2
586.58	1106.8
587.031	1192.6
587.482	1348.3
587.933	1553.5
588.384	1337.1
588.834	995.3
589.285	823.2
589.736	794.9
590.186	792
590.637	785.7
591.088	767.2
591.538	743.7
591.989	746.6
592.439	735.1
592.89	726.2
593.34	720.5
593.791	722.8
594.241	715.6
594.692	726
595.142	719.5
595.593	710.8
596.043	725.9
596.493	724.8
596.943	727.6
597.394	734.3
597.844	720.3
598.294	730.3
598.744	756.6
599.195	778.6
599.645	833.1
600.095	871
600.545	932.4
600.995	973.6
601.445	1031.1
601.895	1089.2
602.345	1149.1
602.795	1124.2
603.245	1086.3
603.695	1015.5
604.145	969.5
604.594	921.7
605.044	859.8
605.494	813.3
605.944	763.8
606.393	752.2
606.843	734.6
607.293	740.7
607.743	741.9
608.192	752.5
608.642	764.5
609.091	774.3
609.541	782.4
609.99	777.6
610.44	778.4
610.889	734.2
611.339	708.6
611.788	696.3
612.238	714.2
612.687	739.6
613.136	726.5
613.586	749.2
614.035	748.6
614.484	766.6
614.933	768.4
615.383	767.2
615.832	746
616.281	736.8
616.73	698.5
617.179	669.5
617.628	652.3
618.077	642.5
618.526	637
618.975	626.2
619.424	635.8
619.873	626.1
620.322	628.3
620.771	606.1
621.22	611.2
621.669	604.3
622.118	598.8
622.567	585.8
623.015	578.5
623.464	575
623.913	571.4
624.361	554
624.81	561.7
625.259	564.1
625.707	564.5
626.156	569.8
626.604	577.8
627.053	564.7
627.501	574.4
627.95	579.1
628.398	601
628.847	581.3
629.295	576.4
629.744	582.9
630.192	573
630.64	575.7
631.089	567.3
631.537	589.9
631.985	600.6
632.433	626.6
632.881	621.4
633.33	684.6
633.778	669.2
634.226	581.7
634.674	586.3
635.122	597.6
635.57	607.9
636.018	637.1
636.466	589.3
636.914	568.6
637.362	578.8
637.81	581.1
638.258	584.8
638.705	591.8
639.153	625.2
639.601	619.2
640.049	657.6
640.497	681.2
640.944	701.5
641.392	648.2
641.84	623.3
642.287	596.4
642.735	580.4
643.182	585.7
643.63	578.5
644.078	583.2
644.525	598.8
644.973	610
645.42	613
645.867	641.2
646.315	653.7
646.762	671.4
647.21	704.7
647.657	729
648.104	769.6
648.551	780.2
648.999	857.2
649.446	933.5
649.893	1030.4
650.34	1193.5
650.787	1421
651.234	1771.8
651.682	2326.3
652.129	3202.3
652.576	4640.3
653.023	6844.9
653.47	9338.2
653.917	11620.8
654.363	13292.3
654.81	14626.5
655.257	13862
655.704	9080.7
656.151	5384.1
656.598	3490.4
657.044	2463.3
657.491	1896.7
657.938	1518.8
658.385	1266.7
658.831	1106.7
659.278	982.8
659.724	872.1
660.171	801.5
660.618	735.8
661.064	702.6
661.511	684
661.957	668.5
662.404	658.4
662.85	668.9
663.296	629.8
663.743	571.7
664.189	549.2
664.635	546.2
665.082	535
665.528	537.7
665.974	530.1
666.42	511.8
666.867	515.9
667.313	503.7
667.759	494.5
668.205	484.5
668.651	494.3
669.097	483.3
669.543	511.8
669.989	490
670.435	465.3
670.881	452.5
671.327	456.4
671.773	478.1
672.219	502.9
672.665	553.6
673.11	592.8
673.556	638.6
674.002	676.8
674.448	667.5
674.893	559.6
675.339	477.2
675.785	444.3
676.23	426.3
676.676	398.7
677.122	398.6
677.567	382
678.013	378.3
678.458	369.5
678.904	365.3
679.349	355
679.794	355.2
680.24	352.3
680.685	352.3
681.131	363.5
681.576	355.8
682.021	367.7
682.466	348.6
682.912	359.8
683.357	344.3
683.802	394.2
684.247	419.6
684.692	458.4
685.137	503.6
685.583	548.9
686.028	573.1
686.473	533.8
686.918	451.7
687.363	418
687.807	393.7
688.252	366.9
688.697	361.8
689.142	343.6
689.587	337.9
690.032	326.3
690.477	354.6
690.921	358.8
691.366	399.2
691.811	409.3
692.255	435
692.7	473.1
693.145	510.4
693.589	728.4
694.034	1167.1
694.478	1570.2
694.923	1739.2
695.367	2264.1
695.812	1210.4
696.256	502.1
696.701	370.6
697.145	353.4
697.59	331.9
698.034	321.8
698.478	336
698.922	330.7
699.367	339.5
699.811	349.6
700.255	370.5
700.699	392.6
701.143	431.8
701.588	489.4
702.032	523.4
702.476	511.4
702.92	496.4
703.364	495.1
703.808	662.4
704.252	1069
704.696	1483.3
705.14	1682.9
705.584	2140.1
706.027	1079.6
706.471	535.5
706.915	403.4
707.359	356.2
707.803	321.5
708.246	323.4
708.69	315.3
709.134	326.3
709.577	312.4
710.021	323.7
710.465	314.9
710.908	304.3
711.352	305.1
711.795	324.7
712.239	362.1
712.682	389.6
713.126	428.6
713.569	468.6
714.012	381
714.456	329.3
714.899	308.1
715.342	282.9
715.786	259.7
716.229	265
716.672	259.3
717.115	249.4
717.558	253.1
718.002	260.4
718.445	265.5
718.888	290.7
719.331	299.2
719.774	311.2
720.217	311.8
720.66	283.6
721.103	278.4
721.546	262.5
721.989	252.9
722.432	236.1
722.874	243
723.317	232
723.76	245.7
724.203	266.3
724.645	322.7
725.088	458.5
725.531	585.2
725.974	641.3
726.416	555.4
726.859	314.9
727.301	246.8
727.744	241.2
728.187	237.3
728.629	239.7
729.071	248.9
729.514	260.2
729.956	282.9
730.399	294.4
730.841	295.6
731.283	282.8
731.726	266.4
732.168	264.6
732.61	276.7
733.053	302.8
733.495	319.5
733.937	363
734.379	411.2
734.821	448.5
735.263	548.8
735.705	869.8
736.148	1644.4
736.59	2629.3
737.032	3049.5
737.474	2472.6
737.916	813.1
738.357	441.4
738.799	336.4
739.241	303.9
739.683	290.8
740.125	303.2
740.567	293.8
741.008	318.1
741.45	319.8
741.892	326.4
742.334	347.8
742.775	363
743.217	345.8
743.658	273.2
744.1	266.2
744.542	262.4
744.983	312.7
745.425	340.4
745.866	347.6
746.307	292.3
746.749	291.2
747.19	331.3
747.632	471.5
748.073	915.1
748.514	1940.3
748.956	2882.2
749.397	3629.9
749.838	3009.2
750.279	2952.7
750.72	1499.9
751.162	557.8
751.603	335
752.044	259.4
752.485	219.4
752.926	218.7
753.367	205.7
753.808	194.8
754.249	191.2
754.69	193.6
755.131	181.6
755.572	183.1
756.013	178.4
756.453	185
756.894	192
757.335	195
757.776	199.4
758.216	202.5
758.657	205.7
759.098	201
759.538	232.3
759.979	276.1
760.42	394.2
760.86	745
761.301	1914
761.741	4549
762.182	6365.8
762.622	4472.7
763.063	1317.2
763.503	548.2
763.943	348.6
764.384	356.2
764.824	431.8
765.264	461.5
765.705	320.9
766.145	214.3
766.585	193
767.025	193.1
767.465	204.1
767.906	260.3
768.346	341.5
768.786	363.9
769.226	282.6
769.666	331.5
770.106	649.5
770.546	1609.3
770.986	2662.2
771.426	2355.3
771.866	797
772.306	335.5
772.745	222.1
773.185	183.7
773.625	168.8
774.065	168.9
774.505	207.6
774.944	325.9
775.384	725.2
775.824	1264.9
776.263	1213.1
776.703	518
777.142	229.2
777.582	163.1
778.021	142.7
778.461	142.2
778.9	148.1
779.34	134.5
779.779	118.5
780.219	118.9
780.658	110.2
781.097	116.7
781.537	116.6
781.976	110.7
782.415	109.2
782.855	116.1
783.294	108.5
783.733	110.1
784.172	111.7
784.611	107.3
785.05	113.6
785.489	119.5
785.928	116.9
786.367	128.9
786.806	124
787.245	136.7
787.684	138.4
788.123	151.8
788.562	136.2
789.001	132.9
789.44	118.6
789.879	122.6
790.317	120.2
790.756	129.3
791.195	135.5
791.634	152.3
792.072	210.9
792.511	383.8
792.95	1050.7
793.388	2166
793.827	1924.1
794.265	677.5
794.704	283.3
795.142	192.5
795.581	152.4
796.019	141.5
796.458	136.3
796.896	131
797.334	134.7
797.773	161.1
798.211	226.2
798.649	462
799.087	1039.9
799.526	1624
799.964	2049.5
800.402	1991.7
800.84	755.4
801.278	307.4
801.716	192.6
802.154	156.6
802.592	147.8
803.03	140.6
803.468	137
803.906	151.4
804.344	148.1
804.782	146.3
805.22	135.6
805.658	131.4
806.096	149.4
806.533	159.5
806.971	172.2
807.409	216.2
