Data from 20171114-ORNL-Ar_H_NY_Subt18_08-08-22-208.txt Node
Date: Tue Nov 14 08:08:22 EST 2017
User: Ender
Spectrometer: HR+D1039
Trigger mode: 0
Integration Time (sec): 2.730000E-2
Scans to average: 10
Electric dark correction enabled: true
Nonlinearity correction enabled: false
Boxcar width: 0
XAxis mode: Wavelengths
Number of Pixels in Spectrum: 2048
>>>>>Begin Spectral Data<<<<<
187.836	-4.89
188.309	-4.89
188.782	-4.89
189.255	1.81
189.728	0.61
190.201	7.01
190.674	3.61
191.147	0.31
191.619	-5.99
192.092	1.31
192.565	1.21
193.038	-0.79
193.511	-0.39
193.984	-1.89
194.456	-2.99
194.929	1.91
195.402	-0.99
195.874	0.11
196.347	1.11
196.82	-2.59
197.292	4.01
197.765	-2.79
198.237	-6.99
198.71	0.51
199.182	3.11
199.655	0.71
200.127	0.81
200.6	1.91
201.072	-1.09
201.544	-0.19
202.017	4.11
202.489	2.51
202.961	-2.99
203.433	-0.09
203.906	-7.89
204.378	-7.39
204.85	-6.79
205.322	-6.89
205.794	0.31
206.266	-0.19
206.739	-7.19
207.211	-1.59
207.683	-4.89
208.155	-6.19
208.627	-8.79
209.099	1.51
209.57	-6.59
210.042	2.71
210.514	2.51
210.986	2.91
211.458	-5.39
211.93	0.71
212.402	5.81
212.873	-7.29
213.345	-4.79
213.817	-11.59
214.288	-2.69
214.76	-10.79
215.232	-2.99
215.703	0.41
216.175	0.81
216.646	-7.89
217.118	-3.29
217.589	-5.89
218.061	-2.79
218.532	-3.89
219.004	2.71
219.475	-2.39
219.946	2.11
220.418	-2.09
220.889	10.71
221.36	3.41
221.832	6.91
222.303	-1.89
222.774	3.61
223.245	-7.39
223.717	-3.39
224.188	-2.29
224.659	-10.39
225.13	-4.79
225.601	-5.69
226.072	0.11
226.543	0.11
227.014	1.91
227.485	-1.79
227.956	-3.29
228.427	-4.99
228.898	3.21
229.369	1.21
229.839	-4.29
230.31	-4.19
230.781	5.61
231.252	-0.39
231.722	-6.89
232.193	-2.79
232.664	-0.69
233.135	0.71
233.605	1.61
234.076	-9.39
234.546	-3.79
235.017	8.61
235.487	-0.39
235.958	-3.99
236.428	-4.09
236.899	3.41
237.369	6.81
237.84	1.31
238.31	8.21
238.78	-2.29
239.251	-0.39
239.721	4.31
240.191	2.11
240.662	2.41
241.132	-0.19
241.602	-4.29
242.072	-2.99
242.542	-0.39
243.013	5.31
243.483	10.01
243.953	3.31
244.423	0.81
244.893	-3.09
245.363	2.61
245.833	-2.39
246.303	-2.29
246.773	9.21
247.243	6.21
247.712	5.51
248.182	8.61
248.652	2.61
249.122	-6.89
249.592	11.81
250.061	20.31
250.531	34.01
251.001	16.71
251.471	23.81
251.94	17.41
252.41	7.31
252.879	7.31
253.349	16.21
253.818	9.81
254.288	2.51
254.757	4.81
255.227	3.71
255.696	2.31
256.166	7.21
256.635	10.51
257.105	10.51
257.574	10.31
258.043	10.41
258.513	13.21
258.982	12.41
259.451	9.81
259.92	15.71
260.389	10.51
260.859	18.11
261.328	12.71
261.797	21.81
262.266	12.11
262.735	8.91
263.204	6.71
263.673	6.61
264.142	10.01
264.611	0.51
265.08	-2.19
265.549	0.41
266.018	10.81
266.487	0.01
266.955	0.11
267.424	-0.79
267.893	1.01
268.362	4.51
268.83	4.41
269.299	12.01
269.768	5.51
270.236	6.51
270.705	4.61
271.174	4.71
271.642	7.81
272.111	6.11
272.579	20.31
273.048	26.11
273.516	28.61
273.985	28.31
274.453	25.61
274.922	21.91
275.39	14.11
275.858	5.91
276.327	9.71
276.795	22.41
277.263	12.21
277.731	29.31
278.2	49.91
278.668	53.21
279.136	44.31
279.604	17.31
280.072	15.91
280.54	12.01
281.008	9.61
281.477	11.41
281.945	13.61
282.413	12.21
282.881	13.21
283.348	6.11
283.816	17.21
284.284	13.71
284.752	14.31
285.22	9.61
285.688	14.21
286.156	16.91
286.623	41.21
287.091	54.01
287.559	28.21
288.026	18.81
288.494	16.21
288.962	3.91
289.429	4.61
289.897	21.71
290.364	17.91
290.832	22.11
291.3	15.01
291.767	17.61
292.234	20.81
292.702	9.61
293.169	17.41
293.637	26.91
294.104	19.91
294.571	14.31
295.039	14.11
295.506	14.41
295.973	14.11
296.44	13.11
296.908	19.91
297.375	18.21
297.842	14.51
298.309	14.51
298.776	17.31
299.243	20.81
299.71	14.21
300.177	25.71
300.644	23.51
301.111	17.91
301.578	27.21
302.045	15.51
302.512	23.91
302.979	19.91
303.446	22.31
303.913	10.91
304.379	23.01
304.846	20.91
305.313	21.41
305.78	21.31
306.246	26.11
306.713	25.11
307.18	24.51
307.646	29.21
308.113	27.41
308.579	20.41
309.046	24.91
309.512	22.61
309.979	18.21
310.445	25.51
310.912	29.91
311.378	31.81
311.845	25.61
312.311	27.11
312.777	33.01
313.244	30.51
313.71	34.41
314.176	33.41
314.642	40.71
315.109	25.91
315.575	36.81
316.041	39.61
316.507	31.31
316.973	40.01
317.439	36.61
317.905	38.21
318.371	32.91
318.837	32.41
319.303	29.31
319.769	33.81
320.235	30.71
320.701	36.41
321.167	34.81
321.633	37.11
322.099	41.31
322.564	40.51
323.03	40.41
323.496	39.91
323.962	41.61
324.427	37.91
324.893	37.61
325.359	40.71
325.824	42.21
326.29	38.61
326.755	39.41
327.221	41.51
327.686	41.01
328.152	48.31
328.617	42.71
329.083	45.51
329.548	53.11
330.014	44.41
330.479	39.71
330.944	44.21
331.41	41.51
331.875	41.61
332.34	41.11
332.805	47.91
333.271	48.91
333.736	38.91
334.201	55.11
334.666	43.21
335.131	53.41
335.596	49.01
336.061	49.01
336.526	39.41
336.991	44.81
337.456	56.51
337.921	41.21
338.386	50.71
338.851	46.41
339.316	51.41
339.781	46.21
340.246	51.41
340.711	51.91
341.175	47.81
341.64	46.01
342.105	50.91
342.569	54.11
343.034	54.41
343.499	48.61
343.963	53.51
344.428	68.41
344.893	64.91
345.357	53.41
345.822	58.91
346.286	65.91
346.751	69.91
347.215	64.71
347.679	74.31
348.144	94.71
348.608	83.61
349.073	71.71
349.537	72.41
350.001	73.71
350.465	90.81
350.93	76.01
351.394	77.01
351.858	70.71
352.322	92.41
352.786	88.11
353.25	101.41
353.715	108.01
354.179	101.11
354.643	123.61
355.107	127.51
355.571	99.71
356.035	106.41
356.498	119.41
356.962	125.51
357.426	135.61
357.89	117.41
358.354	82.61
358.818	88.11
359.281	79.61
359.745	72.11
360.209	77.11
360.673	81.61
361.136	79.91
361.6	81.41
362.064	82.21
362.527	91.41
362.991	92.31
363.454	81.01
363.918	81.91
364.381	73.01
364.845	80.91
365.308	84.61
365.772	83.81
366.235	85.51
366.698	85.01
367.162	92.11
367.625	82.31
368.088	84.31
368.552	83.11
369.015	93.81
369.478	100.91
369.941	105.51
370.404	94.21
370.867	104.11
371.331	108.51
371.794	112.61
372.257	109.11
372.72	121.71
373.183	109.21
373.646	103.51
374.109	109.61
374.572	113.01
375.035	112.81
375.497	105.71
375.96	114.31
376.423	104.31
376.886	107.41
377.349	115.61
377.811	105.51
378.274	108.11
378.737	111.21
379.199	113.91
379.662	115.41
380.125	125.81
380.587	112.41
381.05	123.51
381.512	126.01
381.975	133.71
382.437	131.31
382.9	135.21
383.362	134.31
383.825	140.11
384.287	150.41
384.75	142.41
385.212	141.91
385.674	140.11
386.136	134.01
386.599	124.61
387.061	126.61
387.523	131.41
387.985	139.21
388.447	139.61
388.91	150.81
389.372	160.71
389.834	157.81
390.296	144.11
390.758	157.61
391.22	171.21
391.682	215.11
392.144	301.31
392.606	238.21
393.068	167.81
393.529	170.81
393.991	159.51
394.453	147.41
394.915	161.31
395.377	201.21
395.838	216.01
396.3	152.41
396.762	138.91
397.224	133.71
397.685	135.61
398.147	128.21
398.608	130.21
399.07	136.21
399.531	138.81
399.993	141.81
400.454	150.91
400.916	145.81
401.377	144.21
401.839	147.01
402.3	156.01
402.762	171.41
403.223	179.61
403.684	176.01
404.145	159.71
404.607	153.41
405.068	166.21
405.529	169.11
405.99	194.31
406.451	176.31
406.913	181.41
407.374	164.01
407.835	163.21
408.296	169.11
408.757	175.11
409.218	191.11
409.679	181.21
410.14	174.11
410.601	182.91
411.062	183.51
411.522	197.01
411.983	199.11
412.444	176.01
412.905	180.51
413.366	188.51
413.826	191.81
414.287	216.31
414.748	256.91
415.208	249.11
415.669	210.61
416.13	201.11
416.59	201.31
417.051	215.01
417.511	216.91
417.972	233.21
418.432	248.21
418.893	293.11
419.353	247.91
419.814	194.91
420.274	183.61
420.734	184.31
421.195	199.81
421.655	198.91
422.115	191.01
422.576	190.11
423.036	199.81
423.496	210.21
423.956	213.41
424.416	236.11
424.876	261.21
425.336	257.51
425.797	267.11
426.257	258.41
426.717	241.01
427.177	231.21
427.637	224.81
428.097	233.81
428.556	247.91
429.016	270.61
429.476	265.11
429.936	281.61
430.396	285.91
430.856	298.71
431.315	319.61
431.775	355.91
432.235	386.21
432.694	346.91
433.154	362.31
433.614	404.01
434.073	347.51
434.533	288.21
434.993	274.11
435.452	285.71
435.912	301.51
436.371	290.11
436.83	285.71
437.29	271.01
437.749	259.91
438.209	247.31
438.668	279.31
439.127	289.71
439.587	270.61
440.046	251.11
440.505	265.71
440.964	277.51
441.424	329.61
441.883	315.11
442.342	269.21
442.801	228.31
443.26	222.11
443.719	223.31
444.178	224.91
444.637	207.91
445.096	224.31
445.555	221.71
446.014	223.71
446.473	223.71
446.932	229.61
447.391	225.11
447.849	225.41
448.308	219.51
448.767	218.11
449.226	233.51
449.685	233.81
450.143	244.11
450.602	243.01
451.061	230.81
451.519	235.51
451.978	226.51
452.436	238.41
452.895	242.71
453.353	258.91
453.812	242.81
454.27	235.71
454.729	238.31
455.187	235.71
455.646	247.11
456.104	249.11
456.562	261.41
457.021	262.11
457.479	256.41
457.937	270.51
458.395	260.81
458.854	244.51
459.312	251.11
459.77	278.11
460.228	255.11
460.686	241.81
461.144	242.31
461.602	244.31
462.06	240.51
462.518	258.01
462.976	255.21
463.434	259.71
463.892	264.11
464.35	271.61
464.808	287.51
465.266	263.51
465.724	263.81
466.181	266.81
466.639	267.41
467.097	285.71
467.555	307.71
468.012	307.61
468.47	303.41
468.928	329.51
469.385	343.61
469.843	351.31
470.3	349.81
470.758	362.91
471.215	384.91
471.673	405.51
472.13	407.01
472.588	423.71
473.045	373.21
473.503	372.41
473.96	395.71
474.417	402.91
474.875	433.61
475.332	474.41
475.789	462.91
476.246	467.61
476.704	489.31
477.161	502.61
477.618	531.51
478.075	557.21
478.532	617.21
478.989	682.61
479.446	803.01
479.903	765.31
480.36	810.01
480.817	855.21
481.274	972.41
481.731	1072.51
482.188	1169.81
482.645	1293.31
483.102	1393.51
483.558	1516.41
484.015	1588.91
484.472	1560.61
484.929	1520.71
485.385	1467.41
485.842	1437.01
486.299	1354.91
486.755	1292.11
487.212	1097.51
487.668	916.41
488.125	842.21
488.582	779.01
489.038	740.01
489.494	707.71
489.951	673.61
490.407	665.11
490.864	647.11
491.32	637.71
491.776	640.31
492.233	643.51
492.689	607.41
493.145	600.71
493.602	598.91
494.058	607.21
494.514	630.31
494.97	639.01
495.426	639.31
495.882	617.91
496.338	600.91
496.794	620.91
497.251	606.51
497.707	623.21
498.163	632.41
498.618	641.01
499.074	643.31
499.53	670.51
499.986	672.41
500.442	644.01
500.898	626.81
501.354	628.61
501.809	628.41
502.265	640.41
502.721	657.81
503.177	674.71
503.632	665.11
504.088	669.41
504.543	705.01
504.999	697.61
505.455	644.71
505.91	616.31
506.366	623.41
506.821	617.01
507.277	619.21
507.732	619.11
508.187	620.31
508.643	635.71
509.098	631.61
509.553	645.91
510.009	654.81
510.464	650.71
510.919	677.51
511.375	689.41
511.83	696.81
512.285	720.81
512.74	751.21
513.195	776.31
513.65	771.91
514.105	760.41
514.56	753.41
515.015	775.81
515.47	799.31
515.925	784.01
516.38	778.31
516.835	782.71
517.29	784.01
517.745	763.51
518.2	744.81
518.655	742.11
519.109	740.31
519.564	742.41
520.019	718.61
520.474	721.51
520.928	709.61
521.383	711.51
521.838	710.91
522.292	710.61
522.747	704.31
523.201	699.61
523.656	684.41
524.11	691.91
524.565	687.61
525.019	679.61
525.474	705.71
525.928	693.01
526.382	685.71
526.837	688.41
527.291	702.31
527.745	685.11
528.2	686.81
528.654	681.51
529.108	678.31
529.562	693.01
530.016	680.51
530.47	680.91
530.925	686.11
531.379	692.71
531.833	693.81
532.287	698.41
532.741	692.91
533.195	702.21
533.649	709.21
534.103	711.11
534.556	696.31
535.01	699.51
535.464	696.81
535.918	711.71
536.372	703.81
536.826	707.81
537.279	696.31
537.733	698.61
538.187	712.01
538.64	710.71
539.094	716.81
539.548	718.71
540.001	722.11
540.455	709.41
540.908	732.61
541.362	729.71
541.815	738.01
542.269	751.21
542.722	749.91
543.175	761.11
543.629	765.01
544.082	775.81
544.536	776.61
544.989	772.61
545.442	774.71
545.895	780.11
546.349	778.61
546.802	792.11
547.255	787.31
547.708	793.81
548.161	802.11
548.614	813.01
549.067	821.41
549.52	813.01
549.973	798.01
550.426	796.41
550.879	782.91
551.332	788.41
551.785	805.81
552.238	791.91
552.691	809.31
553.144	830.01
553.596	841.31
554.049	851.51
554.502	879.41
554.955	901.61
555.407	903.11
555.86	896.61
556.313	875.61
556.765	878.01
557.218	865.21
557.67	874.91
558.123	866.61
558.576	852.51
559.028	872.71
559.48	866.21
559.933	864.61
560.385	831.91
560.838	807.61
561.29	786.41
561.742	773.31
562.195	763.61
562.647	752.21
563.099	761.01
563.551	764.31
564.004	770.11
564.456	764.21
564.908	763.71
565.36	753.71
565.812	735.11
566.264	721.41
566.716	721.61
567.168	720.91
567.62	724.21
568.072	701.91
568.524	694.11
568.976	690.01
569.428	671.11
569.88	676.91
570.332	681.21
570.784	681.91
571.235	686.11
571.687	690.51
572.139	694.51
572.59	703.01
573.042	702.91
573.494	698.21
573.945	698.71
574.397	679.31
574.849	684.01
575.3	687.01
575.752	675.51
576.203	683.41
576.655	681.71
577.106	665.41
577.557	667.61
578.009	674.01
578.46	661.91
578.912	666.51
579.363	655.81
579.814	669.21
580.265	656.11
580.717	655.51
581.168	675.51
581.619	667.81
582.07	676.71
582.521	675.61
582.972	674.31
583.423	677.71
583.875	690.21
584.326	711.11
584.777	756.81
585.227	835.21
585.678	943.91
586.129	1034.41
586.58	1107.21
587.031	1196.11
587.482	1362.01
587.933	1562.11
588.384	1346.31
588.834	996.51
589.285	811.41
589.736	786.91
590.186	773.31
590.637	766.01
591.088	738.91
591.538	746.41
591.989	730.51
592.439	730.21
592.89	716.41
593.34	706.71
593.791	706.01
594.241	711.71
594.692	707.91
595.142	694.41
595.593	701.51
596.043	714.81
596.493	715.81
596.943	716.31
597.394	723.81
597.844	711.61
598.294	717.41
598.744	748.81
599.195	778.91
599.645	827.31
600.095	854.41
600.545	906.61
600.995	968.01
601.445	1015.31
601.895	1077.81
602.345	1130.01
602.795	1110.51
603.245	1063.81
603.695	997.61
604.145	955.71
604.594	904.91
605.044	850.21
605.494	795.41
605.944	757.61
606.393	742.51
606.843	722.81
607.293	737.91
607.743	737.21
608.192	752.61
608.642	762.71
609.091	765.71
609.541	767.21
609.99	772.91
610.44	774.91
610.889	722.21
611.339	701.01
611.788	688.81
612.238	708.21
612.687	729.11
613.136	713.61
613.586	737.81
614.035	753.01
614.484	760.51
614.933	768.31
615.383	759.31
615.832	746.61
616.281	730.11
616.73	696.21
617.179	660.41
617.628	656.21
618.077	644.21
618.526	621.51
618.975	616.61
619.424	625.51
619.873	615.71
620.322	626.41
620.771	611.91
621.22	610.51
621.669	594.41
622.118	588.51
622.567	584.01
623.015	566.41
623.464	579.81
623.913	565.91
624.361	554.91
624.81	556.91
625.259	555.51
625.707	551.71
626.156	556.21
626.604	566.91
627.053	569.01
627.501	560.01
627.95	575.81
628.398	582.71
628.847	562.61
629.295	573.11
629.744	575.91
630.192	575.41
630.64	577.61
631.089	572.31
631.537	579.61
631.985	596.01
632.433	617.51
632.881	624.71
633.33	673.71
633.778	655.91
634.226	583.41
634.674	579.61
635.122	581.51
635.57	604.21
636.018	643.71
636.466	580.61
636.914	556.31
637.362	572.11
637.81	577.11
638.258	581.71
638.705	581.31
639.153	610.51
639.601	609.81
640.049	642.41
640.497	671.81
640.944	693.21
641.392	644.71
641.84	614.71
642.287	592.61
642.735	581.71
643.182	582.51
643.63	577.61
644.078	584.11
644.525	590.71
644.973	597.61
645.42	610.11
645.867	625.91
646.315	643.31
646.762	675.21
647.21	695.01
647.657	720.41
648.104	756.91
648.551	780.21
648.999	846.31
649.446	923.31
649.893	1024.71
650.34	1186.91
650.787	1419.71
651.234	1768.21
651.682	2322.91
652.129	3193.61
652.576	4618.21
653.023	6797.31
653.47	9313.31
653.917	11493.81
654.363	13200.61
654.81	14505.81
655.257	13780.61
655.704	9039.01
656.151	5331.61
656.598	3451.21
657.044	2439.11
657.491	1882.51
657.938	1513.51
658.385	1253.31
658.831	1080.01
659.278	972.11
659.724	872.41
660.171	794.41
660.618	731.41
661.064	697.41
661.511	664.51
661.957	659.81
662.404	651.31
662.85	649.71
663.296	632.01
663.743	567.91
664.189	543.31
664.635	532.51
665.082	527.71
665.528	526.41
665.974	522.01
666.42	517.71
666.867	510.21
667.313	504.81
667.759	500.11
668.205	490.81
668.651	486.71
669.097	494.51
669.543	522.71
669.989	481.71
670.435	450.61
670.881	458.11
671.327	457.21
671.773	476.71
672.219	497.31
672.665	551.61
673.11	580.11
673.556	633.01
674.002	660.21
674.448	651.91
674.893	553.91
675.339	471.31
675.785	445.61
676.23	418.01
676.676	387.81
677.122	381.91
677.567	375.91
678.013	359.71
678.458	359.31
678.904	369.51
679.349	353.21
679.794	360.21
680.24	352.91
680.685	347.71
681.131	346.01
681.576	349.21
682.021	352.71
682.466	354.61
682.912	351.01
683.357	359.21
683.802	376.01
684.247	416.71
684.692	460.01
685.137	492.51
685.583	541.81
686.028	559.91
686.473	519.01
686.918	448.11
687.363	405.91
687.807	386.21
688.252	362.81
688.697	360.51
689.142	342.81
689.587	335.81
690.032	331.11
690.477	344.91
690.921	352.61
691.366	380.01
691.811	407.61
692.255	436.21
692.7	463.61
693.145	506.81
693.589	706.71
694.034	1141.61
694.478	1552.31
694.923	1719.11
695.367	2234.61
695.812	1192.31
696.256	503.71
696.701	375.21
697.145	338.01
697.59	322.11
698.034	319.41
698.478	337.01
698.922	334.91
699.367	324.51
699.811	344.71
700.255	356.61
700.699	383.21
701.143	427.51
701.588	477.61
702.032	510.21
702.476	509.61
702.92	493.21
703.364	503.21
703.808	653.91
704.252	1060.51
704.696	1478.21
705.14	1655.01
705.584	2109.41
706.027	1055.71
706.471	526.51
706.915	394.21
707.359	350.01
707.803	323.21
708.246	309.21
708.69	311.61
709.134	320.71
709.577	313.81
710.021	314.01
710.465	312.41
710.908	305.91
711.352	301.81
711.795	321.51
712.239	353.11
712.682	392.91
713.126	419.21
713.569	468.51
714.012	374.71
714.456	331.51
714.899	310.21
715.342	279.91
715.786	266.51
716.229	263.01
716.672	263.01
717.115	251.31
717.558	252.21
718.002	252.91
718.445	265.91
718.888	288.91
719.331	303.51
719.774	316.21
720.217	304.01
720.66	283.51
721.103	263.41
721.546	264.41
721.989	255.11
722.432	234.01
722.874	235.41
723.317	237.51
723.76	239.61
724.203	263.41
724.645	324.51
725.088	457.01
725.531	578.31
725.974	638.91
726.416	557.41
726.859	312.21
727.301	251.01
727.744	235.21
728.187	236.31
728.629	241.21
729.071	247.91
729.514	261.61
729.956	270.61
730.399	290.31
730.841	285.41
731.283	272.91
731.726	273.01
732.168	262.41
732.61	270.91
733.053	295.91
733.495	317.21
733.937	358.51
734.379	402.91
734.821	438.91
735.263	548.61
735.705	856.01
736.148	1616.21
736.59	2606.11
737.032	2993.51
737.474	2450.51
737.916	802.91
738.357	426.21
738.799	327.81
739.241	294.41
739.683	277.71
740.125	289.31
740.567	297.31
741.008	316.71
741.45	325.81
741.892	315.61
742.334	345.91
742.775	347.91
743.217	338.91
743.658	264.11
744.1	247.81
744.542	262.71
744.983	313.71
745.425	344.01
745.866	338.71
746.307	285.61
746.749	283.41
747.19	335.91
747.632	471.61
748.073	916.31
748.514	1920.41
748.956	2856.61
749.397	3586.21
749.838	2958.01
750.279	2920.91
750.72	1475.71
751.162	539.91
751.603	322.11
752.044	254.41
752.485	219.11
752.926	210.61
753.367	205.31
753.808	187.81
754.249	194.11
754.69	183.11
755.131	182.51
755.572	187.61
756.013	181.61
756.453	188.31
756.894	186.91
757.335	193.71
757.776	197.21
758.216	195.81
758.657	205.71
759.098	207.91
759.538	234.81
759.979	278.91
760.42	384.31
760.86	730.21
761.301	1895.71
761.741	4507.51
762.182	6305.61
762.622	4430.71
