Data from 20171114-ORNL-Ar_H_NY_Subt18_08-08-20-570.txt Node
Date: Tue Nov 14 08:08:20 EST 2017
User: Ender
Spectrometer: HR+D1039
Trigger mode: 0
Integration Time (sec): 2.730000E-2
Scans to average: 10
Electric dark correction enabled: true
Nonlinearity correction enabled: false
Boxcar width: 0
XAxis mode: Wavelengths
Number of Pixels in Spectrum: 2048
>>>>>Begin Spectral Data<<<<<
187.836	-0.65
188.309	-0.65
188.782	-0.65
189.255	2.75
189.728	2.55
190.201	6.35
190.674	4.55
191.147	-0.65
191.619	-8.45
192.092	-0.65
192.565	2.95
193.038	1.05
193.511	-1.85
193.984	-2.15
194.456	-3.95
194.929	2.85
195.402	-4.75
195.874	0.05
196.347	-2.05
196.82	-7.55
197.292	6.75
197.765	4.65
198.237	-6.05
198.71	-1.35
199.182	-0.25
199.655	7.65
200.127	2.65
200.6	-5.25
201.072	0.25
201.544	-0.95
202.017	3.25
202.489	2.65
202.961	-0.35
203.433	-1.15
203.906	-2.25
204.378	-10.65
204.85	-10.25
205.322	-10.05
205.794	-0.95
206.266	-0.55
206.739	-7.05
207.211	-0.35
207.683	-3.75
208.155	-4.15
208.627	-3.45
209.099	0.55
209.57	-5.45
210.042	-3.65
210.514	-1.75
210.986	-0.85
211.458	-3.75
211.93	-4.55
212.402	4.05
212.873	-5.75
213.345	-8.75
213.817	-11.35
214.288	-0.65
214.76	-9.25
215.232	-4.55
215.703	-3.05
216.175	-2.75
216.646	-2.65
217.118	-5.65
217.589	-2.25
218.061	0.55
218.532	-5.75
219.004	-1.05
219.475	-3.15
219.946	-2.65
220.418	-2.25
220.889	1.35
221.36	0.95
221.832	-3.25
222.303	-3.65
222.774	5.85
223.245	-6.65
223.717	-8.45
224.188	-1.25
224.659	-5.45
225.13	-2.15
225.601	-0.55
226.072	3.65
226.543	-1.35
227.014	1.85
227.485	2.65
227.956	-7.85
228.427	2.05
228.898	2.35
229.369	7.55
229.839	-0.85
230.31	-8.65
230.781	2.25
231.252	-4.15
231.722	-3.75
232.193	-4.75
232.664	-2.25
233.135	-2.15
233.605	-0.15
234.076	-9.35
234.546	-1.15
235.017	0.55
235.487	-2.35
235.958	-0.95
236.428	0.95
236.899	6.65
237.369	-1.35
237.84	-0.55
238.31	5.15
238.78	2.45
239.251	2.95
239.721	-2.65
240.191	2.05
240.662	-4.35
241.132	-2.15
241.602	-3.75
242.072	5.45
242.542	7.85
243.013	0.65
243.483	3.65
243.953	-0.35
244.423	7.15
244.893	-6.55
245.363	3.25
245.833	-2.15
246.303	-0.35
246.773	2.75
247.243	-0.15
247.712	-0.35
248.182	6.15
248.652	5.45
249.122	-4.35
249.592	10.75
250.061	21.35
250.531	31.35
251.001	16.75
251.471	14.95
251.94	14.75
252.41	12.55
252.879	5.55
253.349	11.05
253.818	4.75
254.288	5.25
254.757	3.75
255.227	1.35
255.696	6.05
256.166	9.05
256.635	8.45
257.105	13.45
257.574	4.85
258.043	9.65
258.513	8.25
258.982	16.45
259.451	1.45
259.92	12.95
260.389	8.75
260.859	10.65
261.328	13.35
261.797	21.15
262.266	7.55
262.735	8.35
263.204	4.75
263.673	1.45
264.142	10.75
264.611	-3.85
265.08	-0.35
265.549	-0.45
266.018	5.45
266.487	0.65
266.955	-3.85
267.424	0.05
267.893	5.75
268.362	5.15
268.83	0.35
269.299	11.45
269.768	8.55
270.236	5.75
270.705	4.25
271.174	4.75
271.642	12.15
272.111	7.35
272.579	17.65
273.048	21.45
273.516	25.95
273.985	26.05
274.453	21.25
274.922	18.75
275.39	6.95
275.858	5.95
276.327	14.35
276.795	17.95
277.263	9.55
277.731	27.55
278.2	55.25
278.668	52.95
279.136	40.55
279.604	22.85
280.072	14.95
280.54	15.35
281.008	12.05
281.477	9.45
281.945	8.05
282.413	12.45
282.881	13.05
283.348	9.25
283.816	11.95
284.284	14.65
284.752	22.15
285.22	15.95
285.688	13.15
286.156	18.15
286.623	40.65
287.091	49.45
287.559	25.35
288.026	15.95
288.494	18.05
288.962	2.35
289.429	10.65
289.897	17.85
290.364	12.65
290.832	14.55
291.3	14.55
291.767	16.45
292.234	10.85
292.702	11.15
293.169	16.05
293.637	22.45
294.104	19.15
294.571	8.05
295.039	11.75
295.506	10.25
295.973	12.85
296.44	19.85
296.908	21.85
297.375	14.55
297.842	24.15
298.309	15.25
298.776	10.65
299.243	20.25
299.71	8.35
300.177	25.55
300.644	12.35
301.111	21.35
301.578	28.25
302.045	17.65
302.512	27.95
302.979	26.25
303.446	23.15
303.913	16.55
304.379	18.85
304.846	23.15
305.313	29.15
305.78	18.95
306.246	26.65
306.713	28.05
307.18	30.75
307.646	24.05
308.113	27.75
308.579	23.45
309.046	24.65
309.512	26.95
309.979	19.95
310.445	29.65
310.912	22.95
311.378	33.55
311.845	30.75
312.311	29.45
312.777	24.45
313.244	26.15
313.71	36.75
314.176	27.85
314.642	34.65
315.109	22.35
315.575	37.65
316.041	32.35
316.507	30.65
316.973	42.45
317.439	37.85
317.905	35.85
318.371	33.05
318.837	31.25
319.303	31.25
319.769	33.45
320.235	29.65
320.701	34.75
321.167	35.15
321.633	32.45
322.099	39.95
322.564	40.95
323.03	41.95
323.496	40.85
323.962	42.05
324.427	34.05
324.893	40.65
325.359	33.25
325.824	36.95
326.29	35.55
326.755	36.45
327.221	39.85
327.686	38.95
328.152	41.45
328.617	44.55
329.083	45.85
329.548	47.45
330.014	43.65
330.479	37.25
330.944	38.25
331.41	44.35
331.875	41.95
332.34	46.05
332.805	35.15
333.271	43.05
333.736	46.85
334.201	52.05
334.666	53.05
335.131	51.15
335.596	51.45
336.061	52.45
336.526	43.55
336.991	48.25
337.456	58.05
337.921	52.35
338.386	36.05
338.851	39.05
339.316	45.15
339.781	46.15
340.246	49.15
340.711	46.55
341.175	43.05
341.64	44.55
342.105	50.35
342.569	54.55
343.034	60.65
343.499	53.15
343.963	51.25
344.428	59.25
344.893	58.55
345.357	55.15
345.822	61.25
346.286	68.05
346.751	69.15
347.215	64.15
347.679	80.25
348.144	103.55
348.608	78.15
349.073	71.25
349.537	75.45
350.001	77.35
350.465	91.85
350.93	80.35
351.394	82.35
351.858	71.65
352.322	92.15
352.786	76.95
353.25	106.05
353.715	109.85
354.179	99.05
354.643	116.15
355.107	126.05
355.571	105.35
356.035	102.75
356.498	120.25
356.962	128.15
357.426	131.75
357.89	117.85
358.354	98.65
358.818	87.05
359.281	82.75
359.745	75.15
360.209	78.45
360.673	78.45
361.136	76.55
361.6	84.35
362.064	82.95
362.527	83.45
362.991	90.95
363.454	78.25
363.918	76.95
364.381	73.05
364.845	79.25
365.308	87.05
365.772	88.25
366.235	84.75
366.698	87.85
367.162	86.65
367.625	79.25
368.088	86.65
368.552	86.75
369.015	94.85
369.478	97.45
369.941	101.15
370.404	96.05
370.867	107.95
371.331	113.25
371.794	114.95
372.257	114.15
372.72	123.25
373.183	115.55
373.646	105.05
374.109	107.05
374.572	109.75
375.035	114.65
375.497	110.15
375.96	107.15
376.423	106.35
376.886	116.65
377.349	111.45
377.811	99.45
378.274	103.25
378.737	106.55
379.199	116.65
379.662	114.95
380.125	122.45
380.587	116.75
381.05	127.25
381.512	137.05
381.975	136.15
382.437	126.65
382.9	127.75
383.362	135.85
383.825	142.05
384.287	145.75
384.75	140.35
385.212	137.35
385.674	143.05
386.136	138.05
386.599	128.45
387.061	133.15
387.523	136.35
387.985	134.95
388.447	148.95
388.91	150.95
389.372	171.15
389.834	155.65
390.296	153.05
390.758	163.45
391.22	173.65
391.682	222.15
392.144	319.05
392.606	232.75
393.068	167.15
393.529	169.75
393.991	155.25
394.453	156.05
394.915	162.25
395.377	202.05
395.838	230.45
396.3	157.85
396.762	146.95
397.224	138.75
397.685	130.95
398.147	133.95
398.608	129.75
399.07	129.35
399.531	137.05
399.993	149.15
400.454	152.95
400.916	148.75
401.377	146.25
401.839	146.05
402.3	151.65
402.762	161.95
403.223	191.45
403.684	175.55
404.145	168.05
404.607	163.95
405.068	167.85
405.529	174.15
405.99	188.25
406.451	174.45
406.913	173.15
407.374	169.75
407.835	164.05
408.296	173.95
408.757	175.35
409.218	189.75
409.679	182.25
410.14	178.15
410.601	185.15
411.062	188.75
411.522	191.05
411.983	199.25
412.444	181.45
412.905	175.95
413.366	184.95
413.826	201.05
414.287	216.15
414.748	258.75
415.208	248.55
415.669	216.05
416.13	207.55
416.59	213.65
417.051	212.65
417.511	227.15
417.972	237.15
418.432	251.75
418.893	291.05
419.353	252.75
419.814	202.55
420.274	187.85
420.734	190.35
421.195	207.85
421.655	196.95
422.115	193.95
422.576	196.65
423.036	199.75
423.496	208.95
423.956	220.85
424.416	235.35
424.876	275.55
425.336	265.25
425.797	264.25
426.257	258.65
426.717	247.95
427.177	240.65
427.637	228.25
428.097	240.95
428.556	246.15
429.016	272.75
429.476	267.85
429.936	285.15
430.396	280.85
430.856	300.95
431.315	324.05
431.775	357.05
432.235	380.05
432.694	358.35
433.154	373.45
433.614	405.95
434.073	351.35
434.533	293.75
434.993	280.75
435.452	292.85
435.912	303.65
436.371	294.05
436.83	290.35
437.29	277.15
437.749	253.75
438.209	250.05
438.668	281.45
439.127	292.85
439.587	262.25
440.046	249.25
440.505	267.95
440.964	285.25
441.424	330.55
441.883	319.25
442.342	271.15
442.801	228.05
443.26	227.45
443.719	227.05
444.178	212.15
444.637	209.75
445.096	228.45
445.555	233.45
446.014	225.15
446.473	238.35
446.932	238.45
447.391	235.65
447.849	222.25
448.308	222.85
448.767	227.75
449.226	232.55
449.685	237.25
450.143	258.55
450.602	243.15
451.061	229.25
451.519	226.85
451.978	228.55
452.436	235.75
452.895	243.55
453.353	256.65
453.812	242.85
454.27	239.85
454.729	244.65
455.187	248.15
455.646	250.75
456.104	248.55
456.562	273.15
457.021	276.85
457.479	263.05
457.937	273.35
458.395	262.65
458.854	248.15
459.312	256.35
459.77	283.75
460.228	257.95
460.686	251.55
461.144	251.85
461.602	249.25
462.06	245.85
462.518	259.95
462.976	255.45
463.434	255.05
463.892	267.75
464.35	283.75
464.808	292.45
465.266	270.05
465.724	268.35
466.181	277.05
466.639	273.65
467.097	291.85
467.555	304.65
468.012	302.35
468.47	309.45
468.928	327.95
469.385	346.55
469.843	351.75
470.3	356.25
470.758	370.35
471.215	384.85
471.673	411.45
472.13	420.55
472.588	425.05
473.045	381.25
473.503	383.65
473.96	399.65
474.417	400.15
474.875	435.25
475.332	481.65
475.789	469.25
476.246	469.85
476.704	478.35
477.161	509.45
477.618	514.75
478.075	558.65
478.532	618.85
478.989	702.55
479.446	820.85
479.903	780.85
480.36	817.65
480.817	872.15
481.274	974.05
481.731	1063.25
482.188	1167.55
482.645	1291.55
483.102	1400.05
483.558	1552.85
484.015	1595.95
484.472	1573.95
484.929	1516.95
485.385	1472.85
485.842	1432.25
486.299	1356.05
486.755	1311.95
487.212	1111.05
487.668	930.95
488.125	861.15
488.582	781.05
489.038	745.45
489.494	716.65
489.951	688.15
490.407	667.55
490.864	649.45
491.32	642.85
491.776	648.25
492.233	644.25
492.689	617.65
493.145	608.65
493.602	590.35
494.058	620.15
494.514	620.15
494.97	643.65
495.426	647.15
495.882	618.35
496.338	617.35
496.794	624.05
497.251	604.95
497.707	626.75
498.163	635.95
498.618	638.85
499.074	640.25
499.53	672.25
499.986	663.55
500.442	656.75
500.898	639.95
501.354	622.35
501.809	635.35
502.265	637.05
502.721	661.25
503.177	671.15
503.632	669.95
504.088	682.95
504.543	717.95
504.999	719.45
505.455	658.45
505.91	637.25
506.366	621.35
506.821	625.55
507.277	622.45
507.732	617.95
508.187	622.85
508.643	630.55
509.098	634.45
509.553	651.55
510.009	659.15
510.464	666.35
510.919	688.15
511.375	696.85
511.83	701.75
512.285	718.75
512.74	754.75
513.195	779.65
513.65	765.25
514.105	759.65
514.56	755.55
515.015	783.15
515.47	793.05
515.925	776.45
516.38	781.05
516.835	790.55
517.29	776.45
517.745	780.95
518.2	752.85
518.655	747.55
519.109	736.65
519.564	724.25
520.019	729.25
520.474	720.35
520.928	725.15
521.383	718.75
521.838	704.75
522.292	708.45
522.747	702.95
523.201	701.75
523.656	685.65
524.11	690.25
524.565	690.25
525.019	688.75
525.474	700.75
525.928	700.85
526.382	685.25
526.837	695.85
527.291	691.85
527.745	692.75
528.2	696.05
528.654	685.05
529.108	690.85
529.562	685.05
530.016	676.85
530.47	697.55
530.925	697.65
531.379	702.25
531.833	696.95
532.287	704.95
532.741	695.65
533.195	695.95
533.649	707.05
534.103	705.25
534.556	695.35
535.01	703.35
535.464	709.25
535.918	710.75
536.372	702.35
536.826	708.65
537.279	708.65
537.733	705.15
538.187	708.85
538.64	711.95
539.094	723.15
539.548	730.25
540.001	724.25
540.455	722.15
540.908	738.35
541.362	727.65
541.815	742.55
542.269	749.05
542.722	760.45
543.175	763.95
543.629	764.45
544.082	783.35
544.536	783.45
544.989	780.05
545.442	785.65
545.895	777.25
546.349	791.85
546.802	786.95
547.255	796.55
547.708	800.95
548.161	816.75
548.614	818.05
549.067	826.35
549.52	813.75
549.973	814.45
550.426	802.15
550.879	781.65
551.332	792.35
551.785	805.05
552.238	804.35
552.691	816.25
553.144	829.75
553.596	839.45
554.049	858.65
554.502	880.75
554.955	901.95
555.407	899.25
555.86	891.75
556.313	886.95
556.765	874.65
557.218	876.55
557.67	869.35
558.123	873.35
558.576	857.85
559.028	869.95
559.48	876.75
559.933	866.85
560.385	830.35
560.838	798.75
561.29	778.55
561.742	780.75
562.195	759.75
562.647	759.45
563.099	778.05
563.551	763.05
564.004	778.55
564.456	774.55
564.908	759.65
565.36	745.15
565.812	741.35
566.264	723.95
566.716	720.05
567.168	722.85
567.62	722.95
568.072	705.55
568.524	694.85
568.976	693.85
569.428	670.15
569.88	673.25
570.332	678.15
570.784	694.05
571.235	685.05
571.687	696.25
572.139	701.35
572.59	713.55
573.042	714.15
573.494	705.55
573.945	694.55
574.397	685.45
574.849	686.25
575.3	696.05
575.752	681.35
576.203	676.05
576.655	686.15
577.106	675.95
577.557	660.15
578.009	666.05
578.46	665.55
578.912	665.95
579.363	667.85
579.814	663.65
580.265	650.65
580.717	659.75
581.168	660.75
581.619	677.35
582.07	676.85
582.521	675.15
582.972	675.15
583.423	688.25
583.875	682.55
584.326	706.95
584.777	767.15
585.227	834.95
585.678	928.05
586.129	1020.25
586.58	1091.45
587.031	1176.05
587.482	1346.45
587.933	1527.95
588.384	1323.25
588.834	984.95
589.285	812.25
589.736	779.35
590.186	776.05
590.637	768.65
591.088	750.55
591.538	736.25
591.989	723.95
592.439	729.75
592.89	713.95
593.34	721.35
593.791	707.35
594.241	699.55
594.692	701.75
595.142	705.25
595.593	698.25
596.043	715.25
596.493	717.05
596.943	714.95
597.394	730.15
597.844	714.55
598.294	730.35
598.744	756.75
599.195	766.25
599.645	821.95
600.095	864.65
600.545	915.35
600.995	964.05
601.445	1021.45
601.895	1077.55
602.345	1143.75
602.795	1096.75
603.245	1058.55
603.695	1001.65
604.145	962.45
604.594	910.65
605.044	855.05
605.494	804.35
605.944	754.75
606.393	742.25
606.843	727.85
607.293	732.65
607.743	727.15
608.192	749.85
608.642	767.75
609.091	765.85
609.541	781.95
609.99	768.25
610.44	768.85
610.889	724.05
611.339	704.55
611.788	693.35
612.238	706.85
612.687	721.75
613.136	722.25
613.586	748.15
614.035	747.15
614.484	770.65
614.933	759.25
615.383	752.85
615.832	748.45
616.281	728.05
616.73	694.65
617.179	669.35
617.628	648.75
618.077	629.05
618.526	619.15
618.975	618.75
619.424	615.95
619.873	619.35
620.322	625.05
620.771	615.75
621.22	613.95
621.669	597.55
622.118	590.85
622.567	581.65
623.015	568.75
623.464	575.85
623.913	566.85
624.361	559.75
624.81	546.35
625.259	559.65
625.707	559.65
626.156	569.65
626.604	564.05
627.053	562.55
627.501	573.05
627.95	569.55
628.398	582.85
628.847	561.55
629.295	576.65
629.744	582.75
630.192	573.05
630.64	570.85
631.089	575.45
631.537	584.05
631.985	594.15
632.433	605.55
632.881	624.15
633.33	680.55
633.778	655.95
634.226	574.35
634.674	577.05
635.122	589.25
635.57	608.45
636.018	643.85
636.466	586.65
636.914	558.55
637.362	567.65
637.81	579.65
638.258	574.65
638.705	575.85
639.153	613.55
639.601	616.55
640.049	648.85
640.497	669.25
640.944	693.75
641.392	635.45
641.84	611.25
642.287	589.85
642.735	575.25
643.182	575.15
643.63	573.85
644.078	578.35
644.525	591.75
644.973	606.65
645.42	600.85
645.867	627.65
646.315	639.05
646.762	674.25
647.21	699.45
647.657	718.75
648.104	754.05
648.551	775.45
648.999	846.15
649.446	933.45
649.893	1016.85
650.34	1166.65
650.787	1408.45
651.234	1759.95
651.682	2303.85
652.129	3184.55
652.576	4571.05
653.023	6760.35
653.47	9228.65
653.917	11437.75
654.363	13099.25
654.81	14360.35
655.257	13705.35
655.704	8953.95
656.151	5286.35
656.598	3437.65
657.044	2434.65
657.491	1861.85
657.938	1497.15
658.385	1252.25
658.831	1084.45
659.278	969.25
659.724	853.55
660.171	790.85
660.618	731.25
661.064	688.45
661.511	667.35
661.957	667.15
662.404	653.45
662.85	655.75
663.296	628.95
663.743	571.95
664.189	541.25
664.635	536.75
665.082	527.75
665.528	526.65
665.974	518.25
666.42	514.15
666.867	515.75
667.313	504.85
667.759	487.75
668.205	481.75
668.651	491.65
669.097	500.15
669.543	512.25
669.989	481.25
670.435	457.05
670.881	451.55
671.327	450.65
671.773	464.95
672.219	494.15
672.665	557.05
673.11	581.65
673.556	629.05
674.002	674.25
674.448	652.55
674.893	550.15
675.339	477.25
675.785	436.05
676.23	423.65
676.676	399.95
677.122	386.95
677.567	372.85
678.013	371.95
678.458	363.25
678.904	365.65
679.349	351.55
679.794	353.25
680.24	359.55
680.685	355.15
681.131	354.35
681.576	344.45
682.021	354.55
682.466	342.65
682.912	349.45
683.357	349.65
683.802	379.35
684.247	420.05
684.692	461.85
685.137	499.75
685.583	538.05
686.028	561.95
686.473	519.65
686.918	451.45
687.363	412.35
687.807	396.75
688.252	367.85
688.697	350.65
689.142	342.65
689.587	335.15
690.032	313.35
690.477	345.25
690.921	359.85
691.366	384.95
691.811	407.05
692.255	443.15
692.7	463.65
693.145	511.15
693.589	719.75
694.034	1164.25
694.478	1551.45
694.923	1724.25
695.367	2234.55
695.812	1195.55
696.256	501.95
696.701	379.85
697.145	351.55
697.59	331.95
698.034	327.25
698.478	325.95
698.922	322.55
699.367	326.55
699.811	339.75
700.255	352.25
700.699	393.75
701.143	427.95
701.588	480.15
702.032	517.75
702.476	515.05
702.92	495.65
703.364	498.95
703.808	663.05
704.252	1068.15
704.696	1482.15
705.14	1668.15
705.584	2126.65
706.027	1072.55
706.471	520.85
706.915	389.15
707.359	352.25
707.803	323.25
708.246	312.95
708.69	312.15
709.134	319.85
709.577	314.55
710.021	316.95
710.465	308.75
710.908	307.95
711.352	303.65
711.795	313.25
712.239	350.35
712.682	392.55
713.126	420.85
713.569	466.65
714.012	375.25
714.456	318.85
714.899	300.35
715.342	280.95
715.786	268.25
716.229	261.75
716.672	265.45
717.115	255.35
717.558	252.95
718.002	257.15
718.445	270.65
718.888	284.65
719.331	296.85
719.774	309.75
720.217	306.75
720.66	289.85
721.103	262.75
721.546	252.75
721.989	256.05
722.432	232.55
722.874	237.35
723.317	234.85
723.76	236.45
724.203	255.65
724.645	321.05
725.088	462.25
725.531	580.55
725.974	642.85
726.416	539.15
726.859	310.25
727.301	256.95
727.744	240.55
728.187	235.25
728.629	232.35
729.071	241.05
729.514	265.45
729.956	281.55
730.399	288.75
730.841	293.65
731.283	278.35
731.726	273.25
732.168	260.15
732.61	270.35
733.053	285.15
733.495	319.85
733.937	358.25
734.379	399.35
734.821	432.95
735.263	543.65
735.705	862.45
736.148	1645.35
736.59	2618.45
737.032	3012.35
737.474	2465.65
737.916	808.15
738.357	435.65
738.799	328.05
739.241	297.25
739.683	286.55
740.125	294.35
740.567	300.35
741.008	322.15
741.45	311.75
741.892	318.95
742.334	350.05
742.775	365.05
743.217	341.25
743.658	275.35
744.1	258.35
744.542	262.45
744.983	313.75
745.425	343.55
745.866	347.55
746.307	291.85
746.749	287.85
747.19	333.65
747.632	477.15
748.073	912.75
748.514	1917.75
748.956	2857.55
749.397	3597.85
749.838	2976.65
750.279	2938.95
750.72	1481.25
751.162	553.15
751.603	326.15
752.044	258.25
752.485	220.25
752.926	212.85
753.367	205.45
753.808	199.15
754.249	186.45
754.69	186.45
755.131	181.25
755.572	185.35
756.013	182.95
756.453	181.85
756.894	186.25
757.335	192.05
757.776	191.55
758.216	200.35
758.657	206.95
759.098	202.55
759.538	225.35
759.979	273.15
760.42	382.05
760.86	734.35
761.301	1909.15
761.741	4509.15
762.182	6325.15
