Data from 20171114-ORNL-Ar_H_NY_Subt18_08-08-20-843.txt Node
Date: Tue Nov 14 08:08:20 EST 2017
User: Ender
Spectrometer: HR+D1039
Trigger mode: 0
Integration Time (sec): 2.730000E-2
Scans to average: 10
Electric dark correction enabled: true
Nonlinearity correction enabled: false
Boxcar width: 0
XAxis mode: Wavelengths
Number of Pixels in Spectrum: 2048
>>>>>Begin Spectral Data<<<<<
187.836	-0.26
188.309	-0.26
188.782	-0.26
189.255	0.24
189.728	-1.16
190.201	0.54
190.674	-0.16
191.147	-1.86
191.619	-8.26
192.092	-2.76
192.565	5.84
193.038	1.14
193.511	3.54
193.984	4.04
194.456	-4.56
194.929	4.94
195.402	-3.16
195.874	1.84
196.347	-2.86
196.82	-1.96
197.292	4.54
197.765	-3.66
198.237	-9.06
198.71	4.74
199.182	-3.66
199.655	4.54
200.127	2.24
200.6	-1.66
201.072	-4.66
201.544	-8.06
202.017	-6.66
202.489	8.14
202.961	-2.76
203.433	-2.86
203.906	-7.56
204.378	-6.26
204.85	-5.86
205.322	-9.86
205.794	0.04
206.266	-0.36
206.739	-8.66
207.211	-7.06
207.683	-7.46
208.155	-7.06
208.627	-6.76
209.099	-2.06
209.57	-4.66
210.042	-2.16
210.514	-6.86
210.986	-1.26
211.458	-4.36
211.93	1.24
212.402	5.04
212.873	-2.26
213.345	-8.76
213.817	-10.56
214.288	-0.56
214.76	-9.46
215.232	-7.76
215.703	-1.86
216.175	3.24
216.646	-6.66
217.118	-12.26
217.589	-0.96
218.061	4.54
218.532	-9.36
219.004	-6.36
219.475	-2.76
219.946	-4.46
220.418	-8.26
220.889	3.54
221.36	3.44
221.832	-1.46
222.303	-6.86
222.774	4.34
223.245	-11.96
223.717	-5.66
224.188	-6.66
224.659	-6.66
225.13	-9.16
225.601	1.54
226.072	4.94
226.543	-7.06
227.014	-1.66
227.485	-3.36
227.956	-3.96
228.427	-4.86
228.898	2.64
229.369	2.84
229.839	-4.06
230.31	-7.86
230.781	0.94
231.252	-2.86
231.722	-0.56
232.193	-5.26
232.664	-4.96
233.135	3.34
233.605	0.24
234.076	-0.86
234.546	0.84
235.017	4.04
235.487	0.84
235.958	0.34
236.428	-1.06
236.899	6.04
237.369	3.24
237.84	-2.76
238.31	10.04
238.78	-2.16
239.251	-2.76
239.721	2.64
240.191	1.34
240.662	2.34
241.132	-2.56
241.602	1.44
242.072	0.14
242.542	10.74
243.013	-4.56
243.483	3.74
243.953	1.64
244.423	-0.56
244.893	-4.46
245.363	3.04
245.833	-1.06
246.303	-2.86
246.773	5.44
247.243	-3.16
247.712	2.74
248.182	9.44
248.652	5.74
249.122	3.04
249.592	8.64
250.061	18.24
250.531	30.64
251.001	15.04
251.471	19.14
251.94	20.54
252.41	14.44
252.879	-0.66
253.349	11.54
253.818	6.24
254.288	10.54
254.757	4.94
255.227	2.14
255.696	2.14
256.166	3.24
256.635	2.94
257.105	8.14
257.574	6.14
258.043	8.84
258.513	12.54
258.982	14.74
259.451	6.84
259.92	11.74
260.389	8.24
260.859	16.34
261.328	3.34
261.797	11.94
262.266	5.94
262.735	13.24
263.204	3.74
263.673	-3.86
264.142	4.94
264.611	1.94
265.08	4.44
265.549	-3.06
266.018	3.74
266.487	-7.26
266.955	-2.96
267.424	-1.86
267.893	11.24
268.362	2.24
268.83	3.84
269.299	11.74
269.768	6.44
270.236	4.04
270.705	-0.56
271.174	9.14
271.642	10.14
272.111	8.94
272.579	17.34
273.048	19.64
273.516	29.14
273.985	28.74
274.453	28.04
274.922	15.64
275.39	11.34
275.858	0.44
276.327	11.34
276.795	18.74
277.263	9.24
277.731	26.34
278.2	45.34
278.668	50.24
279.136	39.24
279.604	18.54
280.072	13.94
280.54	12.74
281.008	15.94
281.477	16.44
281.945	10.14
282.413	12.54
282.881	10.84
283.348	11.04
283.816	20.34
284.284	11.84
284.752	17.84
285.22	5.64
285.688	14.24
286.156	21.64
286.623	45.04
287.091	50.74
287.559	33.94
288.026	17.24
288.494	10.44
288.962	7.24
289.429	3.54
289.897	12.64
290.364	11.64
290.832	11.94
291.3	13.74
291.767	20.54
292.234	17.44
292.702	12.54
293.169	15.74
293.637	20.54
294.104	19.64
294.571	11.94
295.039	14.04
295.506	15.14
295.973	15.44
296.44	14.34
296.908	14.34
297.375	16.64
297.842	16.94
298.309	18.74
298.776	12.74
299.243	17.14
299.71	17.44
300.177	17.94
300.644	24.94
301.111	15.14
301.578	19.74
302.045	13.24
302.512	18.24
302.979	24.74
303.446	23.44
303.913	16.84
304.379	15.34
304.846	23.84
305.313	20.04
305.78	25.94
306.246	26.14
306.713	26.04
307.18	24.74
307.646	29.04
308.113	25.44
308.579	22.34
309.046	25.74
309.512	22.74
309.979	14.54
310.445	27.04
310.912	27.94
311.378	27.94
311.845	30.74
312.311	23.34
312.777	31.14
313.244	30.34
313.71	37.24
314.176	30.84
314.642	33.04
315.109	27.54
315.575	34.14
316.041	38.34
316.507	30.84
316.973	38.64
317.439	30.84
317.905	29.34
318.371	32.24
318.837	27.44
319.303	31.04
319.769	32.64
320.235	30.04
320.701	29.34
321.167	31.84
321.633	33.44
322.099	38.04
322.564	45.04
323.03	39.44
323.496	37.64
323.962	37.34
324.427	33.44
324.893	36.54
325.359	39.04
325.824	34.14
326.29	33.04
326.755	41.54
327.221	38.14
327.686	38.14
328.152	42.94
328.617	37.34
329.083	43.94
329.548	44.64
330.014	41.24
330.479	34.54
330.944	45.74
331.41	46.54
331.875	43.34
332.34	46.04
332.805	39.04
333.271	45.64
333.736	45.14
334.201	51.54
334.666	50.44
335.131	49.74
335.596	45.64
336.061	53.64
336.526	34.04
336.991	46.14
337.456	52.84
337.921	48.44
338.386	39.14
338.851	46.74
339.316	46.74
339.781	46.64
340.246	47.54
340.711	50.24
341.175	46.54
341.64	44.44
342.105	52.24
342.569	56.04
343.034	52.94
343.499	54.54
343.963	44.84
344.428	69.64
344.893	58.44
345.357	61.24
345.822	60.54
346.286	62.94
346.751	69.44
347.215	66.64
347.679	69.24
348.144	99.04
348.608	77.44
349.073	65.64
349.537	67.04
350.001	75.24
350.465	95.54
350.93	78.94
351.394	76.84
351.858	70.14
352.322	84.94
352.786	87.44
353.25	100.24
353.715	106.74
354.179	101.14
354.643	124.54
355.107	127.74
355.571	107.04
356.035	102.44
356.498	122.64
356.962	121.34
357.426	127.64
357.89	115.74
358.354	87.04
358.818	83.24
359.281	75.14
359.745	73.24
360.209	76.04
360.673	72.14
361.136	80.84
361.6	82.24
362.064	81.64
362.527	79.44
362.991	90.04
363.454	77.44
363.918	75.04
364.381	70.34
364.845	79.64
365.308	84.84
365.772	89.04
366.235	86.84
366.698	81.34
367.162	87.64
367.625	86.84
368.088	82.84
368.552	88.24
369.015	81.14
369.478	95.84
369.941	104.34
370.404	98.04
370.867	105.24
371.331	109.54
371.794	120.54
372.257	121.74
372.72	120.34
373.183	101.74
373.646	105.94
374.109	106.04
374.572	110.44
375.035	108.64
375.497	117.34
375.96	102.44
376.423	101.84
376.886	109.54
377.349	107.74
377.811	103.64
378.274	104.84
378.737	105.84
379.199	111.64
379.662	112.24
380.125	120.34
380.587	125.34
381.05	127.04
381.512	136.44
381.975	136.94
382.437	132.54
382.9	126.34
383.362	134.74
383.825	152.64
384.287	156.84
384.75	139.54
385.212	145.14
385.674	143.74
386.136	141.24
386.599	122.04
387.061	132.44
387.523	130.54
387.985	131.34
388.447	148.74
388.91	151.04
389.372	168.14
389.834	163.94
390.296	148.34
390.758	155.64
391.22	179.94
391.682	221.04
392.144	321.84
392.606	238.24
393.068	175.34
393.529	170.34
393.991	152.14
394.453	157.84
394.915	154.84
395.377	197.14
395.838	219.44
396.3	162.04
396.762	142.34
397.224	140.64
397.685	121.84
398.147	139.54
398.608	132.64
399.07	125.24
399.531	131.04
399.993	142.54
400.454	146.24
400.916	141.74
401.377	145.34
401.839	154.24
402.3	153.44
402.762	170.14
403.223	180.44
403.684	169.94
404.145	166.04
404.607	161.94
405.068	165.14
405.529	172.24
405.99	190.54
406.451	177.04
406.913	177.34
407.374	168.54
407.835	167.44
408.296	173.14
408.757	185.84
409.218	188.64
409.679	185.54
410.14	182.24
410.601	178.14
411.062	184.64
411.522	193.84
411.983	191.24
412.444	178.14
412.905	171.74
413.366	182.84
413.826	193.74
414.287	210.74
414.748	255.34
415.208	244.14
415.669	207.44
416.13	203.34
416.59	204.04
417.051	212.94
417.511	223.44
417.972	238.34
418.432	234.94
418.893	283.54
419.353	253.74
419.814	196.64
420.274	185.44
420.734	191.04
421.195	208.94
421.655	207.34
422.115	197.14
422.576	196.94
423.036	201.44
423.496	208.04
423.956	218.84
424.416	233.24
424.876	268.04
425.336	263.34
425.797	268.34
426.257	259.24
426.717	244.84
427.177	238.54
427.637	225.04
428.097	234.34
428.556	238.14
429.016	278.74
429.476	272.44
429.936	281.04
430.396	280.34
430.856	293.24
431.315	328.74
431.775	355.74
432.235	377.14
432.694	358.14
433.154	365.64
433.614	407.64
434.073	347.84
434.533	283.64
434.993	276.34
435.452	282.94
435.912	301.34
436.371	288.04
436.83	289.54
437.29	267.34
437.749	248.04
438.209	242.84
438.668	287.44
439.127	292.64
439.587	278.54
440.046	249.24
440.505	261.64
440.964	277.74
441.424	322.94
441.883	314.64
442.342	261.24
442.801	231.24
443.26	221.74
443.719	226.44
444.178	222.64
444.637	217.94
445.096	221.14
445.555	223.94
446.014	214.04
446.473	230.04
446.932	229.84
447.391	225.84
447.849	226.44
448.308	210.84
448.767	215.14
449.226	238.04
449.685	234.54
450.143	246.64
450.602	232.54
451.061	228.54
451.519	229.34
451.978	238.44
452.436	234.24
452.895	237.74
453.353	257.04
453.812	234.84
454.27	237.24
454.729	234.84
455.187	239.24
455.646	241.24
456.104	246.04
456.562	269.74
457.021	274.04
457.479	259.84
457.937	274.64
458.395	264.64
458.854	246.44
459.312	253.44
459.77	273.84
460.228	256.54
460.686	242.74
461.144	246.34
461.602	247.74
462.06	244.74
462.518	257.34
462.976	251.54
463.434	259.84
463.892	262.54
464.35	271.34
464.808	283.64
465.266	256.94
465.724	267.84
466.181	270.34
466.639	264.34
467.097	276.84
467.555	297.64
468.012	302.54
468.47	308.14
468.928	329.94
469.385	346.74
469.843	342.64
470.3	357.14
470.758	364.44
471.215	385.24
471.673	407.54
472.13	403.44
472.588	423.34
473.045	377.54
473.503	378.54
473.96	389.64
474.417	406.94
474.875	433.04
475.332	457.94
475.789	455.44
476.246	463.44
476.704	477.04
477.161	504.34
477.618	516.64
478.075	562.94
478.532	627.74
478.989	690.24
479.446	817.54
479.903	773.54
480.36	804.84
480.817	871.04
481.274	963.04
481.731	1082.34
482.188	1170.44
482.645	1300.74
483.102	1419.74
483.558	1556.54
484.015	1611.44
484.472	1594.54
484.929	1529.64
485.385	1475.74
485.842	1436.04
486.299	1362.24
486.755	1288.24
487.212	1093.14
487.668	929.34
488.125	846.14
488.582	774.74
489.038	744.54
489.494	709.94
489.951	679.44
490.407	654.44
490.864	640.84
491.32	625.14
491.776	633.24
492.233	639.94
492.689	605.94
493.145	610.84
493.602	590.24
494.058	606.64
494.514	609.34
494.97	627.14
495.426	638.14
495.882	614.34
496.338	611.44
496.794	610.94
497.251	611.04
497.707	624.74
498.163	630.34
498.618	626.24
499.074	637.14
499.53	671.04
499.986	664.54
500.442	645.44
500.898	621.64
501.354	618.74
501.809	632.24
502.265	636.44
502.721	658.84
503.177	664.94
503.632	657.54
504.088	666.64
504.543	700.84
504.999	693.74
505.455	649.44
505.91	620.14
506.366	620.04
506.821	617.14
507.277	618.34
507.732	616.84
508.187	619.74
508.643	618.44
509.098	624.84
509.553	645.94
510.009	650.44
510.464	656.84
510.919	670.04
511.375	675.74
511.83	695.74
512.285	705.44
512.74	751.24
513.195	760.54
513.65	757.64
514.105	747.14
514.56	758.74
515.015	781.14
515.47	802.14
515.925	771.34
516.38	771.54
516.835	778.44
517.29	768.24
517.745	762.74
518.2	746.94
518.655	725.84
519.109	730.04
519.564	722.84
520.019	722.44
520.474	715.34
520.928	722.54
521.383	701.64
521.838	696.84
522.292	703.54
522.747	705.64
523.201	697.74
523.656	687.24
524.11	683.64
524.565	692.44
525.019	682.94
525.474	694.94
525.928	687.04
526.382	684.94
526.837	682.34
527.291	693.84
527.745	690.64
528.2	676.24
528.654	673.94
529.108	669.84
529.562	675.54
530.016	673.54
530.47	679.94
530.925	685.04
531.379	683.24
531.833	692.04
532.287	685.44
532.741	691.54
533.195	690.64
533.649	694.84
534.103	698.74
534.556	688.44
535.01	688.74
535.464	689.24
535.918	712.14
536.372	702.64
536.826	699.34
537.279	686.54
537.733	701.14
538.187	704.04
538.64	695.74
539.094	704.84
539.548	713.34
540.001	709.74
540.455	704.34
540.908	712.44
541.362	723.54
541.815	736.94
542.269	737.54
542.722	747.14
543.175	755.34
543.629	748.04
544.082	769.34
544.536	764.04
544.989	769.04
545.442	774.74
545.895	776.44
546.349	768.14
546.802	771.74
547.255	777.04
547.708	790.44
548.161	797.24
548.614	799.44
549.067	806.24
549.52	802.24
549.973	785.44
550.426	797.54
550.879	783.74
551.332	785.74
551.785	793.94
552.238	782.54
552.691	806.84
553.144	810.54
553.596	829.54
554.049	838.44
554.502	878.14
554.955	886.94
555.407	884.24
555.86	878.74
556.313	871.14
556.765	854.14
557.218	866.34
557.67	871.54
558.123	863.94
558.576	859.54
559.028	852.34
559.48	857.34
559.933	851.44
560.385	827.04
560.838	787.94
561.29	769.44
561.742	765.94
562.195	743.64
562.647	755.04
563.099	758.24
563.551	764.14
564.004	770.84
564.456	756.34
564.908	750.94
565.36	733.94
565.812	725.14
566.264	720.24
566.716	712.64
567.168	701.54
567.62	715.94
568.072	697.44
568.524	694.84
568.976	680.74
569.428	664.24
569.88	659.54
570.332	674.54
570.784	676.54
571.235	680.44
571.687	693.04
572.139	694.04
572.59	703.24
573.042	689.04
573.494	691.14
573.945	697.94
574.397	670.54
574.849	670.94
575.3	684.44
575.752	673.44
576.203	663.04
576.655	675.44
577.106	657.94
577.557	649.84
578.009	660.24
578.46	657.14
578.912	651.34
579.363	654.54
579.814	653.64
580.265	650.94
580.717	657.74
581.168	658.44
581.619	674.04
582.07	669.54
582.521	664.24
582.972	664.34
583.423	669.74
583.875	667.04
584.326	694.54
584.777	759.24
585.227	839.34
585.678	933.84
586.129	1034.64
586.58	1128.84
587.031	1214.14
587.482	1370.54
587.933	1583.04
588.384	1353.94
588.834	1001.24
589.285	800.64
589.736	782.84
590.186	770.04
590.637	765.14
591.088	739.94
591.538	734.34
591.989	733.04
592.439	726.64
592.89	713.44
593.34	705.94
593.791	704.54
594.241	696.44
594.692	702.44
595.142	699.54
595.593	689.14
596.043	693.24
596.493	711.64
596.943	704.14
597.394	710.54
597.844	690.74
598.294	728.14
598.744	745.54
599.195	764.64
599.645	810.74
600.095	847.74
600.545	907.84
600.995	956.84
601.445	1005.84
601.895	1070.84
602.345	1123.94
602.795	1099.64
603.245	1042.54
603.695	987.74
604.145	938.54
604.594	891.74
605.044	838.04
605.494	776.34
605.944	743.14
606.393	733.54
606.843	718.34
607.293	722.14
607.743	724.94
608.192	744.24
608.642	755.84
609.091	764.54
609.541	768.44
609.99	769.64
610.44	766.24
610.889	712.14
611.339	692.64
611.788	685.34
612.238	706.14
612.687	720.84
613.136	712.34
613.586	744.44
614.035	738.94
614.484	754.74
614.933	759.74
615.383	751.94
615.832	734.24
616.281	728.24
616.73	698.24
617.179	660.34
617.628	640.54
618.077	635.14
618.526	615.94
618.975	616.44
619.424	613.54
619.873	608.24
620.322	607.64
620.771	598.54
621.22	595.04
621.669	589.54
622.118	583.44
622.567	582.24
623.015	562.04
623.464	560.24
623.913	551.74
624.361	550.44
624.81	544.34
625.259	544.14
625.707	552.04
626.156	553.84
626.604	558.04
627.053	552.14
627.501	555.44
627.95	566.74
628.398	570.24
628.847	569.74
629.295	572.34
629.744	568.84
630.192	568.14
630.64	572.14
631.089	567.34
631.537	576.94
631.985	595.34
632.433	616.84
632.881	609.84
633.33	680.84
633.778	651.54
634.226	570.84
634.674	573.64
635.122	580.24
635.57	599.04
636.018	635.04
636.466	573.64
636.914	554.14
637.362	570.54
637.81	573.64
638.258	582.74
638.705	576.84
639.153	608.94
639.601	609.14
640.049	637.54
640.497	663.74
640.944	680.04
641.392	623.94
641.84	615.54
642.287	587.94
642.735	570.84
643.182	574.24
643.63	564.74
644.078	584.84
644.525	591.04
644.973	602.04
645.42	606.74
645.867	624.54
646.315	635.54
646.762	661.04
647.21	701.24
647.657	712.04
648.104	752.44
648.551	784.54
648.999	850.44
649.446	929.24
649.893	1019.14
650.34	1169.64
650.787	1414.44
651.234	1767.84
651.682	2322.34
652.129	3216.14
652.576	4646.94
653.023	6857.44
653.47	9389.04
653.917	11610.54
654.363	13292.74
654.81	14622.54
655.257	13946.24
655.704	9102.54
656.151	5338.54
656.598	3465.54
657.044	2449.34
657.491	1879.34
657.938	1511.74
658.385	1248.64
658.831	1080.44
659.278	963.44
659.724	855.64
660.171	786.74
660.618	722.64
661.064	694.34
661.511	671.04
661.957	659.54
662.404	653.54
662.85	638.34
663.296	623.04
663.743	563.54
664.189	532.94
664.635	537.84
665.082	523.84
665.528	518.64
665.974	512.84
666.42	513.44
666.867	509.44
667.313	504.04
667.759	486.74
668.205	486.64
668.651	492.74
669.097	492.94
669.543	511.34
669.989	478.54
670.435	446.44
670.881	434.34
671.327	450.64
671.773	467.04
672.219	488.34
672.665	534.24
673.11	581.54
673.556	629.94
674.002	655.44
674.448	648.84
674.893	546.34
675.339	467.44
675.785	434.34
676.23	410.74
676.676	386.04
677.122	383.94
677.567	370.74
678.013	362.64
678.458	353.24
678.904	353.24
679.349	345.04
679.794	352.34
680.24	344.64
680.685	346.84
681.131	342.44
681.576	348.54
682.021	347.94
682.466	344.94
682.912	344.84
683.357	350.84
683.802	380.54
684.247	408.24
684.692	449.74
685.137	486.04
685.583	535.94
686.028	555.54
686.473	507.84
686.918	438.24
687.363	426.44
687.807	393.14
688.252	365.74
688.697	353.84
689.142	332.74
689.587	331.94
690.032	330.44
690.477	346.34
690.921	350.74
691.366	384.14
691.811	403.34
692.255	434.34
692.7	455.94
693.145	503.24
693.589	709.64
694.034	1133.14
694.478	1526.44
694.923	1693.44
695.367	2199.44
695.812	1169.64
696.256	497.14
696.701	369.94
697.145	335.14
697.59	330.14
698.034	322.54
698.478	329.24
698.922	326.04
699.367	331.94
699.811	336.64
700.255	353.84
700.699	387.54
701.143	437.74
701.588	476.04
702.032	506.04
702.476	502.44
702.92	481.34
703.364	487.44
703.808	636.24
704.252	1047.64
704.696	1465.14
705.14	1644.94
705.584	2077.24
706.027	1052.04
706.471	520.54
706.915	390.04
707.359	353.44
707.803	319.74
708.246	315.54
708.69	310.74
709.134	317.14
709.577	312.14
710.021	314.14
710.465	303.54
710.908	301.54
711.352	293.94
711.795	313.24
712.239	356.84
712.682	389.04
713.126	413.14
713.569	464.64
714.012	377.44
714.456	322.54
714.899	300.34
715.342	283.84
715.786	263.94
716.229	250.34
716.672	248.04
717.115	249.24
717.558	248.04
718.002	247.64
718.445	269.34
718.888	282.84
719.331	294.74
719.774	313.34
720.217	297.94
720.66	284.04
721.103	267.84
721.546	254.84
721.989	250.24
722.432	227.04
722.874	228.44
723.317	228.84
723.76	232.74
724.203	252.94
724.645	315.64
725.088	457.24
725.531	577.44
725.974	633.34
726.416	531.74
726.859	301.34
727.301	243.04
727.744	232.64
728.187	235.14
728.629	235.14
729.071	244.44
729.514	261.74
729.956	277.24
730.399	279.74
730.841	281.84
731.283	272.14
731.726	267.84
732.168	261.34
732.61	261.84
733.053	290.74
733.495	315.34
733.937	349.84
734.379	400.84
734.821	442.54
735.263	539.24
735.705	860.94
736.148	1611.14
736.59	2572.24
737.032	2951.04
737.474	2417.24
737.916	801.54
738.357	426.84
738.799	318.34
739.241	299.44
739.683	282.24
740.125	284.24
740.567	292.84
741.008	313.84
741.45	315.34
741.892	313.94
742.334	336.54
742.775	355.04
743.217	332.04
743.658	272.04
744.1	248.24
744.542	255.64
744.983	304.34
745.425	331.24
745.866	329.24
746.307	286.64
746.749	280.54
747.19	335.14
747.632	462.84
748.073	916.74
748.514	1894.94
748.956	2830.54
749.397	3539.94
749.838	2954.34
750.279	2880.94
750.72	1470.94
751.162	546.54
751.603	315.64
752.044	252.64
752.485	213.74
752.926	212.24
753.367	201.74
753.808	191.34
754.249	193.64
754.69	182.64
755.131	184.04
755.572	182.74
756.013	177.54
756.453	177.54
756.894	188.64
757.335	188.44
757.776	196.84
758.216	192.14
758.657	197.24
759.098	204.44
759.538	227.04
759.979	267.94
760.42	369.14
760.86	735.04
761.301	1870.14
761.741	4464.54
762.182	6201.44
