Data from 20171114-ORNL-Ar_H_NY_Subt18_08-06-15-547.txt Node
Date: Tue Nov 14 08:06:15 EST 2017
User: Ender
Spectrometer: HR+D1039
Trigger mode: 0
Integration Time (sec): 2.730000E-2
Scans to average: 10
Electric dark correction enabled: true
Nonlinearity correction enabled: false
Boxcar width: 0
XAxis mode: Wavelengths
Number of Pixels in Spectrum: 2048
>>>>>Begin Spectral Data<<<<<
187.836	-7.26
188.309	-7.26
188.782	-7.26
189.255	-1.66
189.728	-2.36
190.201	4.24
190.674	1.54
191.147	0.74
191.619	-8.86
192.092	-1.06
192.565	8.94
193.038	1.64
193.511	1.44
193.984	2.94
194.456	0.44
194.929	2.94
195.402	-2.66
195.874	-1.06
196.347	-0.56
196.82	-6.96
197.292	7.34
197.765	-2.46
198.237	-5.16
198.71	2.84
199.182	-3.96
199.655	1.64
200.127	-0.16
200.6	-3.46
201.072	-2.66
201.544	-5.76
202.017	-1.36
202.489	4.14
202.961	-0.16
203.433	3.74
203.906	-5.16
204.378	-5.06
204.85	-4.16
205.322	-10.56
205.794	-1.96
206.266	-5.76
206.739	-8.46
207.211	-0.06
207.683	-2.36
208.155	-6.06
208.627	-4.06
209.099	-4.26
209.57	-3.16
210.042	-5.16
210.514	-5.66
210.986	-1.96
211.458	-10.16
211.93	-0.36
212.402	-5.66
212.873	0.84
213.345	-17.56
213.817	-10.96
214.288	-2.56
214.76	-9.96
215.232	-4.66
215.703	-4.36
216.175	-2.36
216.646	-7.56
217.118	-10.56
217.589	-7.46
218.061	-5.46
218.532	-9.46
219.004	-0.46
219.475	-2.06
219.946	0.04
220.418	-2.66
220.889	1.44
221.36	-2.46
221.832	-7.26
222.303	-16.36
222.774	4.04
223.245	-9.86
223.717	-11.16
224.188	-4.06
224.659	-10.36
225.13	-10.26
225.601	-1.56
226.072	0.14
226.543	-1.26
227.014	-0.66
227.485	-5.76
227.956	-11.06
228.427	-6.46
228.898	-3.86
229.369	-2.96
229.839	2.24
230.31	-9.86
230.781	-0.06
231.252	-4.46
231.722	1.84
232.193	1.24
232.664	-7.76
233.135	2.84
233.605	-3.26
234.076	-3.66
234.546	0.44
235.017	-0.36
235.487	-1.46
235.958	-2.26
236.428	-0.06
236.899	5.84
237.369	3.64
237.84	-3.16
238.31	5.64
238.78	2.74
239.251	-6.56
239.721	1.34
240.191	1.34
240.662	-1.46
241.132	-1.16
241.602	-3.96
242.072	4.24
242.542	5.04
243.013	-1.16
243.483	4.94
243.953	4.04
244.423	4.34
244.893	-0.46
245.363	2.64
245.833	6.84
246.303	-0.86
246.773	7.04
247.243	5.64
247.712	4.44
248.182	6.94
248.652	5.44
249.122	-1.76
249.592	6.64
250.061	22.64
250.531	31.64
251.001	22.24
251.471	18.74
251.94	12.34
252.41	3.94
252.879	2.44
253.349	7.94
253.818	5.64
254.288	4.34
254.757	1.54
255.227	-2.56
255.696	1.54
256.166	6.34
256.635	3.64
257.105	12.34
257.574	4.44
258.043	7.24
258.513	10.64
258.982	16.74
259.451	11.24
259.92	12.84
260.389	9.14
260.859	11.94
261.328	10.14
261.797	13.74
262.266	7.64
262.735	6.14
263.204	4.74
263.673	0.14
264.142	3.04
264.611	-4.06
265.08	-2.16
265.549	2.94
266.018	5.94
266.487	0.94
266.955	1.24
267.424	-0.36
267.893	3.54
268.362	-0.26
268.83	6.94
269.299	11.64
269.768	8.94
270.236	7.34
270.705	4.04
271.174	4.34
271.642	7.64
272.111	12.04
272.579	15.84
273.048	22.04
273.516	27.34
273.985	26.44
274.453	22.34
274.922	20.24
275.39	11.24
275.858	1.84
276.327	9.34
276.795	14.24
277.263	14.04
277.731	24.64
278.2	57.24
278.668	58.64
279.136	45.94
279.604	17.74
280.072	16.24
280.54	13.84
281.008	10.14
281.477	11.84
281.945	7.54
282.413	14.14
282.881	11.24
283.348	4.44
283.816	13.14
284.284	12.34
284.752	15.54
285.22	12.24
285.688	21.74
286.156	23.54
286.623	40.64
287.091	53.74
287.559	29.84
288.026	19.84
288.494	15.64
288.962	10.64
289.429	8.04
289.897	22.54
290.364	13.94
290.832	21.44
291.3	16.04
291.767	19.24
292.234	15.64
292.702	12.64
293.169	20.14
293.637	16.34
294.104	22.04
294.571	7.44
295.039	20.34
295.506	19.44
295.973	22.84
296.44	15.14
296.908	16.94
297.375	19.64
297.842	15.64
298.309	21.14
298.776	15.84
299.243	24.54
299.71	12.34
300.177	24.14
300.644	17.94
301.111	25.14
301.578	26.14
302.045	13.14
302.512	22.84
302.979	24.54
303.446	23.24
303.913	22.94
304.379	23.14
304.846	33.44
305.313	19.74
305.78	27.24
306.246	27.54
306.713	26.44
307.18	26.74
307.646	34.24
308.113	22.64
308.579	20.94
309.046	29.64
309.512	26.44
309.979	16.94
310.445	30.74
310.912	30.74
311.378	29.24
311.845	32.04
312.311	28.84
312.777	40.04
313.244	28.54
313.71	35.84
314.176	30.34
314.642	34.04
315.109	27.54
315.575	36.74
316.041	39.54
316.507	38.04
316.973	39.54
317.439	34.74
317.905	39.84
318.371	35.34
318.837	37.04
319.303	32.74
319.769	33.04
320.235	35.84
320.701	37.64
321.167	41.24
321.633	37.94
322.099	37.64
322.564	47.14
323.03	39.34
323.496	39.84
323.962	39.44
324.427	36.44
324.893	45.44
325.359	42.64
325.824	42.24
326.29	41.44
326.755	36.84
327.221	37.24
327.686	43.84
328.152	46.54
328.617	41.94
329.083	48.84
329.548	58.04
330.014	53.04
330.479	42.54
330.944	42.54
331.41	45.44
331.875	45.04
332.34	42.04
332.805	39.24
333.271	53.64
333.736	46.14
334.201	53.94
334.666	56.04
335.131	52.44
335.596	55.54
336.061	53.14
336.526	43.54
336.991	50.24
337.456	53.24
337.921	49.24
338.386	45.34
338.851	45.94
339.316	40.24
339.781	46.84
340.246	50.54
340.711	46.94
341.175	50.44
341.64	43.84
342.105	53.34
342.569	54.34
343.034	65.64
343.499	57.04
343.963	47.24
344.428	71.64
344.893	60.64
345.357	58.94
345.822	56.54
346.286	73.34
346.751	74.54
347.215	72.34
347.679	74.64
348.144	105.14
348.608	79.74
349.073	68.14
349.537	73.54
350.001	83.94
350.465	85.84
350.93	85.24
351.394	81.14
351.858	70.84
352.322	93.24
352.786	89.94
353.25	105.34
353.715	109.04
354.179	101.14
354.643	121.84
355.107	128.84
355.571	110.14
356.035	104.34
356.498	116.54
356.962	126.34
357.426	135.44
357.89	124.44
358.354	90.54
358.818	84.14
359.281	82.64
359.745	84.14
360.209	72.24
360.673	76.34
361.136	79.94
361.6	91.84
362.064	82.44
362.527	81.64
362.991	95.34
363.454	82.64
363.918	80.84
364.381	82.94
364.845	83.44
365.308	87.64
365.772	86.44
366.235	83.04
366.698	85.14
367.162	98.34
367.625	84.04
368.088	92.14
368.552	90.84
369.015	97.44
369.478	100.34
369.941	102.44
370.404	94.04
370.867	103.84
371.331	106.14
371.794	109.84
372.257	110.04
372.72	115.34
373.183	107.54
373.646	103.04
374.109	108.44
374.572	112.84
375.035	106.94
375.497	116.64
375.96	108.04
376.423	106.04
376.886	116.54
377.349	114.44
377.811	100.64
378.274	107.34
378.737	105.54
379.199	115.94
379.662	116.04
380.125	115.84
380.587	122.74
381.05	121.84
381.512	132.54
381.975	132.74
382.437	129.64
382.9	127.74
383.362	135.24
383.825	147.54
384.287	149.34
384.75	142.84
385.212	138.74
385.674	145.64
386.136	141.44
386.599	121.84
387.061	129.74
387.523	133.64
387.985	135.64
388.447	142.64
388.91	151.04
389.372	163.54
389.834	162.54
390.296	150.44
390.758	149.54
391.22	171.14
391.682	214.54
392.144	293.84
392.606	231.94
393.068	171.54
393.529	164.34
393.991	158.64
394.453	147.34
394.915	156.44
395.377	193.94
395.838	216.24
396.3	158.34
396.762	140.44
397.224	133.14
397.685	132.44
398.147	135.14
398.608	131.04
399.07	129.44
399.531	128.24
399.993	142.54
400.454	153.44
400.916	150.84
401.377	145.44
401.839	155.84
402.3	155.84
402.762	168.24
403.223	180.44
403.684	169.84
404.145	166.24
404.607	163.44
405.068	167.94
405.529	177.74
405.99	192.44
406.451	175.24
406.913	177.84
407.374	180.14
407.835	160.84
408.296	170.54
408.757	178.54
409.218	191.84
409.679	173.64
410.14	185.84
410.601	185.04
411.062	182.84
411.522	196.74
411.983	193.84
412.444	174.94
412.905	181.74
413.366	186.84
413.826	196.74
414.287	220.04
414.748	264.64
415.208	250.84
415.669	218.04
416.13	202.24
416.59	197.24
417.051	216.64
417.511	220.54
417.972	243.94
418.432	252.14
418.893	292.94
419.353	248.44
419.814	200.14
420.274	184.94
420.734	185.64
421.195	205.24
421.655	206.74
422.115	200.84
422.576	193.34
423.036	200.74
423.496	208.84
423.956	216.04
424.416	236.64
424.876	270.04
425.336	263.24
425.797	269.54
426.257	259.64
426.717	239.84
427.177	234.74
427.637	225.54
428.097	241.74
428.556	244.34
429.016	277.74
429.476	267.64
429.936	281.74
430.396	276.34
430.856	303.34
431.315	320.64
431.775	359.44
432.235	387.14
432.694	361.44
433.154	377.24
433.614	395.14
434.073	349.34
434.533	291.74
434.993	269.44
435.452	286.14
435.912	303.14
436.371	298.24
436.83	286.04
437.29	276.04
437.749	251.74
438.209	253.74
438.668	280.04
439.127	296.24
439.587	261.24
440.046	253.24
440.505	266.74
440.964	284.94
441.424	332.14
441.883	318.34
442.342	270.74
442.801	226.14
443.26	225.24
443.719	224.34
444.178	222.54
444.637	215.14
445.096	217.74
445.555	222.24
446.014	222.94
446.473	225.44
446.932	235.24
447.391	231.24
447.849	234.74
448.308	219.24
448.767	219.24
449.226	240.34
449.685	236.84
450.143	251.54
450.602	243.14
451.061	223.34
451.519	239.34
451.978	236.04
452.436	246.84
452.895	243.74
453.353	250.84
453.812	245.74
454.27	239.64
454.729	244.64
455.187	242.34
455.646	243.34
456.104	252.44
456.562	261.44
457.021	276.24
457.479	272.64
457.937	281.34
458.395	268.24
458.854	250.74
459.312	257.94
459.77	282.74
460.228	258.74
460.686	248.04
461.144	249.54
461.602	248.24
462.06	251.24
462.518	262.24
462.976	264.44
463.434	263.74
463.892	271.34
464.35	279.34
464.808	290.94
465.266	268.34
465.724	271.74
466.181	275.94
466.639	274.24
467.097	291.64
467.555	306.24
468.012	313.94
468.47	313.54
468.928	332.04
469.385	352.04
469.843	362.94
470.3	360.84
470.758	369.14
471.215	387.44
471.673	415.14
472.13	410.34
472.588	429.14
473.045	381.04
473.503	390.64
473.96	399.04
474.417	418.64
474.875	438.64
475.332	484.44
475.789	477.54
476.246	483.04
476.704	502.74
477.161	522.34
477.618	534.44
478.075	566.34
478.532	620.64
478.989	702.54
479.446	820.34
479.903	780.44
480.36	823.94
480.817	879.44
481.274	985.84
481.731	1096.04
482.188	1195.84
482.645	1310.14
483.102	1435.64
483.558	1575.34
484.015	1613.84
484.472	1603.44
484.929	1540.14
485.385	1495.74
485.842	1468.34
486.299	1389.74
486.755	1322.24
487.212	1116.04
487.668	938.54
488.125	864.24
488.582	798.94
489.038	768.14
489.494	721.54
489.951	694.04
490.407	676.94
490.864	659.54
491.32	650.94
491.776	663.14
492.233	660.04
492.689	631.14
493.145	615.64
493.602	612.14
494.058	622.54
494.514	628.94
494.97	651.04
495.426	659.64
495.882	641.74
496.338	619.74
496.794	633.34
497.251	634.44
497.707	645.94
498.163	648.64
498.618	660.04
499.074	654.64
499.53	687.14
499.986	693.54
500.442	670.54
500.898	654.84
501.354	631.84
501.809	652.74
502.265	651.54
502.721	670.04
503.177	688.94
503.632	674.24
504.088	692.84
504.543	732.34
504.999	729.64
505.455	670.94
505.91	634.74
506.366	647.34
506.821	642.04
507.277	635.74
507.732	635.34
508.187	636.64
508.643	645.84
509.098	648.84
509.553	668.34
510.009	678.44
510.464	683.84
510.919	694.14
511.375	705.84
511.83	720.34
512.285	728.04
512.74	774.14
513.195	796.74
513.65	782.24
514.105	788.34
514.56	789.44
515.015	805.14
515.47	821.14
515.925	816.04
516.38	808.54
516.835	805.14
517.29	797.74
517.745	784.44
518.2	781.64
518.655	762.84
519.109	752.64
519.564	756.24
520.019	737.14
520.474	739.44
520.928	736.14
521.383	738.44
521.838	719.74
522.292	720.54
522.747	725.94
523.201	729.24
523.656	713.84
524.11	702.14
524.565	705.44
525.019	700.84
525.474	724.04
525.928	709.34
526.382	705.54
526.837	704.54
527.291	713.24
527.745	713.04
528.2	715.44
528.654	702.94
529.108	696.94
529.562	708.14
530.016	692.54
530.47	695.64
530.925	700.34
531.379	703.54
531.833	710.84
532.287	716.94
532.741	714.04
533.195	720.64
533.649	731.04
534.103	725.84
534.556	723.24
535.01	724.24
535.464	715.94
535.918	729.54
536.372	742.24
536.826	726.54
537.279	720.84
537.733	727.44
538.187	719.34
538.64	727.04
539.094	731.44
539.548	747.84
540.001	738.44
540.455	736.24
540.908	746.24
541.362	757.64
541.815	765.54
542.269	768.14
542.722	772.34
543.175	778.94
543.629	782.84
544.082	795.74
544.536	790.64
544.989	788.14
545.442	801.34
545.895	801.34
546.349	803.94
546.802	811.64
547.255	811.64
547.708	815.84
548.161	822.94
548.614	841.34
549.067	836.74
549.52	826.54
549.973	827.74
550.426	820.84
550.879	811.84
551.332	812.24
551.785	817.94
552.238	822.84
552.691	832.74
553.144	852.34
553.596	869.64
554.049	885.24
554.502	904.24
554.955	932.34
555.407	927.24
555.86	913.74
556.313	904.54
556.765	897.34
557.218	902.94
557.67	898.74
558.123	907.84
558.576	884.24
559.028	891.24
559.48	891.04
559.933	885.84
560.385	850.54
560.838	833.34
561.29	789.94
561.742	800.34
562.195	784.04
562.647	768.14
563.099	797.34
563.551	790.44
564.004	807.34
564.456	782.74
564.908	778.44
565.36	754.64
565.812	744.54
566.264	725.64
566.716	737.24
567.168	734.24
567.62	739.04
568.072	716.84
568.524	711.44
568.976	697.84
569.428	687.74
569.88	688.14
570.332	685.84
570.784	693.94
571.235	692.14
571.687	705.04
572.139	709.24
572.59	721.74
573.042	726.14
573.494	720.84
573.945	721.54
574.397	695.64
574.849	712.94
575.3	705.24
575.752	686.74
576.203	696.44
576.655	691.54
577.106	684.14
577.557	668.64
578.009	673.54
578.46	682.24
578.912	673.94
579.363	671.84
579.814	670.34
580.265	671.94
580.717	667.64
581.168	689.74
581.619	685.54
582.07	690.34
582.521	684.04
582.972	687.04
583.423	688.74
583.875	698.64
584.326	718.94
584.777	759.84
585.227	828.84
585.678	917.84
586.129	1001.24
586.58	1088.14
587.031	1158.34
587.482	1296.34
587.933	1477.34
588.384	1280.64
588.834	966.74
589.285	817.64
589.736	777.74
590.186	789.04
590.637	772.04
591.088	751.54
591.538	740.04
591.989	738.74
592.439	744.94
592.89	725.54
593.34	720.24
593.791	714.64
594.241	712.14
594.692	719.54
595.142	711.84
595.593	710.14
596.043	711.74
596.493	716.74
596.943	727.04
597.394	720.74
597.844	723.54
598.294	741.64
598.744	758.44
599.195	788.34
599.645	824.84
600.095	853.94
600.545	921.44
600.995	977.44
601.445	1039.74
601.895	1101.24
602.345	1140.34
602.795	1109.44
603.245	1073.44
603.695	1030.64
604.145	959.24
604.594	915.04
605.044	867.44
605.494	816.14
605.944	765.34
606.393	758.74
606.843	738.14
607.293	740.54
607.743	740.44
608.192	755.74
608.642	767.24
609.091	772.84
609.541	789.44
609.99	775.34
610.44	783.24
610.889	728.44
611.339	713.94
611.788	691.04
612.238	701.84
612.687	715.04
613.136	731.34
613.586	734.54
614.035	736.04
614.484	761.74
614.933	762.44
615.383	754.94
615.832	755.74
616.281	740.54
616.73	696.24
617.179	668.24
617.628	654.14
618.077	632.44
618.526	635.14
618.975	620.94
619.424	616.84
619.873	623.94
620.322	619.44
620.771	614.34
621.22	609.34
621.669	598.94
622.118	595.24
622.567	587.64
623.015	581.44
623.464	566.34
623.913	569.54
624.361	564.94
624.81	548.74
625.259	558.74
625.707	560.44
626.156	563.44
626.604	576.54
627.053	565.04
627.501	571.34
627.95	576.04
628.398	590.94
628.847	572.34
629.295	573.44
629.744	578.64
630.192	574.14
630.64	575.04
631.089	568.94
631.537	579.84
631.985	591.24
632.433	617.94
632.881	608.64
633.33	659.04
633.778	644.34
634.226	573.14
634.674	579.64
635.122	578.34
635.57	601.74
636.018	627.84
636.466	583.44
636.914	555.24
637.362	575.14
637.81	583.24
638.258	585.94
638.705	583.74
639.153	610.04
639.601	622.14
640.049	634.14
640.497	675.94
640.944	695.14
641.392	643.74
641.84	613.64
642.287	586.64
642.735	569.84
643.182	568.94
643.63	578.74
644.078	592.24
644.525	590.34
644.973	596.04
645.42	604.04
645.867	624.84
646.315	636.14
646.762	663.04
647.21	684.94
647.657	716.74
648.104	737.54
648.551	777.44
648.999	835.44
649.446	917.74
649.893	1011.64
650.34	1154.94
650.787	1397.94
651.234	1721.14
651.682	2252.14
652.129	3080.44
652.576	4449.64
653.023	6557.94
653.47	8986.64
653.917	11271.04
654.363	13004.34
654.81	14381.74
655.257	13688.74
655.704	8957.74
656.151	5282.14
656.598	3442.24
657.044	2425.24
657.491	1878.84
657.938	1498.94
658.385	1249.04
658.831	1080.04
659.278	971.84
659.724	863.64
660.171	796.54
660.618	725.74
661.064	689.64
661.511	677.44
661.957	666.74
662.404	656.44
662.85	660.24
663.296	623.44
663.743	562.24
664.189	532.84
664.635	530.34
665.082	528.74
665.528	520.84
665.974	518.04
666.42	498.44
666.867	507.34
667.313	491.34
667.759	481.84
668.205	473.34
668.651	486.44
669.097	483.74
669.543	491.74
669.989	467.14
670.435	454.84
670.881	454.64
671.327	449.14
671.773	473.44
672.219	479.54
672.665	547.24
673.11	579.84
673.556	616.34
674.002	667.84
674.448	650.14
674.893	546.84
675.339	471.44
675.785	438.54
676.23	416.44
676.676	399.44
677.122	382.04
677.567	373.14
678.013	363.44
678.458	361.24
678.904	364.74
679.349	351.24
679.794	355.84
680.24	348.64
680.685	349.74
681.131	338.64
681.576	345.34
682.021	353.94
682.466	346.44
682.912	351.04
683.357	344.14
683.802	381.54
684.247	408.44
684.692	462.34
685.137	491.34
685.583	528.34
686.028	556.24
686.473	514.74
686.918	441.24
687.363	419.14
687.807	389.14
688.252	364.14
688.697	351.94
689.142	338.94
689.587	334.64
690.032	323.94
690.477	337.24
690.921	343.64
691.366	381.14
691.811	398.14
692.255	424.54
692.7	457.34
693.145	500.84
693.589	687.74
694.034	1120.04
694.478	1515.74
694.923	1724.34
695.367	2280.24
695.812	1187.24
696.256	497.34
696.701	370.64
697.145	336.14
697.59	324.44
698.034	323.54
698.478	328.04
698.922	321.54
699.367	327.94
699.811	335.84
700.255	349.54
700.699	382.64
701.143	421.64
701.588	475.44
702.032	507.44
702.476	508.94
702.92	491.24
703.364	488.14
703.808	635.44
704.252	1019.74
704.696	1430.04
705.14	1652.84
705.584	2104.34
706.027	1045.94
706.471	511.84
706.915	394.24
707.359	347.04
707.803	315.14
708.246	308.84
708.69	312.64
709.134	312.54
709.577	316.24
710.021	308.14
710.465	309.34
710.908	300.04
711.352	302.74
711.795	317.74
712.239	346.24
712.682	387.54
713.126	409.74
713.569	465.94
714.012	368.84
714.456	316.94
714.899	295.94
715.342	272.64
715.786	260.74
716.229	261.54
716.672	260.24
717.115	246.64
717.558	253.74
718.002	252.34
718.445	261.24
718.888	283.94
719.331	296.34
719.774	302.64
720.217	297.44
720.66	279.34
721.103	272.84
721.546	255.74
721.989	241.94
722.432	234.54
722.874	238.24
723.317	230.04
723.76	231.44
724.203	243.64
724.645	312.64
725.088	436.44
725.531	569.14
725.974	642.54
726.416	550.34
726.859	304.04
727.301	237.14
727.744	231.64
728.187	238.14
728.629	233.04
729.071	236.84
729.514	253.64
729.956	263.54
730.399	284.34
730.841	282.44
731.283	269.94
731.726	262.04
732.168	259.94
732.61	263.14
733.053	282.84
733.495	315.64
733.937	348.24
734.379	399.44
734.821	429.14
735.263	535.64
735.705	820.54
736.148	1552.34
736.59	2546.44
737.032	3019.44
737.474	2463.84
737.916	801.64
738.357	420.74
738.799	326.44
739.241	295.74
739.683	285.24
740.125	291.64
740.567	293.64
741.008	311.34
741.45	314.44
741.892	315.04
742.334	346.44
742.775	363.94
743.217	334.34
743.658	261.84
744.1	247.34
744.542	261.54
744.983	302.44
745.425	343.24
745.866	336.74
746.307	287.74
746.749	280.84
747.19	329.14
747.632	450.84
748.073	870.24
748.514	1816.34
748.956	2807.84
749.397	3516.34
749.838	2919.24
750.279	2953.34
750.72	1465.84
751.162	539.04
751.603	313.94
752.044	249.04
752.485	215.84
752.926	205.54
753.367	205.84
753.808	188.14
754.249	189.24
754.69	185.84
755.131	185.34
755.572	183.14
756.013	178.84
756.453	181.84
756.894	186.54
757.335	188.54
757.776	189.64
758.216	198.14
758.657	193.34
759.098	197.64
759.538	219.54
759.979	267.64
760.42	368.44
760.86	686.94
761.301	1766.94
761.741	4352.74
762.182	6360.74
