Data from 20171114-ORNL-Ar_H_NY_Subt18_08-05-19-314.txt Node
Date: Tue Nov 14 08:05:19 EST 2017
User: Ender
Spectrometer: HR+D1039
Trigger mode: 0
Integration Time (sec): 2.730000E-2
Scans to average: 10
Electric dark correction enabled: true
Nonlinearity correction enabled: false
Boxcar width: 0
XAxis mode: Wavelengths
Number of Pixels in Spectrum: 2048
>>>>>Begin Spectral Data<<<<<
187.836	-0.09
188.309	-0.09
188.782	-0.09
189.255	0.41
189.728	-2.99
190.201	2.21
190.674	2.71
191.147	5.51
191.619	-7.59
192.092	0.91
192.565	2.71
193.038	-1.49
193.511	1.91
193.984	1.81
194.456	-0.59
194.929	-1.99
195.402	-1.39
195.874	-2.09
196.347	-1.49
196.82	-8.19
197.292	3.71
197.765	3.61
198.237	-4.39
198.71	4.11
199.182	-5.89
199.655	3.61
200.127	6.81
200.6	-0.49
201.072	4.11
201.544	-2.99
202.017	-4.29
202.489	4.11
202.961	3.11
203.433	-7.19
203.906	-7.09
204.378	-7.69
204.85	-8.39
205.322	-11.99
205.794	-3.09
206.266	-4.69
206.739	-12.99
207.211	7.41
207.683	-7.39
208.155	0.11
208.627	-6.19
209.099	0.31
209.57	-3.59
210.042	-6.29
210.514	-2.59
210.986	-1.59
211.458	-12.89
211.93	-0.99
212.402	-0.49
212.873	-8.99
213.345	-8.89
213.817	-7.19
214.288	-3.79
214.76	-10.09
215.232	-0.89
215.703	-2.69
216.175	-3.69
216.646	-2.49
217.118	-3.39
217.589	6.11
218.061	-2.69
218.532	-5.89
219.004	-4.79
219.475	-6.09
219.946	-1.69
220.418	-4.89
220.889	7.11
221.36	0.11
221.832	-4.69
222.303	-7.49
222.774	-0.69
223.245	-9.19
223.717	-1.89
224.188	-7.09
224.659	-8.79
225.13	-10.19
225.601	-5.09
226.072	-0.39
226.543	3.51
227.014	-1.49
227.485	-4.59
227.956	-1.69
228.427	-6.09
228.898	1.21
229.369	3.01
229.839	-6.99
230.31	-3.59
230.781	5.51
231.252	-0.69
231.722	-7.09
232.193	2.41
232.664	1.21
233.135	3.11
233.605	1.01
234.076	-3.29
234.546	5.11
235.017	3.21
235.487	-0.39
235.958	-1.69
236.428	-2.99
236.899	5.11
237.369	6.21
237.84	-2.89
238.31	8.71
238.78	1.51
239.251	0.11
239.721	2.31
240.191	6.41
240.662	1.21
241.132	4.91
241.602	1.21
242.072	2.41
242.542	11.71
243.013	2.11
243.483	6.41
243.953	3.01
244.423	0.21
244.893	-1.39
245.363	8.51
245.833	1.61
246.303	8.01
246.773	11.31
247.243	3.91
247.712	4.41
248.182	8.11
248.652	8.21
249.122	4.71
249.592	16.81
250.061	22.31
250.531	34.11
251.001	20.01
251.471	24.11
251.94	17.91
252.41	7.81
252.879	2.81
253.349	18.31
253.818	9.91
254.288	7.61
254.757	7.81
255.227	5.61
255.696	4.81
256.166	3.11
256.635	8.71
257.105	12.11
257.574	7.61
258.043	9.01
258.513	17.51
258.982	24.71
259.451	16.81
259.92	16.31
260.389	12.71
260.859	22.01
261.328	15.81
261.797	21.31
262.266	14.01
262.735	15.11
263.204	7.51
263.673	4.51
264.142	7.11
264.611	-4.59
265.08	4.21
265.549	-1.99
266.018	5.31
266.487	1.81
266.955	-1.39
267.424	2.71
267.893	10.81
268.362	6.71
268.83	5.21
269.299	16.51
269.768	9.61
270.236	14.01
270.705	6.91
271.174	11.81
271.642	12.81
272.111	14.11
272.579	16.51
273.048	25.61
273.516	34.91
273.985	29.91
274.453	31.51
274.922	20.41
275.39	14.61
275.858	6.11
276.327	13.21
276.795	18.81
277.263	10.51
277.731	32.21
278.2	62.81
278.668	62.31
279.136	55.21
279.604	24.31
280.072	20.41
280.54	12.61
281.008	11.71
281.477	9.31
281.945	13.71
282.413	20.21
282.881	18.51
283.348	11.91
283.816	15.41
284.284	20.61
284.752	22.11
285.22	15.31
285.688	19.91
286.156	27.11
286.623	46.21
287.091	56.91
287.559	33.11
288.026	22.81
288.494	19.11
288.962	7.51
289.429	15.51
289.897	23.41
290.364	14.01
290.832	14.41
291.3	16.91
291.767	20.21
292.234	24.61
292.702	20.21
293.169	19.01
293.637	15.21
294.104	21.31
294.571	14.31
295.039	16.81
295.506	15.61
295.973	22.91
296.44	17.11
296.908	22.21
297.375	22.21
297.842	20.61
298.309	19.21
298.776	19.01
299.243	22.91
299.71	23.11
300.177	18.11
300.644	24.61
301.111	21.71
301.578	26.71
302.045	15.51
302.512	25.81
302.979	30.11
303.446	26.31
303.913	20.41
304.379	19.81
304.846	28.71
305.313	26.41
305.78	28.01
306.246	26.71
306.713	33.21
307.18	32.61
307.646	31.01
308.113	31.61
308.579	22.01
309.046	26.81
309.512	32.41
309.979	22.41
310.445	31.41
310.912	31.31
311.378	33.41
311.845	32.91
312.311	31.11
312.777	31.91
313.244	33.51
313.71	39.41
314.176	33.41
314.642	31.31
315.109	36.31
315.575	38.51
316.041	37.91
316.507	36.41
316.973	44.81
317.439	38.21
317.905	41.81
318.371	41.81
318.837	37.51
319.303	37.51
319.769	40.51
320.235	38.21
320.701	39.51
321.167	35.41
321.633	34.71
322.099	36.51
322.564	46.91
323.03	46.91
323.496	47.11
323.962	46.11
324.427	39.01
324.893	48.61
325.359	41.61
325.824	43.21
326.29	38.41
326.755	41.91
327.221	40.61
327.686	40.61
328.152	52.41
328.617	41.81
329.083	54.61
329.548	57.31
330.014	51.61
330.479	44.51
330.944	44.51
331.41	45.51
331.875	49.51
332.34	44.61
332.805	49.91
333.271	54.11
333.736	50.31
334.201	53.31
334.666	57.01
335.131	58.91
335.596	55.61
336.061	55.51
336.526	48.01
336.991	51.51
337.456	56.31
337.921	57.81
338.386	43.31
338.851	48.81
339.316	51.41
339.781	55.91
340.246	53.31
340.711	51.01
341.175	50.11
341.64	50.41
342.105	56.61
342.569	52.71
343.034	64.71
343.499	60.11
343.963	52.71
344.428	59.71
344.893	61.21
345.357	70.61
345.822	62.51
346.286	72.71
346.751	70.71
347.215	71.21
347.679	81.61
348.144	99.71
348.608	91.41
349.073	66.51
349.537	72.71
350.001	74.91
350.465	94.21
350.93	87.71
351.394	79.41
351.858	82.21
352.322	92.01
352.786	86.81
353.25	105.31
353.715	105.51
354.179	100.11
354.643	131.31
355.107	130.81
355.571	116.31
356.035	107.31
356.498	118.51
356.962	123.61
357.426	135.81
357.89	117.91
358.354	89.61
358.818	84.91
359.281	79.31
359.745	72.91
360.209	81.21
360.673	77.11
361.136	80.41
361.6	89.81
362.064	88.61
362.527	84.91
362.991	92.51
363.454	84.81
363.918	76.71
364.381	86.11
364.845	83.11
365.308	90.51
365.772	88.01
366.235	82.91
366.698	83.41
367.162	85.61
367.625	89.21
368.088	88.41
368.552	89.71
369.015	82.51
369.478	98.51
369.941	109.91
370.404	101.21
370.867	112.31
371.331	106.31
371.794	115.11
372.257	121.61
372.72	127.71
373.183	112.91
373.646	109.51
374.109	108.81
374.572	111.11
375.035	110.01
375.497	112.41
375.96	106.81
376.423	103.41
376.886	108.81
377.349	119.01
377.811	108.41
378.274	102.61
378.737	109.61
379.199	117.11
379.662	116.71
380.125	122.71
380.587	124.31
381.05	124.91
381.512	134.61
381.975	134.21
382.437	133.31
382.9	128.91
383.362	138.21
383.825	144.21
384.287	145.21
384.75	146.81
385.212	144.41
385.674	139.71
386.136	131.21
386.599	129.41
387.061	131.01
387.523	131.01
387.985	141.21
388.447	146.81
388.91	143.41
389.372	167.11
389.834	160.01
390.296	148.21
390.758	165.31
391.22	168.51
391.682	210.91
392.144	308.51
392.606	235.41
393.068	172.41
393.529	172.91
393.991	150.61
394.453	151.91
394.915	155.81
395.377	188.71
395.838	219.71
396.3	163.31
396.762	139.01
397.224	133.91
397.685	128.61
398.147	133.11
398.608	134.71
399.07	132.41
399.531	137.61
399.993	143.91
400.454	153.91
400.916	141.11
401.377	143.71
401.839	154.51
402.3	161.41
402.762	171.51
403.223	177.91
403.684	177.71
404.145	163.81
404.607	161.41
405.068	164.81
405.529	171.21
405.99	181.61
406.451	179.61
406.913	170.41
407.374	161.91
407.835	158.01
408.296	160.81
408.757	170.31
409.218	185.91
409.679	181.81
410.14	182.71
410.601	188.31
411.062	187.81
411.522	194.71
411.983	195.91
412.444	173.91
412.905	178.01
413.366	180.71
413.826	194.71
414.287	224.11
414.748	259.41
415.208	242.51
415.669	215.41
416.13	208.21
416.59	204.01
417.051	215.41
417.511	227.01
417.972	249.01
418.432	249.21
418.893	289.61
419.353	248.81
419.814	193.51
420.274	183.11
420.734	179.61
421.195	195.91
421.655	197.21
422.115	197.81
422.576	191.91
423.036	197.01
423.496	209.51
423.956	217.71
424.416	232.31
424.876	267.61
425.336	260.41
425.797	257.01
426.257	256.81
426.717	244.31
427.177	234.21
427.637	226.11
428.097	238.41
428.556	250.91
429.016	279.81
429.476	272.11
429.936	282.81
430.396	279.51
430.856	293.31
431.315	322.01
431.775	351.61
432.235	382.81
432.694	350.91
433.154	359.91
433.614	390.71
434.073	332.11
434.533	283.31
434.993	279.71
435.452	289.91
435.912	293.71
436.371	295.41
436.83	282.41
437.29	272.81
437.749	249.81
438.209	252.51
438.668	269.01
439.127	288.21
439.587	270.21
440.046	252.11
440.505	266.61
440.964	281.61
441.424	328.11
441.883	320.61
442.342	256.11
442.801	233.51
443.26	225.41
443.719	225.31
444.178	223.11
444.637	207.81
445.096	217.21
445.555	226.91
446.014	229.51
446.473	228.71
446.932	228.51
447.391	228.61
447.849	226.01
448.308	218.51
448.767	227.91
449.226	241.21
449.685	240.91
450.143	248.61
450.602	237.21
451.061	219.41
451.519	237.91
451.978	236.81
452.436	237.91
452.895	238.81
453.353	254.51
453.812	242.21
454.27	242.11
454.729	243.11
455.187	249.61
455.646	249.71
456.104	253.31
456.562	266.11
457.021	270.61
457.479	257.91
457.937	272.51
458.395	259.71
458.854	240.31
459.312	261.71
459.77	280.81
460.228	261.41
460.686	244.61
461.144	247.71
461.602	245.61
462.06	248.51
462.518	252.41
462.976	255.71
463.434	265.51
463.892	272.61
464.35	281.71
464.808	290.31
465.266	275.91
465.724	270.71
466.181	276.01
466.639	270.01
467.097	287.31
467.555	300.21
468.012	305.91
468.47	307.91
468.928	336.31
469.385	342.21
469.843	347.31
470.3	350.11
470.758	358.31
471.215	386.01
471.673	412.01
472.13	398.71
472.588	419.41
473.045	373.91
473.503	383.31
473.96	394.01
474.417	409.21
474.875	424.51
475.332	471.81
475.789	463.21
476.246	470.71
476.704	486.61
477.161	514.21
477.618	520.31
478.075	565.61
478.532	617.81
478.989	694.81
479.446	810.01
479.903	772.01
480.36	813.11
480.817	872.71
481.274	976.31
481.731	1082.61
482.188	1184.91
482.645	1319.01
483.102	1426.91
483.558	1572.21
484.015	1623.21
484.472	1590.21
484.929	1533.71
485.385	1499.81
485.842	1453.01
486.299	1393.61
486.755	1310.01
487.212	1101.91
487.668	926.21
488.125	866.91
488.582	786.21
489.038	748.81
489.494	719.21
489.951	688.31
490.407	679.51
490.864	651.91
491.32	657.11
491.776	646.41
492.233	643.71
492.689	609.01
493.145	602.41
493.602	596.91
494.058	626.51
494.514	623.91
494.97	643.01
495.426	642.31
495.882	629.41
496.338	618.41
496.794	631.51
497.251	620.71
497.707	644.61
498.163	641.61
498.618	657.61
499.074	652.21
499.53	683.11
499.986	675.61
500.442	648.01
500.898	642.41
501.354	636.41
501.809	638.91
502.265	648.41
502.721	659.31
503.177	675.41
503.632	672.01
504.088	678.51
504.543	716.31
504.999	703.41
505.455	659.21
505.91	639.51
506.366	630.41
506.821	632.21
507.277	624.41
507.732	623.31
508.187	625.41
508.643	641.51
509.098	641.91
509.553	651.01
510.009	660.51
510.464	677.51
510.919	690.31
511.375	688.11
511.83	697.61
512.285	725.31
512.74	766.41
513.195	785.41
513.65	776.41
514.105	770.11
514.56	775.11
515.015	796.11
515.47	809.91
515.925	805.81
516.38	792.01
516.835	794.91
517.29	785.91
517.745	767.41
518.2	754.91
518.655	765.91
519.109	744.81
519.564	741.21
520.019	735.41
520.474	728.31
520.928	724.91
521.383	720.61
521.838	715.51
522.292	709.01
522.747	711.51
523.201	700.41
523.656	695.71
524.11	689.81
524.565	690.51
525.019	688.51
525.474	691.71
525.928	700.11
526.382	695.31
526.837	692.11
527.291	697.51
527.745	700.21
528.2	709.71
528.654	683.41
529.108	691.11
529.562	691.51
530.016	686.61
530.47	686.01
530.925	690.41
531.379	704.71
531.833	711.41
532.287	695.71
532.741	712.01
533.195	710.81
533.649	709.91
534.103	719.61
534.556	707.31
535.01	712.61
535.464	704.31
535.918	727.11
536.372	721.31
536.826	712.11
537.279	706.61
537.733	711.21
538.187	723.11
538.64	713.91
539.094	714.71
539.548	719.31
540.001	726.01
540.455	715.51
540.908	715.61
541.362	730.31
541.815	736.81
542.269	751.51
542.722	749.51
543.175	763.91
543.629	778.01
544.082	777.51
544.536	776.21
544.989	766.81
545.442	788.71
545.895	790.31
546.349	781.61
546.802	787.31
547.255	792.71
547.708	798.41
548.161	806.51
548.614	816.21
549.067	821.81
549.52	821.41
549.973	808.71
550.426	807.91
550.879	794.71
551.332	792.91
551.785	810.11
552.238	806.81
552.691	813.01
553.144	827.41
553.596	837.31
554.049	852.91
554.502	879.91
554.955	906.81
555.407	904.31
555.86	888.51
556.313	882.81
556.765	864.51
557.218	874.61
557.67	877.91
558.123	861.11
558.576	867.61
559.028	870.41
559.48	869.71
559.933	856.41
560.385	829.11
560.838	810.81
561.29	774.01
561.742	772.01
562.195	751.81
562.647	749.11
563.099	759.81
563.551	766.01
564.004	775.61
564.456	765.11
564.908	758.41
565.36	745.61
565.812	730.21
566.264	724.31
566.716	710.31
567.168	705.31
567.62	711.81
568.072	689.11
568.524	686.61
568.976	680.81
569.428	671.01
569.88	674.41
570.332	668.71
570.784	668.71
571.235	669.21
571.687	681.91
572.139	693.61
572.59	699.51
573.042	694.61
573.494	696.91
573.945	699.31
574.397	675.91
574.849	679.61
575.3	683.51
575.752	658.31
576.203	660.31
576.655	672.21
577.106	653.91
577.557	653.51
578.009	660.21
578.46	654.41
578.912	656.01
579.363	648.81
579.814	662.31
580.265	643.61
580.717	650.01
581.168	652.01
581.619	666.31
582.07	672.61
582.521	667.51
582.972	656.11
583.423	663.21
583.875	669.81
584.326	689.51
584.777	732.11
585.227	814.41
585.678	901.51
586.129	990.11
586.58	1072.31
587.031	1151.41
587.482	1324.51
587.933	1503.21
588.384	1302.01
588.834	961.61
589.285	784.01
589.736	757.71
590.186	748.31
590.637	751.91
591.088	724.01
591.538	716.31
591.989	707.81
592.439	710.91
592.89	702.61
593.34	698.11
593.791	695.51
594.241	694.61
594.692	697.61
595.142	687.71
595.593	680.91
596.043	684.31
596.493	694.31
596.943	689.71
597.394	698.51
597.844	698.11
598.294	712.41
598.744	730.41
599.195	757.81
599.645	793.41
600.095	830.61
600.545	884.81
600.995	937.41
601.445	995.01
601.895	1064.71
602.345	1101.91
602.795	1078.11
603.245	1038.61
603.695	994.71
604.145	922.91
604.594	886.81
605.044	832.51
605.494	780.01
605.944	729.91
606.393	723.01
606.843	712.71
607.293	717.61
607.743	712.71
608.192	717.11
608.642	733.11
609.091	742.21
609.541	745.91
609.99	740.41
610.44	751.11
610.889	694.01
611.339	686.01
611.788	662.81
612.238	674.41
612.687	693.01
613.136	700.31
613.586	715.91
614.035	712.11
614.484	739.71
614.933	745.21
615.383	730.61
615.832	714.31
616.281	692.11
616.73	662.91
617.179	644.51
617.628	636.81
618.077	613.51
618.526	606.71
618.975	593.21
619.424	590.41
619.873	587.61
620.322	601.71
620.771	586.51
621.22	588.01
621.669	569.51
622.118	568.21
622.567	557.81
623.015	552.11
623.464	550.81
623.913	537.11
624.361	538.71
624.81	521.51
625.259	531.91
625.707	536.41
626.156	533.51
626.604	544.31
627.053	538.61
627.501	540.51
627.95	542.61
628.398	554.41
628.847	547.61
629.295	545.81
629.744	541.11
630.192	548.81
630.64	545.81
631.089	540.31
631.537	546.51
631.985	557.51
632.433	568.11
632.881	584.71
633.33	634.11
633.778	616.11
634.226	541.41
634.674	547.21
635.122	566.01
635.57	569.81
636.018	595.11
636.466	554.01
636.914	544.81
637.362	547.71
637.81	547.91
638.258	558.21
638.705	560.51
639.153	574.01
639.601	585.61
640.049	605.01
640.497	647.41
640.944	670.81
641.392	610.51
641.84	591.71
642.287	559.91
642.735	538.21
643.182	548.21
643.63	552.51
644.078	561.41
644.525	559.11
644.973	573.61
645.42	571.11
645.867	596.11
646.315	613.81
646.762	638.01
647.21	657.81
647.657	684.51
648.104	712.81
648.551	746.01
648.999	807.81
649.446	881.21
649.893	966.21
650.34	1102.11
650.787	1326.21
651.234	1649.51
651.682	2148.81
652.129	2931.21
652.576	4226.21
653.023	6265.11
653.47	8631.41
653.917	10844.71
654.363	12576.91
654.81	14045.01
655.257	13365.41
655.704	8700.81
656.151	5114.21
656.598	3314.01
657.044	2343.71
657.491	1795.41
657.938	1431.51
658.385	1186.21
658.831	1038.61
659.278	925.61
659.724	815.01
660.171	749.91
660.618	687.41
661.064	652.21
661.511	631.51
661.957	616.31
662.404	618.71
662.85	611.71
663.296	595.01
663.743	530.41
664.189	507.41
664.635	503.61
665.082	495.41
665.528	498.01
665.974	490.41
666.42	480.41
666.867	483.01
667.313	464.51
667.759	459.91
668.205	455.41
668.651	461.41
669.097	459.91
669.543	475.21
669.989	450.21
670.435	434.41
670.881	419.31
671.327	431.81
671.773	446.51
672.219	456.91
672.665	514.01
673.11	544.31
673.556	586.71
674.002	625.21
674.448	614.51
674.893	514.31
675.339	450.91
675.785	417.41
676.23	401.31
676.676	366.61
677.122	357.61
677.567	353.91
678.013	350.91
678.458	335.11
678.904	333.31
679.349	334.91
679.794	340.01
680.24	332.21
680.685	325.01
681.131	336.71
681.576	330.41
682.021	338.51
682.466	329.41
682.912	330.31
683.357	326.31
683.802	358.01
684.247	394.01
684.692	421.91
685.137	463.41
685.583	512.71
686.028	526.41
686.473	489.71
686.918	423.81
687.363	393.21
687.807	369.01
688.252	352.31
688.697	339.81
689.142	318.71
689.587	308.71
690.032	305.81
690.477	321.81
690.921	328.21
691.366	357.01
691.811	369.81
692.255	407.51
692.7	422.51
693.145	467.31
693.589	639.21
694.034	1032.91
694.478	1432.91
694.923	1633.11
695.367	2138.91
695.812	1124.21
696.256	468.61
696.701	353.11
697.145	326.41
697.59	319.51
698.034	300.91
698.478	311.61
698.922	308.81
699.367	309.41
699.811	314.51
700.255	332.91
700.699	353.71
701.143	398.51
701.588	444.31
702.032	478.71
702.476	477.51
702.92	462.21
703.364	453.61
703.808	584.21
704.252	949.11
704.696	1350.11
705.14	1569.21
705.584	2022.41
706.027	1005.51
706.471	494.81
706.915	373.01
707.359	326.21
707.803	301.91
708.246	293.21
708.69	295.01
709.134	305.21
709.577	295.31
710.021	293.51
710.465	288.11
710.908	278.01
711.352	271.41
711.795	290.91
712.239	325.41
712.682	363.91
713.126	389.71
713.569	443.21
714.012	355.11
714.456	306.21
714.899	276.61
715.342	261.11
715.786	238.31
716.229	243.01
716.672	237.51
717.115	231.51
717.558	230.51
718.002	232.91
718.445	245.61
718.888	265.51
719.331	270.81
719.774	287.51
720.217	282.11
720.66	268.51
721.103	252.61
721.546	239.01
721.989	234.51
722.432	222.11
722.874	222.11
723.317	215.91
723.76	221.51
724.203	242.71
724.645	292.31
725.088	407.91
725.531	531.01
725.974	601.71
726.416	519.21
726.859	289.61
727.301	225.41
727.744	219.51
728.187	218.81
728.629	226.81
729.071	227.31
729.514	249.81
729.956	264.51
730.399	263.81
730.841	272.51
731.283	250.21
731.726	241.41
732.168	245.71
732.61	247.21
733.053	258.71
733.495	293.51
733.937	331.51
734.379	368.61
734.821	399.71
735.263	498.01
735.705	752.71
736.148	1412.71
736.59	2384.61
737.032	2874.71
737.474	2347.81
737.916	754.91
738.357	396.31
738.799	303.31
739.241	278.01
739.683	265.81
740.125	274.71
740.567	278.71
741.008	293.61
741.45	298.51
741.892	295.01
742.334	326.61
742.775	335.21
743.217	319.41
743.658	248.61
744.1	233.71
744.542	239.81
744.983	291.71
745.425	325.11
745.866	328.61
746.307	262.21
746.749	262.51
747.19	298.21
747.632	404.11
748.073	784.71
748.514	1694.81
748.956	2645.61
749.397	3306.51
749.838	2741.91
750.279	2776.21
750.72	1393.81
751.162	507.61
751.603	294.51
752.044	232.51
752.485	209.21
752.926	189.91
753.367	190.81
753.808	181.41
754.249	176.51
754.69	177.01
755.131	168.61
755.572	172.21
756.013	169.41
756.453	168.41
756.894	171.61
757.335	176.11
757.776	184.51
758.216	185.61
758.657	184.51
759.098	184.31
759.538	210.81
759.979	239.31
760.42	334.81
760.86	626.71
761.301	1626.81
761.741	4018.11
762.182	6088.41
