Data from 20171114-ORNL-Ar_H_NY_Subt18_08-04-53-655.txt Node
Date: Tue Nov 14 08:04:53 EST 2017
User: Ender
Spectrometer: HR+D1039
Trigger mode: 0
Integration Time (sec): 2.730000E-2
Scans to average: 10
Electric dark correction enabled: true
Nonlinearity correction enabled: false
Boxcar width: 0
XAxis mode: Wavelengths
Number of Pixels in Spectrum: 2048
>>>>>Begin Spectral Data<<<<<
187.836	1.84
188.309	1.84
188.782	1.84
189.255	3.64
189.728	2.64
190.201	1.94
190.674	-1.36
191.147	1.34
191.619	-8.66
192.092	0.94
192.565	2.44
193.038	1.34
193.511	-4.46
193.984	2.84
194.456	0.04
194.929	-0.26
195.402	-3.26
195.874	-0.96
196.347	-0.56
196.82	-4.96
197.292	2.04
197.765	1.24
198.237	-1.66
198.71	2.34
199.182	-0.36
199.655	2.74
200.127	2.74
200.6	2.24
201.072	-3.06
201.544	-2.96
202.017	-4.76
202.489	10.14
202.961	0.04
203.433	-2.06
203.906	-6.36
204.378	-6.46
204.85	-6.06
205.322	-11.46
205.794	1.14
206.266	-0.76
206.739	-7.86
207.211	-4.16
207.683	-1.56
208.155	-6.16
208.627	-4.96
209.099	-0.26
209.57	1.74
210.042	-2.26
210.514	1.74
210.986	1.94
211.458	-9.36
211.93	-4.46
212.402	-0.36
212.873	-0.76
213.345	-8.96
213.817	-9.46
214.288	-2.36
214.76	-11.66
215.232	-1.86
215.703	-2.56
216.175	-1.06
216.646	-1.16
217.118	-3.86
217.589	-1.16
218.061	-0.66
218.532	-2.86
219.004	-5.26
219.475	-2.76
219.946	1.34
220.418	-0.46
220.889	5.04
221.36	-3.26
221.832	-2.96
222.303	-1.26
222.774	6.94
223.245	-4.96
223.717	-11.56
224.188	-1.96
224.659	-6.96
225.13	-6.46
225.601	-0.56
226.072	3.04
226.543	-3.06
227.014	-1.36
227.485	-0.86
227.956	-4.06
228.427	-2.16
228.898	5.74
229.369	5.74
229.839	1.04
230.31	-10.16
230.781	4.54
231.252	-0.26
231.722	-1.46
232.193	-5.06
232.664	3.84
233.135	1.44
233.605	-5.46
234.076	-8.16
234.546	0.14
235.017	4.44
235.487	7.44
235.958	0.74
236.428	0.04
236.899	1.54
237.369	5.94
237.84	0.84
238.31	8.64
238.78	8.44
239.251	2.84
239.721	5.14
240.191	3.44
240.662	-0.66
241.132	3.34
241.602	-0.66
242.072	-0.86
242.542	5.44
243.013	2.24
243.483	6.04
243.953	6.94
244.423	1.64
244.893	-3.76
245.363	5.44
245.833	1.54
246.303	0.24
246.773	11.64
247.243	7.74
247.712	3.94
248.182	7.34
248.652	12.74
249.122	4.14
249.592	14.64
250.061	24.74
250.531	34.04
251.001	19.04
251.471	24.44
251.94	19.54
252.41	8.84
252.879	4.14
253.349	17.14
253.818	8.74
254.288	10.64
254.757	5.54
255.227	4.04
255.696	6.04
256.166	13.04
256.635	6.94
257.105	9.24
257.574	14.44
258.043	10.84
258.513	17.74
258.982	18.54
259.451	13.04
259.92	12.54
260.389	17.54
260.859	21.34
261.328	18.14
261.797	15.64
262.266	10.44
262.735	18.34
263.204	9.54
263.673	5.64
264.142	7.64
264.611	5.54
265.08	3.44
265.549	-0.66
266.018	5.64
266.487	1.74
266.955	6.74
267.424	7.44
267.893	13.44
268.362	3.14
268.83	7.14
269.299	12.24
269.768	10.24
270.236	11.34
270.705	9.64
271.174	14.54
271.642	11.34
272.111	15.54
272.579	14.84
273.048	28.24
273.516	32.64
273.985	30.44
274.453	25.04
274.922	21.54
275.39	13.34
275.858	3.64
276.327	15.04
276.795	19.14
277.263	16.84
277.731	33.54
278.2	55.04
278.668	61.14
279.136	54.94
279.604	26.84
280.072	17.94
280.54	21.04
281.008	9.54
281.477	20.94
281.945	15.04
282.413	17.24
282.881	21.44
283.348	14.54
283.816	18.04
284.284	20.94
284.752	22.34
285.22	12.74
285.688	18.34
286.156	22.14
286.623	49.84
287.091	57.34
287.559	35.04
288.026	25.84
288.494	16.74
288.962	3.74
289.429	9.04
289.897	18.44
290.364	19.44
290.832	21.94
291.3	17.14
291.767	22.44
292.234	25.24
292.702	19.74
293.169	23.04
293.637	28.34
294.104	20.64
294.571	13.94
295.039	11.44
295.506	22.84
295.973	19.24
296.44	18.24
296.908	19.54
297.375	23.84
297.842	25.44
298.309	19.24
298.776	17.64
299.243	28.34
299.71	12.94
300.177	24.14
300.644	30.44
301.111	23.24
301.578	28.04
302.045	19.34
302.512	27.94
302.979	26.14
303.446	21.84
303.913	24.74
304.379	22.24
304.846	29.34
305.313	28.94
305.78	26.94
306.246	28.54
306.713	30.04
307.18	29.24
307.646	37.24
308.113	29.44
308.579	28.54
309.046	32.54
309.512	28.74
309.979	24.64
310.445	32.14
310.912	30.14
311.378	33.74
311.845	37.04
312.311	28.44
312.777	42.14
313.244	34.04
313.71	45.14
314.176	36.24
314.642	37.44
315.109	35.14
315.575	42.04
316.041	46.44
316.507	40.34
316.973	45.44
317.439	36.54
317.905	43.64
318.371	37.74
318.837	39.84
319.303	37.54
319.769	39.44
320.235	46.44
320.701	40.44
321.167	46.44
321.633	36.24
322.099	48.34
322.564	41.74
323.03	44.84
323.496	44.44
323.962	46.84
324.427	41.94
324.893	42.24
325.359	47.34
325.824	39.04
326.29	40.14
326.755	44.64
327.221	42.64
327.686	44.34
328.152	51.34
328.617	49.34
329.083	52.44
329.548	53.24
330.014	50.84
330.479	42.44
330.944	54.14
331.41	49.94
331.875	52.54
332.34	50.94
332.805	45.94
333.271	51.24
333.736	47.94
334.201	56.84
334.666	59.84
335.131	55.14
335.596	57.24
336.061	52.74
336.526	55.64
336.991	53.24
337.456	57.14
337.921	54.64
338.386	41.34
338.851	47.74
339.316	50.44
339.781	52.64
340.246	52.84
340.711	49.54
341.175	52.64
341.64	48.94
342.105	56.24
342.569	61.14
343.034	64.44
343.499	63.24
343.963	53.44
344.428	65.64
344.893	63.64
345.357	67.84
345.822	65.94
346.286	71.04
346.751	79.04
347.215	75.14
347.679	79.84
348.144	106.44
348.608	92.04
349.073	75.14
349.537	79.04
350.001	77.24
350.465	94.24
350.93	80.14
351.394	88.44
351.858	79.54
352.322	93.34
352.786	94.34
353.25	106.54
353.715	111.34
354.179	99.14
354.643	131.24
355.107	129.34
355.571	111.94
356.035	110.24
356.498	124.94
356.962	130.14
357.426	141.24
357.89	122.84
358.354	101.04
358.818	89.84
359.281	83.54
359.745	77.94
360.209	75.44
360.673	77.94
361.136	79.04
361.6	88.64
362.064	90.14
362.527	91.14
362.991	89.84
363.454	80.14
363.918	82.84
364.381	78.14
364.845	84.34
365.308	89.34
365.772	93.74
366.235	84.84
366.698	89.24
367.162	90.04
367.625	84.04
368.088	95.84
368.552	96.44
369.015	96.34
369.478	108.04
369.941	96.94
370.404	96.44
370.867	103.64
371.331	105.04
371.794	119.84
372.257	115.34
372.72	112.84
373.183	116.34
373.646	107.74
374.109	105.84
374.572	111.64
375.035	109.84
375.497	112.74
375.96	102.54
376.423	107.74
376.886	116.04
377.349	117.44
377.811	108.84
378.274	115.84
378.737	109.94
379.199	110.94
379.662	121.24
380.125	115.34
380.587	121.14
381.05	125.24
381.512	130.34
381.975	132.14
382.437	135.54
382.9	123.14
383.362	132.84
383.825	144.94
384.287	145.14
384.75	138.04
385.212	135.34
385.674	147.84
386.136	138.04
386.599	127.84
387.061	131.94
387.523	130.34
387.985	136.34
388.447	146.94
388.91	143.74
389.372	156.84
389.834	149.14
390.296	140.04
390.758	155.54
391.22	167.54
391.682	207.44
392.144	278.64
392.606	219.24
393.068	168.64
393.529	167.24
393.991	150.44
394.453	146.24
394.915	155.84
395.377	188.14
395.838	204.94
396.3	154.24
396.762	142.44
397.224	140.84
397.685	138.54
398.147	138.54
398.608	131.44
399.07	134.04
399.531	139.74
399.993	147.24
400.454	156.04
400.916	146.14
401.377	151.54
401.839	146.94
402.3	149.74
402.762	166.14
403.223	180.34
403.684	167.54
404.145	165.74
404.607	161.54
405.068	166.04
405.529	170.64
405.99	183.44
406.451	176.84
406.913	176.44
407.374	164.24
407.835	168.14
408.296	164.24
408.757	170.14
409.218	186.34
409.679	172.74
410.14	164.54
410.601	178.94
411.062	184.04
411.522	186.24
411.983	188.04
412.444	178.94
412.905	180.54
413.366	184.14
413.826	190.24
414.287	209.94
414.748	265.54
415.208	249.54
415.669	218.54
416.13	209.24
416.59	207.54
417.051	215.24
417.511	223.24
417.972	237.44
418.432	246.94
418.893	286.84
419.353	254.54
419.814	194.04
420.274	180.94
420.734	179.84
421.195	193.74
421.655	195.84
422.115	190.84
422.576	192.64
423.036	192.84
423.496	201.24
423.956	209.54
424.416	234.84
424.876	265.54
425.336	251.94
425.797	257.54
426.257	249.24
426.717	240.64
427.177	230.34
427.637	219.14
428.097	235.44
428.556	248.74
429.016	268.64
429.476	258.64
429.936	269.54
430.396	276.44
430.856	298.04
431.315	308.94
431.775	339.64
432.235	375.44
432.694	346.14
433.154	362.14
433.614	382.94
434.073	326.94
434.533	283.64
434.993	265.14
435.452	275.44
435.912	291.24
436.371	282.54
436.83	273.64
437.29	267.74
437.749	248.04
438.209	248.84
438.668	269.44
439.127	280.74
439.587	261.14
440.046	247.54
440.505	258.74
440.964	276.84
441.424	316.14
441.883	307.24
442.342	257.84
442.801	223.14
443.26	217.74
443.719	215.94
444.178	222.54
444.637	207.74
445.096	220.54
445.555	219.94
446.014	219.44
446.473	226.64
446.932	230.44
447.391	223.24
447.849	224.94
448.308	216.24
448.767	223.24
449.226	231.44
449.685	232.44
450.143	242.54
450.602	238.24
451.061	224.14
451.519	238.04
451.978	234.04
452.436	231.74
452.895	243.04
453.353	252.94
453.812	234.64
454.27	237.34
454.729	236.84
455.187	240.04
455.646	244.84
456.104	242.94
456.562	262.54
457.021	265.14
457.479	258.34
457.937	268.54
458.395	254.24
458.854	245.64
459.312	261.44
459.77	269.54
460.228	251.94
460.686	241.14
461.144	246.14
461.602	241.34
462.06	240.24
462.518	253.94
462.976	256.04
463.434	258.84
463.892	264.94
464.35	272.64
464.808	288.24
465.266	263.14
465.724	272.04
466.181	275.44
466.639	262.04
467.097	281.34
467.555	303.44
468.012	299.44
468.47	307.24
468.928	336.64
469.385	331.94
469.843	346.54
470.3	344.14
470.758	355.24
471.215	376.64
471.673	397.94
472.13	395.44
472.588	409.64
473.045	369.04
473.503	374.24
473.96	385.84
474.417	406.24
474.875	425.64
475.332	459.14
475.789	449.44
476.246	455.84
476.704	481.84
477.161	499.74
477.618	512.94
478.075	544.74
478.532	603.74
478.989	679.34
479.446	788.34
479.903	754.94
480.36	802.84
480.817	847.84
481.274	949.34
481.731	1060.84
482.188	1148.34
482.645	1266.74
483.102	1378.84
483.558	1524.74
484.015	1553.14
484.472	1547.34
484.929	1491.24
485.385	1447.44
485.842	1407.14
486.299	1344.14
486.755	1266.24
487.212	1073.24
487.668	912.54
488.125	835.14
488.582	765.94
489.038	733.24
489.494	711.54
489.951	685.74
490.407	660.44
490.864	639.24
491.32	632.74
491.776	628.44
492.233	638.54
492.689	604.04
493.145	594.24
493.602	584.74
494.058	596.64
494.514	608.94
494.97	634.34
495.426	641.04
495.882	622.14
496.338	608.14
496.794	618.64
497.251	613.44
497.707	634.34
498.163	632.64
498.618	644.64
499.074	643.04
499.53	658.74
499.986	670.64
500.442	642.84
500.898	612.74
501.354	616.54
501.809	623.54
502.265	637.04
502.721	644.74
503.177	656.84
503.632	652.74
504.088	659.84
504.543	692.74
504.999	693.34
505.455	653.84
505.91	623.24
506.366	622.34
506.821	620.44
507.277	613.74
507.732	607.94
508.187	616.44
508.643	624.74
509.098	632.44
509.553	655.34
510.009	652.54
510.464	664.24
510.919	672.24
511.375	687.04
511.83	696.24
512.285	712.14
512.74	747.54
513.195	774.14
513.65	756.74
514.105	758.44
514.56	763.54
515.015	776.74
515.47	790.14
515.925	793.94
516.38	781.64
516.835	785.64
517.29	772.94
517.745	760.54
518.2	750.04
518.655	733.24
519.109	736.14
519.564	729.14
520.019	721.54
520.474	716.24
520.928	717.04
521.383	708.44
521.838	704.84
522.292	709.74
522.747	688.04
523.201	692.84
523.656	686.84
524.11	692.44
524.565	675.74
525.019	674.44
525.474	682.04
525.928	682.84
526.382	692.64
526.837	689.04
527.291	678.54
527.745	683.34
528.2	682.24
528.654	672.74
529.108	671.74
529.562	676.34
530.016	672.14
530.47	679.24
530.925	675.74
531.379	686.04
531.833	694.64
532.287	685.54
532.741	695.24
533.195	698.54
533.649	705.34
534.103	702.24
534.556	699.04
535.01	700.64
535.464	684.14
535.918	697.94
536.372	708.54
536.826	698.14
537.279	696.94
537.733	702.24
538.187	695.24
538.64	700.04
539.094	708.04
539.548	719.04
540.001	700.84
540.455	715.44
540.908	706.54
541.362	718.94
541.815	726.44
542.269	733.44
542.722	735.34
543.175	749.84
543.629	749.34
544.082	767.64
544.536	775.44
544.989	764.84
545.442	771.74
545.895	776.64
546.349	776.54
546.802	768.24
547.255	763.24
547.708	774.34
548.161	789.84
548.614	797.24
549.067	802.74
549.52	802.14
549.973	788.74
550.426	793.94
550.879	762.64
551.332	776.14
551.785	774.24
552.238	780.24
552.691	802.64
553.144	804.74
553.596	823.24
554.049	835.24
554.502	869.74
554.955	890.14
555.407	873.84
555.86	869.94
556.313	867.04
556.765	852.64
557.218	853.74
557.67	846.34
558.123	849.84
558.576	845.54
559.028	857.44
559.48	848.54
559.933	842.24
560.385	803.14
560.838	792.24
561.29	760.54
561.742	761.04
562.195	732.74
562.647	738.34
563.099	747.24
563.551	746.34
564.004	758.74
564.456	743.64
564.908	729.54
565.36	721.84
565.812	705.34
566.264	690.64
566.716	686.04
567.168	691.04
567.62	689.04
568.072	670.04
568.524	667.24
568.976	659.54
569.428	652.54
569.88	650.64
570.332	658.14
570.784	651.54
571.235	652.24
571.687	663.34
572.139	663.04
572.59	681.64
573.042	677.34
573.494	681.14
573.945	681.14
574.397	663.24
574.849	665.84
575.3	668.14
575.752	660.24
576.203	649.54
576.655	656.64
577.106	649.14
577.557	644.64
578.009	644.84
578.46	637.04
578.912	645.34
579.363	632.74
579.814	634.44
580.265	634.94
580.717	640.04
581.168	638.74
581.619	650.94
582.07	662.54
582.521	645.24
582.972	644.74
583.423	647.94
583.875	652.94
584.326	669.04
584.777	713.94
585.227	778.74
585.678	858.24
586.129	947.84
586.58	1018.94
587.031	1092.34
587.482	1230.04
587.933	1407.94
588.384	1224.94
588.834	918.64
589.285	766.54
589.736	738.24
590.186	741.84
590.637	731.94
591.088	708.24
591.538	701.94
591.989	688.84
592.439	692.54
592.89	688.84
593.34	666.44
593.791	671.74
594.241	668.74
594.692	670.14
595.142	672.44
595.593	657.14
596.043	663.74
596.493	675.54
596.943	677.14
597.394	689.24
597.844	670.74
598.294	686.04
598.744	705.14
599.195	732.84
599.645	764.74
600.095	806.04
600.545	854.24
600.995	908.84
601.445	964.74
601.895	1029.94
602.345	1062.24
602.795	1054.74
603.245	996.24
603.695	947.54
604.145	900.24
604.594	855.44
605.044	810.94
605.494	751.94
605.944	712.34
606.393	692.54
606.843	678.44
607.293	693.84
607.743	689.74
608.192	702.44
608.642	706.04
609.091	717.14
609.541	725.14
609.99	719.34
610.44	724.14
610.889	683.04
611.339	657.74
611.788	657.64
612.238	659.74
612.687	670.64
613.136	674.84
613.586	687.64
614.035	679.94
614.484	699.54
614.933	704.74
615.383	693.54
615.832	680.04
616.281	672.14
616.73	633.44
617.179	619.54
617.628	604.44
618.077	591.74
618.526	590.24
618.975	576.44
619.424	577.74
619.873	574.34
620.322	577.64
620.771	557.74
621.22	556.44
621.669	549.94
622.118	547.14
622.567	540.14
623.015	521.64
623.464	536.04
623.913	524.04
624.361	514.74
624.81	520.04
625.259	517.44
625.707	520.44
626.156	521.14
626.604	524.64
627.053	520.64
627.501	524.44
627.95	524.34
628.398	546.14
628.847	525.84
629.295	520.34
629.744	536.04
630.192	531.54
630.64	529.14
631.089	522.34
631.537	527.74
631.985	535.94
632.433	547.84
632.881	556.44
633.33	599.84
633.778	578.94
634.226	521.04
634.674	521.44
635.122	529.44
635.57	548.14
636.018	571.84
636.466	536.74
636.914	511.14
637.362	532.44
637.81	529.44
638.258	530.74
638.705	535.24
639.153	568.64
639.601	555.14
640.049	591.64
640.497	630.84
640.944	636.14
641.392	591.54
641.84	565.34
642.287	535.74
642.735	524.04
643.182	525.24
643.63	525.54
644.078	528.34
644.525	529.64
644.973	538.34
645.42	558.24
645.867	572.44
646.315	575.94
646.762	600.64
647.21	630.34
647.657	649.04
648.104	679.64
648.551	699.14
648.999	761.44
649.446	842.44
649.893	913.44
650.34	1051.94
650.787	1249.64
651.234	1563.44
651.682	2026.34
652.129	2759.54
652.576	3943.54
653.023	5843.64
653.47	8038.94
653.917	10121.74
654.363	11843.14
654.81	13228.74
655.257	12584.24
655.704	8199.34
656.151	4855.54
656.598	3135.24
657.044	2213.64
657.491	1712.84
657.938	1349.04
658.385	1135.34
658.831	986.94
659.278	889.24
659.724	777.94
660.171	721.04
660.618	657.24
661.064	625.54
661.511	610.14
661.957	598.54
662.404	582.04
662.85	597.94
663.296	569.64
663.743	507.74
664.189	493.14
664.635	483.04
665.082	479.84
665.528	478.14
665.974	473.04
666.42	461.84
666.867	464.74
667.313	448.84
667.759	437.74
668.205	432.84
668.651	441.74
669.097	443.34
669.543	451.94
669.989	433.94
670.435	415.84
670.881	403.84
671.327	403.94
671.773	424.54
672.219	446.94
672.665	489.84
673.11	530.74
673.556	574.84
674.002	612.14
674.448	611.04
674.893	495.94
675.339	433.24
675.785	399.84
676.23	380.04
676.676	359.94
677.122	347.34
677.567	336.54
678.013	328.34
678.458	322.44
678.904	328.44
679.349	316.44
679.794	323.64
680.24	317.64
680.685	313.24
681.131	316.74
681.576	320.04
682.021	319.64
682.466	311.44
682.912	311.74
683.357	315.04
683.802	339.94
684.247	373.44
684.692	414.24
685.137	446.54
685.583	482.44
686.028	505.84
686.473	470.34
686.918	403.24
687.363	370.74
687.807	353.24
688.252	315.64
688.697	317.14
689.142	304.54
689.587	303.34
690.032	293.84
690.477	310.94
690.921	314.64
691.366	345.54
691.811	360.54
692.255	389.34
692.7	421.14
693.145	446.54
693.589	603.54
694.034	992.54
694.478	1372.84
694.923	1563.34
695.367	2072.44
695.812	1089.94
696.256	450.94
696.701	336.04
697.145	311.54
697.59	298.94
698.034	290.14
698.478	294.64
698.922	292.64
699.367	300.04
699.811	303.44
700.255	314.84
700.699	344.94
701.143	377.24
701.588	424.64
702.032	469.04
702.476	464.94
702.92	440.94
703.364	440.94
703.808	566.24
704.252	914.34
704.696	1295.34
705.14	1521.44
705.584	1948.24
706.027	960.94
706.471	470.64
706.915	358.84
707.359	316.44
707.803	282.24
708.246	282.54
708.69	271.34
709.134	290.04
709.577	277.04
710.021	285.34
710.465	275.44
710.908	270.34
711.352	259.94
711.795	272.04
712.239	310.64
712.682	343.64
713.126	383.84
713.569	416.64
714.012	331.94
714.456	288.84
714.899	266.24
715.342	248.94
715.786	235.94
716.229	233.34
716.672	227.04
717.115	227.64
717.558	230.74
718.002	224.34
718.445	229.44
718.888	256.44
719.331	270.54
719.774	277.74
720.217	275.34
720.66	258.84
721.103	243.24
721.546	228.94
721.989	222.04
722.432	210.34
722.874	219.14
723.317	216.24
723.76	203.54
724.203	232.24
724.645	279.84
725.088	389.04
725.531	510.04
725.974	582.64
726.416	498.14
726.859	276.04
727.301	225.24
727.744	215.94
728.187	205.44
728.629	214.54
729.071	221.44
729.514	235.24
729.956	240.54
730.399	251.64
730.841	265.74
731.283	241.64
731.726	237.84
732.168	234.04
732.61	231.54
733.053	258.64
733.495	274.34
733.937	318.04
734.379	358.04
734.821	388.64
735.263	467.94
735.705	731.14
736.148	1373.04
736.59	2282.54
737.032	2793.14
737.474	2258.64
737.916	723.74
738.357	386.74
738.799	294.34
739.241	267.34
739.683	252.84
740.125	260.94
740.567	262.84
741.008	285.74
741.45	277.74
741.892	289.94
742.334	307.54
742.775	318.44
743.217	307.74
743.658	244.34
744.1	216.74
744.542	232.64
744.983	278.84
745.425	311.14
745.866	311.64
746.307	263.54
746.749	259.64
747.19	292.64
747.632	394.84
748.073	755.84
748.514	1612.64
748.956	2525.84
749.397	3192.84
749.838	2671.24
750.279	2715.14
750.72	1360.04
751.162	487.84
751.603	282.44
752.044	223.84
752.485	189.74
752.926	188.84
753.367	181.74
753.808	168.34
754.249	172.94
754.69	168.14
755.131	155.94
755.572	164.64
756.013	162.24
756.453	167.44
756.894	173.24
757.335	171.94
757.776	173.84
758.216	179.34
758.657	175.74
759.098	180.84
759.538	206.64
759.979	236.14
760.42	332.84
760.86	603.54
761.301	1562.04
761.741	3880.44
762.182	5920.84
762.622	4155.04
