Data from 20171114-ORNL-Ar_H_NY_Subt18_08-03-09-400.txt Node
Date: Tue Nov 14 08:03:09 EST 2017
User: Ender
Spectrometer: HR+D1039
Trigger mode: 0
Integration Time (sec): 2.730000E-2
Scans to average: 10
Electric dark correction enabled: true
Nonlinearity correction enabled: false
Boxcar width: 0
XAxis mode: Wavelengths
Number of Pixels in Spectrum: 2048
>>>>>Begin Spectral Data<<<<<
187.836	-6.81
188.309	-6.81
188.782	-6.81
189.255	1.79
189.728	2.29
190.201	1.59
190.674	4.39
191.147	3.29
191.619	-5.51
192.092	1.39
192.565	4.79
193.038	-2.61
193.511	2.59
193.984	-2.71
194.456	-0.01
194.929	-2.11
195.402	2.19
195.874	-4.61
196.347	-3.11
196.82	-2.51
197.292	2.99
197.765	2.09
198.237	-6.21
198.71	1.89
199.182	-4.31
199.655	3.19
200.127	6.59
200.6	-2.81
201.072	-4.61
201.544	-5.11
202.017	0.29
202.489	2.39
202.961	-6.31
203.433	-5.21
203.906	-7.41
204.378	-7.21
204.85	-5.11
205.322	-9.21
205.794	-3.61
206.266	-9.21
206.739	-14.21
207.211	0.69
207.683	-11.11
208.155	-12.21
208.627	-9.31
209.099	-7.51
209.57	-11.11
210.042	-4.91
210.514	-3.91
210.986	-4.81
211.458	-8.11
211.93	-3.11
212.402	2.39
212.873	-11.31
213.345	-5.41
213.817	-12.81
214.288	-0.91
214.76	-5.51
215.232	-6.11
215.703	-4.01
216.175	-4.11
216.646	-7.71
217.118	-9.21
217.589	-2.51
218.061	-7.51
218.532	-3.01
219.004	-1.11
219.475	-9.01
219.946	-0.11
220.418	-9.01
220.889	0.39
221.36	-4.71
221.832	-3.61
222.303	-17.01
222.774	0.59
223.245	-7.41
223.717	-14.51
224.188	-3.51
224.659	-9.81
225.13	-10.61
225.601	-6.61
226.072	-0.71
226.543	-7.71
227.014	-1.11
227.485	-4.31
227.956	-7.51
228.427	-2.71
228.898	1.49
229.369	4.89
229.839	-7.81
230.31	-8.41
230.781	-1.81
231.252	1.59
231.722	-6.51
232.193	-7.41
232.664	-3.91
233.135	-6.21
233.605	-5.41
234.076	-12.91
234.546	-3.01
235.017	0.99
235.487	-1.81
235.958	-4.71
236.428	-6.81
236.899	-5.01
237.369	-2.31
237.84	-1.51
238.31	-1.81
238.78	-4.51
239.251	-7.71
239.721	-5.91
240.191	-8.01
240.662	-6.31
241.132	-8.21
241.602	-12.81
242.072	0.19
242.542	1.69
243.013	-2.91
243.483	-4.81
243.953	-1.41
244.423	-3.31
244.893	-7.11
245.363	-4.31
245.833	-2.61
246.303	-6.01
246.773	1.59
247.243	-3.01
247.712	-4.91
248.182	2.79
248.652	-3.51
249.122	-12.81
249.592	-5.81
250.061	-4.21
250.531	-0.01
251.001	-7.91
251.471	2.99
251.94	0.79
252.41	-8.71
252.879	-15.61
253.349	1.49
253.818	-3.31
254.288	-7.31
254.757	0.09
255.227	-9.81
255.696	-1.31
256.166	-4.01
256.635	2.19
257.105	-1.21
257.574	-1.21
258.043	-3.61
258.513	-9.61
258.982	-0.61
259.451	-11.71
259.92	-7.91
260.389	-10.41
260.859	7.19
261.328	-0.61
261.797	4.39
262.266	-7.31
262.735	0.09
263.204	0.09
263.673	-10.41
264.142	1.39
264.611	-14.71
265.08	-1.71
265.549	-12.61
266.018	-5.21
266.487	-9.01
266.955	-9.31
267.424	-9.71
267.893	-2.31
268.362	-13.41
268.83	-2.61
269.299	2.39
269.768	-4.61
270.236	-4.71
270.705	-12.61
271.174	-5.91
271.642	-5.41
272.111	-5.31
272.579	-7.41
273.048	-1.81
273.516	-6.21
273.985	-3.91
274.453	-0.51
274.922	-1.91
275.39	-5.81
275.858	-10.21
276.327	-0.81
276.795	11.09
277.263	-9.71
277.731	6.29
278.2	-11.61
278.668	-2.81
279.136	2.89
279.604	-8.61
280.072	-0.61
280.54	-3.51
281.008	-9.01
281.477	-4.91
281.945	-4.81
282.413	-3.11
282.881	-1.31
283.348	-14.91
283.816	-1.61
284.284	-3.81
284.752	5.19
285.22	-9.61
285.688	1.19
286.156	-3.61
286.623	-1.21
287.091	-2.01
287.559	-1.41
288.026	-0.61
288.494	0.99
288.962	-10.31
289.429	-5.21
289.897	4.09
290.364	-4.01
290.832	-3.71
291.3	-1.81
291.767	-2.11
292.234	-5.51
292.702	-11.61
293.169	-0.51
293.637	-3.01
294.104	2.59
294.571	-11.51
295.039	-10.71
295.506	-7.11
295.973	-1.31
296.44	-0.21
296.908	-5.91
297.375	-5.31
297.842	-7.31
298.309	-8.51
298.776	-7.01
299.243	1.49
299.71	-9.51
300.177	4.79
300.644	-1.21
301.111	-2.91
301.578	1.09
302.045	-15.11
302.512	3.39
302.979	1.39
303.446	-2.61
303.913	-1.41
304.379	-11.61
304.846	4.79
305.313	0.09
305.78	-6.01
306.246	-3.31
306.713	2.99
307.18	-5.01
307.646	-3.61
308.113	-1.41
308.579	-5.01
309.046	0.19
309.512	-2.11
309.979	-6.71
310.445	-6.41
310.912	-4.71
311.378	-3.11
311.845	-4.11
312.311	-2.81
312.777	-2.11
313.244	-0.91
313.71	2.99
314.176	-5.71
314.642	-13.31
315.109	-3.71
315.575	-4.31
316.041	-1.41
316.507	-4.81
316.973	-1.31
317.439	-2.81
317.905	-3.91
318.371	0.69
318.837	-2.71
319.303	-4.41
319.769	-5.01
320.235	-0.31
320.701	-2.71
321.167	-3.51
321.633	-2.41
322.099	-6.61
322.564	2.79
323.03	-0.41
323.496	-4.01
323.962	-5.81
324.427	-4.91
324.893	0.09
325.359	-5.81
325.824	-3.41
326.29	-11.21
326.755	-1.51
327.221	-3.11
327.686	-10.01
328.152	0.29
328.617	-3.11
329.083	-4.81
329.548	-0.51
330.014	-5.71
330.479	-4.11
330.944	-4.51
331.41	-12.31
331.875	2.79
332.34	-4.31
332.805	-5.41
333.271	-3.81
333.736	-10.11
334.201	-3.01
334.666	-2.71
335.131	5.59
335.596	-1.51
336.061	-3.31
336.526	-11.51
336.991	-4.01
337.456	-0.61
337.921	-4.21
338.386	-8.71
338.851	-5.91
339.316	-1.71
339.781	-7.11
340.246	0.99
340.711	-4.41
341.175	-1.71
341.64	-16.51
342.105	-4.91
342.569	-1.31
343.034	1.79
343.499	-3.31
343.963	-6.01
344.428	7.09
344.893	-0.41
345.357	1.59
345.822	-3.61
346.286	-2.51
346.751	-7.41
347.215	-2.81
347.679	-10.11
348.144	-5.81
348.608	-3.41
349.073	-5.61
349.537	-5.71
350.001	-5.61
350.465	7.69
350.93	-5.21
351.394	-8.01
351.858	-8.61
352.322	7.09
352.786	-3.31
353.25	-5.31
353.715	-1.11
354.179	-5.41
354.643	2.99
355.107	-3.71
355.571	0.09
356.035	0.79
356.498	-2.11
356.962	-5.01
357.426	-0.51
357.89	-2.31
358.354	-4.11
358.818	3.49
359.281	-4.31
359.745	-8.11
360.209	-6.51
360.673	-8.31
361.136	-5.61
361.6	-0.01
362.064	-2.01
362.527	-6.41
362.991	2.69
363.454	-2.71
363.918	-11.31
364.381	-9.81
364.845	-6.91
365.308	-2.91
365.772	0.69
366.235	3.49
366.698	-5.71
367.162	-4.91
367.625	-13.21
368.088	-6.21
368.552	-3.51
369.015	0.09
369.478	-1.11
369.941	-2.11
370.404	-7.41
370.867	-6.81
371.331	-1.71
371.794	-4.31
372.257	-7.01
372.72	-3.71
373.183	-2.21
373.646	-3.81
374.109	-6.51
374.572	-5.31
375.035	-9.11
375.497	-4.51
375.96	-6.81
376.423	-5.11
376.886	0.99
377.349	-2.71
377.811	1.59
378.274	-5.11
378.737	-7.31
379.199	-3.31
379.662	-2.91
380.125	-2.41
380.587	-9.51
381.05	-6.61
381.512	-7.01
381.975	0.69
382.437	-1.11
382.9	-4.91
383.362	-3.01
383.825	-2.71
384.287	-7.71
384.75	-3.61
385.212	-6.61
385.674	-1.81
386.136	-8.21
386.599	-4.41
387.061	-3.31
387.523	-1.81
387.985	-0.51
388.447	6.89
388.91	-1.71
389.372	-5.71
389.834	-4.51
390.296	-6.41
390.758	-3.91
391.22	-6.11
391.682	-6.21
392.144	-0.71
392.606	8.19
393.068	2.49
393.529	0.09
393.991	-4.81
394.453	-8.11
394.915	-6.11
395.377	-2.61
395.838	-6.61
396.3	4.29
396.762	-0.31
397.224	-0.71
397.685	-1.01
398.147	-4.11
398.608	-6.71
399.07	-11.81
399.531	-0.91
399.993	-6.91
400.454	-0.41
400.916	-2.71
401.377	-12.01
401.839	-3.01
402.3	-6.01
402.762	-2.61
403.223	-2.81
403.684	-4.71
404.145	-3.41
404.607	-4.51
405.068	-7.21
405.529	-9.31
405.99	-3.31
406.451	-7.51
406.913	-7.01
407.374	-3.01
407.835	-4.91
408.296	-0.41
408.757	-8.31
409.218	-4.11
409.679	-5.51
410.14	-5.61
410.601	-1.11
411.062	4.09
411.522	-1.81
411.983	-11.31
412.444	-11.31
412.905	-2.11
413.366	-4.41
413.826	-7.61
414.287	0.99
414.748	-3.01
415.208	-8.01
415.669	-4.01
416.13	4.39
416.59	-1.41
417.051	-3.81
417.511	1.69
417.972	-7.81
418.432	-5.21
418.893	3.79
419.353	3.79
419.814	3.09
420.274	-0.51
420.734	-8.41
421.195	-6.31
421.655	-7.41
422.115	-7.31
422.576	-2.91
423.036	-4.11
423.496	-2.91
423.956	0.09
424.416	1.59
424.876	0.19
425.336	-8.61
425.797	-3.91
426.257	-0.21
426.717	-5.31
427.177	8.29
427.637	-7.01
428.097	0.89
428.556	-9.61
429.016	0.29
429.476	-10.21
429.936	-5.41
430.396	-6.01
430.856	-14.71
431.315	1.39
431.775	-5.91
432.235	2.19
432.694	-7.41
433.154	5.49
433.614	-4.21
434.073	-6.61
434.533	-2.91
434.993	-5.81
435.452	-2.71
435.912	-2.61
436.371	-5.01
436.83	-5.81
437.29	4.89
437.749	-3.61
438.209	-5.41
438.668	-2.31
439.127	-1.41
439.587	-2.51
440.046	-10.91
440.505	-6.91
440.964	-8.61
441.424	-7.11
441.883	-7.31
442.342	-2.21
442.801	-7.01
443.26	-6.31
443.719	1.69
444.178	-4.71
444.637	-11.91
445.096	-2.01
445.555	0.29
446.014	-1.81
446.473	2.29
446.932	0.19
447.391	-6.01
447.849	-1.91
448.308	-9.71
448.767	-9.21
449.226	-3.91
449.685	-5.61
450.143	3.69
450.602	-4.31
451.061	-10.21
451.519	-1.21
451.978	-6.71
452.436	-7.31
452.895	-6.31
453.353	-2.11
453.812	-4.11
454.27	1.89
454.729	-3.01
455.187	-6.11
455.646	2.19
456.104	-4.01
456.562	0.29
457.021	-2.11
457.479	0.59
457.937	-7.21
458.395	-4.41
458.854	-6.61
459.312	-6.71
459.77	-8.51
460.228	-10.41
460.686	-8.11
461.144	-0.71
461.602	-3.41
462.06	-1.01
462.518	0.39
462.976	-0.61
463.434	-6.41
463.892	-2.01
464.35	-10.01
464.808	0.09
465.266	-13.01
465.724	-1.01
466.181	-7.01
466.639	-9.41
467.097	-0.51
467.555	-4.61
468.012	-2.61
468.47	-5.81
468.928	3.49
469.385	1.59
469.843	2.89
470.3	-2.21
470.758	-2.51
471.215	-0.01
471.673	-4.11
472.13	-3.61
472.588	4.89
473.045	-1.31
473.503	-6.01
473.96	-12.11
474.417	-6.41
474.875	-9.31
475.332	-3.61
475.789	-3.41
476.246	1.09
476.704	-6.71
477.161	-4.41
477.618	-10.31
478.075	-7.81
478.532	-1.31
478.989	-5.61
479.446	3.29
479.903	2.89
480.36	1.69
480.817	-12.61
481.274	1.39
481.731	-8.71
482.188	-8.81
482.645	0.19
483.102	-1.31
483.558	-0.61
484.015	-1.41
484.472	-0.61
484.929	-3.11
485.385	-5.81
485.842	-4.31
486.299	-0.01
486.755	-3.61
487.212	4.89
487.668	-11.31
488.125	1.99
488.582	1.49
489.038	-2.21
489.494	-3.91
489.951	-5.11
490.407	-5.31
490.864	-6.91
491.32	3.89
491.776	-6.91
492.233	0.69
492.689	-3.31
493.145	-7.11
493.602	0.49
494.058	-4.41
494.514	2.79
494.97	7.19
495.426	-8.51
495.882	-4.71
496.338	-4.21
496.794	0.49
497.251	-7.91
497.707	-1.21
498.163	-9.91
498.618	4.19
499.074	-5.81
499.53	2.69
499.986	-0.51
500.442	-6.81
500.898	-5.61
501.354	-8.31
501.809	-6.21
502.265	-6.41
502.721	-0.81
503.177	0.99
503.632	3.69
504.088	0.19
504.543	-3.41
504.999	-0.71
505.455	-9.61
505.91	-8.91
506.366	-3.21
506.821	-2.51
507.277	-1.91
507.732	-4.21
508.187	-5.91
508.643	-4.71
509.098	-6.81
509.553	-3.71
510.009	2.19
510.464	-11.31
510.919	1.39
511.375	-3.31
511.83	-3.71
512.285	-2.01
512.74	7.19
513.195	2.59
513.65	-2.81
514.105	0.29
514.56	-7.31
515.015	-4.51
515.47	-2.01
515.925	-0.61
516.38	-5.71
516.835	7.59
517.29	-0.61
517.745	-1.31
518.2	-0.01
518.655	-3.51
519.109	-5.21
519.564	-1.21
520.019	-6.61
520.474	-11.71
520.928	4.89
521.383	-3.61
521.838	-7.41
522.292	-6.21
522.747	-1.01
523.201	-0.81
523.656	-2.11
524.11	-3.11
524.565	-5.61
525.019	-14.11
525.474	-3.91
525.928	-0.01
526.382	-3.01
526.837	-1.31
527.291	-4.31
527.745	-1.31
528.2	-0.71
528.654	-1.31
529.108	-7.31
529.562	-9.51
530.016	-6.41
530.47	-9.21
530.925	-3.91
531.379	-4.71
531.833	-4.41
532.287	-1.91
532.741	-4.81
533.195	-9.21
533.649	-11.71
534.103	3.29
534.556	-5.71
535.01	-2.01
535.464	-11.01
535.918	-0.61
536.372	2.29
536.826	0.59
537.279	-5.51
537.733	-4.51
538.187	-1.61
538.64	-6.41
539.094	-3.21
539.548	-1.51
540.001	-14.31
540.455	-5.71
540.908	-0.11
541.362	-0.61
541.815	-2.41
542.269	1.79
542.722	-10.61
543.175	-4.01
543.629	-13.71
544.082	0.49
544.536	-2.71
544.989	-8.91
545.442	0.49
545.895	-8.61
546.349	0.69
546.802	-11.61
547.255	-8.71
547.708	-7.61
548.161	-10.31
548.614	-7.91
549.067	-4.61
549.52	-3.41
549.973	-1.41
550.426	-1.71
550.879	-16.21
551.332	-2.81
551.785	-3.41
552.238	-9.11
552.691	2.79
553.144	-3.01
553.596	-2.91
554.049	-10.41
554.502	-5.71
554.955	-1.51
555.407	-6.01
555.86	-0.21
556.313	-6.31
556.765	-3.51
557.218	-7.41
557.67	-4.21
558.123	-7.31
558.576	-4.21
559.028	-7.91
559.48	-2.81
559.933	-2.61
560.385	-6.21
560.838	-3.71
561.29	-6.11
561.742	4.19
562.195	-6.91
562.647	-4.61
563.099	-0.31
563.551	2.99
564.004	2.99
564.456	-4.21
564.908	-3.91
565.36	-6.91
565.812	-0.31
566.264	-6.21
566.716	1.19
567.168	-6.91
567.62	-2.71
568.072	-6.11
568.524	-3.81
568.976	-2.31
569.428	-9.71
569.88	-7.11
570.332	-8.51
570.784	1.99
571.235	-6.51
571.687	-3.71
572.139	-7.11
572.59	-1.81
573.042	-2.11
573.494	-12.41
573.945	-1.41
574.397	-9.21
574.849	-7.01
575.3	0.29
575.752	-4.41
576.203	2.39
576.655	6.09
577.106	-5.01
577.557	-7.31
578.009	-0.91
578.46	-6.21
578.912	-4.61
579.363	-5.61
579.814	1.09
580.265	-7.31
580.717	-10.21
581.168	-7.41
581.619	-3.31
582.07	0.29
582.521	-7.11
582.972	-6.61
583.423	-8.81
583.875	-11.61
584.326	-4.41
584.777	-7.91
585.227	-8.21
585.678	-9.11
586.129	-7.01
586.58	1.79
587.031	0.79
587.482	-1.41
587.933	3.19
588.384	-2.01
588.834	-2.31
589.285	-5.21
589.736	-3.21
590.186	-9.51
590.637	-6.01
591.088	-7.21
591.538	-2.91
591.989	0.79
592.439	2.39
592.89	0.79
593.34	-11.61
593.791	-5.01
594.241	-9.51
594.692	-3.21
595.142	-3.31
595.593	-5.01
596.043	-2.71
596.493	0.59
596.943	-1.71
597.394	0.79
597.844	-6.11
598.294	-14.01
598.744	-3.21
599.195	-2.81
599.645	-4.51
600.095	-8.61
600.545	-2.71
600.995	-1.71
601.445	0.19
601.895	-6.21
602.345	-0.91
602.795	-6.91
603.245	-5.21
603.695	-7.11
604.145	-7.11
604.594	-3.21
605.044	-9.71
605.494	-4.71
605.944	-4.81
606.393	0.79
606.843	-3.91
607.293	-2.31
607.743	-6.31
608.192	-3.61
608.642	-2.71
609.091	6.49
609.541	-4.71
609.99	-1.41
610.44	-1.81
610.889	-0.51
611.339	-10.11
611.788	-10.61
612.238	-9.01
612.687	5.39
613.136	-5.11
613.586	-1.11
614.035	-5.81
614.484	-5.01
614.933	-4.21
615.383	1.89
615.832	-2.11
616.281	-2.01
616.73	-0.51
617.179	-2.41
617.628	1.09
618.077	-1.41
618.526	-1.11
618.975	-2.81
619.424	-3.61
619.873	-5.31
620.322	5.99
620.771	-8.71
621.22	3.39
621.669	3.99
622.118	-0.31
622.567	0.89
623.015	-0.41
623.464	-7.41
623.913	-5.61
624.361	-8.71
624.81	-12.91
625.259	-4.51
625.707	-1.71
626.156	-4.71
626.604	-3.01
627.053	-7.91
627.501	-4.21
627.95	-12.21
628.398	-7.31
628.847	-4.21
629.295	-7.71
629.744	-1.31
630.192	5.89
630.64	-4.41
631.089	-4.51
631.537	-3.41
631.985	-9.61
632.433	4.69
632.881	-1.11
633.33	-0.11
633.778	-9.71
634.226	-8.51
634.674	-5.41
635.122	-2.91
635.57	-9.51
636.018	-3.61
636.466	-0.31
636.914	-5.41
637.362	2.09
637.81	2.99
638.258	-1.01
638.705	-0.11
639.153	-1.01
639.601	-12.31
640.049	-9.71
640.497	-11.81
640.944	6.89
641.392	-8.41
641.84	-5.31
642.287	-2.41
642.735	-13.61
643.182	-8.51
643.63	-8.31
644.078	-6.71
644.525	-0.31
644.973	-0.51
645.42	-4.71
645.867	-4.21
646.315	7.09
646.762	-4.41
647.21	-3.61
647.657	-6.91
648.104	2.69
648.551	-5.71
648.999	3.19
649.446	-2.71
649.893	-8.21
650.34	0.39
650.787	-3.71
651.234	9.59
651.682	-6.81
652.129	-9.31
652.576	-11.61
653.023	1.59
653.47	3.89
653.917	-7.51
654.363	-3.21
654.81	-8.71
655.257	-8.91
655.704	-4.21
656.151	-5.91
656.598	-9.41
657.044	-1.61
657.491	-2.01
657.938	-6.91
658.385	-5.21
658.831	-2.31
659.278	6.39
659.724	-6.21
660.171	2.79
660.618	-3.81
661.064	1.89
661.511	-5.81
661.957	0.69
662.404	-2.21
662.85	0.79
663.296	0.69
663.743	-4.31
664.189	-4.81
664.635	-7.51
665.082	-5.21
665.528	-3.71
665.974	0.49
666.42	-4.51
666.867	-0.51
667.313	-9.51
667.759	0.29
668.205	0.69
668.651	-1.31
669.097	2.09
669.543	-8.61
669.989	-5.51
670.435	-5.81
670.881	-10.81
671.327	-1.41
671.773	-2.11
672.219	-0.01
672.665	-0.91
673.11	-8.61
673.556	-7.51
674.002	-7.91
674.448	-8.71
674.893	-6.51
675.339	-2.21
675.785	2.69
676.23	4.79
676.676	-10.01
677.122	-4.31
677.567	-5.91
678.013	0.59
678.458	-5.51
678.904	1.09
679.349	-8.01
679.794	-1.81
680.24	-2.71
680.685	-6.31
681.131	-3.41
681.576	-5.01
682.021	1.49
682.466	-4.11
682.912	-10.21
683.357	-15.41
683.802	-4.51
684.247	-2.81
684.692	0.09
685.137	-14.71
685.583	2.09
686.028	-6.81
686.473	-8.31
686.918	-3.11
687.363	-1.31
687.807	-4.21
688.252	-8.81
688.697	1.39
689.142	1.89
689.587	1.09
690.032	-15.41
690.477	-8.31
690.921	-6.71
691.366	-5.11
691.811	-6.01
692.255	1.49
692.7	-2.21
693.145	-7.01
693.589	-3.01
694.034	-3.51
694.478	0.69
694.923	1.59
695.367	-4.81
695.812	-2.91
696.256	-2.91
696.701	-4.91
697.145	-3.11
697.59	-5.61
698.034	-2.61
698.478	-0.71
698.922	6.59
699.367	-7.21
699.811	-3.51
700.255	-1.91
700.699	-0.41
701.143	-9.81
701.588	-2.41
702.032	-0.51
702.476	-10.11
702.92	-6.41
703.364	-6.41
703.808	-7.11
704.252	0.49
704.696	-5.31
705.14	-5.91
705.584	-8.11
706.027	1.09
706.471	-7.11
706.915	-8.51
707.359	-4.91
707.803	-13.61
708.246	-13.81
708.69	-3.31
709.134	1.49
709.577	-5.91
710.021	3.99
710.465	-2.61
710.908	0.49
711.352	0.29
711.795	-6.51
712.239	-1.21
712.682	-9.91
713.126	-4.01
713.569	-2.41
714.012	2.19
714.456	-5.51
714.899	-0.11
715.342	-7.21
715.786	-2.31
716.229	-3.01
716.672	2.49
717.115	-0.11
717.558	-1.11
718.002	-9.91
718.445	-3.91
718.888	2.29
719.331	-12.31
719.774	-5.01
720.217	-3.91
720.66	-4.21
721.103	-7.31
721.546	-0.41
721.989	-0.81
722.432	-17.91
722.874	-0.21
723.317	-14.51
723.76	-9.51
724.203	-0.71
724.645	5.29
725.088	-2.31
725.531	-11.91
725.974	-6.21
726.416	-5.81
726.859	-2.31
727.301	-7.51
727.744	-3.11
728.187	-11.11
728.629	0.89
729.071	-5.31
729.514	2.49
729.956	-10.41
730.399	-12.31
730.841	-5.11
731.283	-10.71
731.726	-6.51
732.168	-3.71
732.61	-0.51
733.053	0.19
733.495	-1.11
733.937	-3.51
734.379	-4.31
734.821	-5.01
735.263	-5.51
735.705	-3.61
736.148	-7.91
736.59	1.89
737.032	-6.31
737.474	-2.01
737.916	-10.51
738.357	-10.01
738.799	-7.11
739.241	-4.91
739.683	-6.51
740.125	0.09
740.567	-4.71
741.008	2.59
741.45	1.79
741.892	4.39
742.334	0.59
742.775	-6.91
743.217	-10.91
743.658	-6.01
744.1	-0.51
744.542	-7.91
744.983	-3.81
745.425	-2.61
745.866	-4.51
746.307	-0.51
746.749	0.29
747.19	4.09
747.632	-0.61
748.073	-11.01
748.514	1.39
748.956	-10.41
749.397	-0.61
749.838	1.89
750.279	-9.91
750.72	-7.11
751.162	-4.51
751.603	-1.81
752.044	-2.81
752.485	-10.61
752.926	-4.21
753.367	-1.81
753.808	-2.21
754.249	-2.91
754.69	-7.61
755.131	-7.71
755.572	-5.41
756.013	-8.71
756.453	3.49
756.894	-2.81
757.335	-9.51
757.776	-10.81
758.216	-8.01
758.657	-0.41
759.098	-6.61
759.538	-9.01
759.979	-18.61
760.42	-7.71
760.86	-8.71
761.301	9.69
761.741	-3.81
762.182	-6.31
762.622	-3.81
763.063	-5.61
763.503	-7.71
763.943	-4.71
764.384	3.09
764.824	-4.11
765.264	-1.21
765.705	-5.71
766.145	-9.61
766.585	-8.01
767.025	-6.41
767.465	-14.01
767.906	-2.31
768.346	-0.01
768.786	-0.21
769.226	-5.21
769.666	-3.11
770.106	-6.71
770.546	-7.11
770.986	-5.71
771.426	-4.11
771.866	-3.71
772.306	-2.11
772.745	-10.61
773.185	-7.41
773.625	-9.51
774.065	-4.11
774.505	0.29
774.944	-2.21
775.384	-7.31
775.824	0.39
776.263	-4.71
776.703	-9.71
777.142	-2.91
777.582	-7.41
778.021	-4.51
778.461	-4.71
778.9	-0.51
779.34	0.49
779.779	-10.61
780.219	-9.21
780.658	-14.81
781.097	-3.11
781.537	-3.11
781.976	-3.61
782.415	-6.31
782.855	-6.71
783.294	-7.41
783.733	-11.31
784.172	0.59
784.611	-8.91
785.05	-2.51
785.489	-5.01
785.928	5.09
786.367	0.49
786.806	-5.21
787.245	-0.51
787.684	-4.41
788.123	1.69
788.562	-3.01
789.001	-5.01
789.44	-8.81
789.879	-1.91
790.317	-6.11
790.756	4.49
791.195	-10.61
791.634	-9.41
792.072	5.49
