Data from 20171114-ORNL-Ar_H_NY_Subt18_08-06-31-653.txt Node
Date: Tue Nov 14 08:06:31 EST 2017
User: Ender
Spectrometer: HR+D1039
Trigger mode: 0
Integration Time (sec): 2.730000E-2
Scans to average: 10
Electric dark correction enabled: true
Nonlinearity correction enabled: false
Boxcar width: 0
XAxis mode: Wavelengths
Number of Pixels in Spectrum: 2048
>>>>>Begin Spectral Data<<<<<
187.836	-4.8
188.309	-4.8
188.782	-4.8
189.255	7.8
189.728	-2.4
190.201	10.7
190.674	0.3
191.147	3.3
191.619	-8
192.092	-0.1
192.565	4.7
193.038	-2.7
193.511	4.9
193.984	-4
194.456	-6.2
194.929	-1.9
195.402	-0.9
195.874	-0.7
196.347	-0.2
196.82	-12.2
197.292	5.9
197.765	-0.1
198.237	-3.2
198.71	3
199.182	-3.1
199.655	4.7
200.127	7.9
200.6	2.5
201.072	2.7
201.544	-3
202.017	3.7
202.489	4.2
202.961	3.5
203.433	-6.9
203.906	-2.4
204.378	-8.3
204.85	-1.1
205.322	-5.9
205.794	-8.3
206.266	0.3
206.739	-8.8
207.211	3
207.683	-8.2
208.155	-5.7
208.627	-6.9
209.099	-0.6
209.57	-5.6
210.042	-7.6
210.514	-7.2
210.986	-6.6
211.458	-5.4
211.93	-9
212.402	0.2
212.873	-8
213.345	-5.3
213.817	-10.6
214.288	-3.9
214.76	-7.8
215.232	-4.7
215.703	-0.4
216.175	-5.4
216.646	-1.8
217.118	-4.8
217.589	0
218.061	-1.5
218.532	-1.5
219.004	2.6
219.475	-7
219.946	0.9
220.418	-8.4
220.889	1.3
221.36	-2.1
221.832	2.2
222.303	-4.6
222.774	-4.4
223.245	-3.2
223.717	-9.4
224.188	0.7
224.659	-8.9
225.13	-6.2
225.601	0.8
226.072	0.9
226.543	0.3
227.014	1.7
227.485	2.4
227.956	-6.7
228.427	-2.9
228.898	3.8
229.369	3.8
229.839	-6.9
230.31	-1.8
230.781	1.4
231.252	0.9
231.722	1.7
232.193	-3.5
232.664	-2.1
233.135	-0.5
233.605	0.9
234.076	-7.3
234.546	6.8
235.017	1.7
235.487	4
235.958	1.3
236.428	-1.6
236.899	11.8
237.369	1.2
237.84	-1.1
238.31	1.5
238.78	2.6
239.251	8.3
239.721	0.8
240.191	7.2
240.662	4.6
241.132	-3.3
241.602	-4.8
242.072	2.4
242.542	5.3
243.013	-0.5
243.483	7
243.953	6.7
244.423	1.6
244.893	-7.2
245.363	5.1
245.833	0.2
246.303	1.7
246.773	3
247.243	6.5
247.712	1.2
248.182	3.6
248.652	6
249.122	-2.2
249.592	14.4
250.061	14.8
250.531	31.9
251.001	15.6
251.471	22.3
251.94	18.2
252.41	7.4
252.879	5.6
253.349	10.3
253.818	9.2
254.288	7.6
254.757	9.8
255.227	-0.8
255.696	9.2
256.166	9.1
256.635	11.2
257.105	4.9
257.574	5.9
258.043	6.2
258.513	9.3
258.982	17.5
259.451	10.2
259.92	15.8
260.389	3
260.859	17.6
261.328	14.8
261.797	19.4
262.266	7
262.735	7.8
263.204	7.5
263.673	0.2
264.142	7.2
264.611	-5.7
265.08	5.3
265.549	-1.1
266.018	5.7
266.487	-0.3
266.955	2.4
267.424	2.6
267.893	4.6
268.362	1.5
268.83	3
269.299	13.7
269.768	10.7
270.236	8.1
270.705	9.1
271.174	6.9
271.642	10.9
272.111	6.5
272.579	23.7
273.048	23.7
273.516	28.8
273.985	25.8
274.453	24.1
274.922	21.4
275.39	11.2
275.858	4.6
276.327	5.5
276.795	22.6
277.263	7.8
277.731	29.9
278.2	56.9
278.668	58.6
279.136	50.1
279.604	22.7
280.072	12.4
280.54	8.1
281.008	10.5
281.477	20.7
281.945	18.4
282.413	11.7
282.881	20.9
283.348	9.9
283.816	16.1
284.284	15
284.752	19.6
285.22	14
285.688	16.9
286.156	20.2
286.623	41.3
287.091	53.8
287.559	26.9
288.026	14.8
288.494	15.5
288.962	8.3
289.429	14.8
289.897	15.2
290.364	17.2
290.832	17.2
291.3	17.7
291.767	16.2
292.234	19.2
292.702	14.9
293.169	17.9
293.637	26
294.104	20.2
294.571	8.8
295.039	11.6
295.506	16.5
295.973	16.4
296.44	18.4
296.908	17.8
297.375	15.4
297.842	21
298.309	16.6
298.776	12.2
299.243	21.3
299.71	17.1
300.177	21.7
300.644	21.4
301.111	26.8
301.578	25.5
302.045	23.2
302.512	23.6
302.979	28.7
303.446	17.7
303.913	23.3
304.379	18.6
304.846	32.3
305.313	30.3
305.78	25.8
306.246	30.7
306.713	25.8
307.18	26.7
307.646	28.9
308.113	35.3
308.579	23.5
309.046	24
309.512	25.2
309.979	18.1
310.445	33
310.912	27.3
311.378	31.7
311.845	25.3
312.311	26.1
312.777	32.5
313.244	36.9
313.71	34.8
314.176	33
314.642	28.9
315.109	30.5
315.575	39.6
316.041	33
316.507	30.6
316.973	40.5
317.439	34.9
317.905	37.3
318.371	36.2
318.837	38.6
319.303	37.6
319.769	43
320.235	40.6
320.701	44.1
321.167	39.4
321.633	39.2
322.099	47.1
322.564	50.4
323.03	43.2
323.496	41.4
323.962	40.7
324.427	32.1
324.893	44.9
325.359	36.9
325.824	43.2
326.29	36.9
326.755	36.7
327.221	45.5
327.686	41.3
328.152	48.9
328.617	41.7
329.083	45.2
329.548	47.8
330.014	57.2
330.479	42.1
330.944	52.8
331.41	36.9
331.875	46.6
332.34	47
332.805	36.6
333.271	44.5
333.736	44.6
334.201	51.3
334.666	56.3
335.131	55.7
335.596	55.3
336.061	53.3
336.526	43.8
336.991	48.7
337.456	60.1
337.921	53.4
338.386	47.3
338.851	42.9
339.316	51.1
339.781	53.4
340.246	47
340.711	47.4
341.175	52.9
341.64	49.9
342.105	51.8
342.569	58
343.034	55.8
343.499	55.2
343.963	55.4
344.428	65.1
344.893	56.1
345.357	62.7
345.822	66.5
346.286	67.9
346.751	78.9
347.215	72.2
347.679	77.8
348.144	104.1
348.608	82.3
349.073	68.4
349.537	73.3
350.001	84.9
350.465	87.6
350.93	81.1
351.394	87
351.858	75.7
352.322	85.3
352.786	86.7
353.25	96.2
353.715	113.5
354.179	102.9
354.643	123.6
355.107	130.6
355.571	118.9
356.035	108.4
356.498	116.5
356.962	124.7
357.426	140.3
357.89	122.1
358.354	95.7
358.818	88.6
359.281	85.3
359.745	78.3
360.209	86.2
360.673	83.1
361.136	85.7
361.6	91.9
362.064	82.1
362.527	86.5
362.991	90.2
363.454	79.2
363.918	77.7
364.381	81.7
364.845	80.6
365.308	86.6
365.772	90.3
366.235	81.9
366.698	86.9
367.162	86.4
367.625	94.2
368.088	89.2
368.552	93.8
369.015	94.9
369.478	106.1
369.941	105
370.404	96.2
370.867	112.3
371.331	106.1
371.794	121.9
372.257	116.7
372.72	117.2
373.183	115.2
373.646	99.6
374.109	105.7
374.572	108.7
375.035	108.5
375.497	112.3
375.96	111.5
376.423	107.4
376.886	119.7
377.349	114.9
377.811	106.8
378.274	112.3
378.737	111.4
379.199	111.8
379.662	111.9
380.125	126.9
380.587	123.4
381.05	125.5
381.512	136.4
381.975	141
382.437	128.6
382.9	128.9
383.362	136.9
383.825	137.2
384.287	154.5
384.75	147.3
385.212	150
385.674	149
386.136	142.2
386.599	129.1
387.061	129.4
387.523	138.8
387.985	139.6
388.447	153.6
388.91	154.8
389.372	168
389.834	159.7
390.296	157.5
390.758	162
391.22	183.7
391.682	216.5
392.144	313.5
392.606	240.5
393.068	172.2
393.529	182.7
393.991	155.7
394.453	156.3
394.915	164
395.377	202.7
395.838	226.2
396.3	160
396.762	155.2
397.224	135.4
397.685	134.8
398.147	134.6
398.608	139.6
399.07	131.2
399.531	146.4
399.993	148.9
400.454	162.5
400.916	148.7
401.377	153.7
401.839	160.6
402.3	159
402.762	172.9
403.223	183.6
403.684	175.2
404.145	175.1
404.607	166.7
405.068	179.9
405.529	174
405.99	194.2
406.451	182.9
406.913	184.2
407.374	174.6
407.835	171.8
408.296	175.9
408.757	173.1
409.218	198.5
409.679	187.5
410.14	183.6
410.601	188.9
411.062	192.8
411.522	204.1
411.983	197.1
412.444	181.6
412.905	182.4
413.366	186.3
413.826	199.7
414.287	229.1
414.748	269.4
415.208	259
415.669	219
416.13	218.4
416.59	209.8
417.051	218.1
417.511	225.5
417.972	248.1
418.432	261
418.893	306
419.353	262.4
419.814	203.4
420.274	191.3
420.734	190.7
421.195	209.8
421.655	205
422.115	201.1
422.576	206.7
423.036	201.8
423.496	217.5
423.956	223.4
424.416	239.6
424.876	272.3
425.336	269.4
425.797	271.6
426.257	261.6
426.717	251
427.177	239
427.637	232.5
428.097	239.9
428.556	257.4
429.016	269.1
429.476	272.8
429.936	291
430.396	289.7
430.856	306.1
431.315	322.7
431.775	374.7
432.235	397.2
432.694	368.7
433.154	372.6
433.614	408.7
434.073	347.9
434.533	301.9
434.993	278.6
435.452	298
435.912	306.1
436.371	290.5
436.83	296
437.29	282.7
437.749	267.4
438.209	248.7
438.668	284.9
439.127	299.8
439.587	269.8
440.046	255.4
440.505	268.2
440.964	288
441.424	329.6
441.883	324.3
442.342	271.8
442.801	226
443.26	230.3
443.719	231.2
444.178	228.5
444.637	218.4
445.096	232.8
445.555	230.4
446.014	236.6
446.473	232.8
446.932	242.4
447.391	237.5
447.849	232.8
448.308	240.9
448.767	232.2
449.226	244.6
449.685	244.9
450.143	254.4
450.602	243.3
451.061	236.3
451.519	242
451.978	247.8
452.436	248.2
452.895	251.6
453.353	273.7
453.812	251.9
454.27	255.6
454.729	247
455.187	248.4
455.646	253.1
456.104	254.2
456.562	270.9
457.021	272.8
457.479	268.7
457.937	288.7
458.395	279.8
458.854	257.6
459.312	275.7
459.77	285.9
460.228	269.1
460.686	250
461.144	257.3
461.602	257.3
462.06	259.1
462.518	266.6
462.976	275.4
463.434	265.9
463.892	267.2
464.35	288.9
464.808	300.3
465.266	272.6
465.724	282.4
466.181	281.7
466.639	287.1
467.097	300.5
467.555	311.3
468.012	320.1
468.47	325
468.928	348.6
469.385	351.7
469.843	365.3
470.3	365.5
470.758	381.8
471.215	400.3
471.673	424.6
472.13	416.8
472.588	432.4
473.045	389.2
473.503	398.7
473.96	415
474.417	415
474.875	453.2
475.332	486.1
475.789	475.1
476.246	478.8
476.704	497.4
477.161	522.4
477.618	541.1
478.075	578.8
478.532	639.8
478.989	713.2
479.446	824.6
479.903	801.4
480.36	842.4
480.817	894.7
481.274	1001.7
481.731	1101.2
482.188	1199.1
482.645	1345.6
483.102	1455.7
483.558	1584.5
484.015	1646.7
484.472	1618.9
484.929	1572.5
485.385	1533.4
485.842	1475.4
486.299	1411.6
486.755	1344.1
487.212	1148
487.668	965.1
488.125	890.8
488.582	809.7
489.038	770
489.494	736.9
489.951	709.7
490.407	697.3
490.864	662.7
491.32	666.8
491.776	666.9
492.233	671.8
492.689	631.3
493.145	623.8
493.602	612.8
494.058	631.5
494.514	640.4
494.97	654.4
495.426	680.1
495.882	629.8
496.338	625.9
496.794	643.3
497.251	647.3
497.707	650.3
498.163	652.5
498.618	660.9
499.074	662.3
499.53	693.8
499.986	690.5
500.442	673.2
500.898	646.3
501.354	650.1
501.809	654.7
502.265	655.6
502.721	676.6
503.177	697.5
503.632	695.4
504.088	693.3
504.543	728
504.999	722.6
505.455	674.9
505.91	648.9
506.366	654
506.821	647.5
507.277	633.7
507.732	647.5
508.187	635.2
508.643	662.4
509.098	653.9
509.553	674.7
510.009	688.1
510.464	699
510.919	697.3
511.375	715.1
511.83	740.5
512.285	726.4
512.74	784.2
513.195	810.3
513.65	798.7
514.105	783.8
514.56	789.3
515.015	805.1
515.47	831.6
515.925	818.2
516.38	805.4
516.835	819.5
517.29	807.2
517.745	798.9
518.2	777.4
518.655	768.8
519.109	754.1
519.564	757.9
520.019	740.2
520.474	740.2
520.928	747.5
521.383	740.3
521.838	726.3
522.292	735.1
522.747	730
523.201	730.4
523.656	716.2
524.11	718.8
524.565	719
525.019	710.7
525.474	715.3
525.928	722.8
526.382	710.3
526.837	713.4
527.291	723.5
527.745	710.8
528.2	719.2
528.654	700.9
529.108	713.3
529.562	706.4
530.016	718.9
530.47	715.2
530.925	712
531.379	719.9
531.833	718.3
532.287	727.1
532.741	714.6
533.195	724.4
533.649	725.4
534.103	727.9
534.556	725.2
535.01	724.9
535.464	729.2
535.918	739.2
536.372	744.9
536.826	737.5
537.279	726.4
537.733	740.1
538.187	732.7
538.64	733.3
539.094	743.2
539.548	758.9
540.001	744.9
540.455	749.1
540.908	749.9
541.362	754
541.815	767.7
542.269	774.5
542.722	782.9
543.175	793.5
543.629	791.1
544.082	808.3
544.536	806.7
544.989	802.6
545.442	812.2
545.895	810.4
546.349	802
546.802	816
547.255	826.1
547.708	825.2
548.161	846.1
548.614	844.1
549.067	854.7
549.52	842.9
549.973	827.6
550.426	821.4
550.879	824.3
551.332	825.5
551.785	827.2
552.238	830.3
552.691	840.5
553.144	843.9
553.596	863.4
554.049	891.4
554.502	910.1
554.955	921.7
555.407	943.2
555.86	915.6
556.313	911.1
556.765	909.5
557.218	902.1
557.67	906.7
558.123	882.5
558.576	897.2
559.028	897.7
559.48	918
559.933	893.5
560.385	858.9
560.838	826.6
561.29	802.1
561.742	799.8
562.195	785
562.647	783.4
563.099	786.8
563.551	791.9
564.004	797.7
564.456	793.9
564.908	781.7
565.36	763.7
565.812	753.3
566.264	746.4
566.716	738.7
567.168	724.2
567.62	743.1
568.072	726.4
568.524	719.4
568.976	706.7
569.428	700.9
569.88	692.4
570.332	693.2
570.784	704
571.235	697
571.687	705.4
572.139	714.4
572.59	730.6
573.042	720.9
573.494	715.9
573.945	718.2
574.397	701.2
574.849	712
575.3	704.3
575.752	696.9
576.203	695.5
576.655	702.5
577.106	689.2
577.557	686.8
578.009	693.2
578.46	688.2
578.912	672.3
579.363	669
579.814	674.7
580.265	671.5
580.717	691.9
581.168	683.4
581.619	688.7
582.07	696.9
582.521	691.1
582.972	691.3
583.423	699.8
583.875	700.4
584.326	717.1
584.777	771.6
585.227	847.1
585.678	944.7
586.129	1023.9
586.58	1097.5
587.031	1186.9
587.482	1348.8
587.933	1542.3
588.384	1324.1
588.834	993.8
589.285	828.7
589.736	798.9
590.186	790.7
590.637	775.2
591.088	763.8
591.538	755
591.989	745.2
592.439	741.2
592.89	740.5
593.34	716.9
593.791	728.3
594.241	721.1
594.692	730.2
595.142	718.1
595.593	707.5
596.043	719.5
596.493	730.2
596.943	726.9
597.394	736.7
597.844	731.9
598.294	741.6
598.744	776.7
599.195	798.4
599.645	828.6
600.095	867.8
600.545	936.3
600.995	993.2
601.445	1044.7
601.895	1102.1
602.345	1151.6
602.795	1129.7
603.245	1080
603.695	1023.5
604.145	968.7
604.594	930.9
605.044	875.6
605.494	809
605.944	770.5
606.393	756
606.843	734.2
607.293	749.6
607.743	750.1
608.192	765.3
608.642	760.9
609.091	773.8
609.541	779.6
609.99	785.5
610.44	772.6
610.889	739
611.339	716.7
611.788	696.5
612.238	710.6
612.687	730.7
613.136	736.8
613.586	745.6
614.035	746
614.484	769
614.933	771.8
615.383	762.6
615.832	747.6
616.281	741.1
616.73	697.9
617.179	668.8
617.628	657.8
618.077	647.3
618.526	637.7
618.975	633.6
619.424	629.9
619.873	618.3
620.322	632.1
620.771	625.3
621.22	619.9
621.669	608.2
622.118	595.3
622.567	592
623.015	580
623.464	575.5
623.913	562.3
624.361	563.6
624.81	565.9
625.259	569.2
625.707	569.6
626.156	560.1
626.604	574.2
627.053	571.1
627.501	575.6
627.95	588.9
628.398	601.3
628.847	582.5
629.295	574.1
629.744	578.1
630.192	577.5
630.64	584.7
631.089	585.9
631.537	581.9
631.985	594.7
632.433	623.4
632.881	618.8
633.33	676.7
633.778	658.4
634.226	589.6
634.674	576.3
635.122	594.1
635.57	607.4
636.018	649.8
636.466	595.9
636.914	566
637.362	584.3
637.81	584.1
638.258	586.6
638.705	585.7
639.153	622.1
639.601	624.7
640.049	651.8
640.497	682.5
640.944	703.5
641.392	654.9
641.84	619.1
642.287	593
642.735	567.7
643.182	581.8
643.63	581.5
644.078	590.1
644.525	602.6
644.973	612.7
645.42	614.6
645.867	622.2
646.315	648.6
646.762	680.9
647.21	698.3
647.657	720.8
648.104	763
648.551	778.5
648.999	848.4
649.446	933.4
649.893	1014.7
650.34	1178.9
650.787	1402.9
651.234	1761.4
651.682	2292.1
652.129	3149.8
652.576	4563.4
653.023	6710.8
653.47	9208.6
653.917	11490.2
654.363	13225.5
654.81	14601.3
655.257	13887.2
655.704	9114.2
656.151	5369.3
656.598	3473.5
657.044	2485.4
657.491	1881.7
657.938	1511.6
658.385	1258.2
658.831	1091.9
659.278	987.7
659.724	867
660.171	807.3
660.618	733.3
661.064	698.1
661.511	685.9
661.957	666.2
662.404	655.5
662.85	663.3
663.296	640.9
663.743	571.1
664.189	552.8
664.635	546.2
665.082	540.5
665.528	530.8
665.974	521.3
666.42	516.7
666.867	507.2
667.313	504
667.759	484
668.205	488.8
668.651	488.7
669.097	485.9
669.543	504.5
669.989	471.8
670.435	456.7
670.881	455.1
671.327	461.7
671.773	468
672.219	496.5
672.665	548.5
673.11	590.7
673.556	639.5
674.002	683.6
674.448	666.1
674.893	554.8
675.339	480.8
675.785	438.5
676.23	423.9
676.676	399.9
677.122	392.7
677.567	372.5
678.013	372.7
678.458	361.5
678.904	373.4
679.349	355.5
679.794	356.1
680.24	363.7
680.685	356.4
681.131	353.7
681.576	348.2
682.021	362.1
682.466	357.1
682.912	355
683.357	350.2
683.802	391.3
684.247	411.2
684.692	458.8
685.137	496.6
685.583	547.2
686.028	573.2
686.473	515.3
686.918	450
687.363	422.7
687.807	388.3
688.252	374.8
688.697	361.7
689.142	341
689.587	336.8
690.032	333.7
690.477	348.3
690.921	360.9
691.366	385.9
691.811	404.4
692.255	445.8
692.7	463.8
693.145	512.1
693.589	706.6
694.034	1145.4
694.478	1556.7
694.923	1746.6
695.367	2282.3
695.812	1196.1
696.256	506.6
696.701	375.3
697.145	351
697.59	327.7
698.034	321.1
698.478	330.8
698.922	326
699.367	341.4
699.811	343.8
700.255	360.7
700.699	383.3
701.143	435.7
701.588	482.8
702.032	520.6
702.476	508.4
702.92	490.9
703.364	496.4
703.808	641.7
704.252	1038.3
704.696	1464.1
705.14	1692.6
705.584	2156.6
706.027	1077.9
706.471	532.4
706.915	407.7
707.359	358.6
707.803	322
708.246	316
708.69	311.2
709.134	313.3
709.577	305.1
710.021	324.1
710.465	312.1
710.908	307
711.352	300.7
711.795	309
712.239	357.9
712.682	392.4
713.126	419.7
713.569	469.7
714.012	383.9
714.456	323.9
714.899	304
715.342	278.9
715.786	261.8
716.229	264.6
716.672	257.5
717.115	255.1
717.558	250.7
718.002	264.9
718.445	267.8
718.888	281.9
719.331	296.5
719.774	312.5
720.217	305.5
720.66	286.3
721.103	268.9
721.546	254.5
721.989	256
722.432	229
722.874	243.3
723.317	237.9
723.76	242.2
724.203	259.3
724.645	316.1
725.088	451.2
725.531	573.5
725.974	644.2
726.416	544
726.859	310
727.301	247.9
727.744	233.5
728.187	238.6
728.629	237.8
729.071	242.9
729.514	262.9
729.956	272.9
730.399	282.3
730.841	290
731.283	279.1
731.726	272.9
732.168	273.5
732.61	269.1
733.053	296.1
733.495	321.9
733.937	352.6
734.379	401.7
734.821	441.2
735.263	541.7
735.705	838.2
736.148	1581.2
736.59	2575.6
737.032	3047.9
737.474	2481
737.916	819.2
738.357	434.2
738.799	333.2
739.241	304.6
739.683	287.1
740.125	295.7
740.567	298
741.008	320.2
741.45	319
741.892	315.2
742.334	345
742.775	358.1
743.217	334.8
743.658	275.4
744.1	257.6
744.542	263.1
744.983	310.6
745.425	345.6
745.866	345.3
746.307	282.9
746.749	286.2
747.19	330.8
747.632	460.5
748.073	868.8
748.514	1879.4
748.956	2864.9
749.397	3570.8
749.838	2970.6
750.279	2979.3
750.72	1495.4
751.162	550.3
751.603	330.1
752.044	252.9
752.485	223.1
752.926	208.8
753.367	199.3
753.808	195.3
754.249	186.8
754.69	190.9
755.131	187.5
755.572	187.1
756.013	189.6
756.453	188.2
756.894	188.5
757.335	191.4
757.776	199.8
758.216	198.4
758.657	204.9
759.098	207.9
759.538	224.4
759.979	269.6
760.42	375.9
760.86	707.3
761.301	1821.6
761.741	4438.5
762.182	6445.6
762.622	4521
763.063	1314.6
763.503	543.7
763.943	346.4
764.384	343.5
764.824	408.9
765.264	446.6
765.705	314.3
766.145	209.6
766.585	195.1
767.025	180.8
767.465	194.3
767.906	245.2
768.346	318.2
768.786	345
769.226	266.7
769.666	318.7
770.106	628.5
770.546	1560.2
770.986	2643.5
771.426	2361
771.866	793.8
772.306	330.5
772.745	208.3
773.185	180.5
773.625	178.3
774.065	168.5
774.505	201.9
774.944	308.9
775.384	688.6
775.824	1229
776.263	1195.8
776.703	508.7
777.142	219.2
777.582	166.9
778.021	136.3
778.461	144.4
778.9	139.5
779.34	133.2
779.779	116.6
780.219	111.1
780.658	114.2
781.097	108
781.537	120.1
781.976	105.9
782.415	111.7
782.855	112.2
783.294	104.8
783.733	105.5
784.172	112.1
784.611	106
785.05	110.2
785.489	111.5
785.928	120
786.367	127.9
786.806	117.7
787.245	130.7
787.684	136
788.123	151.7
788.562	132.5
789.001	127.7
789.44	121.9
789.879	125.1
790.317	121.7
790.756	123.3
791.195	125.6
791.634	141.8
792.072	210.8
792.511	373.5
792.95	1003.5
793.388	2154.6
793.827	1942.3
794.265	681.2
794.704	285.6
795.142	185.8
795.581	155.3
796.019	139.5
796.458	123.2
796.896	124.8
797.334	140.3
797.773	150.6
798.211	221.3
798.649	437.9
799.087	1019.4
799.526	1603.2
799.964	2020.5
800.402	1998
800.84	760.6
801.278	301.7
801.716	186.4
802.154	162.3
802.592	145.8
803.03	144.8
803.468	130.7
803.906	139.6
804.344	151.5
804.782	145.6
805.22	144.7
805.658	134.5
806.096	147.7
806.533	155.3
