Data from 20171114-ORNL-Ar_H_NY_Subt18_08-07-31-981.txt Node
Date: Tue Nov 14 08:07:31 EST 2017
User: Ender
Spectrometer: HR+D1039
Trigger mode: 0
Integration Time (sec): 2.730000E-2
Scans to average: 10
Electric dark correction enabled: true
Nonlinearity correction enabled: false
Boxcar width: 0
XAxis mode: Wavelengths
Number of Pixels in Spectrum: 2048
>>>>>Begin Spectral Data<<<<<
187.836	-1.26
188.309	-1.26
188.782	-1.26
189.255	4.64
189.728	-3.16
190.201	6.24
190.674	0.04
191.147	3.84
191.619	-8.36
192.092	2.24
192.565	-3.46
193.038	0.84
193.511	1.74
193.984	-1.86
194.456	-6.46
194.929	0.54
195.402	5.24
195.874	-0.76
196.347	-2.06
196.82	-0.86
197.292	4.24
197.765	-0.86
198.237	-2.46
198.71	5.24
199.182	-2.86
199.655	0.84
200.127	4.64
200.6	-5.56
201.072	-2.56
201.544	-4.86
202.017	-4.86
202.489	9.24
202.961	1.84
203.433	0.94
203.906	-1.26
204.378	-4.26
204.85	-6.46
205.322	-4.66
205.794	-0.36
206.266	-4.86
206.739	-6.56
207.211	1.44
207.683	-7.66
208.155	-8.66
208.627	-9.16
209.099	-1.56
209.57	-5.46
210.042	-3.86
210.514	-3.16
210.986	-1.76
211.458	-12.46
211.93	-1.96
212.402	-3.96
212.873	-1.06
213.345	-6.26
213.817	-7.96
214.288	1.24
214.76	-15.56
215.232	-1.56
215.703	-9.26
216.175	-4.96
216.646	-2.26
217.118	-5.36
217.589	-6.46
218.061	-3.76
218.532	-7.96
219.004	-0.76
219.475	-6.26
219.946	-9.36
220.418	-6.36
220.889	-1.26
221.36	1.84
221.832	-8.46
222.303	-6.16
222.774	0.84
223.245	-6.46
223.717	-4.26
224.188	-0.16
224.659	-3.96
225.13	-5.56
225.601	3.64
226.072	-4.76
226.543	-4.76
227.014	-0.86
227.485	1.64
227.956	-8.06
228.427	-5.76
228.898	3.64
229.369	3.54
229.839	-6.86
230.31	-12.16
230.781	-3.46
231.252	-3.86
231.722	-12.56
232.193	-0.76
232.664	-2.46
233.135	-1.16
233.605	0.94
234.076	-6.56
234.546	0.14
235.017	6.64
235.487	2.14
235.958	-4.16
236.428	-10.46
236.899	2.24
237.369	0.14
237.84	-6.76
238.31	8.24
238.78	-4.66
239.251	-0.16
239.721	-3.76
240.191	-3.46
240.662	-4.96
241.132	-6.06
241.602	1.94
242.072	2.74
242.542	5.34
243.013	-3.16
243.483	3.14
243.953	-5.46
244.423	1.14
244.893	-1.66
245.363	-1.96
245.833	3.44
246.303	-0.76
246.773	10.94
247.243	-0.06
247.712	4.34
248.182	8.04
248.652	4.04
249.122	-0.46
249.592	5.04
250.061	15.74
250.531	24.74
251.001	9.84
251.471	15.84
251.94	15.14
252.41	4.64
252.879	-3.86
253.349	9.34
253.818	4.74
254.288	-0.16
254.757	2.24
255.227	1.04
255.696	-1.06
256.166	5.54
256.635	3.24
257.105	5.64
257.574	7.54
258.043	3.74
258.513	7.24
258.982	7.24
259.451	6.24
259.92	10.64
260.389	4.64
260.859	7.84
261.328	7.74
261.797	11.24
262.266	-0.46
262.735	7.64
263.204	4.14
263.673	0.44
264.142	-0.16
264.611	-2.86
265.08	-5.66
265.549	0.14
266.018	4.94
266.487	-7.26
266.955	-3.26
267.424	-2.36
267.893	2.24
268.362	-2.96
268.83	1.34
269.299	5.54
269.768	8.14
270.236	1.34
270.705	-4.96
271.174	6.84
271.642	2.94
272.111	8.54
272.579	16.34
273.048	22.04
273.516	22.34
273.985	29.04
274.453	21.14
274.922	17.34
275.39	11.04
275.858	3.64
276.327	15.14
276.795	12.64
277.263	9.04
277.731	23.64
278.2	38.34
278.668	47.24
279.136	41.94
279.604	6.84
280.072	14.14
280.54	8.64
281.008	9.94
281.477	11.04
281.945	6.84
282.413	4.64
282.881	7.74
283.348	-0.66
283.816	6.04
284.284	7.74
284.752	16.24
285.22	9.14
285.688	13.84
286.156	12.94
286.623	37.04
287.091	39.64
287.559	25.44
288.026	12.34
288.494	6.94
288.962	4.24
289.429	10.84
289.897	17.24
290.364	10.94
290.832	9.74
291.3	13.34
291.767	11.74
292.234	14.34
292.702	3.54
293.169	19.14
293.637	11.64
294.104	17.44
294.571	6.94
295.039	14.54
295.506	11.94
295.973	12.54
296.44	8.44
296.908	13.44
297.375	15.84
297.842	14.84
298.309	10.14
298.776	5.04
299.243	15.14
299.71	8.14
300.177	12.94
300.644	17.14
301.111	17.34
301.578	20.04
302.045	13.14
302.512	17.44
302.979	22.64
303.446	22.14
303.913	10.84
304.379	14.84
304.846	26.34
305.313	21.44
305.78	16.64
306.246	21.14
306.713	23.14
307.18	18.24
307.646	20.84
308.113	21.94
308.579	17.94
309.046	19.24
309.512	21.34
309.979	20.84
310.445	24.04
310.912	26.94
311.378	25.74
311.845	19.04
312.311	25.24
312.777	31.04
313.244	24.74
313.71	28.94
314.176	24.94
314.642	19.34
315.109	20.44
315.575	24.44
316.041	28.44
316.507	21.44
316.973	34.54
317.439	27.44
317.905	31.34
318.371	27.54
318.837	27.44
319.303	29.44
319.769	30.84
320.235	27.24
320.701	27.44
321.167	29.14
321.633	28.04
322.099	26.84
322.564	36.64
323.03	33.94
323.496	28.64
323.962	35.94
324.427	26.74
324.893	30.84
325.359	28.74
325.824	34.54
326.29	29.24
326.755	33.24
327.221	32.04
327.686	34.04
328.152	37.04
328.617	35.34
329.083	37.64
329.548	41.74
330.014	33.44
330.479	29.34
330.944	39.04
331.41	31.54
331.875	39.74
332.34	30.94
332.805	32.14
333.271	38.54
333.736	40.14
334.201	43.94
334.666	45.34
335.131	45.94
335.596	40.74
336.061	38.94
336.526	33.44
336.991	45.14
337.456	48.14
337.921	46.44
338.386	38.84
338.851	44.34
339.316	39.74
339.781	34.24
340.246	43.54
340.711	35.14
341.175	39.04
341.64	31.44
342.105	38.14
342.569	45.44
343.034	46.94
343.499	52.34
343.963	40.34
344.428	55.24
344.893	53.54
345.357	54.24
345.822	53.44
346.286	60.84
346.751	61.24
347.215	58.44
347.679	56.64
348.144	73.34
348.608	69.34
349.073	60.04
349.537	66.54
350.001	65.64
350.465	64.54
350.93	69.14
351.394	72.84
351.858	56.54
352.322	72.74
352.786	70.84
353.25	78.24
353.715	87.34
354.179	82.04
354.643	102.84
355.107	99.54
355.571	87.54
356.035	88.64
356.498	98.14
356.962	109.84
357.426	109.04
357.89	98.64
358.354	68.54
358.818	70.14
359.281	67.44
359.745	65.34
360.209	68.04
360.673	60.54
361.136	66.44
361.6	63.64
362.064	75.04
362.527	72.24
362.991	78.94
363.454	63.74
363.918	66.84
364.381	71.64
364.845	65.94
365.308	72.04
365.772	68.94
366.235	70.24
366.698	76.84
367.162	68.74
367.625	72.94
368.088	79.94
368.552	80.44
369.015	81.64
369.478	85.94
369.941	85.54
370.404	83.24
370.867	88.64
371.331	99.84
371.794	95.84
372.257	101.74
372.72	104.94
373.183	100.24
373.646	88.04
374.109	88.94
374.572	88.84
375.035	93.34
375.497	96.04
375.96	91.94
376.423	89.94
376.886	94.64
377.349	100.24
377.811	85.44
378.274	88.44
378.737	93.04
379.199	96.34
379.662	102.54
380.125	104.14
380.587	105.94
381.05	111.14
381.512	109.64
381.975	116.94
382.437	116.54
382.9	109.34
383.362	117.24
383.825	126.94
384.287	127.34
384.75	130.84
385.212	128.04
385.674	122.04
386.136	127.04
386.599	113.14
387.061	111.14
387.523	112.54
387.985	122.14
388.447	128.84
388.91	135.94
389.372	147.14
389.834	144.64
390.296	137.44
390.758	141.24
391.22	148.44
391.682	183.34
392.144	272.64
392.606	212.04
393.068	153.84
393.529	159.04
393.991	136.04
394.453	132.74
394.915	150.14
395.377	178.44
395.838	191.64
396.3	140.44
396.762	127.44
397.224	123.44
397.685	119.34
398.147	117.74
398.608	115.84
399.07	119.84
399.531	126.14
399.993	132.44
400.454	141.94
400.916	136.94
401.377	133.84
401.839	141.24
402.3	142.44
402.762	148.54
403.223	166.04
403.684	155.34
404.145	140.14
404.607	144.94
405.068	155.34
405.529	155.04
405.99	176.74
406.451	159.54
406.913	161.94
407.374	146.84
407.835	153.14
408.296	161.64
408.757	161.54
409.218	168.34
409.679	163.74
410.14	160.74
410.601	163.74
411.062	170.94
411.522	180.44
411.983	174.54
412.444	160.34
412.905	165.14
413.366	170.14
413.826	181.54
414.287	195.64
414.748	244.74
415.208	227.44
415.669	196.64
416.13	189.94
416.59	186.84
417.051	197.44
417.511	202.84
417.972	219.04
418.432	226.64
418.893	270.14
419.353	229.04
419.814	185.04
420.274	169.94
420.734	169.64
421.195	190.44
421.655	184.24
422.115	181.54
422.576	189.84
423.036	187.84
423.496	187.84
423.956	203.54
424.416	209.94
424.876	244.94
425.336	235.74
425.797	248.44
426.257	236.54
426.717	225.94
427.177	226.44
427.637	206.04
428.097	217.24
428.556	225.44
429.016	252.74
429.476	253.34
429.936	255.44
430.396	273.04
430.856	269.04
431.315	297.74
431.775	321.34
432.235	356.74
432.694	332.04
433.154	336.34
433.614	367.74
434.073	314.24
434.533	270.44
434.993	249.54
435.452	271.94
435.912	271.64
436.371	266.14
436.83	267.74
437.29	258.84
437.749	225.54
438.209	234.54
438.668	253.34
439.127	266.54
439.587	240.44
440.046	232.04
440.505	252.34
440.964	254.94
441.424	297.04
441.883	288.84
442.342	242.14
442.801	217.44
443.26	207.84
443.719	209.84
444.178	204.24
444.637	203.94
445.096	208.24
445.555	212.24
446.014	212.44
446.473	216.74
446.932	221.74
447.391	211.54
447.849	217.14
448.308	204.54
448.767	216.34
449.226	227.44
449.685	230.14
450.143	230.44
450.602	220.14
451.061	222.14
451.519	217.14
451.978	221.04
452.436	219.54
452.895	225.14
453.353	241.24
453.812	227.14
454.27	223.44
454.729	227.84
455.187	227.04
455.646	231.84
456.104	232.44
456.562	245.74
457.021	251.54
457.479	249.14
457.937	261.14
458.395	246.04
458.854	237.84
459.312	250.94
459.77	259.24
460.228	242.34
460.686	228.34
461.144	236.04
461.602	229.94
462.06	228.84
462.518	238.74
462.976	248.04
463.434	248.84
463.892	240.94
464.35	263.14
464.808	276.24
465.266	254.24
465.724	251.24
466.181	263.24
466.639	261.84
467.097	274.04
467.555	285.54
468.012	290.14
468.47	293.04
468.928	314.74
469.385	331.24
469.843	330.34
470.3	328.14
470.758	345.74
471.215	373.14
471.673	390.34
472.13	390.84
472.588	400.44
473.045	358.14
473.503	366.54
473.96	381.54
474.417	387.24
474.875	415.14
475.332	453.24
475.789	435.54
476.246	443.64
476.704	472.34
477.161	481.34
477.618	508.94
478.075	539.24
478.532	590.44
478.989	653.44
479.446	770.74
479.903	741.94
480.36	779.24
480.817	830.94
481.274	921.34
481.731	1029.14
482.188	1118.74
482.645	1245.64
483.102	1340.84
483.558	1487.04
484.015	1531.14
484.472	1512.54
484.929	1468.64
485.385	1407.14
485.842	1370.24
486.299	1305.04
486.755	1241.74
487.212	1043.74
487.668	890.04
488.125	814.34
488.582	743.04
489.038	714.14
489.494	680.14
489.951	658.44
490.407	637.74
490.864	617.84
491.32	616.94
491.776	619.94
492.233	619.94
492.689	579.94
493.145	575.64
493.602	574.24
494.058	588.34
494.514	588.04
494.97	623.64
495.426	618.94
495.882	609.44
496.338	583.34
496.794	600.04
497.251	595.24
497.707	600.94
498.163	607.64
498.618	612.74
499.074	622.94
499.53	649.04
499.986	652.34
500.442	628.04
500.898	612.24
501.354	598.94
501.809	613.84
502.265	621.24
502.721	642.04
503.177	647.34
503.632	642.84
504.088	655.84
504.543	678.34
504.999	684.04
505.455	635.64
505.91	606.04
506.366	615.64
506.821	599.44
507.277	602.44
507.732	604.84
508.187	600.44
508.643	604.94
509.098	619.14
509.553	632.04
510.009	642.44
510.464	649.74
510.919	668.24
511.375	672.34
511.83	682.84
512.285	703.94
512.74	730.14
513.195	757.44
513.65	749.34
514.105	741.14
514.56	746.74
515.015	770.14
515.47	775.94
515.925	763.64
516.38	758.84
516.835	761.34
517.29	752.14
517.745	754.54
518.2	746.04
518.655	726.14
519.109	721.84
519.564	722.44
520.019	711.14
520.474	703.04
520.928	703.54
521.383	696.34
521.838	683.44
522.292	687.24
522.747	682.44
523.201	677.04
523.656	683.54
524.11	677.54
524.565	683.94
525.019	669.84
525.474	680.04
525.928	680.44
526.382	675.74
526.837	681.84
527.291	677.04
527.745	672.64
528.2	672.04
528.654	664.94
529.108	666.44
529.562	676.14
530.016	657.94
530.47	668.84
530.925	663.94
531.379	678.54
531.833	683.14
532.287	685.64
532.741	680.84
533.195	681.64
533.649	684.44
534.103	696.14
534.556	675.54
535.01	692.04
535.464	683.84
535.918	698.34
536.372	693.14
536.826	697.44
537.279	683.74
537.733	692.04
538.187	693.74
538.64	702.54
539.094	702.54
539.548	711.04
540.001	705.14
540.455	705.44
540.908	706.04
541.362	721.94
541.815	720.24
542.269	730.44
542.722	747.64
543.175	754.84
543.629	748.04
544.082	775.54
544.536	759.14
544.989	764.54
545.442	773.64
545.895	765.64
546.349	765.04
546.802	765.44
547.255	770.14
547.708	784.04
548.161	800.04
548.614	794.74
549.067	805.64
549.52	797.34
549.973	785.54
550.426	788.94
550.879	770.84
551.332	771.64
551.785	781.54
552.238	790.64
552.691	803.84
553.144	804.84
553.596	823.04
554.049	840.54
554.502	870.54
554.955	887.94
555.407	880.34
555.86	875.34
556.313	874.74
556.765	859.94
557.218	849.74
557.67	860.44
558.123	844.24
558.576	846.24
559.028	858.34
559.48	855.34
559.933	861.64
560.385	815.94
560.838	786.84
561.29	775.44
561.742	761.84
562.195	746.14
562.647	743.94
563.099	750.34
563.551	748.74
564.004	763.94
564.456	744.44
564.908	748.24
565.36	733.74
565.812	719.64
566.264	713.44
566.716	710.74
567.168	697.84
567.62	698.04
568.072	684.44
568.524	679.84
568.976	674.44
569.428	663.04
569.88	660.34
570.332	674.24
570.784	670.54
571.235	666.24
571.687	677.44
572.139	693.04
572.59	700.14
573.042	690.44
573.494	699.24
573.945	691.54
574.397	668.54
574.849	672.14
575.3	686.14
575.752	663.94
576.203	668.64
576.655	666.44
577.106	654.34
577.557	653.44
578.009	653.94
578.46	647.64
578.912	642.54
579.363	656.34
579.814	647.94
580.265	643.94
580.717	639.74
581.168	661.74
581.619	667.64
582.07	659.54
582.521	664.24
582.972	657.84
583.423	663.54
583.875	671.34
584.326	693.54
584.777	729.54
585.227	816.54
585.678	904.84
586.129	978.34
586.58	1069.84
587.031	1134.14
587.482	1290.54
587.933	1471.84
588.384	1283.44
588.834	957.34
589.285	786.44
589.736	767.04
590.186	763.44
590.637	763.54
591.088	722.84
591.538	721.64
591.989	723.84
592.439	713.74
592.89	708.44
593.34	693.14
593.791	699.14
594.241	700.84
594.692	702.64
595.142	690.24
595.593	687.84
596.043	689.34
596.493	699.04
596.943	694.14
597.394	709.54
597.844	698.14
598.294	715.74
598.744	734.34
599.195	764.04
599.645	803.04
600.095	847.64
600.545	904.44
600.995	951.24
601.445	1009.54
601.895	1064.84
602.345	1123.04
602.795	1087.64
603.245	1047.44
603.695	990.84
604.145	935.64
604.594	889.34
605.044	843.54
605.494	784.04
605.944	739.34
606.393	738.44
606.843	710.04
607.293	719.34
607.743	718.74
608.192	729.84
608.642	752.34
609.091	757.34
609.541	757.14
609.99	755.44
610.44	750.24
610.889	706.24
611.339	701.14
611.788	681.24
612.238	682.14
612.687	710.54
613.136	709.14
613.586	733.44
614.035	726.44
614.484	743.64
614.933	751.04
615.383	738.74
615.832	734.94
616.281	721.14
616.73	667.64
617.179	658.94
617.628	640.84
618.077	623.44
618.526	608.44
618.975	605.54
619.424	604.74
619.873	608.74
620.322	619.34
620.771	597.64
621.22	591.84
621.669	585.54
622.118	587.04
622.567	578.64
623.015	553.14
623.464	557.74
623.913	545.94
624.361	533.04
624.81	536.14
625.259	540.84
625.707	548.94
626.156	546.74
626.604	569.04
627.053	558.94
627.501	561.34
627.95	559.04
628.398	569.44
628.847	558.94
629.295	565.54
629.744	567.54
630.192	559.64
630.64	553.34
631.089	557.44
631.537	579.84
631.985	582.24
632.433	592.14
632.881	603.94
633.33	653.54
633.778	634.54
634.226	555.34
634.674	563.04
635.122	572.74
635.57	585.04
636.018	615.74
636.466	578.74
636.914	544.44
637.362	560.34
637.81	564.84
638.258	573.14
638.705	567.54
639.153	603.74
639.601	608.74
640.049	633.54
640.497	662.44
640.944	682.64
641.392	633.94
641.84	611.54
642.287	580.44
642.735	562.64
643.182	559.84
643.63	573.54
644.078	562.04
644.525	582.74
644.973	588.54
645.42	590.64
645.867	613.84
646.315	623.64
646.762	652.24
647.21	689.84
647.657	709.04
648.104	736.74
648.551	758.24
648.999	835.04
649.446	911.14
649.893	1000.34
650.34	1155.54
650.787	1380.24
651.234	1710.54
651.682	2239.64
652.129	3077.24
652.576	4456.94
653.023	6573.64
653.47	8979.04
653.917	11180.34
654.363	12856.34
654.81	14176.74
655.257	13443.74
655.704	8810.64
656.151	5218.84
656.598	3370.34
657.044	2392.04
657.491	1834.84
657.938	1475.04
658.385	1222.24
658.831	1066.74
659.278	950.84
659.724	840.24
660.171	776.64
660.618	712.34
661.064	680.54
661.511	650.94
661.957	643.44
662.404	634.74
662.85	640.54
663.296	606.34
663.743	554.94
664.189	539.84
664.635	522.24
665.082	510.84
665.528	514.84
665.974	507.84
666.42	502.74
666.867	508.34
667.313	485.74
667.759	479.24
668.205	481.74
668.651	483.24
669.097	489.94
669.543	500.34
669.989	465.44
670.435	441.74
670.881	440.64
671.327	435.94
671.773	456.74
672.219	487.24
672.665	533.14
673.11	573.94
673.556	615.64
674.002	654.44
674.448	634.54
674.893	538.14
675.339	469.34
675.785	432.04
676.23	413.94
676.676	382.34
677.122	378.64
677.567	367.34
678.013	372.54
678.458	357.54
678.904	353.64
679.349	342.54
679.794	345.24
680.24	353.24
680.685	342.64
681.131	341.44
681.576	347.74
682.021	348.84
682.466	347.34
682.912	345.24
683.357	354.24
683.802	376.54
684.247	408.94
684.692	435.94
685.137	488.34
685.583	525.14
686.028	551.14
686.473	509.54
686.918	441.04
687.363	407.94
687.807	386.14
688.252	357.64
688.697	345.84
689.142	334.14
689.587	322.94
690.032	326.64
690.477	339.54
690.921	344.84
691.366	375.14
691.811	398.34
692.255	428.44
692.7	467.04
693.145	503.24
693.589	678.94
694.034	1125.94
694.478	1518.04
694.923	1701.24
695.367	2220.94
695.812	1163.04
696.256	483.44
696.701	369.84
697.145	340.04
697.59	326.04
698.034	326.94
698.478	320.44
698.922	321.54
699.367	326.04
699.811	339.14
700.255	347.14
700.699	380.54
701.143	429.24
701.588	468.24
702.032	513.74
702.476	504.94
702.92	488.64
703.364	482.94
703.808	642.14
704.252	1029.44
704.696	1438.84
705.14	1650.74
705.584	2089.94
706.027	1038.44
706.471	522.04
706.915	391.34
707.359	351.94
707.803	319.14
708.246	306.54
708.69	314.94
709.134	316.24
709.577	304.34
710.021	310.24
710.465	302.64
710.908	302.24
711.352	294.94
711.795	309.44
712.239	347.14
712.682	382.54
713.126	419.74
713.569	456.24
714.012	362.54
714.456	319.34
714.899	294.94
715.342	268.74
715.786	261.44
716.229	253.24
716.672	251.54
717.115	238.74
717.558	251.04
718.002	255.24
718.445	261.64
718.888	284.34
719.331	293.14
719.774	307.64
720.217	298.44
720.66	281.24
721.103	261.64
721.546	251.74
721.989	250.44
722.432	234.84
722.874	237.24
723.317	229.54
723.76	240.84
724.203	262.94
724.645	319.64
725.088	450.24
725.531	570.34
725.974	633.94
726.416	542.44
726.859	300.84
727.301	246.14
727.744	238.54
728.187	238.74
728.629	231.24
729.071	229.24
729.514	254.04
729.956	271.24
730.399	282.34
730.841	281.44
731.283	273.14
731.726	262.74
732.168	247.04
732.61	259.64
733.053	275.54
733.495	315.14
733.937	347.74
734.379	394.84
734.821	435.54
735.263	536.74
735.705	828.54
736.148	1577.54
736.59	2546.64
737.032	2976.44
737.474	2428.04
737.916	792.94
738.357	426.24
738.799	321.74
739.241	295.14
739.683	292.94
740.125	284.84
740.567	293.44
741.008	307.94
741.45	311.24
741.892	312.24
742.334	342.34
742.775	350.24
743.217	340.94
743.658	269.54
744.1	247.94
744.542	247.64
744.983	303.44
745.425	335.64
745.866	339.54
746.307	278.04
746.749	277.74
747.19	322.34
747.632	454.64
748.073	886.54
748.514	1868.94
748.956	2797.24
749.397	3526.44
749.838	2918.54
750.279	2906.44
750.72	1460.34
751.162	536.04
751.603	323.44
752.044	247.34
752.485	218.64
752.926	206.44
753.367	200.94
753.808	185.74
754.249	187.14
754.69	188.04
755.131	176.14
755.572	183.74
756.013	174.54
756.453	181.44
756.894	185.14
757.335	187.44
757.776	191.54
758.216	193.24
758.657	198.54
759.098	201.54
759.538	233.04
759.979	257.64
760.42	377.54
760.86	715.04
761.301	1850.84
761.741	4390.44
762.182	6292.34
762.622	4389.04
763.063	1288.74
