Data from 20171114-ORNL-Ar_H_NY_Subt18_08-07-49-178.txt Node
Date: Tue Nov 14 08:07:49 EST 2017
User: Ender
Spectrometer: HR+D1039
Trigger mode: 0
Integration Time (sec): 2.730000E-2
Scans to average: 10
Electric dark correction enabled: true
Nonlinearity correction enabled: false
Boxcar width: 0
XAxis mode: Wavelengths
Number of Pixels in Spectrum: 2048
>>>>>Begin Spectral Data<<<<<
187.836	-6.81
188.309	-6.81
188.782	-6.81
189.255	1.19
189.728	-4.31
190.201	7.79
190.674	3.99
191.147	2.19
191.619	-3.81
192.092	5.39
192.565	4.29
193.038	-1.11
193.511	0.99
193.984	1.39
194.456	-2.71
194.929	-1.41
195.402	-6.81
195.874	-0.31
196.347	-4.41
196.82	-11.41
197.292	4.69
197.765	-4.41
198.237	-7.51
198.71	-1.81
199.182	-1.61
199.655	-0.51
200.127	-0.01
200.6	-1.81
201.072	-4.21
201.544	-7.71
202.017	-3.21
202.489	1.99
202.961	-1.31
203.433	-5.91
203.906	-5.71
204.378	-7.71
204.85	0.99
205.322	-9.11
205.794	3.29
206.266	-4.81
206.739	-9.81
207.211	-1.51
207.683	-12.41
208.155	-12.71
208.627	-7.61
209.099	-2.21
209.57	-11.11
210.042	-6.01
210.514	-5.61
210.986	-4.21
211.458	-10.81
211.93	-0.71
212.402	-3.11
212.873	-6.41
213.345	-7.81
213.817	-16.01
214.288	-10.31
214.76	-19.11
215.232	-3.21
215.703	-2.71
216.175	-1.01
216.646	-2.31
217.118	-8.91
217.589	-11.21
218.061	-0.91
218.532	-8.21
219.004	-6.31
219.475	-6.91
219.946	-2.41
220.418	-6.01
220.889	0.69
221.36	-4.41
221.832	-5.31
222.303	-8.61
222.774	-0.31
223.245	-7.41
223.717	-10.71
224.188	-2.41
224.659	-12.61
225.13	-9.11
225.601	-4.81
226.072	4.89
226.543	-2.11
227.014	-2.11
227.485	0.99
227.956	-10.71
228.427	-8.41
228.898	-2.21
229.369	1.79
229.839	-13.21
230.31	-9.01
230.781	0.39
231.252	1.19
231.722	-6.41
232.193	-4.21
232.664	-4.41
233.135	-1.81
233.605	4.79
234.076	-8.61
234.546	-2.21
235.017	-0.71
235.487	-1.61
235.958	-3.91
236.428	-4.61
236.899	3.69
237.369	7.29
237.84	1.89
238.31	6.69
238.78	-0.01
239.251	-4.71
239.721	0.29
240.191	0.19
240.662	-5.41
241.132	-4.11
241.602	-0.81
242.072	2.59
242.542	-0.71
243.013	0.89
243.483	-0.71
243.953	-1.81
244.423	-2.21
244.893	-3.81
245.363	-0.31
245.833	-6.51
246.303	5.59
246.773	6.09
247.243	0.79
247.712	-2.41
248.182	9.29
248.652	2.19
249.122	0.29
249.592	14.99
250.061	20.49
250.531	27.09
251.001	12.09
251.471	17.69
251.94	18.49
252.41	10.29
252.879	-0.81
253.349	13.89
253.818	7.69
254.288	2.89
254.757	0.79
255.227	-4.91
255.696	6.49
256.166	5.59
256.635	4.19
257.105	7.29
257.574	3.49
258.043	6.69
258.513	9.39
258.982	12.79
259.451	5.09
259.92	13.09
260.389	4.99
260.859	11.39
261.328	15.49
261.797	14.59
262.266	4.59
262.735	5.29
263.204	2.39
263.673	-4.71
264.142	3.19
264.611	-10.31
265.08	-0.81
265.549	2.49
266.018	6.59
266.487	-1.01
266.955	-3.61
267.424	1.09
267.893	5.29
268.362	-0.61
268.83	1.19
269.299	13.19
269.768	4.49
270.236	9.19
270.705	-1.61
271.174	5.09
271.642	1.49
272.111	3.69
272.579	12.49
273.048	18.49
273.516	24.29
273.985	22.69
274.453	20.59
274.922	16.39
275.39	9.79
275.858	-1.11
276.327	11.49
276.795	15.59
277.263	11.49
277.731	29.39
278.2	47.19
278.668	48.39
279.136	42.19
279.604	7.79
280.072	11.09
280.54	12.19
281.008	5.39
281.477	6.69
281.945	11.99
282.413	8.69
282.881	12.39
283.348	7.99
283.816	14.29
284.284	17.29
284.752	22.09
285.22	13.59
285.688	7.69
286.156	8.79
286.623	43.59
287.091	50.89
287.559	27.19
288.026	15.39
288.494	9.89
288.962	1.09
289.429	4.49
289.897	16.59
290.364	8.49
290.832	12.19
291.3	15.89
291.767	14.69
292.234	13.49
292.702	17.99
293.169	15.69
293.637	18.59
294.104	17.39
294.571	3.39
295.039	11.09
295.506	7.69
295.973	9.49
296.44	12.99
296.908	13.09
297.375	10.89
297.842	13.19
298.309	11.09
298.776	15.19
299.243	16.49
299.71	10.19
300.177	17.79
300.644	18.29
301.111	12.99
301.578	17.49
302.045	9.99
302.512	23.39
302.979	26.49
303.446	22.19
303.913	21.79
304.379	11.39
304.846	29.59
305.313	19.99
305.78	18.19
306.246	21.29
306.713	22.49
307.18	26.49
307.646	24.69
308.113	21.49
308.579	17.79
309.046	19.79
309.512	19.69
309.979	15.29
310.445	23.29
310.912	25.79
311.378	24.39
311.845	27.69
312.311	26.29
312.777	26.69
313.244	26.19
313.71	28.69
314.176	32.39
314.642	28.39
315.109	24.59
315.575	34.29
316.041	35.99
316.507	29.39
316.973	33.69
317.439	29.99
317.905	33.49
318.371	28.09
318.837	29.29
319.303	27.49
319.769	36.09
320.235	29.69
320.701	28.59
321.167	35.99
321.633	28.39
322.099	35.69
322.564	40.69
323.03	37.59
323.496	28.69
323.962	37.39
324.427	32.19
324.893	39.89
325.359	33.39
325.824	30.79
326.29	29.89
326.755	38.49
327.221	35.59
327.686	30.09
328.152	41.79
328.617	36.79
329.083	40.79
329.548	44.89
330.014	45.89
330.479	35.29
330.944	39.29
331.41	39.89
331.875	41.59
332.34	44.39
332.805	38.39
333.271	44.49
333.736	40.39
334.201	45.49
334.666	44.29
335.131	54.59
335.596	50.39
336.061	47.09
336.526	35.09
336.991	44.39
337.456	43.59
337.921	50.39
338.386	41.39
338.851	43.29
339.316	42.69
339.781	45.19
340.246	50.09
340.711	39.89
341.175	44.19
341.64	43.19
342.105	48.39
342.569	50.19
343.034	56.79
343.499	54.59
343.963	49.69
344.428	53.69
344.893	62.59
345.357	53.19
345.822	61.49
346.286	58.09
346.751	69.59
347.215	62.79
347.679	71.59
348.144	88.39
348.608	75.09
349.073	66.89
349.537	70.19
350.001	74.19
350.465	82.79
350.93	73.29
351.394	77.19
351.858	68.09
352.322	81.59
352.786	76.79
353.25	102.69
353.715	108.19
354.179	96.29
354.643	112.79
355.107	115.39
355.571	99.19
356.035	98.39
356.498	113.59
356.962	107.29
357.426	124.59
357.89	110.99
358.354	88.59
358.818	79.49
359.281	71.19
359.745	70.79
360.209	69.69
360.673	72.89
361.136	75.39
361.6	79.99
362.064	84.29
362.527	83.89
362.991	78.79
363.454	77.69
363.918	74.09
364.381	76.59
364.845	79.19
365.308	87.59
365.772	83.49
366.235	87.69
366.698	83.09
367.162	77.99
367.625	81.89
368.088	82.29
368.552	80.19
369.015	82.99
369.478	86.69
369.941	93.79
370.404	93.29
370.867	100.99
371.331	104.99
371.794	117.49
372.257	109.89
372.72	111.59
373.183	105.19
373.646	98.49
374.109	100.69
374.572	103.79
375.035	105.39
375.497	106.09
375.96	97.09
376.423	97.29
376.886	105.69
377.349	107.89
377.811	95.39
378.274	109.59
378.737	106.99
379.199	110.09
379.662	109.09
380.125	113.39
380.587	111.49
381.05	120.99
381.512	127.19
381.975	130.89
382.437	127.89
382.9	125.29
383.362	126.49
383.825	137.39
384.287	148.39
384.75	135.19
385.212	135.29
385.674	131.19
386.136	132.39
386.599	122.49
387.061	122.99
387.523	126.59
387.985	131.29
388.447	144.09
388.91	142.99
389.372	156.49
389.834	150.99
390.296	138.89
390.758	158.79
391.22	166.99
391.682	200.69
392.144	298.59
392.606	225.49
393.068	162.69
393.529	166.69
393.991	152.79
394.453	146.29
394.915	156.79
395.377	192.79
395.838	208.49
396.3	152.59
396.762	138.39
397.224	123.99
397.685	125.89
398.147	124.59
398.608	130.49
399.07	128.19
399.531	134.79
399.993	137.39
400.454	153.79
400.916	145.29
401.377	141.89
401.839	141.69
402.3	147.99
402.762	163.49
403.223	173.79
403.684	172.59
404.145	159.39
404.607	156.59
405.068	168.09
405.529	165.29
405.99	185.59
406.451	177.49
406.913	170.19
407.374	157.19
407.835	159.99
408.296	172.99
408.757	169.79
409.218	192.69
409.679	173.59
410.14	171.49
410.601	175.29
411.062	182.69
411.522	189.59
411.983	184.69
412.444	173.19
412.905	182.49
413.366	182.89
413.826	193.39
414.287	218.39
414.748	260.79
415.208	239.69
415.669	209.59
416.13	206.59
416.59	196.19
417.051	210.79
417.511	215.89
417.972	233.79
418.432	248.69
418.893	285.49
419.353	249.69
419.814	196.49
420.274	181.09
420.734	188.29
421.195	196.09
421.655	199.99
422.115	194.79
422.576	190.09
423.036	199.89
423.496	213.79
423.956	214.99
424.416	227.49
424.876	263.39
425.336	262.29
425.797	263.79
426.257	257.79
426.717	247.39
427.177	229.99
427.637	226.99
428.097	239.19
428.556	253.39
429.016	271.89
429.476	270.39
429.936	276.39
430.396	280.49
430.856	299.89
431.315	317.59
431.775	353.89
432.235	376.99
432.694	352.89
433.154	359.09
433.614	388.89
434.073	339.89
434.533	292.09
434.993	277.99
435.452	279.59
435.912	300.09
436.371	282.89
436.83	283.99
437.29	269.49
437.749	246.69
438.209	248.79
438.668	275.09
439.127	282.59
439.587	267.19
440.046	252.09
440.505	257.99
440.964	273.49
441.424	312.79
441.883	310.19
442.342	261.29
442.801	225.59
443.26	217.29
443.719	220.79
444.178	220.79
444.637	209.99
445.096	215.29
445.555	219.79
446.014	223.09
446.473	227.69
446.932	231.39
447.391	224.49
447.849	228.39
448.308	215.59
448.767	222.19
449.226	238.39
449.685	232.59
450.143	247.59
450.602	245.39
451.061	227.29
451.519	228.69
451.978	234.49
452.436	241.09
452.895	239.89
453.353	260.49
453.812	244.19
454.27	238.99
454.729	241.49
455.187	230.69
455.646	247.19
456.104	246.79
456.562	258.39
457.021	259.19
457.479	260.29
457.937	271.59
458.395	262.69
458.854	243.89
459.312	251.09
459.77	269.09
460.228	253.29
460.686	242.69
461.144	249.89
461.602	249.49
462.06	243.99
462.518	256.49
462.976	255.49
463.434	261.49
463.892	266.69
464.35	276.89
464.808	288.29
465.266	266.49
465.724	265.89
466.181	270.29
466.639	268.09
467.097	287.69
467.555	301.09
468.012	305.89
468.47	308.79
468.928	328.69
469.385	343.29
469.843	343.99
470.3	353.29
470.758	360.59
471.215	387.19
471.673	409.59
472.13	403.29
472.588	423.19
473.045	374.29
473.503	376.19
473.96	394.09
474.417	407.89
474.875	430.29
475.332	476.09
475.789	462.19
476.246	462.59
476.704	494.59
477.161	514.89
477.618	527.99
478.075	567.49
478.532	616.69
478.989	690.99
479.446	810.69
479.903	782.69
480.36	816.99
480.817	878.29
481.274	967.89
481.731	1054.49
482.188	1160.89
482.645	1299.59
483.102	1396.69
483.558	1543.09
484.015	1591.59
484.472	1577.49
484.929	1519.29
485.385	1476.19
485.842	1429.59
486.299	1347.69
486.755	1308.89
487.212	1100.59
487.668	932.59
488.125	852.59
488.582	771.09
489.038	753.69
489.494	697.89
489.951	683.99
490.407	671.89
490.864	657.19
491.32	650.39
491.776	640.99
492.233	644.09
492.689	615.09
493.145	614.79
493.602	599.39
494.058	604.79
494.514	622.29
494.97	639.39
495.426	658.79
495.882	615.29
496.338	608.89
496.794	623.09
497.251	620.79
497.707	631.79
498.163	626.69
498.618	642.19
499.074	646.69
499.53	680.69
499.986	678.19
500.442	644.59
500.898	628.89
501.354	624.99
501.809	650.29
502.265	644.79
502.721	661.19
503.177	674.99
503.632	666.59
504.088	678.99
504.543	710.09
504.999	702.79
505.455	653.49
505.91	636.49
506.366	633.59
506.821	628.59
507.277	631.69
507.732	629.49
508.187	622.19
508.643	625.49
509.098	630.69
509.553	655.69
510.009	663.89
510.464	682.79
510.919	686.79
511.375	690.89
511.83	704.09
512.285	726.09
512.74	756.39
513.195	783.89
513.65	769.29
514.105	769.39
514.56	769.89
515.015	787.89
515.47	797.39
515.925	785.89
516.38	790.89
516.835	795.19
517.29	785.69
517.745	780.69
518.2	770.09
518.655	742.29
519.109	739.49
519.564	743.89
520.019	723.99
520.474	721.19
520.928	725.09
521.383	717.49
521.838	706.79
522.292	713.79
522.747	719.99
523.201	700.69
523.656	696.19
524.11	696.19
524.565	694.09
525.019	693.99
525.474	697.89
525.928	698.99
526.382	697.49
526.837	691.59
527.291	697.99
527.745	690.59
528.2	700.89
528.654	683.49
529.108	683.09
529.562	691.09
530.016	679.49
530.47	694.79
530.925	698.39
531.379	700.19
531.833	696.39
532.287	693.09
532.741	705.69
533.195	700.69
533.649	717.59
534.103	721.89
534.556	712.19
535.01	716.99
535.464	702.29
535.918	718.29
536.372	725.89
536.826	721.49
537.279	707.29
537.733	715.79
538.187	718.69
538.64	712.59
539.094	721.99
539.548	728.19
540.001	734.69
540.455	727.49
540.908	732.69
541.362	744.49
541.815	750.79
542.269	770.39
542.722	748.99
543.175	766.19
543.629	771.89
544.082	801.79
544.536	793.49
544.989	781.69
545.442	791.89
545.895	792.69
546.349	792.39
546.802	790.49
547.255	791.19
547.708	803.79
548.161	814.79
548.614	822.19
549.067	828.89
549.52	821.79
549.973	811.19
550.426	797.19
550.879	790.59
551.332	796.39
551.785	802.09
552.238	814.59
552.691	807.59
553.144	836.59
553.596	856.29
554.049	869.89
554.502	897.89
554.955	922.79
555.407	914.29
555.86	903.09
556.313	893.59
556.765	882.99
557.218	878.89
557.67	882.19
558.123	879.79
558.576	868.99
559.028	886.19
559.48	884.49
559.933	872.69
560.385	833.29
560.838	812.19
561.29	783.29
561.742	781.79
562.195	775.79
562.647	771.19
563.099	763.99
563.551	768.89
564.004	793.19
564.456	777.59
564.908	758.19
565.36	750.49
565.812	732.79
566.264	728.19
566.716	732.09
567.168	720.39
567.62	712.59
568.072	708.89
568.524	695.59
568.976	698.09
569.428	672.59
569.88	676.59
570.332	671.29
570.784	688.79
571.235	689.69
571.687	691.39
572.139	705.89
572.59	719.49
573.042	717.69
573.494	708.79
573.945	714.59
574.397	677.99
574.849	697.19
575.3	694.09
575.752	685.39
576.203	685.19
576.655	686.49
577.106	681.89
577.557	673.19
578.009	683.49
578.46	673.49
578.912	666.79
579.363	672.79
579.814	669.19
580.265	656.59
580.717	665.49
581.168	672.59
581.619	675.69
582.07	686.19
582.521	681.89
582.972	674.09
583.423	676.39
583.875	693.49
584.326	708.49
584.777	757.49
585.227	826.59
585.678	921.09
586.129	1008.29
586.58	1087.99
587.031	1176.49
587.482	1328.09
587.933	1508.99
588.384	1316.59
588.834	989.29
589.285	814.59
589.736	787.89
590.186	787.29
590.637	764.89
591.088	749.99
591.538	741.59
591.989	733.89
592.439	736.09
592.89	734.19
593.34	716.59
593.791	711.69
594.241	703.69
594.692	719.89
595.142	708.89
595.593	703.79
596.043	712.79
596.493	723.99
596.943	727.99
597.394	725.49
597.844	722.19
598.294	729.89
598.744	761.49
599.195	787.39
599.645	825.29
600.095	866.29
600.545	919.19
600.995	976.29
601.445	1029.29
601.895	1092.79
602.345	1150.59
602.795	1122.39
603.245	1072.39
603.695	1020.29
604.145	961.09
604.594	918.59
605.044	858.99
605.494	812.69
605.944	756.29
606.393	751.79
606.843	733.39
607.293	737.19
607.743	734.89
608.192	745.79
608.642	760.79
609.091	768.29
609.541	774.99
609.99	767.59
610.44	771.19
610.889	731.19
611.339	708.89
611.788	687.49
612.238	711.89
612.687	727.99
613.136	728.59
613.586	752.19
614.035	735.29
614.484	763.99
614.933	762.79
615.383	758.09
615.832	741.59
616.281	725.49
616.73	688.89
617.179	671.89
617.628	663.39
618.077	640.69
618.526	625.59
618.975	627.59
619.424	622.39
619.873	628.49
620.322	636.59
620.771	610.19
621.22	617.49
621.669	603.89
622.118	583.99
622.567	590.69
623.015	579.59
623.464	570.29
623.913	566.29
624.361	559.89
624.81	557.29
625.259	562.19
625.707	558.69
626.156	562.19
626.604	573.29
627.053	564.69
627.501	568.29
627.95	573.29
628.398	587.79
628.847	569.09
629.295	575.99
629.744	587.59
630.192	578.29
630.64	567.09
631.089	576.29
631.537	585.89
631.985	587.99
632.433	598.39
632.881	613.59
633.33	665.19
633.778	647.39
634.226	579.49
634.674	581.39
635.122	583.99
635.57	599.99
636.018	634.59
636.466	591.99
636.914	555.89
637.362	569.19
637.81	578.39
638.258	590.39
638.705	579.59
639.153	621.59
639.601	621.69
640.049	644.29
640.497	678.59
640.944	697.09
641.392	649.19
641.84	628.19
642.287	589.19
642.735	573.69
643.182	584.29
643.63	580.29
644.078	584.19
644.525	591.89
644.973	597.89
645.42	615.19
645.867	631.99
646.315	646.19
646.762	660.19
647.21	704.49
647.657	718.49
648.104	769.29
648.551	777.89
648.999	838.79
649.446	925.19
649.893	1022.19
650.34	1181.19
650.787	1427.59
651.234	1763.39
651.682	2310.49
652.129	3184.39
652.576	4590.79
653.023	6742.79
653.47	9273.79
653.917	11484.79
654.363	13140.09
654.81	14437.39
655.257	13722.79
655.704	8993.99
656.151	5324.79
656.598	3443.19
657.044	2451.09
657.491	1877.29
657.938	1489.39
658.385	1258.69
658.831	1097.09
659.278	970.19
659.724	864.49
660.171	790.09
660.618	735.09
661.064	696.29
661.511	676.99
661.957	663.29
662.404	650.99
662.85	663.89
663.296	632.09
663.743	566.29
664.189	536.69
664.635	542.99
665.082	532.29
665.528	535.59
665.974	523.89
666.42	518.69
666.867	502.89
667.313	494.29
667.759	486.49
668.205	495.99
668.651	493.39
669.097	486.89
669.543	500.29
669.989	477.69
670.435	454.19
670.881	450.69
671.327	451.19
671.773	476.59
672.219	499.29
672.665	540.39
673.11	585.99
673.556	632.79
674.002	674.49
674.448	657.89
674.893	554.59
675.339	478.69
675.785	442.29
676.23	421.69
676.676	399.89
677.122	386.09
677.567	380.29
678.013	372.19
678.458	367.99
678.904	362.39
679.349	349.59
679.794	354.09
680.24	356.79
680.685	350.99
681.131	350.79
681.576	351.89
682.021	352.19
682.466	355.39
682.912	349.69
683.357	360.19
683.802	389.99
684.247	411.39
684.692	455.39
685.137	501.69
685.583	539.79
686.028	569.49
686.473	513.59
686.918	445.39
687.363	425.69
687.807	395.89
688.252	369.79
688.697	358.89
689.142	330.39
689.587	335.29
690.032	325.59
690.477	335.49
690.921	347.09
691.366	377.99
691.811	404.69
692.255	434.59
692.7	465.59
693.145	516.79
693.589	713.39
694.034	1158.99
694.478	1553.79
694.923	1726.89
695.367	2272.59
695.812	1200.39
696.256	501.89
696.701	373.59
697.145	351.19
697.59	339.79
698.034	322.89
698.478	329.19
698.922	336.99
699.367	330.19
699.811	346.59
700.255	355.79
700.699	388.79
701.143	429.19
701.588	479.19
702.032	524.19
702.476	516.69
702.92	496.39
703.364	498.59
703.808	651.79
704.252	1056.49
704.696	1478.99
705.14	1676.59
705.584	2128.49
706.027	1064.39
706.471	524.99
706.915	389.19
707.359	352.09
707.803	321.69
708.246	309.39
708.69	317.69
709.134	317.99
709.577	320.79
710.021	320.39
710.465	298.79
710.908	300.19
711.352	293.69
711.795	316.79
712.239	361.09
712.682	387.09
713.126	416.19
713.569	459.69
714.012	378.19
714.456	323.19
714.899	306.79
715.342	280.99
715.786	264.49
716.229	265.09
716.672	258.79
717.115	253.69
717.558	253.79
718.002	252.79
718.445	269.79
718.888	292.19
719.331	294.69
719.774	306.99
720.217	303.39
720.66	282.39
721.103	263.49
721.546	256.79
721.989	254.09
722.432	241.09
722.874	238.09
723.317	235.09
723.76	236.69
724.203	263.39
724.645	321.39
725.088	454.79
725.531	581.29
725.974	647.09
726.416	552.19
726.859	305.29
727.301	246.29
727.744	242.19
728.187	225.89
728.629	240.79
729.071	246.09
729.514	261.49
729.956	273.49
730.399	287.89
730.841	292.09
731.283	267.79
731.726	268.59
732.168	258.39
732.61	266.19
733.053	285.49
733.495	319.19
733.937	357.99
734.379	405.29
734.821	441.29
735.263	552.39
735.705	857.19
736.148	1631.99
736.59	2612.39
737.032	3032.09
737.474	2480.69
737.916	811.39
738.357	432.99
738.799	335.89
739.241	303.89
739.683	288.59
740.125	295.19
740.567	303.29
741.008	316.89
741.45	315.69
741.892	323.69
742.334	355.89
742.775	365.49
743.217	341.79
743.658	271.49
744.1	258.59
744.542	268.49
744.983	315.19
745.425	349.49
745.866	345.19
746.307	289.59
746.749	291.49
747.19	326.79
747.632	475.09
748.073	917.49
748.514	1912.39
748.956	2885.69
749.397	3599.99
749.838	2982.99
750.279	2955.89
750.72	1493.09
751.162	554.49
751.603	316.59
752.044	256.59
752.485	222.89
752.926	214.89
753.367	204.09
753.808	199.19
754.249	197.89
754.69	188.59
755.131	179.39
755.572	179.09
756.013	181.39
756.453	178.29
756.894	193.79
757.335	192.89
757.776	197.69
758.216	198.79
758.657	199.39
759.098	211.29
759.538	225.49
759.979	268.19
760.42	375.89
760.86	733.19
761.301	1909.19
761.741	4540.69
762.182	6406.79
