Data from 20171114-ORNL-Ar_H_NY_Subt18_08-07-54-092.txt Node
Date: Tue Nov 14 08:07:54 EST 2017
User: Ender
Spectrometer: HR+D1039
Trigger mode: 0
Integration Time (sec): 2.730000E-2
Scans to average: 10
Electric dark correction enabled: true
Nonlinearity correction enabled: false
Boxcar width: 0
XAxis mode: Wavelengths
Number of Pixels in Spectrum: 2048
>>>>>Begin Spectral Data<<<<<
187.836	-10.55
188.309	-10.55
188.782	-10.55
189.255	2.45
189.728	-1.15
190.201	2.85
190.674	-1.55
191.147	7.05
191.619	-8.75
192.092	2.35
192.565	5.65
193.038	2.05
193.511	5.25
193.984	2.25
194.456	2.85
194.929	-6.95
195.402	-1.85
195.874	-1.95
196.347	3.85
196.82	-1.85
197.292	6.65
197.765	-0.25
198.237	-7.95
198.71	7.15
199.182	-1.45
199.655	10.25
200.127	5.15
200.6	1.25
201.072	1.05
201.544	-5.25
202.017	-2.75
202.489	2.35
202.961	-1.45
203.433	-4.25
203.906	-2.25
204.378	-8.45
204.85	1.65
205.322	-6.15
205.794	-7.65
206.266	3.65
206.739	-2.05
207.211	5.35
207.683	-4.25
208.155	-2.15
208.627	-6.05
209.099	-0.25
209.57	-10.25
210.042	-2.95
210.514	-2.85
210.986	-8.05
211.458	-9.55
211.93	-1.35
212.402	7.35
212.873	-3.05
213.345	-5.55
213.817	-16.15
214.288	-1.55
214.76	-15.35
215.232	-6.05
215.703	-2.15
216.175	-5.75
216.646	-2.95
217.118	-7.25
217.589	-4.95
218.061	-2.25
218.532	-6.15
219.004	1.55
219.475	-2.05
219.946	-1.95
220.418	-7.65
220.889	9.65
221.36	-1.25
221.832	0.45
222.303	-12.95
222.774	3.05
223.245	-11.65
223.717	-4.55
224.188	-5.25
224.659	-5.75
225.13	-6.65
225.601	0.15
226.072	1.65
226.543	-4.85
227.014	-0.55
227.485	-4.65
227.956	-8.35
228.427	-1.15
228.898	1.25
229.369	6.85
229.839	-0.85
230.31	-3.85
230.781	-5.45
231.252	2.05
231.722	-6.95
232.193	-10.75
232.664	4.55
233.135	-1.45
233.605	4.65
234.076	-7.95
234.546	1.75
235.017	3.25
235.487	4.95
235.958	-4.25
236.428	-5.25
236.899	7.95
237.369	-0.75
237.84	0.25
238.31	9.85
238.78	0.65
239.251	2.85
239.721	-1.55
240.191	0.85
240.662	-3.35
241.132	-3.15
241.602	-1.05
242.072	1.05
242.542	8.95
243.013	3.15
243.483	10.75
243.953	0.55
244.423	0.25
244.893	-0.95
245.363	4.15
245.833	0.55
246.303	-3.05
246.773	8.55
247.243	10.25
247.712	5.95
248.182	12.15
248.652	4.75
249.122	-0.35
249.592	11.55
250.061	21.85
250.531	36.65
251.001	18.45
251.471	20.75
251.94	17.55
252.41	3.65
252.879	-3.35
253.349	10.95
253.818	11.95
254.288	3.35
254.757	8.65
255.227	-5.35
255.696	5.55
256.166	1.55
256.635	5.45
257.105	7.35
257.574	6.15
258.043	4.35
258.513	14.85
258.982	16.45
259.451	3.95
259.92	15.95
260.389	12.65
260.859	14.35
261.328	10.45
261.797	15.05
262.266	6.05
262.735	11.05
263.204	4.25
263.673	4.25
264.142	10.95
264.611	-4.05
265.08	1.95
265.549	0.55
266.018	9.35
266.487	0.55
266.955	1.45
267.424	1.75
267.893	11.75
268.362	6.25
268.83	5.25
269.299	8.45
269.768	4.85
270.236	7.05
270.705	4.75
271.174	2.85
271.642	9.35
272.111	9.15
272.579	17.65
273.048	14.45
273.516	26.35
273.985	26.35
274.453	26.55
274.922	20.15
275.39	13.75
275.858	1.85
276.327	9.65
276.795	21.75
277.263	2.75
277.731	28.15
278.2	48.55
278.668	49.15
279.136	46.25
279.604	21.95
280.072	14.95
280.54	12.05
281.008	10.65
281.477	13.95
281.945	18.35
282.413	10.25
282.881	18.95
283.348	9.05
283.816	15.65
284.284	11.45
284.752	18.55
285.22	13.95
285.688	17.95
286.156	19.95
286.623	48.65
287.091	48.45
287.559	31.35
288.026	20.95
288.494	18.15
288.962	10.25
289.429	9.05
289.897	13.65
290.364	10.85
290.832	18.95
291.3	15.05
291.767	13.55
292.234	20.15
292.702	15.35
293.169	18.25
293.637	23.85
294.104	21.25
294.571	10.25
295.039	10.15
295.506	15.05
295.973	20.05
296.44	16.95
296.908	18.65
297.375	15.85
297.842	21.45
298.309	14.75
298.776	16.65
299.243	20.15
299.71	12.65
300.177	18.75
300.644	19.25
301.111	15.45
301.578	22.85
302.045	17.75
302.512	23.05
302.979	29.35
303.446	22.45
303.913	17.35
304.379	18.65
304.846	28.45
305.313	23.95
305.78	20.35
306.246	28.15
306.713	21.75
307.18	21.25
307.646	25.65
308.113	25.05
308.579	23.95
309.046	28.15
309.512	24.15
309.979	23.15
310.445	30.75
310.912	31.25
311.378	30.55
311.845	28.85
312.311	31.55
312.777	30.75
313.244	33.95
313.71	33.45
314.176	31.05
314.642	31.85
315.109	28.25
315.575	40.85
316.041	37.65
316.507	36.15
316.973	43.75
317.439	37.85
317.905	39.95
318.371	34.45
318.837	32.75
319.303	33.35
319.769	35.85
320.235	28.05
320.701	36.15
321.167	38.65
321.633	35.55
322.099	42.85
322.564	42.75
323.03	42.45
323.496	41.65
323.962	35.05
324.427	32.65
324.893	46.45
325.359	38.45
325.824	41.15
326.29	31.45
326.755	40.15
327.221	43.55
327.686	40.05
328.152	44.85
328.617	36.75
329.083	47.05
329.548	47.25
330.014	50.85
330.479	39.05
330.944	45.25
331.41	44.05
331.875	42.25
332.34	42.25
332.805	40.05
333.271	41.75
333.736	37.45
334.201	51.25
334.666	52.85
335.131	52.05
335.596	51.75
336.061	45.45
336.526	40.05
336.991	45.15
337.456	56.55
337.921	40.95
338.386	42.85
338.851	39.85
339.316	42.95
339.781	46.85
340.246	52.65
340.711	46.25
341.175	44.35
341.64	44.25
342.105	45.85
342.569	52.55
343.034	58.95
343.499	52.55
343.963	52.35
344.428	67.15
344.893	67.25
345.357	58.45
345.822	58.65
346.286	68.55
346.751	74.45
347.215	65.85
347.679	72.85
348.144	100.05
348.608	80.85
349.073	72.95
349.537	73.55
350.001	79.35
350.465	85.65
350.93	77.05
351.394	84.95
351.858	71.65
352.322	82.75
352.786	85.55
353.25	98.05
353.715	109.05
354.179	95.85
354.643	119.05
355.107	123.45
355.571	101.75
356.035	96.75
356.498	120.45
356.962	123.45
357.426	126.85
357.89	111.55
358.354	87.45
358.818	83.45
359.281	82.45
359.745	77.05
360.209	79.75
360.673	79.35
361.136	79.05
361.6	83.95
362.064	87.65
362.527	80.25
362.991	88.25
363.454	80.45
363.918	79.65
364.381	78.05
364.845	83.95
365.308	84.15
365.772	85.85
366.235	90.75
366.698	80.95
367.162	85.95
367.625	89.95
368.088	83.95
368.552	85.35
369.015	88.15
369.478	96.55
369.941	99.85
370.404	90.15
370.867	108.85
371.331	102.65
371.794	118.15
372.257	107.45
372.72	122.15
373.183	110.55
373.646	106.25
374.109	97.95
374.572	108.75
375.035	110.45
375.497	112.15
375.96	106.95
376.423	106.75
376.886	118.25
377.349	110.05
377.811	103.55
378.274	103.45
378.737	107.55
379.199	115.75
379.662	113.65
380.125	120.75
380.587	118.75
381.05	124.75
381.512	131.35
381.975	133.45
382.437	130.05
382.9	127.35
383.362	136.65
383.825	142.15
384.287	148.45
384.75	141.45
385.212	140.25
385.674	134.75
386.136	143.45
386.599	128.85
387.061	131.35
387.523	128.55
387.985	138.75
388.447	138.35
388.91	148.45
389.372	165.05
389.834	158.15
390.296	155.65
390.758	153.45
391.22	173.55
391.682	217.25
392.144	291.05
392.606	233.25
393.068	164.95
393.529	173.95
393.991	153.15
394.453	151.85
394.915	161.25
395.377	200.35
395.838	226.75
396.3	157.25
396.762	143.25
397.224	134.35
397.685	133.65
398.147	133.75
398.608	129.95
399.07	127.35
399.531	129.75
399.993	144.85
400.454	158.05
400.916	145.85
401.377	148.75
401.839	157.85
402.3	152.15
402.762	173.25
403.223	187.95
403.684	173.45
404.145	164.15
404.607	163.55
405.068	168.05
405.529	166.95
405.99	191.35
406.451	171.85
406.913	177.25
407.374	165.35
407.835	169.75
408.296	163.35
408.757	171.55
409.218	194.75
409.679	177.85
410.14	180.55
410.601	177.05
411.062	186.05
411.522	194.95
411.983	197.35
412.444	179.45
412.905	185.35
413.366	189.65
413.826	190.15
414.287	213.45
414.748	262.95
415.208	250.05
415.669	209.95
416.13	203.95
416.59	200.85
417.051	212.45
417.511	224.75
417.972	239.25
418.432	253.75
418.893	287.35
419.353	259.15
419.814	199.15
420.274	189.85
420.734	186.05
421.195	200.85
421.655	195.55
422.115	196.85
422.576	202.75
423.036	201.95
423.496	210.75
423.956	224.55
424.416	234.65
424.876	271.45
425.336	262.95
425.797	269.35
426.257	262.15
426.717	250.45
427.177	236.15
427.637	227.85
428.097	234.05
428.556	252.55
429.016	275.75
429.476	273.95
429.936	282.95
430.396	280.55
430.856	301.95
431.315	325.15
431.775	362.55
432.235	384.35
432.694	369.95
433.154	378.15
433.614	398.05
434.073	340.15
434.533	287.65
434.993	276.75
435.452	290.15
435.912	300.35
436.371	296.65
436.83	300.45
437.29	276.65
437.749	254.55
438.209	252.65
438.668	280.25
439.127	294.35
439.587	276.35
440.046	254.75
440.505	260.65
440.964	274.95
441.424	330.95
441.883	316.75
442.342	265.65
442.801	228.15
443.26	228.35
443.719	224.05
444.178	227.55
444.637	219.45
445.096	215.85
445.555	224.25
446.014	226.35
446.473	236.75
446.932	242.65
447.391	225.35
447.849	233.15
448.308	224.35
448.767	222.95
449.226	242.15
449.685	241.45
450.143	247.95
450.602	236.75
451.061	228.55
451.519	240.05
451.978	238.25
452.436	242.05
452.895	242.35
453.353	252.95
453.812	242.65
454.27	244.35
454.729	237.45
455.187	245.05
455.646	242.45
456.104	251.95
456.562	266.15
457.021	272.95
457.479	266.05
457.937	277.45
458.395	261.15
458.854	254.55
459.312	258.55
459.77	280.45
460.228	260.25
460.686	251.45
461.144	252.15
461.602	239.65
462.06	244.45
462.518	260.75
462.976	257.05
463.434	263.95
463.892	269.25
464.35	275.85
464.808	293.35
465.266	264.85
465.724	270.75
466.181	274.05
466.639	276.55
467.097	291.85
467.555	299.55
468.012	301.45
468.47	306.85
468.928	330.75
469.385	345.85
469.843	355.45
470.3	355.65
470.758	364.35
471.215	388.75
471.673	419.85
472.13	410.25
472.588	427.05
473.045	382.45
473.503	383.85
473.96	402.45
474.417	403.55
474.875	438.45
475.332	488.55
475.789	471.65
476.246	469.95
476.704	493.15
477.161	504.85
477.618	527.75
478.075	575.25
478.532	620.35
478.989	691.05
479.446	816.25
479.903	777.15
480.36	817.05
480.817	868.85
481.274	970.25
481.731	1077.75
482.188	1168.85
482.645	1292.15
483.102	1396.15
483.558	1543.75
484.015	1601.35
484.472	1574.25
484.929	1522.95
485.385	1476.85
485.842	1425.65
486.299	1382.45
486.755	1312.45
487.212	1105.65
487.668	942.25
488.125	854.85
488.582	780.55
489.038	748.65
489.494	715.75
489.951	689.25
490.407	677.15
490.864	659.45
491.32	650.95
491.776	642.15
492.233	654.45
492.689	622.45
493.145	611.95
493.602	606.15
494.058	619.75
494.514	614.25
494.97	643.45
495.426	656.35
495.882	626.95
496.338	626.15
496.794	628.65
497.251	626.75
497.707	634.95
498.163	646.65
498.618	646.25
499.074	645.25
499.53	682.45
499.986	688.75
500.442	659.45
500.898	640.75
501.354	637.15
501.809	639.95
502.265	650.25
502.721	670.75
503.177	680.15
503.632	672.75
504.088	679.25
504.543	717.15
504.999	722.35
505.455	669.95
505.91	636.95
506.366	639.45
506.821	628.35
507.277	629.85
507.732	637.95
508.187	630.45
508.643	634.85
509.098	636.65
509.553	658.15
510.009	664.75
510.464	666.15
510.919	696.05
511.375	700.55
511.83	712.85
512.285	734.05
512.74	771.15
513.195	798.65
513.65	771.05
514.105	772.25
514.56	780.95
515.015	789.35
515.47	809.05
515.925	799.85
516.38	784.25
516.835	793.55
517.29	786.85
517.745	779.95
518.2	777.45
518.655	752.35
519.109	751.95
519.564	742.65
520.019	738.85
520.474	722.35
520.928	736.05
521.383	724.95
521.838	722.15
522.292	715.55
522.747	714.75
523.201	712.35
523.656	703.75
524.11	696.15
524.565	699.45
525.019	694.65
525.474	713.35
525.928	703.05
526.382	700.25
526.837	690.95
527.291	694.75
527.745	699.25
528.2	701.65
528.654	696.65
529.108	701.35
529.562	689.35
530.016	701.05
530.47	698.25
530.925	694.15
531.379	714.35
531.833	710.25
532.287	710.45
532.741	718.25
533.195	705.75
533.649	720.05
534.103	719.45
534.556	710.85
535.01	718.65
535.464	714.75
535.918	717.35
536.372	715.05
536.826	716.75
537.279	709.95
537.733	712.75
538.187	718.25
538.64	722.25
539.094	729.75
539.548	744.05
540.001	730.25
540.455	731.55
540.908	741.05
541.362	741.45
541.815	753.45
542.269	766.15
542.722	766.95
543.175	783.75
543.629	771.95
544.082	794.75
544.536	793.55
544.989	784.15
545.442	804.75
545.895	793.05
546.349	793.15
546.802	795.25
547.255	798.35
547.708	821.05
548.161	821.55
548.614	823.85
549.067	830.35
549.52	824.55
549.973	815.85
550.426	811.15
550.879	791.35
551.332	801.85
551.785	812.25
552.238	805.15
552.691	832.15
553.144	844.85
553.596	860.55
554.049	862.55
554.502	901.35
554.955	915.35
555.407	914.15
555.86	896.25
556.313	899.75
556.765	884.15
557.218	885.45
557.67	882.65
558.123	878.55
558.576	884.25
559.028	885.45
559.48	894.45
559.933	876.65
560.385	840.45
560.838	813.85
561.29	797.55
561.742	793.35
562.195	772.75
562.647	782.85
563.099	792.95
563.551	780.25
564.004	791.65
564.456	781.45
564.908	762.65
565.36	755.25
565.812	748.05
566.264	726.35
566.716	733.05
567.168	724.45
567.62	731.25
568.072	711.65
568.524	701.25
568.976	698.15
569.428	678.85
569.88	686.95
570.332	693.35
570.784	694.95
571.235	685.55
571.687	699.25
572.139	719.15
572.59	712.65
573.042	720.75
573.494	717.55
573.945	712.15
574.397	692.55
574.849	706.25
575.3	696.85
575.752	679.85
576.203	686.25
576.655	704.85
577.106	675.75
577.557	659.55
578.009	670.65
578.46	669.95
578.912	670.85
579.363	675.75
579.814	679.75
580.265	674.05
580.717	668.65
581.168	670.35
581.619	679.45
582.07	693.55
582.521	687.55
582.972	687.85
583.423	682.35
583.875	692.55
584.326	716.25
584.777	767.95
585.227	836.55
585.678	924.55
586.129	1016.35
586.58	1077.75
587.031	1172.75
587.482	1315.25
587.933	1502.05
588.384	1315.25
588.834	993.25
589.285	821.35
589.736	785.45
590.186	783.65
590.637	773.95
591.088	757.05
591.538	751.55
591.989	749.45
592.439	742.15
592.89	735.35
593.34	720.75
593.791	715.05
594.241	716.55
594.692	713.05
595.142	729.75
595.593	719.55
596.043	720.65
596.493	728.55
596.943	725.25
597.394	729.95
597.844	731.65
598.294	740.75
598.744	759.15
599.195	770.75
599.645	824.45
600.095	873.95
600.545	918.15
600.995	983.75
601.445	1039.15
601.895	1102.15
602.345	1155.95
602.795	1124.25
603.245	1065.55
603.695	1022.65
604.145	962.75
604.594	913.95
605.044	864.55
605.494	813.15
605.944	762.95
606.393	749.65
606.843	738.75
607.293	734.75
607.743	746.75
608.192	748.55
608.642	761.85
609.091	778.15
609.541	774.05
609.99	780.65
610.44	775.25
610.889	735.95
611.339	718.25
611.788	689.25
612.238	713.35
612.687	727.85
613.136	725.85
613.586	745.75
614.035	743.55
614.484	762.05
614.933	761.35
615.383	756.95
615.832	748.15
616.281	731.45
616.73	702.45
617.179	671.85
617.628	663.95
618.077	636.55
618.526	630.35
618.975	630.25
619.424	625.45
619.873	620.35
620.322	624.55
620.771	621.95
621.22	618.15
621.669	607.75
622.118	597.15
622.567	588.05
623.015	575.85
623.464	570.05
623.913	572.65
624.361	555.65
624.81	556.65
625.259	566.35
625.707	562.65
626.156	561.95
626.604	582.35
627.053	569.15
627.501	569.65
627.95	574.35
628.398	591.65
628.847	574.45
629.295	581.15
629.744	583.05
630.192	571.45
630.64	576.65
631.089	574.35
631.537	590.65
631.985	589.85
632.433	612.15
632.881	617.95
633.33	670.55
633.778	645.95
634.226	579.35
634.674	584.25
635.122	581.35
635.57	605.65
636.018	634.25
636.466	589.25
636.914	571.25
637.362	574.85
637.81	583.25
638.258	593.75
638.705	592.05
639.153	615.45
639.601	629.65
640.049	653.15
640.497	677.85
640.944	694.85
641.392	651.25
641.84	614.35
642.287	592.65
642.735	574.15
643.182	576.15
643.63	574.15
644.078	581.25
644.525	592.95
644.973	600.45
645.42	615.75
645.867	628.05
646.315	653.15
646.762	673.15
647.21	706.45
647.657	719.75
648.104	757.95
648.551	794.55
648.999	850.75
649.446	941.35
649.893	1015.25
650.34	1178.05
650.787	1416.05
651.234	1750.65
651.682	2305.55
652.129	3155.25
652.576	4549.95
653.023	6720.75
653.47	9181.15
653.917	11374.45
654.363	13050.35
654.81	14390.05
655.257	13659.75
655.704	8946.95
656.151	5284.25
656.598	3436.95
657.044	2451.95
657.491	1884.65
657.938	1503.45
658.385	1253.65
658.831	1088.85
659.278	969.95
659.724	861.65
660.171	789.65
660.618	723.95
661.064	693.15
661.511	673.15
661.957	668.75
662.404	652.55
662.85	657.85
663.296	633.95
663.743	575.95
664.189	546.15
664.635	536.65
665.082	530.75
665.528	530.35
665.974	521.65
666.42	515.75
666.867	511.45
667.313	500.05
667.759	481.15
668.205	481.45
668.651	494.05
669.097	490.15
669.543	510.35
669.989	481.55
670.435	456.45
670.881	453.45
671.327	454.65
671.773	482.05
672.219	497.65
672.665	552.55
673.11	581.55
673.556	641.55
674.002	675.55
674.448	658.25
674.893	557.35
675.339	481.95
675.785	448.65
676.23	419.55
676.676	399.55
677.122	388.45
677.567	379.75
678.013	376.05
678.458	362.55
678.904	362.85
679.349	358.25
679.794	358.05
680.24	356.25
680.685	354.05
681.131	354.45
681.576	356.75
682.021	366.55
682.466	350.35
682.912	357.95
683.357	360.35
683.802	384.95
684.247	417.85
684.692	465.15
685.137	502.45
685.583	537.25
686.028	570.35
686.473	525.25
686.918	444.85
687.363	421.55
687.807	399.65
688.252	375.65
688.697	359.35
689.142	339.45
689.587	336.75
690.032	331.65
690.477	354.05
690.921	363.25
691.366	390.35
691.811	414.75
692.255	431.95
692.7	472.15
693.145	512.15
693.589	712.95
694.034	1153.25
694.478	1555.85
694.923	1742.65
695.367	2267.75
695.812	1210.85
696.256	507.15
696.701	379.25
697.145	352.55
697.59	339.85
698.034	323.25
698.478	336.95
698.922	331.55
699.367	337.65
699.811	338.15
700.255	361.55
700.699	400.15
701.143	432.85
701.588	490.55
702.032	528.45
702.476	521.35
702.92	493.25
703.364	501.75
703.808	656.15
704.252	1066.35
704.696	1478.05
705.14	1671.05
705.584	2133.25
706.027	1074.65
706.471	532.45
706.915	403.95
707.359	358.45
707.803	320.25
708.246	309.05
708.69	317.25
709.134	312.35
709.577	321.75
710.021	325.15
710.465	316.95
710.908	303.05
711.352	304.35
711.795	320.85
712.239	366.15
712.682	396.05
713.126	417.35
713.569	469.25
714.012	375.65
714.456	328.05
714.899	304.85
715.342	282.85
715.786	260.85
716.229	263.25
716.672	259.05
717.115	253.35
717.558	255.25
718.002	251.75
718.445	267.05
718.888	289.85
719.331	304.25
719.774	315.15
720.217	313.85
720.66	289.15
721.103	262.45
721.546	257.15
721.989	248.75
722.432	232.85
722.874	238.75
723.317	238.25
723.76	237.55
724.203	263.45
724.645	328.25
725.088	456.95
725.531	578.45
725.974	646.65
726.416	552.35
726.859	309.75
727.301	257.95
727.744	240.35
728.187	243.45
728.629	248.35
729.071	239.75
729.514	259.65
729.956	282.25
730.399	290.35
730.841	280.95
731.283	273.15
731.726	263.15
732.168	264.65
732.61	270.55
733.053	292.65
733.495	319.95
733.937	354.55
734.379	404.85
734.821	445.85
735.263	563.25
735.705	875.75
736.148	1641.45
736.59	2625.65
737.032	3037.05
737.474	2473.25
737.916	817.15
738.357	440.15
738.799	333.25
739.241	302.35
739.683	287.15
740.125	299.05
740.567	302.45
741.008	319.25
741.45	319.15
741.892	324.05
742.334	357.45
742.775	368.25
743.217	344.15
743.658	268.95
744.1	254.75
744.542	257.25
744.983	316.75
745.425	338.05
745.866	346.45
746.307	287.15
746.749	282.95
747.19	324.75
747.632	458.55
748.073	914.55
748.514	1944.75
748.956	2880.25
749.397	3603.35
749.838	3003.65
750.279	2969.05
750.72	1496.15
751.162	552.65
751.603	323.25
752.044	260.05
752.485	217.45
752.926	212.55
753.367	200.75
753.808	194.15
754.249	192.25
754.69	186.85
755.131	188.35
755.572	185.85
756.013	188.65
756.453	183.75
756.894	186.65
757.335	192.75
757.776	204.65
758.216	199.55
758.657	203.85
759.098	209.25
759.538	230.35
759.979	273.95
760.42	383.95
760.86	745.45
761.301	1899.95
761.741	4531.85
762.182	6409.75
