Data from 20171114-ORNL-Ar_H_NY_Subt18_08-05-10-033.txt Node
Date: Tue Nov 14 08:05:10 EST 2017
User: Ender
Spectrometer: HR+D1039
Trigger mode: 0
Integration Time (sec): 2.730000E-2
Scans to average: 10
Electric dark correction enabled: true
Nonlinearity correction enabled: false
Boxcar width: 0
XAxis mode: Wavelengths
Number of Pixels in Spectrum: 2048
>>>>>Begin Spectral Data<<<<<
187.836	-6.26
188.309	-6.26
188.782	-6.26
189.255	4.24
189.728	-2.56
190.201	8.84
190.674	0.94
191.147	2.14
191.619	-6.56
192.092	5.24
192.565	2.74
193.038	-2.06
193.511	2.64
193.984	-0.16
194.456	-0.56
194.929	-1.66
195.402	-1.86
195.874	-5.06
196.347	-4.26
196.82	-2.26
197.292	5.84
197.765	-1.36
198.237	-2.46
198.71	-0.86
199.182	-4.26
199.655	5.44
200.127	-0.46
200.6	0.54
201.072	-5.56
201.544	-3.56
202.017	1.14
202.489	4.84
202.961	-0.56
203.433	-5.76
203.906	-4.66
204.378	-7.16
204.85	-4.16
205.322	-5.06
205.794	-5.06
206.266	-7.26
206.739	-9.16
207.211	-0.96
207.683	-5.46
208.155	-4.36
208.627	-7.16
209.099	-1.16
209.57	-5.56
210.042	-0.96
210.514	-7.16
210.986	-2.36
211.458	-7.36
211.93	-6.66
212.402	-2.46
212.873	-3.36
213.345	-8.06
213.817	-15.16
214.288	-4.26
214.76	-3.16
215.232	0.74
215.703	1.24
216.175	-1.66
216.646	-0.76
217.118	-6.86
217.589	-2.66
218.061	1.74
218.532	-3.86
219.004	-3.16
219.475	-4.96
219.946	-7.06
220.418	-6.76
220.889	2.64
221.36	7.44
221.832	-0.36
222.303	-5.06
222.774	3.14
223.245	-8.86
223.717	-11.66
224.188	-2.66
224.659	-5.46
225.13	0.24
225.601	0.44
226.072	0.34
226.543	-0.16
227.014	-3.56
227.485	-2.26
227.956	-2.26
228.427	5.44
228.898	-3.66
229.369	7.64
229.839	-0.06
230.31	-8.46
230.781	3.04
231.252	-5.96
231.722	-3.66
232.193	0.14
232.664	-0.66
233.135	2.34
233.605	4.24
234.076	-2.16
234.546	1.44
235.017	3.14
235.487	4.44
235.958	0.84
236.428	-5.16
236.899	6.54
237.369	5.84
237.84	-0.26
238.31	6.24
238.78	3.34
239.251	0.84
239.721	3.54
240.191	3.74
240.662	5.74
241.132	0.74
241.602	-4.36
242.072	4.34
242.542	6.74
243.013	2.14
243.483	7.84
243.953	5.44
244.423	3.84
244.893	-3.96
245.363	0.94
245.833	2.14
246.303	0.94
246.773	6.24
247.243	7.44
247.712	2.94
248.182	12.04
248.652	10.54
249.122	0.44
249.592	13.64
250.061	24.64
250.531	34.14
251.001	17.34
251.471	24.34
251.94	21.34
252.41	11.44
252.879	5.24
253.349	18.24
253.818	12.34
254.288	5.34
254.757	0.04
255.227	9.44
255.696	1.84
256.166	14.84
256.635	10.74
257.105	7.14
257.574	12.14
258.043	11.04
258.513	12.24
258.982	22.64
259.451	9.04
259.92	16.54
260.389	5.64
260.859	16.64
261.328	18.84
261.797	24.04
262.266	17.34
262.735	16.84
263.204	8.64
263.673	6.04
264.142	9.54
264.611	3.64
265.08	4.84
265.549	2.84
266.018	3.04
266.487	5.54
266.955	2.94
267.424	5.14
267.893	8.94
268.362	1.34
268.83	7.54
269.299	14.34
269.768	7.94
270.236	12.74
270.705	6.64
271.174	6.04
271.642	10.64
272.111	15.34
272.579	23.24
273.048	18.74
273.516	33.84
273.985	29.04
274.453	28.64
274.922	24.74
275.39	15.84
275.858	11.04
276.327	14.74
276.795	22.84
277.263	15.24
277.731	32.54
278.2	61.84
278.668	66.24
279.136	52.34
279.604	24.94
280.072	18.34
280.54	9.44
281.008	13.44
281.477	23.14
281.945	14.34
282.413	19.94
282.881	14.94
283.348	8.74
283.816	24.14
284.284	20.24
284.752	21.84
285.22	20.24
285.688	25.14
286.156	24.64
286.623	47.94
287.091	53.04
287.559	33.64
288.026	22.34
288.494	23.54
288.962	8.44
289.429	11.04
289.897	16.74
290.364	21.04
290.832	17.34
291.3	15.04
291.767	18.44
292.234	20.44
292.702	20.94
293.169	26.34
293.637	24.74
294.104	19.44
294.571	12.34
295.039	15.04
295.506	19.74
295.973	20.44
296.44	20.34
296.908	22.74
297.375	20.34
297.842	23.74
298.309	21.34
298.776	27.64
299.243	18.24
299.71	12.74
300.177	20.94
300.644	18.24
301.111	27.34
301.578	30.94
302.045	26.84
302.512	22.04
302.979	32.24
303.446	23.14
303.913	13.84
304.379	24.54
304.846	27.54
305.313	27.14
305.78	26.74
306.246	28.14
306.713	29.44
307.18	26.74
307.646	34.04
308.113	33.54
308.579	26.34
309.046	27.84
309.512	25.34
309.979	22.44
310.445	34.84
310.912	34.44
311.378	34.24
311.845	33.34
312.311	35.74
312.777	37.04
313.244	33.54
313.71	42.34
314.176	36.34
314.642	34.54
315.109	32.74
315.575	41.14
316.041	39.84
316.507	36.64
316.973	44.44
317.439	34.94
317.905	44.04
318.371	38.74
318.837	33.74
319.303	38.34
319.769	42.34
320.235	37.54
320.701	40.74
321.167	36.64
321.633	35.64
322.099	38.34
322.564	46.34
323.03	40.24
323.496	42.54
323.962	44.14
324.427	37.54
324.893	45.04
325.359	40.24
325.824	42.14
326.29	41.84
326.755	40.74
327.221	43.14
327.686	45.54
328.152	46.84
328.617	43.74
329.083	46.34
329.548	55.54
330.014	51.64
330.479	41.14
330.944	44.54
331.41	49.94
331.875	52.94
332.34	53.44
332.805	51.64
333.271	49.74
333.736	44.94
334.201	57.44
334.666	54.54
335.131	62.24
335.596	47.64
336.061	53.74
336.526	47.14
336.991	54.04
337.456	60.04
337.921	55.34
338.386	45.34
338.851	48.64
339.316	53.14
339.781	44.14
340.246	55.24
340.711	50.04
341.175	50.34
341.64	49.54
342.105	52.24
342.569	57.04
343.034	56.14
343.499	61.64
343.963	56.84
344.428	68.34
344.893	56.84
345.357	66.84
345.822	70.74
346.286	69.64
346.751	77.34
347.215	74.54
347.679	71.34
348.144	102.64
348.608	92.14
349.073	74.24
349.537	80.84
350.001	82.44
350.465	92.24
350.93	88.04
351.394	87.74
351.858	78.44
352.322	89.34
352.786	90.84
353.25	103.84
353.715	122.44
354.179	101.34
354.643	128.14
355.107	128.34
355.571	111.94
356.035	109.34
356.498	124.84
356.962	128.54
357.426	136.94
357.89	123.64
358.354	94.34
358.818	82.74
359.281	87.14
359.745	78.54
360.209	85.74
360.673	80.94
361.136	81.74
361.6	87.74
362.064	95.84
362.527	92.74
362.991	101.14
363.454	88.74
363.918	80.44
364.381	84.74
364.845	90.84
365.308	89.64
365.772	90.64
366.235	87.14
366.698	80.24
367.162	89.14
367.625	88.94
368.088	90.04
368.552	90.04
369.015	93.74
369.478	93.34
369.941	103.24
370.404	98.64
370.867	107.64
371.331	113.44
371.794	120.54
372.257	117.24
372.72	127.44
373.183	117.34
373.646	109.84
374.109	109.24
374.572	113.64
375.035	112.94
375.497	113.14
375.96	107.84
376.423	110.54
376.886	115.74
377.349	115.54
377.811	103.64
378.274	115.14
378.737	109.44
379.199	112.04
379.662	114.44
380.125	125.74
380.587	117.24
381.05	122.94
381.512	133.24
381.975	141.04
382.437	136.44
382.9	131.54
383.362	137.54
383.825	149.44
384.287	153.44
384.75	145.54
385.212	142.54
385.674	137.24
386.136	139.74
386.599	131.34
387.061	135.44
387.523	133.04
387.985	132.94
388.447	146.04
388.91	150.74
389.372	160.64
389.834	160.04
390.296	149.84
390.758	157.74
391.22	172.74
391.682	212.54
392.144	292.44
392.606	233.74
393.068	174.34
393.529	178.74
393.991	152.64
394.453	145.44
394.915	159.84
395.377	191.94
395.838	211.54
396.3	156.44
396.762	150.84
397.224	134.84
397.685	130.04
398.147	134.84
398.608	131.14
399.07	138.74
399.531	139.44
399.993	141.94
400.454	151.64
400.916	148.44
401.377	145.84
401.839	155.34
402.3	149.14
402.762	169.44
403.223	188.24
403.684	183.64
404.145	159.94
404.607	159.94
405.068	168.44
405.529	169.84
405.99	196.24
406.451	179.04
406.913	174.44
407.374	166.54
407.835	163.14
408.296	169.74
408.757	176.04
409.218	192.84
409.679	182.44
410.14	180.34
410.601	177.74
411.062	183.34
411.522	188.44
411.983	190.74
412.444	179.24
412.905	181.94
413.366	186.14
413.826	199.84
414.287	222.34
414.748	266.24
415.208	252.54
415.669	217.64
416.13	205.24
416.59	206.24
417.051	218.74
417.511	225.24
417.972	243.34
418.432	248.34
418.893	296.34
419.353	260.14
419.814	202.74
420.274	193.44
420.734	185.34
421.195	208.94
421.655	193.94
422.115	191.34
422.576	196.44
423.036	205.44
423.496	207.34
423.956	220.04
424.416	233.34
424.876	275.34
425.336	262.14
425.797	257.44
426.257	261.14
426.717	239.74
427.177	232.34
427.637	223.34
428.097	244.34
428.556	256.34
429.016	272.64
429.476	266.74
429.936	284.54
430.396	284.54
430.856	296.64
431.315	324.14
431.775	351.24
432.235	386.04
432.694	356.24
433.154	364.14
433.614	400.14
434.073	345.14
434.533	290.14
434.993	279.04
435.452	290.04
435.912	305.54
436.371	291.84
436.83	288.94
437.29	285.64
437.749	256.74
438.209	251.04
438.668	278.74
439.127	294.94
439.587	269.74
440.046	264.84
440.505	267.24
440.964	280.44
441.424	334.44
441.883	322.64
442.342	268.94
442.801	232.24
443.26	225.84
443.719	223.14
444.178	229.04
444.637	210.24
445.096	223.14
445.555	229.14
446.014	224.24
446.473	229.94
446.932	234.54
447.391	234.14
447.849	226.64
448.308	220.14
448.767	227.94
449.226	237.14
449.685	243.24
450.143	251.24
450.602	237.04
451.061	226.04
451.519	237.54
451.978	236.94
452.436	232.64
452.895	245.24
453.353	254.44
453.812	238.04
454.27	242.54
454.729	239.84
455.187	242.04
455.646	254.84
456.104	249.14
456.562	265.14
457.021	270.14
457.479	267.14
457.937	278.34
458.395	270.64
458.854	247.84
459.312	260.54
459.77	281.54
460.228	260.74
460.686	247.54
461.144	245.14
461.602	235.94
462.06	249.04
462.518	255.34
462.976	257.24
463.434	265.84
463.892	258.64
464.35	276.34
464.808	293.24
465.266	273.94
465.724	278.74
466.181	274.94
466.639	276.34
467.097	292.14
467.555	304.94
468.012	314.74
468.47	317.74
468.928	334.24
469.385	353.64
469.843	354.64
470.3	355.54
470.758	371.24
471.215	388.44
471.673	414.94
472.13	416.14
472.588	426.94
473.045	382.64
473.503	380.14
473.96	400.34
474.417	413.24
474.875	431.84
475.332	479.74
475.789	462.24
476.246	478.04
476.704	498.64
477.161	516.84
477.618	532.34
478.075	571.74
478.532	630.04
478.989	692.94
479.446	808.34
479.903	788.64
480.36	820.84
480.817	877.64
481.274	969.34
481.731	1087.34
482.188	1168.04
482.645	1302.54
483.102	1419.64
483.558	1557.54
484.015	1611.44
484.472	1586.84
484.929	1542.54
485.385	1493.34
485.842	1438.04
486.299	1387.54
486.755	1315.34
487.212	1101.04
487.668	931.94
488.125	857.74
488.582	788.94
489.038	754.44
489.494	720.74
489.951	706.04
490.407	678.74
490.864	651.84
491.32	654.94
491.776	647.54
492.233	659.44
492.689	616.64
493.145	614.94
493.602	598.04
494.058	609.54
494.514	624.64
494.97	640.74
495.426	660.14
495.882	623.54
496.338	627.44
496.794	634.34
497.251	627.74
497.707	651.64
498.163	641.44
498.618	650.74
499.074	662.04
499.53	681.94
499.986	683.64
500.442	657.64
500.898	639.24
501.354	636.94
501.809	650.74
502.265	648.54
502.721	659.04
503.177	676.14
503.632	675.24
504.088	682.14
504.543	716.64
504.999	716.24
505.455	664.04
505.91	636.84
506.366	636.74
506.821	633.64
507.277	629.54
507.732	631.34
508.187	634.54
508.643	636.14
509.098	641.24
509.553	672.44
510.009	670.54
510.464	668.64
510.919	682.64
511.375	699.04
511.83	708.64
512.285	721.54
512.74	766.44
513.195	779.64
513.65	773.44
514.105	769.64
514.56	778.64
515.015	797.64
515.47	810.74
515.925	796.54
516.38	796.24
516.835	800.94
517.29	784.14
517.745	777.14
518.2	763.94
518.655	754.54
519.109	751.54
519.564	745.04
520.019	744.04
520.474	725.54
520.928	736.14
521.383	731.34
521.838	721.04
522.292	719.54
522.747	715.44
523.201	701.14
523.656	691.04
524.11	697.94
524.565	705.94
525.019	690.64
525.474	705.64
525.928	703.24
526.382	692.84
526.837	691.94
527.291	703.24
527.745	695.04
528.2	697.04
528.654	688.14
529.108	680.54
529.562	697.44
530.016	688.64
530.47	692.84
530.925	698.74
531.379	699.04
531.833	706.14
532.287	712.54
532.741	713.14
533.195	704.24
533.649	711.94
534.103	720.84
534.556	712.94
535.01	717.54
535.464	700.34
535.918	722.34
536.372	723.94
536.826	722.44
537.279	710.44
537.733	712.34
538.187	717.54
538.64	710.14
539.094	717.64
539.548	722.44
540.001	716.04
540.455	722.24
540.908	728.54
541.362	729.74
541.815	750.74
542.269	750.34
542.722	755.54
543.175	765.24
543.629	762.84
544.082	782.24
544.536	778.74
544.989	774.14
545.442	782.84
545.895	785.04
546.349	786.64
546.802	791.04
547.255	789.44
547.708	797.44
548.161	807.64
548.614	807.74
549.067	831.04
549.52	807.34
549.973	808.14
550.426	795.34
550.879	785.84
551.332	791.44
551.785	803.24
552.238	791.44
552.691	809.14
553.144	824.24
553.596	841.14
554.049	854.64
554.502	888.54
554.955	913.44
555.407	902.44
555.86	885.04
556.313	883.34
556.765	868.74
557.218	874.64
557.67	875.14
558.123	869.44
558.576	868.24
559.028	868.24
559.48	874.64
559.933	875.64
560.385	836.04
560.838	800.54
561.29	779.94
561.742	767.84
562.195	757.14
562.647	756.24
563.099	762.34
563.551	762.54
564.004	766.44
564.456	766.74
564.908	762.04
565.36	736.04
565.812	723.94
566.264	722.24
566.716	722.14
567.168	701.14
567.62	711.14
568.072	699.84
568.524	692.14
568.976	676.04
569.428	663.64
569.88	663.24
570.332	665.74
570.784	676.54
571.235	679.04
571.687	680.04
572.139	689.74
572.59	701.44
573.042	706.84
573.494	696.44
573.945	695.94
574.397	679.94
574.849	691.24
575.3	684.44
575.752	676.24
576.203	664.34
576.655	670.64
577.106	649.94
577.557	655.04
578.009	662.14
578.46	652.84
578.912	643.64
579.363	651.44
579.814	644.74
580.265	636.64
580.717	649.64
581.168	655.84
581.619	663.14
582.07	668.94
582.521	659.84
582.972	653.24
583.423	662.44
583.875	666.54
584.326	681.24
584.777	726.44
585.227	792.04
585.678	884.34
586.129	973.04
586.58	1032.74
587.031	1108.14
587.482	1266.34
587.933	1445.84
588.384	1254.54
588.834	934.44
589.285	777.44
589.736	758.84
590.186	762.04
590.637	740.64
591.088	727.24
591.538	721.94
591.989	718.24
592.439	716.34
592.89	701.74
593.34	686.44
593.791	694.34
594.241	689.04
594.692	690.34
595.142	689.54
595.593	686.84
596.043	682.74
596.493	686.44
596.943	687.44
597.394	694.54
597.844	690.24
598.294	701.64
598.744	725.54
599.195	749.24
599.645	779.74
600.095	829.14
600.545	881.84
600.995	930.34
601.445	993.94
601.895	1043.44
602.345	1085.34
602.795	1078.94
603.245	1031.04
603.695	976.44
604.145	925.54
604.594	888.14
605.044	837.04
605.494	767.24
605.944	727.04
606.393	718.04
606.843	691.84
607.293	704.74
607.743	716.34
608.192	712.74
608.642	721.94
609.091	732.14
609.541	742.14
609.99	744.64
610.44	742.54
610.889	697.74
611.339	674.94
611.788	656.94
612.238	669.64
612.687	683.74
613.136	684.34
613.586	706.14
614.035	697.74
614.484	718.94
614.933	728.64
615.383	730.34
615.832	707.84
616.281	700.34
616.73	672.04
617.179	643.04
617.628	626.34
618.077	605.84
618.526	594.34
618.975	592.54
619.424	596.94
619.873	585.94
620.322	590.84
620.771	571.04
621.22	571.24
621.669	561.14
622.118	560.24
622.567	549.54
623.015	547.64
623.464	548.74
623.913	532.14
624.361	529.84
624.81	532.24
625.259	536.64
625.707	538.14
626.156	531.24
626.604	541.44
627.053	539.54
627.501	532.94
627.95	539.44
628.398	552.34
628.847	545.04
629.295	544.44
629.744	545.04
630.192	539.74
630.64	543.84
631.089	537.04
631.537	549.04
631.985	554.34
632.433	562.44
632.881	575.04
633.33	628.84
633.778	602.94
634.226	540.94
634.674	542.74
635.122	546.84
635.57	569.14
636.018	599.54
636.466	558.34
636.914	534.34
637.362	533.04
637.81	547.54
638.258	540.24
638.705	550.74
639.153	584.64
639.601	583.34
640.049	601.04
640.497	639.94
640.944	664.64
641.392	610.94
641.84	584.74
642.287	560.54
642.735	537.94
643.182	551.94
643.63	543.64
644.078	546.74
644.525	558.54
644.973	557.74
645.42	558.64
645.867	595.94
646.315	601.84
646.762	633.34
647.21	660.24
647.657	681.04
648.104	719.14
648.551	732.94
648.999	791.74
649.446	861.54
649.893	940.24
650.34	1087.54
650.787	1294.74
651.234	1606.84
651.682	2108.14
652.129	2859.74
652.576	4099.54
653.023	6083.84
653.47	8349.54
653.917	10493.64
654.363	12220.14
654.81	13625.64
655.257	12965.54
655.704	8435.04
656.151	4978.04
656.598	3234.14
657.044	2291.24
657.491	1745.44
657.938	1401.44
658.385	1174.24
658.831	1023.24
659.278	907.44
659.724	804.24
660.171	748.24
660.618	683.64
661.064	653.44
661.511	620.24
661.957	609.14
662.404	604.84
662.85	612.84
663.296	588.54
663.743	537.44
664.189	508.04
664.635	506.34
665.082	494.24
665.528	493.84
665.974	487.04
666.42	477.14
666.867	480.34
667.313	461.24
667.759	447.84
668.205	452.04
668.651	449.34
669.097	447.24
669.543	469.84
669.989	440.74
670.435	420.44
670.881	413.64
671.327	420.74
671.773	441.24
672.219	462.54
672.665	508.74
673.11	553.94
673.556	581.74
674.002	635.64
674.448	612.54
674.893	508.54
675.339	444.44
675.785	411.74
676.23	390.34
676.676	362.64
677.122	361.84
677.567	346.84
678.013	346.94
678.458	340.64
678.904	337.44
679.349	325.34
679.794	327.34
680.24	330.44
680.685	327.94
681.131	324.84
681.576	323.44
682.021	330.54
682.466	330.94
682.912	320.04
683.357	323.84
683.802	352.44
684.247	387.94
684.692	429.94
685.137	461.44
685.583	506.74
686.028	524.64
686.473	485.94
686.918	414.94
687.363	391.74
687.807	371.44
688.252	335.14
688.697	330.04
689.142	311.84
689.587	306.64
690.032	304.84
690.477	321.04
690.921	321.44
691.366	357.04
691.811	374.34
692.255	400.14
692.7	430.74
693.145	465.04
693.589	638.94
694.034	1024.24
694.478	1404.54
694.923	1615.64
695.367	2138.04
695.812	1112.94
696.256	464.94
696.701	346.04
697.145	319.64
697.59	314.34
698.034	308.64
698.478	308.34
698.922	298.94
699.367	301.04
699.811	317.34
700.255	326.14
700.699	353.24
701.143	393.94
701.588	440.34
702.032	484.24
702.476	477.14
702.92	455.74
703.364	451.44
703.808	574.64
704.252	925.04
704.696	1336.04
705.14	1562.04
705.584	2013.94
706.027	999.74
706.471	490.04
706.915	372.24
707.359	331.44
707.803	299.74
708.246	289.04
708.69	289.64
709.134	288.44
709.577	290.84
710.021	294.04
710.465	281.84
710.908	282.04
711.352	278.94
711.795	287.64
712.239	319.64
712.682	356.84
713.126	382.24
713.569	437.84
714.012	348.74
714.456	307.34
714.899	279.64
715.342	259.94
715.786	242.14
716.229	242.94
716.672	238.94
717.115	230.74
717.558	229.14
718.002	229.84
718.445	247.34
718.888	268.54
719.331	273.54
719.774	280.04
720.217	281.34
720.66	261.04
721.103	248.34
721.546	233.74
721.989	229.64
722.432	210.94
722.874	219.34
723.317	211.04
723.76	226.34
724.203	242.34
724.645	291.74
725.088	399.74
725.531	525.04
725.974	597.34
726.416	511.04
726.859	288.44
727.301	221.04
727.744	224.14
728.187	216.54
728.629	221.84
729.071	225.44
729.514	242.14
729.956	253.24
730.399	267.14
730.841	261.14
731.283	253.94
731.726	238.14
732.168	239.34
732.61	242.14
733.053	263.04
733.495	285.74
733.937	325.84
734.379	364.34
734.821	397.54
735.263	493.14
735.705	758.44
736.148	1418.84
736.59	2338.34
737.032	2863.44
737.474	2332.44
737.916	751.74
738.357	396.54
738.799	298.24
739.241	270.24
739.683	260.94
740.125	260.24
740.567	273.24
741.008	295.24
741.45	285.64
741.892	284.94
742.334	318.44
742.775	325.04
743.217	325.64
743.658	248.04
744.1	230.84
744.542	237.54
744.983	289.04
745.425	315.54
745.866	321.84
746.307	259.94
746.749	260.54
747.19	300.64
747.632	410.44
748.073	772.34
748.514	1676.84
748.956	2625.64
749.397	3284.74
749.838	2730.94
750.279	2772.54
750.72	1393.94
751.162	511.44
751.603	297.04
752.044	232.44
752.485	209.14
752.926	193.64
753.367	189.94
753.808	176.14
754.249	176.34
754.69	173.54
755.131	175.94
755.572	170.74
756.013	171.64
756.453	170.24
756.894	169.04
757.335	178.94
757.776	174.74
758.216	181.14
758.657	182.44
759.098	185.84
759.538	208.04
759.979	241.24
760.42	337.14
760.86	626.94
761.301	1613.24
761.741	3998.04
762.182	6066.44
762.622	4279.44
