Data from 20171114-ORNL-Ar_H_NY_Subt18_08-07-29-797.txt Node
Date: Tue Nov 14 08:07:29 EST 2017
User: Ender
Spectrometer: HR+D1039
Trigger mode: 0
Integration Time (sec): 2.730000E-2
Scans to average: 10
Electric dark correction enabled: true
Nonlinearity correction enabled: false
Boxcar width: 0
XAxis mode: Wavelengths
Number of Pixels in Spectrum: 2048
>>>>>Begin Spectral Data<<<<<
187.836	-4.42
188.309	-4.42
188.782	-4.42
189.255	0.68
189.728	-4.42
190.201	7.78
190.674	-1.62
191.147	3.38
191.619	-9.12
192.092	3.38
192.565	7.08
193.038	-1.72
193.511	1.08
193.984	0.88
194.456	-0.32
194.929	0.08
195.402	-6.72
195.874	3.98
196.347	-5.22
196.82	-7.92
197.292	5.88
197.765	-5.22
198.237	-9.22
198.71	-0.12
199.182	-3.22
199.655	0.48
200.127	-3.72
200.6	1.58
201.072	2.88
201.544	-2.62
202.017	-11.42
202.489	1.68
202.961	-2.72
203.433	-4.12
203.906	-9.12
204.378	-3.82
204.85	-4.12
205.322	-15.12
205.794	-0.82
206.266	-4.22
206.739	-9.42
207.211	-1.82
207.683	-7.02
208.155	-6.42
208.627	-8.12
209.099	-0.12
209.57	-4.32
210.042	-10.42
210.514	-7.02
210.986	0.18
211.458	-10.52
211.93	-5.22
212.402	-3.92
212.873	-5.72
213.345	-11.82
213.817	-9.72
214.288	-11.02
214.76	-11.72
215.232	-8.82
215.703	-12.32
216.175	-3.22
216.646	-3.62
217.118	-1.52
217.589	0.18
218.061	-2.62
218.532	-7.22
219.004	-0.92
219.475	0.28
219.946	-7.52
220.418	-5.62
220.889	2.48
221.36	-2.12
221.832	-7.22
222.303	-5.62
222.774	-3.52
223.245	-14.82
223.717	-5.72
224.188	-10.72
224.659	-6.32
225.13	-12.42
225.601	-7.72
226.072	1.28
226.543	-1.02
227.014	0.48
227.485	-5.82
227.956	-9.72
228.427	-3.12
228.898	-1.22
229.369	3.18
229.839	-7.92
230.31	-7.12
230.781	1.18
231.252	-1.82
231.722	-8.32
232.193	-5.92
232.664	-1.72
233.135	1.08
233.605	-0.32
234.076	-8.22
234.546	-1.62
235.017	7.48
235.487	-4.42
235.958	-4.82
236.428	-3.52
236.899	3.48
237.369	1.28
237.84	-6.32
238.31	2.68
238.78	0.98
239.251	-3.82
239.721	-6.42
240.191	-6.92
240.662	-7.02
241.132	-5.52
241.602	-8.72
242.072	0.58
242.542	5.58
243.013	0.78
243.483	-3.32
243.953	-2.32
244.423	-8.12
244.893	-2.12
245.363	-4.32
245.833	-0.32
246.303	-7.02
246.773	7.58
247.243	-7.22
247.712	2.48
248.182	-1.32
248.652	3.68
249.122	-6.72
249.592	4.58
250.061	13.58
250.531	21.28
251.001	12.08
251.471	13.18
251.94	17.68
252.41	-0.22
252.879	-2.92
253.349	8.28
253.818	2.18
254.288	3.18
254.757	2.28
255.227	-7.42
255.696	-1.02
256.166	4.38
256.635	6.08
257.105	4.48
257.574	-1.72
258.043	0.78
258.513	4.58
258.982	11.28
259.451	-0.52
259.92	6.58
260.389	4.38
260.859	7.88
261.328	2.98
261.797	9.08
262.266	-1.02
262.735	5.38
263.204	1.88
263.673	-3.12
264.142	-0.32
264.611	-3.12
265.08	-7.22
265.549	-5.42
266.018	1.28
266.487	-5.62
266.955	-1.02
267.424	1.08
267.893	2.38
268.362	0.58
268.83	1.08
269.299	0.88
269.768	0.78
270.236	2.28
270.705	-0.62
271.174	5.88
271.642	-5.02
272.111	3.98
272.579	7.58
273.048	15.78
273.516	15.78
273.985	25.18
274.453	11.68
274.922	12.78
275.39	10.48
275.858	0.48
276.327	2.88
276.795	14.08
277.263	3.38
277.731	17.18
278.2	34.18
278.668	41.48
279.136	35.18
279.604	16.08
280.072	9.48
280.54	8.28
281.008	0.08
281.477	2.38
281.945	5.18
282.413	1.88
282.881	4.88
283.348	2.38
283.816	11.08
284.284	5.38
284.752	13.28
285.22	9.68
285.688	8.68
286.156	6.88
286.623	30.38
287.091	38.78
287.559	18.38
288.026	9.68
288.494	9.98
288.962	-1.62
289.429	1.98
289.897	10.68
290.364	5.18
290.832	9.88
291.3	9.58
291.767	12.78
292.234	10.88
292.702	5.48
293.169	5.58
293.637	12.18
294.104	14.68
294.571	3.58
295.039	4.78
295.506	10.98
295.973	12.08
296.44	10.18
296.908	13.08
297.375	11.48
297.842	16.48
298.309	7.58
298.776	6.08
299.243	14.58
299.71	9.08
300.177	12.08
300.644	18.58
301.111	14.08
301.578	13.88
302.045	2.28
302.512	17.88
302.979	16.78
303.446	15.28
303.913	10.28
304.379	7.08
304.846	21.38
305.313	13.38
305.78	17.78
306.246	12.68
306.713	16.88
307.18	17.28
307.646	20.48
308.113	22.98
308.579	15.38
309.046	14.68
309.512	15.38
309.979	2.98
310.445	20.38
310.912	18.58
311.378	17.78
311.845	22.68
312.311	20.78
312.777	28.48
313.244	20.98
313.71	25.98
314.176	19.18
314.642	22.68
315.109	24.48
315.575	23.88
316.041	22.08
316.507	26.58
316.973	26.88
317.439	21.58
317.905	27.38
318.371	21.18
318.837	22.38
319.303	23.48
319.769	20.28
320.235	25.38
320.701	26.18
321.167	24.48
321.633	21.88
322.099	33.08
322.564	32.78
323.03	28.88
323.496	26.28
323.962	23.68
324.427	25.98
324.893	31.18
325.359	31.38
325.824	27.18
326.29	26.08
326.755	24.88
327.221	26.78
327.686	29.38
328.152	35.98
328.617	35.18
329.083	35.48
329.548	40.08
330.014	36.18
330.479	30.18
330.944	30.08
331.41	38.08
331.875	29.28
332.34	28.18
332.805	29.68
333.271	35.28
333.736	37.08
334.201	36.08
334.666	37.28
335.131	41.68
335.596	36.68
336.061	39.58
336.526	33.38
336.991	35.38
337.456	42.38
337.921	34.78
338.386	35.28
338.851	40.88
339.316	38.68
339.781	34.58
340.246	37.98
340.711	38.98
341.175	44.68
341.64	41.48
342.105	41.28
342.569	45.08
343.034	43.88
343.499	35.18
343.963	35.58
344.428	52.08
344.893	48.88
345.357	44.28
345.822	51.78
346.286	52.18
346.751	55.78
347.215	47.68
347.679	50.58
348.144	72.98
348.608	58.88
349.073	50.18
349.537	55.38
350.001	63.58
350.465	70.28
350.93	60.78
351.394	67.48
351.858	51.58
352.322	62.78
352.786	63.48
353.25	70.88
353.715	83.58
354.179	77.78
354.643	90.78
355.107	99.08
355.571	82.08
356.035	80.68
356.498	84.48
356.962	93.38
357.426	101.28
357.89	92.38
358.354	70.78
358.818	65.28
359.281	63.48
359.745	57.58
360.209	61.58
360.673	66.08
361.136	64.98
361.6	65.18
362.064	64.88
362.527	73.38
362.991	74.68
363.454	66.48
363.918	62.18
364.381	62.68
364.845	64.28
365.308	70.38
365.772	66.28
366.235	67.88
366.698	61.98
367.162	66.48
367.625	66.98
368.088	67.58
368.552	64.58
369.015	76.18
369.478	77.78
369.941	86.98
370.404	75.78
370.867	81.28
371.331	81.88
371.794	95.28
372.257	96.38
372.72	100.08
373.183	90.58
373.646	88.08
374.109	85.18
374.572	95.68
375.035	96.38
375.497	93.58
375.96	81.58
376.423	80.48
376.886	95.98
377.349	89.18
377.811	82.08
378.274	86.88
378.737	91.98
379.199	91.98
379.662	96.98
380.125	97.38
380.587	94.08
381.05	108.38
381.512	114.68
381.975	112.38
382.437	104.38
382.9	105.18
383.362	112.98
383.825	114.28
384.287	122.88
384.75	122.68
385.212	115.78
385.674	121.68
386.136	115.28
386.599	106.58
387.061	109.98
387.523	116.88
387.985	111.68
388.447	123.88
388.91	129.58
389.372	135.28
389.834	130.08
390.296	121.78
390.758	130.68
391.22	154.38
391.682	187.48
392.144	258.18
392.606	192.08
393.068	145.18
393.529	151.38
393.991	138.78
394.453	134.68
394.915	133.38
395.377	167.28
395.838	190.88
396.3	134.58
396.762	126.58
397.224	116.78
397.685	116.78
398.147	115.38
398.608	114.08
399.07	114.58
399.531	120.68
399.993	126.58
400.454	136.48
400.916	127.78
401.377	125.48
401.839	130.88
402.3	136.88
402.762	148.28
403.223	154.48
403.684	149.18
404.145	134.28
404.607	144.48
405.068	146.78
405.529	149.68
405.99	169.48
406.451	161.58
406.913	149.48
407.374	142.18
407.835	141.28
408.296	144.58
408.757	149.88
409.218	167.48
409.679	157.18
410.14	155.48
410.601	161.28
411.062	168.38
411.522	169.68
411.983	173.08
412.444	159.08
412.905	162.18
413.366	163.78
413.826	167.28
414.287	193.88
414.748	235.48
415.208	227.98
415.669	191.58
416.13	185.88
416.59	180.18
417.051	191.38
417.511	207.38
417.972	214.88
418.432	223.48
418.893	255.38
419.353	222.78
419.814	175.28
420.274	167.38
420.734	163.58
421.195	176.48
421.655	181.38
422.115	178.48
422.576	176.98
423.036	176.38
423.496	186.28
423.956	203.28
424.416	207.88
424.876	243.68
425.336	235.48
425.797	232.28
426.257	233.88
426.717	220.08
427.177	219.88
427.637	199.18
428.097	211.38
428.556	223.98
429.016	250.58
429.476	235.58
429.936	253.98
430.396	263.68
430.856	260.38
431.315	287.38
431.775	317.88
432.235	348.68
432.694	319.48
433.154	333.88
433.614	355.38
434.073	307.08
434.533	263.38
434.993	248.78
435.452	262.18
435.912	274.88
436.371	261.78
436.83	259.98
437.29	248.78
437.749	223.08
438.209	220.48
438.668	244.98
439.127	265.08
439.587	238.18
440.046	226.68
440.505	246.08
440.964	259.58
441.424	293.18
441.883	287.48
442.342	232.58
442.801	203.68
443.26	199.58
443.719	206.88
444.178	199.08
444.637	195.18
445.096	204.38
445.555	201.38
446.014	200.28
446.473	205.48
446.932	207.28
447.391	209.78
447.849	211.58
448.308	204.28
448.767	201.08
449.226	212.48
449.685	218.48
450.143	232.38
450.602	218.18
451.061	211.08
451.519	216.98
451.978	221.08
452.436	214.48
452.895	225.38
453.353	231.78
453.812	227.78
454.27	224.38
454.729	225.08
455.187	218.98
455.646	225.48
456.104	229.58
456.562	243.88
457.021	248.88
457.479	246.18
457.937	245.68
458.395	240.08
458.854	233.08
459.312	237.58
459.77	250.58
460.228	238.18
460.686	226.68
461.144	236.98
461.602	225.48
462.06	227.18
462.518	233.08
462.976	233.28
463.434	248.18
463.892	242.78
464.35	253.28
464.808	264.38
465.266	249.68
465.724	252.18
466.181	255.18
466.639	255.48
467.097	274.18
467.555	275.28
468.012	291.58
468.47	286.68
468.928	315.48
469.385	320.78
469.843	329.28
470.3	324.08
470.758	337.28
471.215	350.98
471.673	384.68
472.13	379.88
472.588	393.08
473.045	345.78
473.503	355.78
473.96	365.98
474.417	381.48
474.875	406.08
475.332	441.58
475.789	430.18
476.246	436.08
476.704	450.68
477.161	484.58
477.618	504.88
478.075	522.38
478.532	585.28
478.989	648.38
479.446	756.78
479.903	729.38
480.36	761.28
480.817	813.68
481.274	907.08
481.731	1004.88
482.188	1087.78
482.645	1210.68
483.102	1310.48
483.558	1432.98
484.015	1492.58
484.472	1477.58
484.929	1422.08
485.385	1380.18
485.842	1335.48
486.299	1278.58
486.755	1223.78
487.212	1029.88
487.668	874.48
488.125	796.28
488.582	732.28
489.038	703.58
489.494	673.98
489.951	637.88
490.407	627.78
490.864	608.78
491.32	612.08
491.776	595.78
492.233	613.18
492.689	573.08
493.145	580.78
493.602	558.58
494.058	574.18
494.514	580.58
494.97	602.68
495.426	606.98
495.882	583.48
496.338	568.48
496.794	592.48
497.251	587.68
497.707	582.98
498.163	593.88
498.618	592.98
499.074	613.48
499.53	636.58
499.986	645.48
500.442	623.38
500.898	596.08
501.354	590.28
501.809	596.58
502.265	593.98
502.721	620.38
503.177	640.38
503.632	625.28
504.088	636.88
504.543	669.28
504.999	666.48
505.455	618.38
505.91	596.78
506.366	595.78
506.821	593.38
507.277	592.88
507.732	590.48
508.187	592.48
508.643	598.08
509.098	602.98
509.553	618.48
510.009	618.98
510.464	637.68
510.919	665.68
511.375	656.98
511.83	674.78
512.285	688.38
512.74	713.68
513.195	738.28
513.65	734.58
514.105	728.68
514.56	730.88
515.015	744.98
515.47	768.18
515.925	747.58
516.38	755.08
516.835	744.78
517.29	747.98
517.745	741.28
518.2	719.68
518.655	707.68
519.109	702.88
519.564	705.98
520.019	689.78
520.474	689.28
520.928	689.28
521.383	690.68
521.838	675.08
522.292	676.28
522.747	671.38
523.201	672.08
523.656	653.18
524.11	656.08
524.565	669.08
525.019	654.98
525.474	675.28
525.928	666.98
526.382	659.98
526.837	654.88
527.291	669.88
527.745	659.88
528.2	666.38
528.654	659.88
529.108	655.98
529.562	651.88
530.016	650.58
530.47	669.28
530.925	668.88
531.379	669.28
531.833	676.98
532.287	669.48
532.741	664.48
533.195	670.08
533.649	680.58
534.103	683.38
534.556	673.48
535.01	679.18
535.464	681.38
535.918	680.18
536.372	684.98
536.826	684.08
537.279	670.78
537.733	681.68
538.187	674.48
538.64	684.48
539.094	698.48
539.548	685.58
540.001	681.08
540.455	685.28
540.908	681.98
541.362	703.98
541.815	716.48
542.269	724.78
542.722	728.88
543.175	732.28
543.629	753.98
544.082	759.28
544.536	748.08
544.989	757.48
545.442	757.88
545.895	749.98
546.349	760.88
546.802	756.08
547.255	757.48
547.708	770.58
548.161	769.78
548.614	783.98
549.067	793.58
549.52	784.68
549.973	762.68
550.426	772.78
550.879	763.28
551.332	761.68
551.785	770.98
552.238	764.58
552.691	777.88
553.144	798.08
553.596	802.18
554.049	827.88
554.502	852.28
554.955	872.58
555.407	865.78
555.86	868.68
556.313	856.98
556.765	837.58
557.218	858.38
557.67	850.58
558.123	845.68
558.576	831.88
559.028	851.08
559.48	843.88
559.933	837.58
560.385	808.88
560.838	776.28
561.29	750.58
561.742	752.38
562.195	723.98
562.647	741.38
563.099	744.78
563.551	731.78
564.004	758.38
564.456	740.38
564.908	735.38
565.36	719.98
565.812	705.98
566.264	693.98
566.716	693.08
567.168	689.08
567.62	696.78
568.072	683.18
568.524	668.18
568.976	666.28
569.428	646.48
569.88	650.78
570.332	652.88
570.784	648.98
571.235	656.78
571.687	662.88
572.139	667.18
572.59	677.58
573.042	675.48
573.494	693.38
573.945	687.18
574.397	651.78
574.849	657.48
575.3	666.58
575.752	650.88
576.203	655.28
576.655	655.98
577.106	645.98
577.557	641.88
578.009	652.08
578.46	641.98
578.912	639.58
579.363	645.08
579.814	645.58
580.265	644.08
580.717	639.18
581.168	655.28
581.619	654.88
582.07	655.88
582.521	654.38
582.972	645.88
583.423	655.68
583.875	656.28
584.326	679.38
584.777	716.08
585.227	787.78
585.678	864.48
586.129	947.88
586.58	1011.08
587.031	1089.48
587.482	1228.88
587.933	1396.58
588.384	1210.88
588.834	925.98
589.285	774.58
589.736	753.78
590.186	744.68
590.637	737.28
591.088	718.08
591.538	721.18
591.989	703.98
592.439	694.78
592.89	696.88
593.34	680.78
593.791	683.38
594.241	678.98
594.692	690.38
595.142	687.08
595.593	677.58
596.043	684.08
596.493	688.08
596.943	689.08
597.394	694.78
597.844	693.08
598.294	707.08
598.744	731.78
599.195	747.68
599.645	787.68
600.095	827.88
600.545	888.08
600.995	932.08
601.445	993.28
601.895	1052.78
602.345	1095.58
602.795	1074.78
603.245	1025.28
603.695	970.68
604.145	921.88
604.594	881.78
605.044	826.38
605.494	774.28
605.944	726.38
606.393	719.78
606.843	702.08
607.293	713.88
607.743	714.88
608.192	720.08
608.642	736.58
609.091	746.08
609.541	742.58
609.99	737.48
610.44	753.78
610.889	700.18
611.339	672.78
611.788	658.38
612.238	681.78
612.687	693.98
613.136	699.48
613.586	710.28
614.035	708.78
614.484	736.68
614.933	724.18
615.383	726.08
615.832	714.88
616.281	696.48
616.73	668.58
617.179	647.88
617.628	628.58
618.077	613.38
618.526	603.38
618.975	593.48
619.424	592.58
619.873	602.48
620.322	595.78
620.771	589.78
621.22	584.18
621.669	577.98
622.118	574.38
622.567	557.88
623.015	548.78
623.464	552.98
623.913	532.68
624.361	528.18
624.81	520.28
625.259	539.98
625.707	534.98
626.156	538.08
626.604	556.18
627.053	536.58
627.501	542.08
627.95	552.88
628.398	562.38
628.847	548.78
629.295	550.78
629.744	551.18
630.192	553.18
630.64	546.68
631.089	549.78
631.537	560.68
631.985	565.38
632.433	566.98
632.881	590.68
633.33	625.98
633.778	618.18
634.226	546.08
634.674	550.78
635.122	563.58
635.57	569.98
636.018	614.88
636.466	570.08
636.914	542.38
637.362	549.98
637.81	553.08
638.258	554.38
638.705	552.58
639.153	594.68
639.601	599.28
640.049	615.88
640.497	650.28
640.944	670.88
641.392	629.68
641.84	590.48
642.287	570.88
642.735	551.38
643.182	550.38
643.63	552.78
644.078	546.18
644.525	564.58
644.973	575.88
645.42	581.68
645.867	600.98
646.315	622.68
646.762	642.58
647.21	668.78
647.657	692.08
648.104	723.28
648.551	760.68
648.999	810.08
649.446	884.08
649.893	979.08
650.34	1126.68
650.787	1350.28
651.234	1678.08
651.682	2210.08
652.129	3022.48
652.576	4355.78
653.023	6428.78
653.47	8790.08
653.917	10914.78
654.363	12583.48
654.81	13881.18
655.257	13195.08
655.704	8603.98
656.151	5072.28
656.598	3299.38
657.044	2332.68
657.491	1803.28
657.938	1436.88
658.385	1208.98
658.831	1054.48
659.278	938.28
659.724	834.38
660.171	770.58
660.618	710.38
661.064	666.48
661.511	641.38
661.957	630.98
662.404	639.18
662.85	630.08
663.296	596.08
663.743	548.28
664.189	525.28
664.635	519.18
665.082	510.98
665.528	511.98
665.974	494.98
666.42	495.58
666.867	489.68
667.313	479.18
667.759	468.58
668.205	464.28
668.651	463.38
669.097	466.58
669.543	487.28
669.989	451.78
670.435	435.58
670.881	436.08
671.327	439.48
671.773	462.58
672.219	469.48
672.665	524.48
673.11	566.98
673.556	615.28
674.002	647.48
674.448	627.08
674.893	530.98
675.339	464.78
675.785	421.18
676.23	405.98
676.676	377.38
677.122	368.18
677.567	359.68
678.013	353.78
678.458	342.48
678.904	347.68
679.349	329.78
679.794	339.18
680.24	336.88
680.685	345.38
681.131	339.98
681.576	340.58
682.021	341.28
682.466	341.18
682.912	336.38
683.357	340.28
683.802	379.08
684.247	397.08
684.692	439.88
685.137	475.28
685.583	517.18
686.028	548.08
686.473	503.68
686.918	433.78
687.363	400.08
687.807	380.98
688.252	347.98
688.697	344.38
689.142	324.58
689.587	321.48
690.032	307.88
690.477	330.18
690.921	333.68
691.366	370.98
691.811	396.08
692.255	421.08
692.7	446.88
693.145	484.58
693.589	685.28
694.034	1114.78
694.478	1514.88
694.923	1670.78
695.367	2181.98
695.812	1157.88
696.256	476.18
696.701	363.28
697.145	328.38
697.59	318.78
698.034	313.78
698.478	320.68
698.922	311.58
699.367	312.68
699.811	327.38
700.255	343.38
700.699	374.38
701.143	419.38
701.588	458.58
702.032	503.78
702.476	505.18
702.92	476.48
703.364	480.18
703.808	628.68
704.252	1026.38
704.696	1403.88
705.14	1616.08
705.584	2057.88
706.027	1027.18
706.471	511.68
706.915	385.58
707.359	334.78
707.803	307.48
708.246	301.48
708.69	304.58
709.134	303.08
709.577	303.78
710.021	310.18
710.465	298.48
710.908	284.28
711.352	291.98
711.795	306.18
712.239	346.08
712.682	378.78
713.126	404.38
713.569	451.18
714.012	361.48
714.456	307.68
714.899	291.18
715.342	265.58
715.786	255.18
716.229	250.18
716.672	248.28
717.115	241.28
717.558	243.68
718.002	243.28
718.445	253.08
718.888	279.58
719.331	282.58
719.774	301.28
720.217	296.38
720.66	273.68
721.103	258.88
721.546	242.58
721.989	239.38
722.432	230.98
722.874	238.18
723.317	225.68
723.76	228.28
724.203	252.88
724.645	312.88
725.088	428.58
725.531	558.68
725.974	622.28
726.416	527.98
726.859	298.98
727.301	238.18
727.744	227.48
728.187	226.78
728.629	229.08
729.071	238.88
729.514	251.38
729.956	258.38
730.399	270.38
730.841	276.88
731.283	267.88
731.726	251.58
732.168	250.98
732.61	261.38
733.053	278.38
733.495	300.08
733.937	336.58
734.379	387.28
734.821	426.58
735.263	536.68
735.705	831.38
736.148	1570.68
736.59	2519.48
737.032	2943.98
737.474	2406.28
737.916	788.88
738.357	418.88
738.799	316.38
739.241	290.08
739.683	267.78
740.125	280.68
740.567	289.18
741.008	302.68
741.45	309.58
741.892	305.38
742.334	333.18
742.775	335.58
743.217	326.18
743.658	260.78
744.1	244.18
744.542	250.68
744.983	306.58
745.425	332.48
745.866	328.88
746.307	268.08
746.749	275.98
747.19	320.68
747.632	442.98
748.073	877.98
748.514	1835.28
748.956	2760.98
749.397	3505.18
749.838	2879.58
750.279	2860.28
750.72	1447.18
751.162	531.28
751.603	313.88
752.044	246.58
752.485	215.98
752.926	198.78
753.367	190.38
753.808	186.08
754.249	184.78
754.69	180.08
755.131	180.28
755.572	178.08
756.013	174.18
756.453	174.68
756.894	185.38
757.335	191.38
757.776	190.58
758.216	189.08
758.657	191.28
759.098	201.38
759.538	224.68
759.979	259.88
760.42	372.78
760.86	699.28
761.301	1818.68
761.741	4367.58
762.182	6195.88
762.622	4377.38
763.063	1270.88
763.503	526.18
