Data from 20171114-ORNL-Ar_H_NY_Subt18_08-05-28-323.txt Node
Date: Tue Nov 14 08:05:28 EST 2017
User: Ender
Spectrometer: HR+D1039
Trigger mode: 0
Integration Time (sec): 2.730000E-2
Scans to average: 10
Electric dark correction enabled: true
Nonlinearity correction enabled: false
Boxcar width: 0
XAxis mode: Wavelengths
Number of Pixels in Spectrum: 2048
>>>>>Begin Spectral Data<<<<<
187.836	-4.46
188.309	-4.46
188.782	-4.46
189.255	1.84
189.728	1.04
190.201	0.34
190.674	2.44
191.147	5.94
191.619	-6.46
192.092	-0.06
192.565	7.04
193.038	-1.36
193.511	-1.06
193.984	-1.66
194.456	0.74
194.929	3.34
195.402	-4.06
195.874	-3.66
196.347	-1.86
196.82	-6.26
197.292	5.14
197.765	-1.06
198.237	-7.06
198.71	-2.96
199.182	-3.96
199.655	1.44
200.127	7.34
200.6	-2.36
201.072	-1.26
201.544	0.84
202.017	1.54
202.489	6.94
202.961	-6.56
203.433	-5.66
203.906	-6.16
204.378	-10.56
204.85	-6.56
205.322	-9.96
205.794	3.34
206.266	-6.76
206.739	-5.96
207.211	-0.36
207.683	-5.96
208.155	-1.96
208.627	-2.96
209.099	-0.26
209.57	-8.06
210.042	-7.16
210.514	-0.96
210.986	-0.06
211.458	-8.76
211.93	-1.36
212.402	-0.26
212.873	-6.06
213.345	-6.76
213.817	-9.16
214.288	-4.96
214.76	-12.86
215.232	-1.36
215.703	-5.46
216.175	-5.16
216.646	-5.96
217.118	-13.26
217.589	-9.16
218.061	-6.66
218.532	-3.76
219.004	0.14
219.475	-5.16
219.946	-7.96
220.418	-2.96
220.889	3.74
221.36	3.84
221.832	-3.56
222.303	-9.46
222.774	2.14
223.245	-8.36
223.717	-6.56
224.188	-1.26
224.659	-7.46
225.13	-6.46
225.601	-7.16
226.072	4.14
226.543	3.04
227.014	4.94
227.485	1.34
227.956	-5.96
228.427	2.04
228.898	4.44
229.369	5.34
229.839	-0.46
230.31	-3.46
230.781	2.84
231.252	0.74
231.722	-1.26
232.193	-1.86
232.664	-2.66
233.135	-0.46
233.605	0.54
234.076	-7.06
234.546	3.34
235.017	1.14
235.487	0.14
235.958	-0.76
236.428	-3.26
236.899	5.24
237.369	9.44
237.84	1.24
238.31	4.34
238.78	2.64
239.251	0.94
239.721	1.74
240.191	-0.66
240.662	1.34
241.132	-1.66
241.602	-6.36
242.072	-2.36
242.542	5.24
243.013	1.94
243.483	6.94
243.953	5.64
244.423	0.14
244.893	-0.46
245.363	2.14
245.833	4.04
246.303	-0.36
246.773	6.54
247.243	2.24
247.712	0.74
248.182	7.94
248.652	9.64
249.122	0.04
249.592	17.74
250.061	24.24
250.531	34.74
251.001	18.74
251.471	27.94
251.94	21.54
252.41	10.64
252.879	2.24
253.349	13.64
253.818	3.04
254.288	8.44
254.757	11.64
255.227	5.04
255.696	7.24
256.166	6.74
256.635	2.04
257.105	4.94
257.574	6.64
258.043	6.54
258.513	13.64
258.982	17.44
259.451	5.04
259.92	16.54
260.389	4.44
260.859	15.24
261.328	13.64
261.797	17.04
262.266	10.14
262.735	14.64
263.204	3.44
263.673	-0.06
264.142	11.74
264.611	3.14
265.08	5.44
265.549	-0.86
266.018	4.24
266.487	1.34
266.955	1.94
267.424	5.64
267.893	8.64
268.362	3.04
268.83	6.64
269.299	14.94
269.768	4.54
270.236	8.94
270.705	8.94
271.174	13.04
271.642	13.54
272.111	12.54
272.579	15.74
273.048	18.54
273.516	31.04
273.985	27.94
274.453	25.94
274.922	22.74
275.39	14.94
275.858	8.04
276.327	19.04
276.795	21.04
277.263	11.84
277.731	38.14
278.2	58.04
278.668	58.14
279.136	50.44
279.604	22.24
280.072	14.54
280.54	15.04
281.008	11.44
281.477	11.34
281.945	13.54
282.413	15.24
282.881	19.34
283.348	9.34
283.816	14.24
284.284	13.24
284.752	24.14
285.22	16.44
285.688	19.54
286.156	22.64
286.623	46.44
287.091	58.54
287.559	24.44
288.026	20.04
288.494	15.64
288.962	15.24
289.429	10.14
289.897	23.44
290.364	17.94
290.832	17.74
291.3	12.14
291.767	14.74
292.234	22.14
292.702	21.94
293.169	20.44
293.637	25.84
294.104	20.24
294.571	7.64
295.039	13.34
295.506	12.54
295.973	17.84
296.44	17.74
296.908	21.14
297.375	21.14
297.842	22.04
298.309	24.64
298.776	18.74
299.243	27.84
299.71	20.24
300.177	17.34
300.644	26.84
301.111	27.14
301.578	26.84
302.045	20.34
302.512	27.94
302.979	26.54
303.446	17.84
303.913	23.04
304.379	21.54
304.846	30.34
305.313	22.74
305.78	21.44
306.246	26.84
306.713	33.64
307.18	31.94
307.646	28.74
308.113	28.84
308.579	22.94
309.046	30.64
309.512	26.14
309.979	18.04
310.445	32.14
310.912	32.84
311.378	34.34
311.845	28.54
312.311	27.84
312.777	33.44
313.244	29.94
313.71	38.24
314.176	32.74
314.642	38.34
315.109	31.84
315.575	29.44
316.041	39.14
316.507	33.64
316.973	46.64
317.439	33.74
317.905	34.34
318.371	38.44
318.837	37.94
319.303	38.04
319.769	29.54
320.235	34.04
320.701	31.04
321.167	46.24
321.633	38.04
322.099	42.74
322.564	48.14
323.03	38.34
323.496	45.14
323.962	46.94
324.427	39.74
324.893	48.44
325.359	40.34
325.824	41.04
326.29	37.14
326.755	41.64
327.221	41.54
327.686	39.54
328.152	47.74
328.617	44.34
329.083	50.04
329.548	54.94
330.014	48.94
330.479	38.14
330.944	45.64
331.41	41.54
331.875	48.34
332.34	41.14
332.805	43.74
333.271	52.24
333.736	44.44
334.201	59.64
334.666	49.14
335.131	58.04
335.596	52.44
336.061	52.44
336.526	44.94
336.991	50.74
337.456	55.44
337.921	51.44
338.386	38.74
338.851	48.34
339.316	47.94
339.781	47.54
340.246	56.94
340.711	44.94
341.175	50.94
341.64	49.24
342.105	54.34
342.569	59.64
343.034	62.34
343.499	59.24
343.963	50.44
344.428	65.54
344.893	66.54
345.357	66.74
345.822	68.24
346.286	67.74
346.751	75.14
347.215	66.24
347.679	78.14
348.144	101.14
348.608	85.04
349.073	70.84
349.537	79.84
350.001	77.84
350.465	91.24
350.93	79.04
351.394	86.14
351.858	73.34
352.322	85.84
352.786	87.54
353.25	105.54
353.715	112.94
354.179	107.84
354.643	127.44
355.107	129.34
355.571	108.44
356.035	104.94
356.498	114.44
356.962	127.44
357.426	133.14
357.89	122.74
358.354	94.64
358.818	85.84
359.281	78.84
359.745	82.54
360.209	77.94
360.673	73.84
361.136	77.84
361.6	82.64
362.064	92.84
362.527	88.04
362.991	89.24
363.454	79.04
363.918	77.74
364.381	85.64
364.845	84.64
365.308	85.84
365.772	87.24
366.235	87.74
366.698	82.14
367.162	94.64
367.625	90.04
368.088	85.84
368.552	89.04
369.015	91.64
369.478	98.04
369.941	102.24
370.404	90.74
370.867	102.64
371.331	103.84
371.794	116.24
372.257	112.54
372.72	112.04
373.183	116.84
373.646	105.64
374.109	108.94
374.572	110.44
375.035	110.24
375.497	111.24
375.96	111.34
376.423	107.54
376.886	108.84
377.349	115.84
377.811	100.34
378.274	104.44
378.737	112.74
379.199	109.24
379.662	113.24
380.125	112.94
380.587	120.54
381.05	120.44
381.512	128.84
381.975	130.84
382.437	126.94
382.9	122.84
383.362	131.24
383.825	143.94
384.287	151.44
384.75	141.24
385.212	142.44
385.674	139.14
386.136	139.94
386.599	127.24
387.061	126.24
387.523	127.74
387.985	134.44
388.447	141.34
388.91	146.14
389.372	156.74
389.834	153.74
390.296	146.44
390.758	159.84
391.22	167.14
391.682	208.84
392.144	292.84
392.606	227.74
393.068	164.94
393.529	163.94
393.991	156.44
394.453	147.84
394.915	156.34
395.377	187.54
395.838	204.54
396.3	154.44
396.762	144.44
397.224	133.34
397.685	128.14
398.147	131.84
398.608	134.64
399.07	128.84
399.531	132.64
399.993	145.34
400.454	166.24
400.916	151.24
401.377	135.34
401.839	148.84
402.3	152.54
402.762	164.04
403.223	180.84
403.684	171.34
404.145	162.34
404.607	165.54
405.068	168.94
405.529	171.34
405.99	188.14
406.451	172.84
406.913	178.74
407.374	161.34
407.835	155.64
408.296	167.94
408.757	173.84
409.218	179.84
409.679	181.44
410.14	173.84
410.601	175.94
411.062	181.14
411.522	184.84
411.983	191.94
412.444	180.54
412.905	178.34
413.366	181.04
413.826	191.64
414.287	220.54
414.748	259.04
415.208	246.84
415.669	204.74
416.13	201.94
416.59	201.44
417.051	209.44
417.511	213.14
417.972	233.94
418.432	243.94
418.893	287.64
419.353	246.14
419.814	195.14
420.274	184.84
420.734	182.54
421.195	199.74
421.655	195.44
422.115	190.54
422.576	194.34
423.036	199.74
423.496	203.64
423.956	208.14
424.416	226.74
424.876	266.74
425.336	252.14
425.797	260.24
426.257	253.54
426.717	244.84
427.177	230.54
427.637	225.14
428.097	232.54
428.556	247.84
429.016	269.54
429.476	262.04
429.936	273.34
430.396	268.94
430.856	285.04
431.315	310.94
431.775	350.74
432.235	379.14
432.694	345.44
433.154	364.54
433.614	391.74
434.073	335.04
434.533	287.64
434.993	274.24
435.452	281.94
435.912	297.44
436.371	292.54
436.83	287.24
437.29	266.74
437.749	248.94
438.209	249.84
438.668	268.94
439.127	283.54
439.587	268.54
440.046	241.34
440.505	263.14
440.964	280.14
441.424	323.74
441.883	311.14
442.342	259.34
442.801	227.14
443.26	218.54
443.719	223.64
444.178	216.14
444.637	209.74
445.096	225.14
445.555	221.84
446.014	230.44
446.473	222.44
446.932	234.84
447.391	225.84
447.849	222.04
448.308	223.94
448.767	226.44
449.226	236.34
449.685	238.44
450.143	252.74
450.602	240.04
451.061	227.94
451.519	231.14
451.978	228.74
452.436	233.64
452.895	239.84
453.353	248.24
453.812	236.04
454.27	235.14
454.729	237.24
455.187	247.54
455.646	245.34
456.104	245.94
456.562	261.24
457.021	266.54
457.479	259.94
457.937	275.44
458.395	261.84
458.854	243.54
459.312	251.94
459.77	280.44
460.228	257.94
460.686	243.74
461.144	243.84
461.602	240.54
462.06	241.84
462.518	255.64
462.976	250.44
463.434	256.94
463.892	267.54
464.35	278.34
464.808	287.64
465.266	265.14
465.724	267.84
466.181	277.64
466.639	277.54
467.097	287.34
467.555	297.24
468.012	304.04
468.47	315.04
468.928	331.34
469.385	351.34
469.843	345.64
470.3	356.74
470.758	364.04
471.215	382.34
471.673	411.04
472.13	403.64
472.588	420.54
473.045	378.24
473.503	375.84
473.96	394.34
474.417	404.74
474.875	429.24
475.332	471.94
475.789	460.94
476.246	474.24
476.704	486.84
477.161	510.84
477.618	526.94
478.075	567.04
478.532	610.24
478.989	700.84
479.446	814.64
479.903	786.14
480.36	809.54
480.817	872.44
481.274	971.34
481.731	1078.44
482.188	1169.04
482.645	1297.54
483.102	1420.94
483.558	1554.04
484.015	1605.44
484.472	1565.84
484.929	1533.44
485.385	1483.04
485.842	1438.44
486.299	1364.54
486.755	1305.34
487.212	1108.34
487.668	921.34
488.125	855.14
488.582	790.44
489.038	748.14
489.494	716.64
489.951	693.04
490.407	673.64
490.864	641.94
491.32	648.54
491.776	642.34
492.233	647.54
492.689	616.24
493.145	603.14
493.602	596.94
494.058	617.34
494.514	618.04
494.97	639.44
495.426	651.84
495.882	626.94
496.338	623.74
496.794	630.64
497.251	631.44
497.707	635.64
498.163	640.04
498.618	655.54
499.074	648.84
499.53	682.44
499.986	687.94
500.442	658.54
500.898	629.64
501.354	630.44
501.809	639.14
502.265	655.54
502.721	662.24
503.177	679.14
503.632	670.84
504.088	670.94
504.543	713.74
504.999	715.24
505.455	658.94
505.91	639.24
506.366	634.54
506.821	624.64
507.277	622.74
507.732	627.04
508.187	619.34
508.643	641.44
509.098	634.94
509.553	656.44
510.009	664.94
510.464	681.84
510.919	694.74
511.375	699.64
511.83	710.74
512.285	722.34
512.74	766.84
513.195	784.04
513.65	781.14
514.105	770.54
514.56	774.24
515.015	801.04
515.47	816.94
515.925	791.54
516.38	786.14
516.835	798.44
517.29	794.14
517.745	781.64
518.2	763.94
518.655	760.94
519.109	748.44
519.564	751.44
520.019	741.54
520.474	729.84
520.928	732.24
521.383	726.64
521.838	715.54
522.292	719.64
522.747	707.44
523.201	693.34
523.656	700.74
524.11	692.94
524.565	702.14
525.019	689.84
525.474	700.74
525.928	703.04
526.382	694.34
526.837	708.04
527.291	709.74
527.745	703.54
528.2	703.74
528.654	699.14
529.108	696.14
529.562	686.34
530.016	694.54
530.47	694.94
530.925	693.74
531.379	707.44
531.833	704.54
532.287	708.84
532.741	699.84
533.195	705.54
533.649	723.04
534.103	721.54
534.556	718.24
535.01	712.94
535.464	713.74
535.918	725.84
536.372	723.64
536.826	717.84
537.279	704.04
537.733	718.74
538.187	721.44
538.64	715.34
539.094	727.34
539.548	728.84
540.001	728.74
540.455	726.14
540.908	730.54
541.362	739.74
541.815	748.84
542.269	764.94
542.722	756.34
543.175	768.44
543.629	767.64
544.082	789.04
544.536	790.74
544.989	777.24
545.442	792.44
545.895	785.54
546.349	783.64
546.802	792.74
547.255	795.24
547.708	798.44
548.161	817.54
548.614	807.94
549.067	823.64
549.52	820.54
549.973	812.44
550.426	806.64
550.879	803.64
551.332	801.64
551.785	801.44
552.238	809.24
552.691	822.34
553.144	840.94
553.596	839.74
554.049	864.64
554.502	896.94
554.955	915.44
555.407	911.04
555.86	894.04
556.313	897.64
556.765	881.04
557.218	880.74
557.67	886.04
558.123	874.64
558.576	878.14
559.028	878.04
559.48	876.14
559.933	869.64
560.385	836.14
560.838	809.34
561.29	782.34
561.742	772.64
562.195	757.54
562.647	754.84
563.099	769.44
563.551	771.34
564.004	776.74
564.456	778.44
564.908	764.74
565.36	747.84
565.812	724.04
566.264	721.44
566.716	715.84
567.168	710.54
567.62	725.64
568.072	696.84
568.524	687.44
568.976	680.74
569.428	680.04
569.88	666.14
570.332	675.44
570.784	680.44
571.235	678.84
571.687	695.14
572.139	697.94
572.59	713.64
573.042	708.14
573.494	704.94
573.945	694.94
574.397	677.84
574.849	679.54
575.3	688.94
575.752	679.54
576.203	681.04
576.655	692.24
577.106	669.94
577.557	667.34
578.009	663.64
578.46	658.64
578.912	663.44
579.363	658.94
579.814	657.04
580.265	650.04
580.717	661.34
581.168	664.74
581.619	669.54
582.07	668.44
582.521	671.94
582.972	673.64
583.423	677.24
583.875	680.74
584.326	697.04
584.777	735.94
585.227	808.74
585.678	887.94
586.129	984.24
586.58	1043.74
587.031	1124.14
587.482	1286.24
587.933	1460.34
588.384	1264.44
588.834	958.44
589.285	795.34
589.736	775.24
590.186	757.14
590.637	760.24
591.088	739.34
591.538	721.64
591.989	728.44
592.439	721.94
592.89	711.44
593.34	700.44
593.791	709.84
594.241	695.64
594.692	689.44
595.142	692.34
595.593	686.84
596.043	700.54
596.493	700.94
596.943	710.44
597.394	713.84
597.844	696.04
598.294	725.24
598.744	739.54
599.195	764.54
599.645	800.84
600.095	835.94
600.545	896.04
600.995	937.14
601.445	999.24
601.895	1067.24
602.345	1110.44
602.795	1093.34
603.245	1050.84
603.695	982.04
604.145	946.34
604.594	901.64
605.044	839.04
605.494	786.54
605.944	737.14
606.393	726.94
606.843	704.74
607.293	721.04
607.743	714.64
608.192	732.24
608.642	735.44
609.091	743.14
609.541	762.14
609.99	756.84
610.44	751.34
610.889	705.94
611.339	679.64
611.788	676.54
612.238	685.84
612.687	700.04
613.136	710.04
613.586	707.64
614.035	721.24
614.484	735.54
614.933	739.84
615.383	737.44
615.832	724.64
616.281	700.24
616.73	667.44
617.179	651.54
617.628	640.34
618.077	631.64
618.526	608.44
618.975	612.24
619.424	602.64
619.873	592.04
620.322	599.94
620.771	592.34
621.22	580.04
621.669	582.84
622.118	571.94
622.567	565.04
623.015	556.44
623.464	554.04
623.913	547.94
624.361	542.04
624.81	537.94
625.259	538.34
625.707	548.24
626.156	539.94
626.604	549.24
627.053	540.14
627.501	538.84
627.95	544.74
628.398	566.94
628.847	561.24
629.295	555.64
629.744	556.44
630.192	552.14
630.64	552.54
631.089	546.84
631.537	559.74
631.985	562.64
632.433	578.24
632.881	589.14
633.33	630.54
633.778	611.44
634.226	541.84
634.674	550.24
635.122	565.64
635.57	575.34
636.018	610.34
636.466	569.44
636.914	545.94
637.362	551.94
637.81	552.44
638.258	564.24
638.705	564.74
639.153	585.44
639.601	596.44
640.049	625.74
640.497	648.24
640.944	671.94
641.392	615.94
641.84	591.94
642.287	561.04
642.735	554.14
643.182	551.74
643.63	543.54
644.078	556.74
644.525	566.74
644.973	571.84
645.42	572.24
645.867	597.04
646.315	623.44
646.762	637.64
647.21	673.34
647.657	690.54
648.104	717.94
648.551	745.34
648.999	808.54
649.446	883.64
649.893	969.74
650.34	1120.34
650.787	1345.24
651.234	1662.14
651.682	2157.74
652.129	2939.84
652.576	4260.94
653.023	6265.24
653.47	8648.34
653.917	10865.14
654.363	12578.44
654.81	13965.54
655.257	13301.14
655.704	8727.64
656.151	5160.54
656.598	3347.04
657.044	2348.54
657.491	1803.84
657.938	1443.54
658.385	1201.74
658.831	1044.94
659.278	932.84
659.724	829.54
660.171	764.64
660.618	696.24
661.064	667.54
661.511	649.54
661.957	633.34
662.404	626.34
662.85	626.54
663.296	599.44
663.743	544.04
664.189	518.84
664.635	510.24
665.082	507.94
665.528	509.44
665.974	497.64
666.42	485.54
666.867	484.24
667.313	476.94
667.759	464.94
668.205	458.14
668.651	467.64
669.097	472.44
669.543	478.64
669.989	454.44
670.435	422.24
670.881	427.34
671.327	423.24
671.773	459.94
672.219	469.74
672.665	516.14
673.11	549.94
673.556	599.04
674.002	648.14
674.448	630.14
674.893	524.74
675.339	455.44
675.785	424.94
676.23	404.64
676.676	370.44
677.122	367.94
677.567	358.24
678.013	352.64
678.458	346.54
678.904	352.34
679.349	336.14
679.794	331.84
680.24	341.64
680.685	339.14
681.131	337.94
681.576	334.84
682.021	338.24
682.466	333.84
682.912	334.94
683.357	338.24
683.802	366.94
684.247	389.64
684.692	426.14
685.137	475.04
685.583	513.24
686.028	540.74
686.473	492.84
686.918	424.14
687.363	407.14
687.807	377.14
688.252	344.74
688.697	343.24
689.142	318.34
689.587	314.64
690.032	313.94
690.477	321.14
690.921	331.94
691.366	359.24
691.811	381.54
692.255	413.84
692.7	435.64
693.145	469.04
693.589	645.84
694.034	1051.74
694.478	1442.24
694.923	1663.34
695.367	2170.94
695.812	1152.14
696.256	473.44
696.701	360.14
697.145	323.64
697.59	310.74
698.034	307.64
698.478	309.64
698.922	310.24
699.367	309.84
699.811	325.74
700.255	338.54
700.699	376.54
701.143	404.74
701.588	457.14
702.032	486.24
702.476	490.74
702.92	467.04
703.364	464.94
703.808	589.24
704.252	962.24
704.696	1360.04
705.14	1593.94
705.584	2056.44
706.027	1021.94
706.471	493.24
706.915	377.94
707.359	330.34
707.803	305.04
708.246	288.04
708.69	294.54
709.134	289.74
709.577	292.24
710.021	302.94
710.465	287.84
710.908	279.64
711.352	279.84
711.795	297.34
712.239	323.84
712.682	356.54
713.126	390.44
713.569	436.34
714.012	357.04
714.456	302.24
714.899	280.04
715.342	264.74
715.786	243.84
716.229	244.54
716.672	243.44
717.115	235.84
717.558	244.14
718.002	247.74
718.445	245.04
718.888	272.64
719.331	285.14
719.774	294.24
720.217	292.54
720.66	272.24
721.103	252.54
721.546	237.84
721.989	232.34
722.432	219.94
722.874	225.04
723.317	224.04
723.76	224.24
724.203	248.44
724.645	294.24
725.088	419.54
725.531	535.44
725.974	610.54
726.416	518.64
726.859	298.24
727.301	228.64
727.744	226.94
728.187	222.44
728.629	227.14
729.071	228.54
729.514	243.84
729.956	266.04
730.399	263.64
730.841	271.64
731.283	260.44
731.726	252.04
732.168	237.84
732.61	249.64
733.053	268.24
733.495	296.74
733.937	338.54
734.379	376.24
734.821	410.44
735.263	511.64
735.705	774.34
736.148	1446.24
736.59	2414.74
737.032	2941.04
737.474	2375.64
737.916	757.24
738.357	405.64
738.799	309.54
739.241	281.04
739.683	264.34
740.125	277.04
740.567	280.74
741.008	295.64
741.45	300.04
741.892	300.04
742.334	333.04
742.775	335.04
743.217	327.04
743.658	253.24
744.1	238.54
744.542	249.34
744.983	287.74
745.425	324.24
745.866	326.14
746.307	267.14
746.749	264.24
747.19	298.94
747.632	419.34
748.073	804.54
748.514	1712.34
748.956	2683.34
749.397	3352.24
749.838	2787.54
750.279	2832.54
750.72	1439.94
751.162	515.64
751.603	299.04
752.044	232.34
752.485	202.24
752.926	195.94
753.367	188.04
753.808	179.74
754.249	176.94
754.69	179.24
755.131	171.94
755.572	168.24
756.013	164.94
756.453	168.94
756.894	173.64
757.335	182.24
757.776	182.64
758.216	186.84
758.657	183.54
759.098	187.74
759.538	211.04
759.979	243.84
760.42	342.64
760.86	642.14
761.301	1655.44
761.741	4090.04
762.182	6156.24
762.622	4358.14
