Data from 20171114-ORNL-Ar_H_NY_Subt18_08-05-13-309.txt Node
Date: Tue Nov 14 08:05:13 EST 2017
User: Ender
Spectrometer: HR+D1039
Trigger mode: 0
Integration Time (sec): 2.730000E-2
Scans to average: 10
Electric dark correction enabled: true
Nonlinearity correction enabled: false
Boxcar width: 0
XAxis mode: Wavelengths
Number of Pixels in Spectrum: 2048
>>>>>Begin Spectral Data<<<<<
187.836	-2.74
188.309	-2.74
188.782	-2.74
189.255	-0.84
189.728	-0.14
190.201	7.96
190.674	1.16
191.147	2.56
191.619	-9.64
192.092	1.96
192.565	4.06
193.038	-0.04
193.511	1.26
193.984	0.66
194.456	-5.64
194.929	-0.54
195.402	-6.94
195.874	6.96
196.347	-2.34
196.82	-8.54
197.292	7.96
197.765	-0.14
198.237	-3.14
198.71	-0.54
199.182	-0.74
199.655	4.26
200.127	4.56
200.6	-5.04
201.072	-5.14
201.544	-0.24
202.017	-0.84
202.489	6.96
202.961	-1.64
203.433	1.56
203.906	-1.34
204.378	-4.84
204.85	-2.94
205.322	-7.24
205.794	-1.44
206.266	-4.94
206.739	-3.74
207.211	0.66
207.683	-8.84
208.155	-4.84
208.627	-5.54
209.099	-7.94
209.57	-10.34
210.042	-2.54
210.514	-2.44
210.986	0.56
211.458	-4.14
211.93	0.36
212.402	-1.84
212.873	-1.54
213.345	-4.84
213.817	-7.54
214.288	-4.54
214.76	-13.54
215.232	-3.64
215.703	-1.54
216.175	2.46
216.646	-4.44
217.118	-5.34
217.589	-7.74
218.061	-2.24
218.532	-0.54
219.004	-1.14
219.475	-0.44
219.946	-1.84
220.418	-5.14
220.889	2.66
221.36	5.36
221.832	-1.84
222.303	-5.14
222.774	1.26
223.245	-6.54
223.717	-2.24
224.188	-0.14
224.659	-8.34
225.13	-7.64
225.601	-1.64
226.072	-0.24
226.543	-4.84
227.014	-0.94
227.485	-1.64
227.956	-2.44
228.427	-3.84
228.898	5.06
229.369	1.66
229.839	2.76
230.31	-5.84
230.781	3.76
231.252	0.26
231.722	-4.54
232.193	-3.64
232.664	-5.54
233.135	0.26
233.605	2.26
234.076	-2.14
234.546	-4.54
235.017	7.66
235.487	2.26
235.958	1.96
236.428	-0.74
236.899	5.86
237.369	6.06
237.84	2.36
238.31	9.76
238.78	5.26
239.251	1.16
239.721	-3.84
240.191	0.36
240.662	-0.24
241.132	-2.24
241.602	-1.04
242.072	9.46
242.542	11.36
243.013	2.06
243.483	4.06
243.953	4.06
244.423	5.16
244.893	0.76
245.363	5.16
245.833	2.26
246.303	-6.44
246.773	13.06
247.243	2.96
247.712	3.06
248.182	13.86
248.652	10.46
249.122	1.96
249.592	18.56
250.061	29.06
250.531	35.06
251.001	20.56
251.471	24.56
251.94	23.96
252.41	9.56
252.879	5.86
253.349	13.96
253.818	9.86
254.288	8.06
254.757	3.06
255.227	7.26
255.696	10.36
256.166	2.96
256.635	2.06
257.105	9.66
257.574	3.66
258.043	4.66
258.513	13.46
258.982	17.76
259.451	13.46
259.92	11.26
260.389	9.86
260.859	19.16
261.328	19.46
261.797	15.76
262.266	15.46
262.735	11.96
263.204	5.96
263.673	1.16
264.142	4.76
264.611	0.36
265.08	1.56
265.549	-0.64
266.018	5.06
266.487	3.16
266.955	2.26
267.424	0.36
267.893	7.96
268.362	-2.84
268.83	7.66
269.299	11.46
269.768	12.56
270.236	10.56
270.705	7.36
271.174	7.26
271.642	13.66
272.111	9.76
272.579	23.76
273.048	28.06
273.516	30.86
273.985	32.76
274.453	26.06
274.922	23.16
275.39	15.06
275.858	7.16
276.327	18.76
276.795	16.66
277.263	11.86
277.731	27.06
278.2	61.56
278.668	60.96
279.136	50.06
279.604	19.96
280.072	15.36
280.54	14.66
281.008	14.96
281.477	19.26
281.945	17.86
282.413	18.76
282.881	19.16
283.348	10.96
283.816	16.56
284.284	16.76
284.752	21.36
285.22	7.36
285.688	18.86
286.156	22.06
286.623	44.76
287.091	58.46
287.559	32.86
288.026	13.86
288.494	20.86
288.962	13.16
289.429	10.56
289.897	20.66
290.364	20.96
290.832	22.16
291.3	21.66
291.767	23.36
292.234	16.06
292.702	19.06
293.169	17.56
293.637	20.56
294.104	23.16
294.571	6.46
295.039	19.06
295.506	20.86
295.973	26.76
296.44	25.76
296.908	26.36
297.375	22.16
297.842	19.86
298.309	23.26
298.776	20.16
299.243	28.66
299.71	13.96
300.177	26.46
300.644	23.26
301.111	24.56
301.578	24.66
302.045	22.36
302.512	30.26
302.979	27.36
303.446	28.36
303.913	18.06
304.379	21.56
304.846	22.26
305.313	26.96
305.78	30.76
306.246	27.36
306.713	28.96
307.18	31.46
307.646	29.06
308.113	35.46
308.579	25.86
309.046	28.16
309.512	28.76
309.979	28.76
310.445	24.86
310.912	34.26
311.378	32.46
311.845	29.76
312.311	33.56
312.777	41.06
313.244	34.96
313.71	45.86
314.176	34.96
314.642	38.56
315.109	29.36
315.575	34.36
316.041	40.76
316.507	31.26
316.973	43.76
317.439	44.56
317.905	43.36
318.371	36.86
318.837	38.46
319.303	38.56
319.769	35.26
320.235	30.56
320.701	41.36
321.167	39.96
321.633	41.16
322.099	44.66
322.564	46.06
323.03	43.26
323.496	41.96
323.962	45.66
324.427	37.56
324.893	49.36
325.359	41.06
325.824	40.36
326.29	38.36
326.755	42.36
327.221	48.46
327.686	42.26
328.152	49.36
328.617	48.96
329.083	47.86
329.548	54.26
330.014	56.86
330.479	42.46
330.944	45.36
331.41	43.76
331.875	47.56
332.34	48.26
332.805	44.86
333.271	51.96
333.736	51.56
334.201	56.26
334.666	57.76
335.131	55.16
335.596	52.46
336.061	55.66
336.526	43.56
336.991	54.26
337.456	57.66
337.921	53.16
338.386	40.46
338.851	45.26
339.316	46.56
339.781	52.96
340.246	49.36
340.711	44.56
341.175	51.86
341.64	48.46
342.105	52.06
342.569	58.96
343.034	62.86
343.499	58.96
343.963	55.86
344.428	68.16
344.893	63.16
345.357	62.56
345.822	65.76
346.286	68.76
346.751	74.46
347.215	66.16
347.679	74.56
348.144	100.46
348.608	86.56
349.073	80.96
349.537	81.76
350.001	81.26
350.465	87.46
350.93	85.56
351.394	89.76
351.858	74.26
352.322	95.76
352.786	92.16
353.25	104.96
353.715	115.96
354.179	108.76
354.643	121.16
355.107	123.56
355.571	113.36
356.035	101.96
356.498	117.96
356.962	123.96
357.426	129.86
357.89	119.76
358.354	94.86
358.818	85.26
359.281	81.86
359.745	79.66
360.209	79.86
360.673	77.76
361.136	74.06
361.6	88.36
362.064	90.46
362.527	82.86
362.991	94.26
363.454	86.56
363.918	77.06
364.381	80.26
364.845	87.36
365.308	80.36
365.772	83.06
366.235	85.26
366.698	85.66
367.162	93.76
367.625	86.26
368.088	89.16
368.552	92.26
369.015	92.26
369.478	97.76
369.941	99.86
370.404	96.26
370.867	108.26
371.331	109.36
371.794	109.16
372.257	112.86
372.72	113.96
373.183	113.16
373.646	108.16
374.109	102.96
374.572	110.36
375.035	109.16
375.497	105.56
375.96	110.66
376.423	100.96
376.886	102.46
377.349	111.76
377.811	103.56
378.274	104.86
378.737	105.16
379.199	118.76
379.662	113.56
380.125	124.36
380.587	118.56
381.05	116.36
381.512	131.26
381.975	137.06
382.437	125.36
382.9	121.16
383.362	134.36
383.825	148.56
384.287	148.36
384.75	140.56
385.212	141.96
385.674	138.36
386.136	140.56
386.599	122.56
387.061	132.16
387.523	128.26
387.985	136.16
388.447	138.16
388.91	140.86
389.372	160.26
389.834	148.16
390.296	146.46
390.758	153.86
391.22	167.96
391.682	215.36
392.144	288.36
392.606	227.16
393.068	163.16
393.529	162.46
393.991	157.66
394.453	145.16
394.915	153.86
395.377	183.96
395.838	221.76
396.3	158.46
396.762	146.96
397.224	136.86
397.685	130.66
398.147	130.86
398.608	131.66
399.07	122.66
399.531	133.06
399.993	143.36
400.454	152.06
400.916	145.96
401.377	141.46
401.839	151.96
402.3	152.66
402.762	166.66
403.223	178.36
403.684	167.06
404.145	161.46
404.607	157.96
405.068	158.36
405.529	172.46
405.99	185.76
406.451	182.06
406.913	170.16
407.374	170.16
407.835	162.26
408.296	168.26
408.757	168.76
409.218	187.56
409.679	181.86
410.14	173.46
410.601	179.26
411.062	183.66
411.522	187.66
411.983	184.36
412.444	171.16
412.905	181.96
413.366	185.66
413.826	191.56
414.287	215.66
414.748	263.06
415.208	240.76
415.669	213.36
416.13	201.56
416.59	206.36
417.051	213.56
417.511	216.56
417.972	231.96
418.432	242.66
418.893	285.86
419.353	250.26
419.814	200.66
420.274	187.66
420.734	181.86
421.195	195.16
421.655	199.16
422.115	193.26
422.576	189.66
423.036	192.06
423.496	206.76
423.956	209.16
424.416	230.86
424.876	262.66
425.336	257.56
425.797	261.06
426.257	249.36
426.717	239.16
427.177	230.26
427.637	217.26
428.097	233.66
428.556	243.56
429.016	266.16
429.476	262.26
429.936	269.96
430.396	271.96
430.856	291.96
431.315	305.96
431.775	353.46
432.235	369.96
432.694	349.76
433.154	361.56
433.614	391.56
434.073	337.36
434.533	285.36
434.993	268.26
435.452	279.86
435.912	300.76
436.371	286.86
436.83	286.06
437.29	269.76
437.749	251.36
438.209	250.66
438.668	263.66
439.127	283.76
439.587	265.46
440.046	247.06
440.505	258.76
440.964	274.46
441.424	317.16
441.883	312.66
442.342	256.96
442.801	216.46
443.26	223.86
443.719	219.36
444.178	217.96
444.637	207.36
445.096	213.96
445.555	221.26
446.014	218.96
446.473	226.46
446.932	225.46
447.391	219.56
447.849	222.66
448.308	209.56
448.767	221.66
449.226	229.26
449.685	235.66
450.143	245.86
450.602	226.76
451.061	224.26
451.519	230.26
451.978	230.86
452.436	233.76
452.895	240.06
453.353	243.06
453.812	233.86
454.27	239.36
454.729	244.76
455.187	239.66
455.646	241.76
456.104	244.36
456.562	259.46
457.021	268.36
457.479	253.26
457.937	272.16
458.395	264.16
458.854	248.36
459.312	251.16
459.77	269.66
460.228	256.66
460.686	237.26
461.144	243.26
461.602	245.86
462.06	240.06
462.518	252.06
462.976	251.56
463.434	250.86
463.892	262.96
464.35	271.36
464.808	282.96
465.266	259.26
465.724	270.36
466.181	269.76
466.639	268.66
467.097	287.46
467.555	298.86
468.012	305.26
468.47	313.96
468.928	326.86
469.385	331.76
469.843	343.16
470.3	344.16
470.758	352.56
471.215	384.66
471.673	404.16
472.13	402.76
472.588	409.56
473.045	358.66
473.503	363.36
473.96	391.26
474.417	408.86
474.875	434.86
475.332	480.16
475.789	465.76
476.246	471.16
476.704	478.76
477.161	501.56
477.618	522.46
478.075	558.36
478.532	614.46
478.989	682.46
479.446	805.46
479.903	772.16
480.36	807.56
480.817	857.56
481.274	965.06
481.731	1068.06
482.188	1163.06
482.645	1297.56
483.102	1398.46
483.558	1540.06
484.015	1600.26
484.472	1571.26
484.929	1503.06
485.385	1467.76
485.842	1413.76
486.299	1357.86
486.755	1285.26
487.212	1078.26
487.668	928.06
488.125	857.16
488.582	776.86
489.038	748.26
489.494	705.86
489.951	689.36
490.407	664.66
490.864	645.66
491.32	643.36
491.776	633.76
492.233	638.06
492.689	609.76
493.145	598.86
493.602	592.26
494.058	603.06
494.514	607.76
494.97	628.96
495.426	637.66
495.882	616.86
496.338	614.06
496.794	619.26
497.251	621.56
497.707	628.96
498.163	631.96
498.618	641.26
499.074	651.76
499.53	675.46
499.986	673.76
500.442	659.46
500.898	622.86
501.354	623.96
501.809	636.46
502.265	643.96
502.721	662.46
503.177	664.56
503.632	665.36
504.088	667.46
504.543	703.26
504.999	702.76
505.455	653.76
505.91	628.86
506.366	625.26
506.821	620.26
507.277	628.96
507.732	623.06
508.187	619.56
508.643	634.96
509.098	629.86
509.553	656.36
510.009	659.66
510.464	664.06
510.919	672.16
511.375	683.46
511.83	707.96
512.285	714.86
512.74	759.36
513.195	777.26
513.65	769.96
514.105	773.16
514.56	774.36
515.015	788.56
515.47	799.66
515.925	790.46
516.38	782.96
516.835	792.36
517.29	780.16
517.745	766.86
518.2	756.56
518.655	752.46
519.109	751.36
519.564	743.46
520.019	727.86
520.474	718.66
520.928	725.56
521.383	712.56
521.838	696.66
522.292	704.86
522.747	708.06
523.201	691.56
523.656	689.26
524.11	695.76
524.565	678.06
525.019	685.16
525.474	690.16
525.928	701.96
526.382	687.96
526.837	686.26
527.291	693.16
527.745	678.86
528.2	686.46
528.654	681.56
529.108	676.56
529.562	683.06
530.016	675.86
530.47	687.26
530.925	682.26
531.379	694.86
531.833	696.96
532.287	698.76
532.741	690.46
533.195	701.26
533.649	703.46
534.103	717.76
534.556	697.56
535.01	712.96
535.464	699.96
535.918	713.46
536.372	721.26
536.826	715.46
537.279	711.36
537.733	705.66
538.187	702.16
538.64	712.06
539.094	719.36
539.548	722.16
540.001	717.26
540.455	710.26
540.908	726.06
541.362	723.36
541.815	737.66
542.269	750.76
542.722	751.96
543.175	764.56
543.629	764.86
544.082	770.96
544.536	771.26
544.989	770.26
545.442	786.46
545.895	779.96
546.349	776.16
546.802	778.66
547.255	779.76
547.708	792.76
548.161	800.46
548.614	803.66
549.067	815.36
549.52	805.56
549.973	795.06
550.426	799.26
550.879	783.06
551.332	774.86
551.785	789.36
552.238	802.76
552.691	807.06
553.144	809.06
553.596	836.66
554.049	855.16
554.502	875.16
554.955	901.06
555.407	895.56
555.86	885.56
556.313	888.16
556.765	871.26
557.218	875.26
557.67	877.56
558.123	861.26
558.576	855.36
559.028	858.06
559.48	867.26
559.933	842.86
560.385	828.46
560.838	801.96
561.29	769.36
561.742	772.66
562.195	750.56
562.647	753.16
563.099	756.46
563.551	750.26
564.004	762.06
564.456	754.06
564.908	746.36
565.36	742.36
565.812	726.46
566.264	713.46
566.716	704.16
567.168	694.56
567.62	708.26
568.072	687.66
568.524	677.36
568.976	666.96
569.428	653.76
569.88	662.96
570.332	661.86
570.784	666.46
571.235	664.06
571.687	679.56
572.139	681.16
572.59	694.76
573.042	707.26
573.494	695.36
573.945	691.16
574.397	671.16
574.849	684.16
575.3	680.36
575.752	663.76
576.203	662.66
576.655	672.56
577.106	649.26
577.557	651.46
578.009	649.96
578.46	650.16
578.912	654.66
579.363	646.76
579.814	652.36
580.265	654.06
580.717	647.36
581.168	657.46
581.619	664.66
582.07	660.16
582.521	652.76
582.972	653.16
583.423	660.46
583.875	656.36
584.326	668.36
584.777	722.16
585.227	798.86
585.678	874.76
586.129	965.06
586.58	1036.06
587.031	1116.26
587.482	1264.26
587.933	1445.86
588.384	1251.06
588.834	933.46
589.285	780.26
589.736	751.46
590.186	749.66
590.637	739.26
591.088	721.96
591.538	715.46
591.989	716.86
592.439	703.56
592.89	692.46
593.34	678.26
593.791	690.26
594.241	686.36
594.692	685.76
595.142	666.36
595.593	679.16
596.043	678.46
596.493	688.36
596.943	689.66
597.394	687.86
597.844	684.46
598.294	703.76
598.744	721.86
599.195	747.96
599.645	786.46
600.095	820.66
600.545	877.76
600.995	929.36
601.445	989.76
601.895	1039.96
602.345	1093.96
602.795	1065.86
603.245	1023.46
603.695	976.16
604.145	923.56
604.594	882.76
605.044	827.76
605.494	772.86
605.944	716.36
606.393	709.16
606.843	701.56
607.293	704.46
607.743	696.26
608.192	708.96
608.642	725.76
609.091	731.96
609.541	733.26
609.99	740.86
610.44	730.56
610.889	687.06
611.339	680.06
611.788	650.46
612.238	666.86
612.687	690.26
613.136	687.26
613.586	696.96
614.035	697.96
614.484	729.06
614.933	721.46
615.383	717.46
615.832	703.86
616.281	694.56
616.73	657.26
617.179	639.56
617.628	620.06
618.077	600.16
618.526	596.06
618.975	579.06
619.424	594.06
619.873	586.56
620.322	590.06
620.771	577.76
621.22	577.96
621.669	564.96
622.118	562.66
622.567	548.36
623.015	547.96
623.464	546.56
623.913	528.46
624.361	524.06
624.81	529.36
625.259	529.56
625.707	530.96
626.156	530.36
626.604	540.86
627.053	534.36
627.501	539.26
627.95	533.66
628.398	552.06
628.847	544.06
629.295	545.96
629.744	545.66
630.192	540.86
630.64	543.66
631.089	538.06
631.537	552.46
631.985	549.86
632.433	568.06
632.881	571.36
633.33	623.06
633.778	600.86
634.226	535.26
634.674	536.26
635.122	545.26
635.57	564.56
636.018	586.86
636.466	549.46
636.914	528.66
637.362	541.36
637.81	533.76
638.258	539.06
638.705	549.06
639.153	569.56
639.601	574.26
640.049	597.86
640.497	632.26
640.944	657.96
641.392	608.86
641.84	581.66
642.287	540.36
642.735	536.46
643.182	530.86
643.63	543.86
644.078	538.96
644.525	549.06
644.973	560.06
645.42	571.36
645.867	582.36
646.315	605.76
646.762	625.26
647.21	648.06
647.657	676.86
648.104	715.46
648.551	718.76
648.999	780.96
649.446	851.26
649.893	956.26
650.34	1084.06
650.787	1299.16
651.234	1619.66
651.682	2114.86
652.129	2881.46
652.576	4112.56
653.023	6104.26
653.47	8360.96
653.917	10542.76
654.363	12272.16
654.81	13693.26
655.257	13020.96
655.704	8516.26
656.151	5033.36
656.598	3244.66
657.044	2297.96
657.491	1764.96
657.938	1411.86
658.385	1176.16
658.831	1009.96
659.278	906.86
659.724	807.86
660.171	738.16
660.618	683.16
661.064	646.76
661.511	622.56
661.957	616.76
662.404	609.86
662.85	611.66
663.296	580.96
663.743	525.16
664.189	505.86
664.635	503.06
665.082	492.96
665.528	487.86
665.974	490.06
666.42	480.86
666.867	465.36
667.313	461.96
667.759	448.96
668.205	442.36
668.651	460.96
669.097	453.36
669.543	463.96
669.989	433.16
670.435	422.26
670.881	415.96
671.327	429.16
671.773	433.46
672.219	452.26
672.665	510.46
673.11	541.06
673.556	586.76
674.002	624.76
674.448	614.26
674.893	516.56
675.339	446.96
675.785	410.26
676.23	399.46
676.676	366.06
677.122	352.16
677.567	348.36
678.013	346.56
678.458	332.66
678.904	328.96
679.349	325.76
679.794	326.16
680.24	330.16
680.685	321.36
681.131	314.86
681.576	329.66
682.021	328.46
682.466	326.56
682.912	317.66
683.357	328.76
683.802	356.36
684.247	386.56
684.692	422.66
685.137	457.56
685.583	509.26
686.028	514.16
686.473	479.96
686.918	417.16
687.363	387.16
687.807	358.56
688.252	340.76
688.697	330.56
689.142	306.26
689.587	305.76
690.032	303.26
690.477	321.96
690.921	315.06
691.366	349.46
691.811	367.46
692.255	402.66
692.7	421.36
693.145	455.46
693.589	634.76
694.034	1017.76
694.478	1418.76
694.923	1619.96
695.367	2119.36
695.812	1108.36
696.256	458.56
696.701	346.46
697.145	319.76
697.59	304.26
698.034	295.56
698.478	300.26
698.922	293.16
699.367	298.96
699.811	311.26
700.255	329.66
700.699	355.16
701.143	390.16
701.588	436.26
702.032	474.26
702.476	477.16
702.92	453.36
703.364	452.36
703.808	573.76
704.252	947.76
704.696	1322.16
705.14	1548.36
705.584	1990.06
706.027	987.26
706.471	485.56
706.915	359.56
707.359	330.76
707.803	303.66
708.246	293.16
708.69	289.06
709.134	289.76
709.577	293.46
710.021	291.66
710.465	282.26
710.908	275.86
711.352	280.26
711.795	290.86
712.239	323.16
712.682	359.56
713.126	388.16
713.569	424.16
714.012	340.06
714.456	290.06
714.899	269.06
715.342	258.56
715.786	241.06
716.229	245.56
716.672	235.36
717.115	228.56
717.558	232.86
718.002	230.36
718.445	247.16
718.888	262.16
719.331	273.06
719.774	288.56
720.217	282.56
720.66	260.46
721.103	243.66
721.546	235.16
721.989	230.86
722.432	218.66
722.874	218.86
723.317	212.86
723.76	220.16
724.203	237.16
724.645	287.06
725.088	408.46
725.531	519.76
725.974	596.36
726.416	508.36
726.859	286.26
727.301	224.46
727.744	218.76
728.187	218.76
728.629	213.16
729.071	222.26
729.514	232.16
729.956	247.46
730.399	260.26
730.841	266.06
731.283	246.96
731.726	245.76
732.168	242.56
732.61	241.36
733.053	261.76
733.495	285.36
733.937	320.46
734.379	355.46
734.821	387.96
735.263	493.06
735.705	749.46
736.148	1418.36
736.59	2351.96
737.032	2851.86
737.474	2323.76
737.916	752.46
738.357	385.66
738.799	296.16
739.241	272.76
739.683	261.46
740.125	274.16
740.567	274.16
741.008	293.16
741.45	296.66
741.892	292.66
742.334	321.46
742.775	326.76
743.217	314.36
743.658	241.76
744.1	231.96
744.542	237.86
744.983	291.66
745.425	312.16
745.866	316.96
746.307	265.86
746.749	257.46
747.19	293.36
747.632	408.46
748.073	771.46
748.514	1673.46
748.956	2605.66
749.397	3264.26
749.838	2725.86
750.279	2752.46
750.72	1386.16
751.162	495.36
751.603	293.86
752.044	230.96
752.485	196.36
752.926	193.16
753.367	188.86
753.808	173.76
754.249	171.26
754.69	172.96
755.131	167.26
755.572	162.36
756.013	163.96
756.453	165.76
756.894	175.56
757.335	174.16
757.776	179.06
758.216	182.26
758.657	178.66
759.098	187.46
759.538	208.06
759.979	244.26
760.42	339.96
760.86	633.96
761.301	1602.76
761.741	3970.16
762.182	5994.16
762.622	4242.06
