Data from 20171114-ORNL-Ar_H_NY_Subt18_08-08-09-924.txt Node
Date: Tue Nov 14 08:08:09 EST 2017
User: Ender
Spectrometer: HR+D1039
Trigger mode: 0
Integration Time (sec): 2.730000E-2
Scans to average: 10
Electric dark correction enabled: true
Nonlinearity correction enabled: false
Boxcar width: 0
XAxis mode: Wavelengths
Number of Pixels in Spectrum: 2048
>>>>>Begin Spectral Data<<<<<
187.836	-0.86
188.309	-0.86
188.782	-0.86
189.255	-1.76
189.728	1.24
190.201	9.14
190.674	2.74
191.147	1.44
191.619	-7.26
192.092	-1.86
192.565	3.24
193.038	1.34
193.511	-5.16
193.984	0.84
194.456	-0.36
194.929	-1.16
195.402	-2.46
195.874	0.94
196.347	3.74
196.82	-7.76
197.292	11.94
197.765	5.14
198.237	-3.46
198.71	0.64
199.182	3.84
199.655	7.04
200.127	-0.06
200.6	0.44
201.072	-0.46
201.544	-4.86
202.017	-4.06
202.489	1.14
202.961	-4.36
203.433	-1.16
203.906	-1.86
204.378	-2.26
204.85	-6.76
205.322	-5.36
205.794	0.14
206.266	-5.86
206.739	-8.66
207.211	-2.16
207.683	-9.36
208.155	-5.26
208.627	-5.56
209.099	-4.06
209.57	-5.96
210.042	-1.96
210.514	-5.36
210.986	-1.76
211.458	-6.46
211.93	-3.76
212.402	8.54
212.873	-4.96
213.345	-8.86
213.817	-10.96
214.288	0.94
214.76	-11.76
215.232	-6.06
215.703	-6.86
216.175	-3.36
216.646	-4.66
217.118	-7.56
217.589	-4.96
218.061	-2.36
218.532	1.14
219.004	-4.96
219.475	-7.06
219.946	-3.46
220.418	-6.46
220.889	7.14
221.36	3.14
221.832	-1.56
222.303	-7.96
222.774	2.84
223.245	-4.66
223.717	-6.26
224.188	-5.36
224.659	-8.06
225.13	-7.66
225.601	3.34
226.072	0.24
226.543	6.64
227.014	3.44
227.485	1.94
227.956	-3.06
228.427	-2.46
228.898	5.74
229.369	0.74
229.839	-1.96
230.31	-2.96
230.781	0.64
231.252	-3.76
231.722	-4.96
232.193	-1.46
232.664	-3.76
233.135	-2.76
233.605	-3.16
234.076	-1.36
234.546	-0.36
235.017	1.04
235.487	-2.76
235.958	-1.56
236.428	-5.06
236.899	-0.86
237.369	0.64
237.84	0.24
238.31	9.94
238.78	-0.66
239.251	-2.36
239.721	4.14
240.191	0.64
240.662	4.54
241.132	6.54
241.602	-1.76
242.072	-1.06
242.542	8.44
243.013	-1.46
243.483	2.94
243.953	3.74
244.423	1.64
244.893	-1.16
245.363	10.14
245.833	1.64
246.303	-0.66
246.773	4.94
247.243	3.14
247.712	2.54
248.182	5.14
248.652	6.84
249.122	3.34
249.592	9.44
250.061	21.54
250.531	28.54
251.001	14.84
251.471	20.44
251.94	13.94
252.41	4.84
252.879	2.44
253.349	15.24
253.818	5.74
254.288	3.44
254.757	4.64
255.227	4.44
255.696	5.24
256.166	11.24
256.635	4.24
257.105	5.74
257.574	5.94
258.043	5.04
258.513	9.04
258.982	14.74
259.451	5.84
259.92	13.24
260.389	13.74
260.859	12.84
261.328	11.24
261.797	15.94
262.266	9.94
262.735	9.44
263.204	7.84
263.673	2.04
264.142	0.94
264.611	-6.86
265.08	-0.16
265.549	0.24
266.018	2.14
266.487	-2.06
266.955	5.34
267.424	4.54
267.893	8.74
268.362	3.94
268.83	5.84
269.299	11.14
269.768	9.34
270.236	4.94
270.705	1.84
271.174	5.84
271.642	7.24
272.111	10.04
272.579	14.24
273.048	18.94
273.516	28.04
273.985	21.34
274.453	22.94
274.922	24.24
275.39	11.44
275.858	4.04
276.327	12.04
276.795	13.34
277.263	12.64
277.731	31.14
278.2	57.64
278.668	57.34
279.136	46.44
279.604	17.84
280.072	11.84
280.54	13.14
281.008	6.04
281.477	17.44
281.945	13.14
282.413	12.94
282.881	12.04
283.348	14.74
283.816	13.94
284.284	10.64
284.752	25.54
285.22	17.94
285.688	18.34
286.156	19.24
286.623	46.64
287.091	49.24
287.559	24.64
288.026	12.14
288.494	16.24
288.962	5.84
289.429	9.64
289.897	17.44
290.364	17.24
290.832	13.14
291.3	10.84
291.767	14.14
292.234	11.44
292.702	13.64
293.169	15.14
293.637	22.04
294.104	21.14
294.571	7.84
295.039	4.74
295.506	18.34
295.973	18.64
296.44	18.54
296.908	16.14
297.375	11.54
297.842	18.64
298.309	14.74
298.776	11.04
299.243	22.04
299.71	13.14
300.177	19.74
300.644	22.54
301.111	18.14
301.578	25.94
302.045	18.14
302.512	18.44
302.979	26.54
303.446	16.94
303.913	19.74
304.379	19.34
304.846	24.54
305.313	21.74
305.78	21.84
306.246	25.94
306.713	24.74
307.18	26.44
307.646	32.84
308.113	31.94
308.579	21.24
309.046	21.94
309.512	20.24
309.979	16.64
310.445	24.14
310.912	25.84
311.378	30.14
311.845	32.24
312.311	30.64
312.777	31.14
313.244	28.44
313.71	40.54
314.176	28.94
314.642	31.24
315.109	31.84
315.575	35.14
316.041	37.54
316.507	34.04
316.973	34.04
317.439	34.44
317.905	26.74
318.371	38.84
318.837	30.74
319.303	35.04
319.769	35.44
320.235	33.84
320.701	37.94
321.167	38.24
321.633	33.24
322.099	35.44
322.564	48.64
323.03	42.24
323.496	31.54
323.962	38.44
324.427	32.14
324.893	41.24
325.359	42.34
325.824	36.94
326.29	37.94
326.755	37.94
327.221	36.84
327.686	36.84
328.152	41.74
328.617	37.04
329.083	44.44
329.548	51.94
330.014	52.94
330.479	33.94
330.944	36.04
331.41	37.64
331.875	45.74
332.34	46.14
332.805	41.74
333.271	39.94
333.736	42.54
334.201	49.94
334.666	46.24
335.131	54.84
335.596	48.24
336.061	45.94
336.526	42.14
336.991	48.54
337.456	52.74
337.921	45.14
338.386	38.74
338.851	46.94
339.316	45.34
339.781	39.64
340.246	46.44
340.711	43.94
341.175	49.74
341.64	48.64
342.105	55.84
342.569	47.94
343.034	56.94
343.499	52.24
343.963	54.94
344.428	57.04
344.893	59.04
345.357	63.94
345.822	64.34
346.286	64.14
346.751	68.14
347.215	70.34
347.679	77.84
348.144	96.64
348.608	87.04
349.073	72.04
349.537	72.44
350.001	75.64
350.465	88.84
350.93	78.84
351.394	79.34
351.858	68.94
352.322	86.64
352.786	81.04
353.25	99.14
353.715	110.24
354.179	97.34
354.643	121.34
355.107	125.54
355.571	106.14
356.035	101.04
356.498	114.34
356.962	120.64
357.426	129.24
357.89	118.54
358.354	80.54
358.818	84.14
359.281	76.74
359.745	79.04
360.209	72.94
360.673	74.64
361.136	73.24
361.6	82.84
362.064	92.14
362.527	80.14
362.991	87.84
363.454	77.04
363.918	71.94
364.381	76.84
364.845	80.04
365.308	79.74
365.772	84.54
366.235	86.24
366.698	77.84
367.162	84.34
367.625	84.74
368.088	88.94
368.552	91.04
369.015	84.04
369.478	95.14
369.941	101.94
370.404	93.94
370.867	108.64
371.331	111.34
371.794	114.84
372.257	111.64
372.72	116.54
373.183	109.34
373.646	112.54
374.109	102.54
374.572	107.54
375.035	110.84
375.497	115.14
375.96	109.04
376.423	100.24
376.886	113.64
377.349	106.34
377.811	99.34
378.274	104.84
378.737	105.54
379.199	115.34
379.662	111.34
380.125	120.24
380.587	116.64
381.05	122.94
381.512	130.74
381.975	135.24
382.437	128.74
382.9	124.24
383.362	131.34
383.825	142.64
384.287	151.14
384.75	141.34
385.212	143.84
385.674	139.84
386.136	133.84
386.599	124.24
387.061	136.84
387.523	133.14
387.985	142.54
388.447	142.34
388.91	141.24
389.372	161.54
389.834	156.34
390.296	149.44
390.758	155.24
391.22	168.04
391.682	226.74
392.144	320.84
392.606	243.54
393.068	170.54
393.529	174.94
393.991	155.14
394.453	152.54
394.915	158.84
395.377	200.04
395.838	225.84
396.3	154.14
396.762	143.04
397.224	130.44
397.685	125.34
398.147	136.74
398.608	133.04
399.07	131.14
399.531	141.74
399.993	141.34
400.454	152.94
400.916	146.84
401.377	137.14
401.839	150.64
402.3	157.64
402.762	164.74
403.223	186.84
403.684	171.14
404.145	159.54
404.607	157.64
405.068	166.14
405.529	165.34
405.99	190.14
406.451	176.74
406.913	169.84
407.374	165.14
407.835	166.44
408.296	164.54
408.757	177.74
409.218	187.44
409.679	177.24
410.14	174.94
410.601	181.04
411.062	186.94
411.522	190.74
411.983	195.74
412.444	179.04
412.905	177.24
413.366	177.94
413.826	189.94
414.287	216.84
414.748	256.94
415.208	244.84
415.669	207.94
416.13	206.14
416.59	204.04
417.051	217.54
417.511	218.74
417.972	233.24
418.432	248.24
418.893	284.14
419.353	246.74
419.814	190.04
420.274	182.64
420.734	176.84
421.195	200.94
421.655	197.34
422.115	194.14
422.576	188.54
423.036	193.94
423.496	209.14
423.956	213.64
424.416	232.64
424.876	264.24
425.336	256.64
425.797	262.74
426.257	252.24
426.717	240.34
427.177	228.94
427.637	222.54
428.097	240.24
428.556	250.34
429.016	274.84
429.476	269.44
429.936	272.44
430.396	275.84
430.856	295.74
431.315	320.14
431.775	358.94
432.235	378.34
432.694	352.64
433.154	364.54
433.614	403.74
434.073	342.44
434.533	288.14
434.993	275.74
435.452	286.34
435.912	296.34
436.371	296.64
436.83	286.14
437.29	272.84
437.749	244.44
438.209	248.64
438.668	272.54
439.127	293.74
439.587	264.04
440.046	250.14
440.505	261.24
440.964	279.44
441.424	324.94
441.883	310.74
442.342	256.54
442.801	226.04
443.26	222.94
443.719	217.54
444.178	224.14
444.637	218.84
445.096	220.14
445.555	227.24
446.014	226.94
446.473	225.04
446.932	238.04
447.391	229.94
447.849	224.14
448.308	219.84
448.767	222.54
449.226	232.64
449.685	230.54
450.143	246.74
450.602	230.44
451.061	222.04
451.519	227.74
451.978	231.34
452.436	232.64
452.895	239.94
453.353	249.84
453.812	244.14
454.27	241.44
454.729	236.24
455.187	241.84
455.646	243.14
456.104	239.34
456.562	254.24
457.021	267.34
457.479	259.74
457.937	276.54
458.395	263.84
458.854	248.54
459.312	254.94
459.77	277.14
460.228	257.04
460.686	244.14
461.144	247.44
461.602	247.34
462.06	251.24
462.518	257.74
462.976	249.74
463.434	254.64
463.892	265.74
464.35	274.94
464.808	285.34
465.266	264.14
465.724	260.54
466.181	268.44
466.639	264.14
467.097	283.54
467.555	289.54
468.012	300.24
468.47	307.34
468.928	326.04
469.385	335.84
469.843	344.44
470.3	345.04
470.758	358.94
471.215	381.04
471.673	403.34
472.13	403.04
472.588	421.24
473.045	376.74
473.503	372.24
473.96	389.54
474.417	404.54
474.875	428.14
475.332	472.54
475.789	457.14
476.246	462.04
476.704	480.74
477.161	501.74
477.618	526.64
478.075	557.24
478.532	602.64
478.989	688.84
479.446	797.24
479.903	768.04
480.36	806.64
480.817	858.04
481.274	958.64
481.731	1059.94
482.188	1155.24
482.645	1288.74
483.102	1396.84
483.558	1544.04
484.015	1572.54
484.472	1572.54
484.929	1516.54
485.385	1463.44
485.842	1421.14
486.299	1349.14
486.755	1291.94
487.212	1080.44
487.668	919.34
488.125	840.14
488.582	761.64
489.038	731.14
489.494	705.84
489.951	672.84
490.407	668.94
490.864	634.94
491.32	631.84
491.776	635.44
492.233	634.64
492.689	603.94
493.145	591.64
493.602	588.84
494.058	599.84
494.514	610.64
494.97	624.14
495.426	635.44
495.882	616.14
496.338	603.54
496.794	608.14
497.251	598.94
497.707	612.04
498.163	625.44
498.618	624.44
499.074	630.54
499.53	659.04
499.986	670.94
500.442	641.04
500.898	623.24
501.354	617.14
501.809	629.54
502.265	624.74
502.721	652.54
503.177	663.44
503.632	653.14
504.088	676.04
504.543	702.94
504.999	706.04
505.455	638.84
505.91	613.44
506.366	618.24
506.821	618.84
507.277	609.64
507.732	603.94
508.187	613.14
508.643	626.04
509.098	618.44
509.553	642.54
510.009	657.14
510.464	638.94
510.919	667.74
511.375	671.94
511.83	691.74
512.285	705.24
512.74	740.04
513.195	767.64
513.65	749.54
514.105	747.04
514.56	754.14
515.015	776.54
515.47	783.74
515.925	775.04
516.38	775.14
516.835	769.94
517.29	769.14
517.745	759.74
518.2	742.24
518.655	725.54
519.109	720.14
519.564	718.54
520.019	703.44
520.474	711.54
520.928	719.94
521.383	704.34
521.838	685.04
522.292	689.94
522.747	700.44
523.201	682.54
523.656	679.84
524.11	674.54
524.565	691.24
525.019	673.64
525.474	692.44
525.928	687.24
526.382	679.74
526.837	677.44
527.291	683.24
527.745	674.04
528.2	678.04
528.654	678.64
529.108	667.44
529.562	673.34
530.016	671.34
530.47	672.44
530.925	687.94
531.379	685.24
531.833	681.64
532.287	678.84
532.741	686.14
533.195	692.04
533.649	690.74
534.103	698.94
534.556	688.24
535.01	687.54
535.464	688.54
535.918	694.44
536.372	705.44
536.826	704.64
537.279	695.84
537.733	699.04
538.187	699.34
538.64	694.04
539.094	702.14
539.548	707.04
540.001	700.54
540.455	712.14
540.908	701.04
541.362	720.34
541.815	736.94
542.269	741.94
542.722	745.84
543.175	750.24
543.629	754.34
544.082	770.34
544.536	772.74
544.989	761.24
545.442	783.64
545.895	776.24
546.349	767.44
546.802	765.94
547.255	779.44
547.708	790.34
548.161	797.54
548.614	809.04
549.067	798.94
549.52	794.34
549.973	794.74
550.426	794.24
550.879	774.54
551.332	777.34
551.785	788.94
552.238	782.14
552.691	804.24
553.144	808.94
553.596	823.54
554.049	834.84
554.502	873.64
554.955	887.34
555.407	886.44
555.86	867.64
556.313	871.94
556.765	861.84
557.218	856.44
557.67	869.84
558.123	855.74
558.576	846.64
559.028	854.74
559.48	861.84
559.933	854.14
560.385	820.94
560.838	791.24
561.29	759.14
561.742	767.24
562.195	747.44
562.647	752.04
563.099	765.04
563.551	763.74
564.004	771.44
564.456	754.54
564.908	741.04
565.36	726.24
565.812	712.54
566.264	713.94
566.716	709.74
567.168	704.24
567.62	719.24
568.072	702.54
568.524	688.54
568.976	680.14
569.428	659.14
569.88	658.94
570.332	667.24
570.784	670.04
571.235	668.54
571.687	684.84
572.139	683.14
572.59	698.64
573.042	691.84
573.494	699.24
573.945	681.04
574.397	669.54
574.849	670.04
575.3	668.34
575.752	668.84
576.203	661.54
576.655	668.84
577.106	659.04
577.557	653.64
578.009	660.04
578.46	651.24
578.912	654.54
579.363	651.74
579.814	648.44
580.265	644.94
580.717	647.14
581.168	647.14
581.619	667.14
582.07	673.84
582.521	657.14
582.972	656.44
583.423	669.34
583.875	670.04
584.326	688.24
584.777	745.44
585.227	834.34
585.678	917.04
586.129	1020.24
586.58	1094.24
587.031	1192.74
587.482	1354.14
587.933	1544.94
588.384	1337.24
588.834	985.74
589.285	790.84
589.736	775.24
590.186	769.24
590.637	746.54
591.088	727.34
591.538	728.54
591.989	714.84
592.439	709.04
592.89	710.34
593.34	685.54
593.791	697.04
594.241	697.44
594.692	693.74
595.142	694.74
595.593	684.24
596.043	691.24
596.493	694.94
596.943	701.54
597.394	710.44
597.844	697.94
598.294	720.64
598.744	739.84
599.195	773.84
599.645	798.24
600.095	849.24
600.545	887.74
600.995	958.24
601.445	1009.94
601.895	1059.34
602.345	1100.14
602.795	1075.34
603.245	1045.24
603.695	986.14
604.145	937.24
604.594	884.04
605.044	837.64
605.494	776.44
605.944	744.14
606.393	714.54
606.843	713.64
607.293	728.34
607.743	730.04
608.192	733.94
608.642	750.34
609.091	755.04
609.541	767.84
609.99	756.74
610.44	756.74
610.889	707.14
611.339	695.64
611.788	683.14
612.238	698.54
612.687	702.84
613.136	714.74
613.586	728.04
614.035	726.34
614.484	751.84
614.933	752.54
615.383	748.54
615.832	733.44
616.281	717.94
616.73	676.34
617.179	657.34
617.628	649.04
618.077	625.04
618.526	610.24
618.975	608.34
619.424	597.84
619.873	605.84
620.322	607.14
620.771	596.74
621.22	598.64
621.669	578.64
622.118	573.14
622.567	578.74
623.015	563.64
623.464	568.84
623.913	551.64
624.361	544.34
624.81	542.64
625.259	542.74
625.707	541.84
626.156	548.64
626.604	565.54
627.053	548.44
627.501	556.04
627.95	564.44
628.398	571.34
628.847	562.04
629.295	562.84
629.744	554.14
630.192	566.64
630.64	561.54
631.089	565.04
631.537	581.84
631.985	584.84
632.433	604.04
632.881	601.54
633.33	667.94
633.778	640.44
634.226	558.74
634.674	567.24
635.122	580.04
635.57	593.54
636.018	617.74
636.466	572.54
636.914	548.14
637.362	561.94
637.81	574.44
638.258	568.64
638.705	573.94
639.153	603.04
639.601	615.24
640.049	630.44
640.497	657.44
640.944	688.14
641.392	627.64
641.84	606.64
642.287	574.54
642.735	557.14
643.182	570.14
643.63	574.64
644.078	564.84
644.525	580.74
644.973	596.04
645.42	594.44
645.867	617.34
646.315	632.74
646.762	661.94
647.21	682.74
647.657	709.74
648.104	740.04
648.551	765.84
648.999	831.64
649.446	912.34
649.893	1001.24
650.34	1166.24
650.787	1403.54
651.234	1735.24
651.682	2282.04
652.129	3128.74
652.576	4516.34
653.023	6678.24
653.47	9145.24
653.917	11353.34
654.363	12993.54
654.81	14316.14
655.257	13647.74
655.704	8949.54
656.151	5238.14
656.598	3403.54
657.044	2411.44
657.491	1858.44
657.938	1471.14
658.385	1233.34
658.831	1081.24
659.278	944.14
659.724	841.94
660.171	780.24
660.618	714.84
661.064	682.34
661.511	659.94
661.957	652.64
662.404	649.64
662.85	639.44
663.296	628.64
663.743	553.24
664.189	537.44
664.635	530.64
665.082	518.14
665.528	526.54
665.974	515.44
666.42	507.24
666.867	498.14
667.313	481.74
667.759	472.64
668.205	474.54
668.651	488.14
669.097	492.14
669.543	509.34
669.989	474.14
670.435	446.44
670.881	432.24
671.327	439.54
671.773	465.94
672.219	485.04
672.665	543.64
673.11	570.54
673.556	619.64
674.002	656.54
674.448	646.54
674.893	528.84
675.339	476.14
675.785	427.94
676.23	406.74
676.676	391.54
677.122	377.04
677.567	367.94
678.013	366.94
678.458	355.44
678.904	363.24
679.349	338.44
679.794	339.84
680.24	342.54
680.685	351.44
681.131	346.34
681.576	341.34
682.021	346.44
682.466	346.14
682.912	345.04
683.357	353.24
683.802	379.54
684.247	410.64
684.692	458.34
685.137	484.14
685.583	526.44
686.028	547.64
686.473	507.34
686.918	443.24
687.363	414.44
687.807	386.44
688.252	362.34
688.697	349.54
689.142	329.54
689.587	331.94
690.032	319.94
690.477	337.74
690.921	345.74
691.366	382.74
691.811	393.34
692.255	423.44
692.7	449.74
693.145	496.44
693.589	711.64
694.034	1125.34
694.478	1524.04
694.923	1697.74
695.367	2179.44
695.812	1163.84
696.256	489.44
696.701	364.54
697.145	339.14
697.59	329.74
698.034	312.64
698.478	331.34
698.922	318.24
699.367	330.14
699.811	338.54
700.255	354.24
700.699	378.34
701.143	421.34
701.588	472.14
702.032	498.34
702.476	500.94
702.92	479.44
703.364	486.34
703.808	642.74
704.252	1044.74
704.696	1431.94
705.14	1617.54
705.584	2060.44
706.027	1034.14
706.471	510.04
706.915	381.34
707.359	343.14
707.803	314.94
708.246	298.34
708.69	306.24
709.134	307.54
709.577	307.14
710.021	317.84
710.465	304.74
710.908	295.24
711.352	291.84
711.795	306.84
712.239	356.94
712.682	377.74
713.126	403.94
713.569	462.34
714.012	364.24
714.456	317.74
714.899	289.14
715.342	269.94
715.786	261.94
716.229	246.44
716.672	250.04
717.115	245.94
717.558	249.34
718.002	254.84
718.445	262.04
718.888	286.84
719.331	288.64
719.774	301.74
720.217	297.64
720.66	277.24
721.103	259.44
721.546	244.94
721.989	244.04
722.432	233.34
722.874	236.14
723.317	232.94
723.76	228.04
724.203	249.44
724.645	323.74
725.088	442.74
725.531	561.44
725.974	632.84
726.416	534.94
726.859	311.84
727.301	244.94
727.744	231.94
728.187	233.24
728.629	239.24
729.071	246.64
729.514	259.24
729.956	270.04
730.399	283.14
730.841	286.74
731.283	271.94
731.726	263.24
732.168	265.04
732.61	260.14
733.053	284.54
733.495	314.34
733.937	349.54
734.379	397.84
734.821	433.14
735.263	548.84
735.705	846.74
736.148	1578.84
736.59	2532.24
737.032	2944.54
737.474	2391.84
737.916	791.74
738.357	433.14
738.799	316.54
739.241	295.44
739.683	284.04
740.125	289.94
740.567	300.74
741.008	311.84
741.45	311.54
741.892	305.64
742.334	339.84
742.775	346.04
743.217	335.44
743.658	271.24
744.1	248.24
744.542	248.14
744.983	305.34
745.425	337.04
745.866	343.34
746.307	283.84
746.749	279.54
747.19	319.34
747.632	459.04
748.073	897.94
748.514	1878.54
748.956	2795.54
749.397	3505.04
749.838	2896.64
750.279	2860.44
750.72	1454.94
751.162	525.74
751.603	315.34
752.044	256.14
752.485	218.04
752.926	207.54
753.367	195.94
753.808	187.04
754.249	188.54
754.69	186.34
755.131	181.24
755.572	184.94
756.013	178.34
756.453	187.84
756.894	185.44
757.335	194.84
757.776	199.44
758.216	192.44
758.657	193.84
759.098	207.94
759.538	229.44
759.979	268.24
760.42	377.94
760.86	713.44
761.301	1847.74
761.741	4396.94
762.182	6184.74
762.622	4328.94
