Data from 20171114-ORNL-Ar_H_NY_Subt18_08-03-55-784.txt Node
Date: Tue Nov 14 08:03:55 EST 2017
User: Ender
Spectrometer: HR+D1039
Trigger mode: 0
Integration Time (sec): 2.730000E-2
Scans to average: 10
Electric dark correction enabled: true
Nonlinearity correction enabled: false
Boxcar width: 0
XAxis mode: Wavelengths
Number of Pixels in Spectrum: 2048
>>>>>Begin Spectral Data<<<<<
187.836	-4.49
188.309	-4.49
188.782	-4.49
189.255	-0.29
189.728	-0.89
190.201	2.81
190.674	1.21
191.147	5.11
191.619	-4.49
192.092	1.81
192.565	5.41
193.038	1.31
193.511	-0.69
193.984	-4.59
194.456	-1.59
194.929	3.31
195.402	-4.99
195.874	1.01
196.347	-4.29
196.82	-7.29
197.292	3.81
197.765	-3.49
198.237	-5.79
198.71	-0.89
199.182	-8.39
199.655	-0.39
200.127	1.31
200.6	0.61
201.072	-3.89
201.544	-5.79
202.017	-5.29
202.489	-2.79
202.961	-2.89
203.433	-1.49
203.906	-4.29
204.378	-7.39
204.85	-5.49
205.322	-4.59
205.794	-4.19
206.266	-8.79
206.739	-4.69
207.211	2.51
207.683	-9.89
208.155	-5.19
208.627	-8.39
209.099	-4.89
209.57	-13.19
210.042	-7.59
210.514	0.41
210.986	-4.39
211.458	-12.59
211.93	-3.39
212.402	3.21
212.873	-5.29
213.345	-10.89
213.817	-13.09
214.288	-5.79
214.76	-11.29
215.232	-4.99
215.703	-5.39
216.175	-7.59
216.646	-2.39
217.118	-5.89
217.589	-4.39
218.061	-0.89
218.532	-6.39
219.004	-1.29
219.475	-3.99
219.946	-2.69
220.418	-7.49
220.889	0.61
221.36	-0.89
221.832	-12.09
222.303	-13.09
222.774	-2.39
223.245	-10.59
223.717	-3.69
224.188	-7.69
224.659	-10.79
225.13	-10.99
225.601	-6.49
226.072	-1.59
226.543	-2.89
227.014	0.01
227.485	-2.99
227.956	-10.69
228.427	-4.79
228.898	-3.19
229.369	-2.29
229.839	-1.99
230.31	-7.99
230.781	4.71
231.252	-9.79
231.722	-4.69
232.193	-8.49
232.664	1.51
233.135	0.01
233.605	-6.29
234.076	-8.59
234.546	-5.19
235.017	-0.29
235.487	-2.09
235.958	-4.99
236.428	0.01
236.899	-3.59
237.369	-6.39
237.84	-8.09
238.31	2.91
238.78	0.81
239.251	-6.79
239.721	-2.59
240.191	-5.19
240.662	-3.99
241.132	-2.39
241.602	-2.39
242.072	-2.29
242.542	3.01
243.013	-2.89
243.483	-3.49
243.953	3.51
244.423	-7.09
244.893	-2.49
245.363	2.51
245.833	-4.19
246.303	-8.09
246.773	-0.09
247.243	-3.09
247.712	-2.99
248.182	0.71
248.652	0.91
249.122	-4.49
249.592	-6.39
250.061	1.01
250.531	10.81
251.001	-8.39
251.471	1.61
251.94	5.91
252.41	-9.99
252.879	-7.09
253.349	5.41
253.818	7.31
254.288	-0.99
254.757	-4.49
255.227	-7.59
255.696	-3.59
256.166	-0.09
256.635	-1.59
257.105	1.61
257.574	-2.89
258.043	0.61
258.513	-6.69
258.982	-0.89
259.451	-1.69
259.92	0.31
260.389	0.71
260.859	3.81
261.328	-3.69
261.797	-0.79
262.266	3.11
262.735	3.01
263.204	-0.79
263.673	-1.79
264.142	4.71
264.611	-4.49
265.08	-7.79
265.549	-6.69
266.018	7.61
266.487	-8.49
266.955	-4.79
267.424	-7.19
267.893	5.01
268.362	-0.89
268.83	0.11
269.299	8.21
269.768	0.71
270.236	2.81
270.705	-4.89
271.174	-1.39
271.642	-2.39
272.111	3.01
272.579	6.81
273.048	-1.49
273.516	-0.59
273.985	-2.09
274.453	1.61
274.922	8.51
275.39	5.71
275.858	-5.49
276.327	6.61
276.795	13.41
277.263	3.61
277.731	2.01
278.2	2.71
278.668	2.81
279.136	2.11
279.604	1.51
280.072	5.01
280.54	0.11
281.008	-0.09
281.477	6.41
281.945	2.61
282.413	7.31
282.881	6.91
283.348	0.91
283.816	4.21
284.284	5.91
284.752	20.41
285.22	8.01
285.688	9.21
286.156	5.91
286.623	11.21
287.091	6.61
287.559	14.31
288.026	11.11
288.494	5.11
288.962	-3.89
289.429	-0.39
289.897	12.11
290.364	4.11
290.832	6.31
291.3	9.91
291.767	12.51
292.234	10.11
292.702	0.71
293.169	5.91
293.637	17.41
294.104	9.91
294.571	-4.79
295.039	-1.29
295.506	2.51
295.973	16.01
296.44	3.41
296.908	9.01
297.375	6.21
297.842	13.91
298.309	4.11
298.776	6.21
299.243	5.51
299.71	1.11
300.177	17.41
300.644	9.91
301.111	10.41
301.578	12.71
302.045	13.71
302.512	16.31
302.979	17.61
303.446	13.01
303.913	7.91
304.379	12.61
304.846	15.41
305.313	20.51
305.78	6.41
306.246	17.91
306.713	14.01
307.18	22.81
307.646	17.21
308.113	15.31
308.579	20.41
309.046	9.81
309.512	15.61
309.979	8.71
310.445	13.11
310.912	17.11
311.378	23.41
311.845	22.51
312.311	20.11
312.777	23.61
313.244	23.31
313.71	27.11
314.176	18.91
314.642	19.01
315.109	19.01
315.575	24.31
316.041	26.21
316.507	25.21
316.973	24.81
317.439	20.91
317.905	24.01
318.371	25.01
318.837	26.61
319.303	23.41
319.769	22.41
320.235	23.61
320.701	29.41
321.167	29.11
321.633	24.41
322.099	24.01
322.564	32.31
323.03	31.81
323.496	27.41
323.962	26.21
324.427	24.31
324.893	28.71
325.359	23.41
325.824	26.81
326.29	29.41
326.755	25.81
327.221	28.01
327.686	36.81
328.152	35.21
328.617	29.61
329.083	33.81
329.548	39.71
330.014	38.11
330.479	27.71
330.944	30.61
331.41	29.91
331.875	39.11
332.34	37.11
332.805	34.51
333.271	29.51
333.736	31.91
334.201	46.21
334.666	41.51
335.131	42.21
335.596	42.91
336.061	39.41
336.526	29.01
336.991	39.31
337.456	47.21
337.921	35.61
338.386	34.11
338.851	35.61
339.316	34.41
339.781	39.41
340.246	41.91
340.711	33.31
341.175	41.41
341.64	33.81
342.105	42.51
342.569	48.51
343.034	51.61
343.499	45.81
343.963	43.41
344.428	54.61
344.893	47.21
345.357	42.51
345.822	47.11
346.286	52.21
346.751	56.31
347.215	55.21
347.679	64.11
348.144	73.61
348.608	64.71
349.073	59.31
349.537	61.21
350.001	67.71
350.465	71.21
350.93	65.61
351.394	67.01
351.858	59.61
352.322	74.61
352.786	69.71
353.25	77.61
353.715	87.41
354.179	77.91
354.643	87.91
355.107	90.61
355.571	80.41
356.035	78.31
356.498	89.01
356.962	92.01
357.426	90.81
357.89	88.41
358.354	82.61
358.818	75.91
359.281	66.61
359.745	64.61
360.209	65.11
360.673	63.01
361.136	65.01
361.6	78.71
362.064	68.51
362.527	71.21
362.991	77.21
363.454	70.61
363.918	67.81
364.381	72.51
364.845	73.61
365.308	73.81
365.772	69.51
366.235	79.31
366.698	76.21
367.162	74.91
367.625	74.21
368.088	75.91
368.552	75.81
369.015	83.01
369.478	84.41
369.941	87.21
370.404	78.91
370.867	94.91
371.331	90.51
371.794	101.11
372.257	88.21
372.72	95.61
373.183	96.41
373.646	86.21
374.109	82.71
374.572	87.91
375.035	91.71
375.497	99.11
375.96	90.81
376.423	91.21
376.886	99.71
377.349	96.91
377.811	94.81
378.274	88.61
378.737	96.11
379.199	95.01
379.662	100.61
380.125	100.01
380.587	100.11
381.05	105.11
381.512	106.01
381.975	111.61
382.437	105.61
382.9	108.81
383.362	112.81
383.825	112.61
384.287	119.91
384.75	112.81
385.212	116.11
385.674	118.61
386.136	122.61
386.599	110.11
387.061	116.81
387.523	112.31
387.985	116.71
388.447	117.61
388.91	115.81
389.372	122.61
389.834	122.31
390.296	111.31
390.758	123.21
391.22	123.71
391.682	132.61
392.144	128.51
392.606	131.81
393.068	131.61
393.529	146.51
393.991	135.21
394.453	122.41
394.915	123.61
395.377	122.71
395.838	128.31
396.3	126.71
396.762	130.71
397.224	124.91
397.685	129.21
398.147	124.11
398.608	124.21
399.07	128.41
399.531	130.21
399.993	140.21
400.454	143.71
400.916	147.21
401.377	134.41
401.839	142.61
402.3	150.61
402.762	158.91
403.223	172.71
403.684	159.41
404.145	153.41
404.607	154.61
405.068	154.71
405.529	158.71
405.99	162.41
406.451	159.81
406.913	167.21
407.374	162.91
407.835	154.21
408.296	157.41
408.757	162.51
409.218	164.41
409.679	161.21
410.14	166.51
410.601	158.11
411.062	175.21
411.522	168.71
411.983	164.21
412.444	166.81
412.905	176.41
413.366	177.61
413.826	195.01
414.287	215.81
414.748	263.51
415.208	247.51
415.669	210.31
416.13	204.21
416.59	199.01
417.051	213.71
417.511	219.21
417.972	245.71
418.432	246.21
418.893	297.51
419.353	258.21
419.814	199.11
420.274	187.11
420.734	176.01
421.195	189.31
421.655	187.61
422.115	191.51
422.576	193.71
423.036	200.81
423.496	206.41
423.956	217.51
424.416	230.61
424.876	264.41
425.336	259.51
425.797	249.81
426.257	250.91
426.717	232.71
427.177	220.21
427.637	210.91
428.097	216.31
428.556	223.31
429.016	254.81
429.476	249.01
429.936	256.31
430.396	257.11
430.856	275.31
431.315	295.71
431.775	314.61
432.235	348.61
432.694	327.31
433.154	332.31
433.614	353.41
434.073	299.01
434.533	263.21
434.993	254.11
435.452	262.51
435.912	267.21
436.371	259.11
436.83	267.11
437.29	243.41
437.749	233.31
438.209	234.21
438.668	242.11
439.127	249.01
439.587	241.61
440.046	232.81
440.505	241.31
440.964	250.01
441.424	284.81
441.883	281.11
442.342	242.11
442.801	216.01
443.26	213.41
443.719	218.21
444.178	216.51
444.637	201.21
445.096	216.41
445.555	216.01
446.014	217.71
446.473	225.51
446.932	225.71
447.391	226.01
447.849	230.41
448.308	218.51
448.767	217.21
449.226	233.81
449.685	234.31
450.143	243.01
450.602	238.31
451.061	222.21
451.519	222.41
451.978	221.91
452.436	227.51
452.895	223.41
453.353	235.81
453.812	231.41
454.27	229.41
454.729	231.31
455.187	227.21
455.646	227.31
456.104	230.41
456.562	240.81
457.021	248.01
457.479	242.81
457.937	247.31
458.395	250.51
458.854	241.31
459.312	236.81
459.77	256.11
460.228	246.01
460.686	231.21
461.144	245.31
461.602	233.41
462.06	242.41
462.518	255.41
462.976	238.71
463.434	246.51
463.892	254.21
464.35	263.01
464.808	268.31
465.266	261.21
465.724	266.11
466.181	263.81
466.639	263.31
467.097	282.81
467.555	292.51
468.012	290.31
468.47	287.81
468.928	313.81
469.385	317.81
469.843	322.11
470.3	328.51
470.758	344.01
471.215	352.61
471.673	367.71
472.13	368.31
472.588	383.01
473.045	354.51
473.503	364.01
473.96	379.01
474.417	376.01
474.875	406.71
475.332	432.31
475.789	434.01
476.246	433.51
476.704	447.41
477.161	459.51
477.618	476.91
478.075	515.91
478.532	549.91
478.989	612.81
479.446	692.81
479.903	686.71
480.36	707.11
480.817	753.71
481.274	837.81
481.731	932.81
482.188	1002.81
482.645	1106.61
483.102	1196.21
483.558	1286.21
484.015	1343.51
484.472	1321.31
484.929	1279.61
485.385	1248.31
485.842	1221.71
486.299	1177.41
486.755	1115.91
487.212	962.21
487.668	842.41
488.125	768.41
488.582	720.21
489.038	687.81
489.494	658.61
489.951	627.81
490.407	624.31
490.864	605.81
491.32	594.21
491.776	581.91
492.233	588.61
492.689	553.91
493.145	557.61
493.602	561.61
494.058	562.41
494.514	561.61
494.97	584.71
495.426	579.31
495.882	562.21
496.338	557.51
496.794	565.41
497.251	553.11
497.707	581.21
498.163	577.61
498.618	582.11
499.074	580.41
499.53	607.81
499.986	607.61
500.442	580.61
500.898	569.31
501.354	568.11
501.809	571.71
502.265	576.21
502.721	578.61
503.177	584.31
503.632	578.61
504.088	587.11
504.543	607.71
504.999	619.61
505.455	596.91
505.91	581.01
506.366	578.51
506.821	578.11
507.277	577.71
507.732	588.91
508.187	581.11
508.643	592.91
509.098	591.41
509.553	599.51
510.009	602.41
510.464	606.81
510.919	628.01
511.375	623.91
511.83	644.11
512.285	652.31
512.74	680.71
513.195	693.61
513.65	687.61
514.105	686.41
514.56	684.61
515.015	710.01
515.47	713.11
515.925	707.31
516.38	717.91
516.835	720.21
517.29	699.41
517.745	701.81
518.2	692.81
518.655	683.61
519.109	671.81
519.564	667.81
520.019	650.41
520.474	644.01
520.928	654.71
521.383	648.91
521.838	633.91
522.292	638.41
522.747	632.21
523.201	634.61
523.656	632.01
524.11	621.01
524.565	620.91
525.019	608.91
525.474	616.61
525.928	619.81
526.382	617.81
526.837	621.11
527.291	617.61
527.745	625.71
528.2	620.01
528.654	603.01
529.108	604.51
529.562	614.51
530.016	612.41
530.47	605.41
530.925	601.41
531.379	611.51
531.833	620.31
532.287	607.71
532.741	613.31
533.195	613.91
533.649	619.81
534.103	627.61
534.556	608.81
535.01	614.81
535.464	613.71
535.918	627.41
536.372	632.61
536.826	622.91
537.279	614.81
537.733	609.61
538.187	624.21
538.64	616.21
539.094	626.91
539.548	634.71
540.001	624.81
540.455	626.81
540.908	634.51
541.362	636.31
541.815	640.91
542.269	653.31
542.722	654.21
543.175	658.51
543.629	659.01
544.082	681.11
544.536	680.71
544.989	672.91
545.442	682.91
545.895	691.91
546.349	684.21
546.802	680.61
547.255	685.01
547.708	695.51
548.161	699.11
548.614	709.01
549.067	713.81
549.52	706.51
549.973	692.21
550.426	699.81
550.879	687.41
551.332	686.61
551.785	687.11
552.238	681.71
552.691	695.91
553.144	710.91
553.596	723.71
554.049	727.61
554.502	753.01
554.955	766.11
555.407	774.81
555.86	761.41
556.313	755.31
556.765	740.01
557.218	739.11
557.67	745.91
558.123	747.21
558.576	735.81
559.028	739.71
559.48	742.81
559.933	734.91
560.385	715.81
560.838	690.01
561.29	667.81
561.742	663.01
562.195	643.01
562.647	657.21
563.099	650.51
563.551	654.51
564.004	654.61
564.456	636.01
564.908	629.31
565.36	630.61
565.812	598.71
566.264	600.61
566.716	594.71
567.168	581.91
567.62	592.91
568.072	574.41
568.524	576.61
568.976	575.31
569.428	557.51
569.88	559.71
570.332	568.91
570.784	571.51
571.235	568.61
571.687	573.61
572.139	575.81
572.59	586.81
573.042	588.21
573.494	578.31
573.945	571.71
574.397	551.81
574.849	560.11
575.3	566.71
575.752	566.71
576.203	551.01
576.655	556.41
577.106	537.81
577.557	539.71
578.009	539.21
578.46	534.01
578.912	541.51
579.363	536.11
579.814	539.91
580.265	540.51
580.717	534.01
581.168	537.71
581.619	540.61
582.07	548.51
582.521	534.71
582.972	539.91
583.423	544.81
583.875	538.91
584.326	539.91
584.777	555.81
585.227	570.51
585.678	577.61
586.129	594.81
586.58	623.91
587.031	634.01
587.482	669.21
587.933	684.71
588.384	658.31
588.834	634.11
589.285	614.91
589.736	617.11
590.186	611.01
590.637	610.91
591.088	591.01
591.538	581.61
591.989	577.11
592.439	579.11
592.89	563.91
593.34	550.31
593.791	553.41
594.241	550.71
594.692	547.11
595.142	547.11
595.593	535.01
596.043	548.81
596.493	551.91
596.943	548.81
597.394	565.01
597.844	563.91
598.294	572.31
598.744	595.31
599.195	605.61
599.645	638.41
600.095	665.11
600.545	709.71
600.995	738.61
601.445	797.11
601.895	837.51
602.345	887.61
602.795	876.51
603.245	840.41
603.695	790.11
604.145	747.11
604.594	724.71
605.044	682.81
605.494	627.01
605.944	584.31
606.393	572.21
606.843	557.61
607.293	562.61
607.743	554.61
608.192	555.81
608.642	579.71
609.091	577.71
609.541	591.01
609.99	579.11
610.44	579.21
610.889	552.11
611.339	533.21
611.788	520.51
612.238	526.91
612.687	532.91
613.136	529.71
613.586	542.31
614.035	522.51
614.484	539.01
614.933	539.51
615.383	537.31
615.832	538.01
616.281	534.41
616.73	509.01
617.179	503.31
617.628	482.41
618.077	472.61
618.526	473.61
618.975	474.41
619.424	471.81
619.873	467.81
620.322	459.31
620.771	453.71
621.22	454.71
621.669	444.91
622.118	444.11
622.567	440.41
623.015	428.51
623.464	425.71
623.913	427.81
624.361	412.61
624.81	410.51
625.259	413.31
625.707	419.31
626.156	417.51
626.604	425.61
627.053	410.81
627.501	415.21
627.95	427.31
628.398	433.81
628.847	424.81
629.295	419.21
629.744	427.81
630.192	419.01
630.64	426.71
631.089	407.41
631.537	400.81
631.985	394.11
632.433	394.01
632.881	393.11
633.33	391.71
633.778	379.91
634.226	384.41
634.674	401.21
635.122	392.51
635.57	410.01
636.018	409.01
636.466	419.91
636.914	409.81
637.362	423.71
637.81	426.61
638.258	430.41
638.705	422.41
639.153	447.21
639.601	453.41
640.049	463.31
640.497	496.61
640.944	511.01
641.392	474.11
641.84	456.01
642.287	442.01
642.735	411.51
643.182	414.71
643.63	420.11
644.078	412.21
644.525	421.21
644.973	417.71
645.42	431.01
645.867	443.91
646.315	459.11
646.762	478.11
647.21	485.61
647.657	515.31
648.104	528.71
648.551	534.51
648.999	580.81
649.446	631.71
649.893	690.51
650.34	779.91
650.787	926.11
651.234	1135.71
651.682	1455.91
652.129	1950.31
652.576	2738.61
653.023	4005.71
653.47	5545.01
653.917	7015.91
654.363	8204.11
654.81	9278.31
655.257	8824.01
655.704	5822.81
656.151	3484.61
656.598	2267.01
657.044	1637.21
657.491	1259.31
657.938	1017.31
658.385	846.01
658.831	737.91
659.278	672.91
659.724	595.01
660.171	559.01
660.618	501.41
661.064	481.01
661.511	468.31
661.957	442.31
662.404	436.61
662.85	432.91
663.296	426.71
663.743	399.61
664.189	385.41
664.635	382.31
665.082	373.01
665.528	374.11
665.974	368.71
666.42	352.21
666.867	358.91
667.313	338.11
667.759	332.51
668.205	320.51
668.651	326.61
669.097	322.41
669.543	317.91
669.989	318.01
670.435	320.61
670.881	325.11
671.327	317.51
671.773	336.51
672.219	355.71
672.665	393.21
673.11	419.51
673.556	458.11
674.002	492.81
674.448	487.11
674.893	406.91
675.339	356.11
675.785	319.61
676.23	306.71
676.676	284.11
677.122	283.41
677.567	273.61
678.013	259.31
678.458	262.41
678.904	253.31
679.349	251.61
679.794	256.21
680.24	253.11
680.685	250.51
681.131	239.51
681.576	252.21
682.021	257.91
682.466	250.11
682.912	244.71
683.357	244.61
683.802	268.91
684.247	290.31
684.692	319.61
685.137	364.41
685.583	394.31
686.028	412.41
686.473	377.91
686.918	320.41
687.363	307.01
687.807	289.11
688.252	267.81
688.697	253.61
689.142	237.31
689.587	238.01
690.032	234.71
690.477	244.71
690.921	251.41
691.366	272.61
691.811	290.61
692.255	308.51
692.7	332.21
693.145	355.61
693.589	484.71
694.034	787.01
694.478	1108.31
694.923	1295.71
695.367	1731.41
695.812	907.21
696.256	370.41
696.701	267.11
697.145	244.81
697.59	226.51
698.034	226.01
698.478	239.81
698.922	233.81
699.367	227.91
699.811	235.51
700.255	249.01
700.699	262.11
701.143	297.71
701.588	340.01
702.032	372.51
702.476	370.01
702.92	352.91
703.364	354.91
703.808	438.31
704.252	715.81
704.696	1031.91
705.14	1247.21
705.584	1613.71
706.027	794.61
706.471	378.21
706.915	289.11
707.359	259.01
707.803	225.11
708.246	222.61
708.69	227.31
709.134	229.11
709.577	220.81
710.021	229.71
710.465	217.41
710.908	208.51
711.352	207.11
711.795	219.11
712.239	243.71
712.682	271.41
713.126	291.41
713.569	339.21
714.012	256.81
714.456	223.91
714.899	206.91
715.342	193.21
715.786	185.21
716.229	189.31
716.672	184.81
717.115	172.11
717.558	185.11
718.002	173.61
718.445	185.71
718.888	204.01
719.331	210.11
719.774	216.91
720.217	217.21
720.66	203.11
721.103	186.11
721.546	183.91
721.989	174.21
722.432	160.51
722.874	176.91
723.317	158.01
723.76	163.91
724.203	178.91
724.645	222.31
725.088	297.71
725.531	401.11
725.974	474.71
726.416	401.01
726.859	216.01
727.301	175.81
727.744	170.11
728.187	162.31
728.629	174.21
729.071	164.31
729.514	180.21
729.956	196.21
730.399	203.11
730.841	202.11
731.283	196.81
731.726	187.81
732.168	185.81
732.61	189.41
733.053	199.31
733.495	217.91
733.937	244.41
734.379	278.71
734.821	306.31
735.263	375.81
735.705	572.71
736.148	1098.51
736.59	1854.81
737.032	2332.11
737.474	1892.01
737.916	595.91
738.357	307.81
738.799	232.41
739.241	218.41
739.683	201.51
740.125	208.31
740.567	219.41
741.008	231.81
741.45	220.91
741.892	227.91
742.334	251.61
742.775	266.41
743.217	258.81
743.658	189.61
744.1	184.21
744.542	186.71
744.983	230.61
745.425	259.81
745.866	264.71
746.307	207.81
746.749	196.71
747.19	223.81
747.632	314.51
748.073	591.01
748.514	1290.11
748.956	2089.41
749.397	2635.31
749.838	2168.61
750.279	2261.91
750.72	1138.81
751.162	408.71
751.603	232.31
752.044	180.21
752.485	150.01
752.926	150.71
753.367	143.61
753.808	140.71
754.249	132.61
754.69	130.91
755.131	129.81
755.572	120.51
756.013	128.51
756.453	131.21
756.894	128.61
757.335	133.01
757.776	133.91
758.216	137.51
758.657	139.61
759.098	146.11
759.538	155.01
759.979	184.91
760.42	256.51
760.86	497.21
761.301	1278.61
761.741	3188.21
762.182	5060.81
762.622	3578.81
763.063	1001.81
763.503	400.11
763.943	235.21
