Data from 20171114-ORNL-Ar_H_NY_Subt18_08-07-52-181.txt Node
Date: Tue Nov 14 08:07:52 EST 2017
User: Ender
Spectrometer: HR+D1039
Trigger mode: 0
Integration Time (sec): 2.730000E-2
Scans to average: 10
Electric dark correction enabled: true
Nonlinearity correction enabled: false
Boxcar width: 0
XAxis mode: Wavelengths
Number of Pixels in Spectrum: 2048
>>>>>Begin Spectral Data<<<<<
187.836	-7.8
188.309	-7.8
188.782	-7.8
189.255	3.4
189.728	-5.8
190.201	5.1
190.674	6.2
191.147	3.8
191.619	-5.8
192.092	4.1
192.565	6.2
193.038	-2.8
193.511	-0.1
193.984	-2.1
194.456	-2.4
194.929	0.2
195.402	-6.6
195.874	4.4
196.347	-0.9
196.82	-8.2
197.292	6.6
197.765	-0
198.237	-8
198.71	3.7
199.182	-3.9
199.655	4.6
200.127	-1.1
200.6	-1.1
201.072	-2.8
201.544	0.6
202.017	-5.9
202.489	-1.7
202.961	2.1
203.433	0.1
203.906	-7.6
204.378	-5
204.85	-7
205.322	-13.3
205.794	-1.9
206.266	0.6
206.739	-8.3
207.211	1.7
207.683	-13.5
208.155	-5.4
208.627	-7.6
209.099	-4.1
209.57	-7.7
210.042	-6.9
210.514	-11.3
210.986	-0.7
211.458	-8.3
211.93	-5.9
212.402	-5.2
212.873	-4.4
213.345	-8.3
213.817	-11.5
214.288	-3.3
214.76	-10.1
215.232	-3.1
215.703	-7.7
216.175	-6
216.646	-11.2
217.118	-3.2
217.589	-6.9
218.061	-2.7
218.532	-4.6
219.004	-3.1
219.475	-4.4
219.946	-0.1
220.418	-6.1
220.889	-0.2
221.36	1.3
221.832	-3.5
222.303	-6.9
222.774	-0.1
223.245	-11.1
223.717	-5.5
224.188	-0.8
224.659	1.8
225.13	-2
225.601	1.3
226.072	-0
226.543	2.2
227.014	-0
227.485	-1.2
227.956	-6.2
228.427	1.6
228.898	5.6
229.369	6.5
229.839	-3.9
230.31	-8.3
230.781	0.7
231.252	1.6
231.722	-8.9
232.193	-7
232.664	0.5
233.135	-0.6
233.605	-2.9
234.076	-3
234.546	-1.1
235.017	4.8
235.487	0.8
235.958	-5
236.428	-4.5
236.899	2.2
237.369	2
237.84	-2.8
238.31	7.9
238.78	-4
239.251	2.8
239.721	0.2
240.191	4
240.662	-2
241.132	0.9
241.602	-4.7
242.072	7.5
242.542	4.7
243.013	-3.6
243.483	1
243.953	3.5
244.423	-3.7
244.893	-7.8
245.363	-2.1
245.833	2.6
246.303	-2
246.773	10.2
247.243	2.1
247.712	-0
248.182	6
248.652	10.4
249.122	2
249.592	8.1
250.061	23.6
250.531	28.6
251.001	18.7
251.471	15
251.94	18
252.41	7.3
252.879	1
253.349	11.4
253.818	12.2
254.288	4.8
254.757	6.8
255.227	-1.7
255.696	5.5
256.166	6.9
256.635	6
257.105	7.5
257.574	3.7
258.043	7.2
258.513	10.6
258.982	11.6
259.451	9.5
259.92	9.5
260.389	4.1
260.859	9.3
261.328	11.5
261.797	21.4
262.266	3.8
262.735	11.4
263.204	3.4
263.673	-0.6
264.142	4
264.611	0.2
265.08	-2.6
265.549	2.6
266.018	4.2
266.487	-3.8
266.955	-2.1
267.424	3.1
267.893	5
268.362	0.2
268.83	2.1
269.299	8.3
269.768	5.6
270.236	7.2
270.705	2.1
271.174	2.2
271.642	8.4
272.111	6.9
272.579	12.6
273.048	22.9
273.516	28.1
273.985	28.7
274.453	23.1
274.922	18.3
275.39	4.5
275.858	6
276.327	9.9
276.795	18.9
277.263	10
277.731	26
278.2	49
278.668	53.6
279.136	42.4
279.604	19.2
280.072	13.8
280.54	14.4
281.008	4.2
281.477	13.5
281.945	7.9
282.413	12.3
282.881	14.9
283.348	10.1
283.816	20.7
284.284	15.8
284.752	22.7
285.22	14.2
285.688	16.3
286.156	20.8
286.623	40.7
287.091	53.7
287.559	25.7
288.026	12.7
288.494	15.9
288.962	5.7
289.429	5.7
289.897	17.5
290.364	14.6
290.832	11.1
291.3	9.5
291.767	13.6
292.234	20.8
292.702	14.8
293.169	14.8
293.637	22.7
294.104	12.5
294.571	7.4
295.039	10.3
295.506	16.2
295.973	17.3
296.44	13.8
296.908	14.6
297.375	24.9
297.842	23.2
298.309	13.6
298.776	12.5
299.243	19.4
299.71	12.6
300.177	17.1
300.644	17.3
301.111	19.3
301.578	24.5
302.045	18.5
302.512	23.6
302.979	19.9
303.446	18
303.913	15
304.379	22.8
304.846	20.5
305.313	21.4
305.78	21
306.246	25.7
306.713	28.7
307.18	23.6
307.646	24.9
308.113	25.5
308.579	21.6
309.046	25.1
309.512	27.7
309.979	22.1
310.445	28.9
310.912	26.6
311.378	28.5
311.845	27.7
312.311	28.4
312.777	25.2
313.244	30.4
313.71	33.4
314.176	27.3
314.642	27.8
315.109	29.5
315.575	35.5
316.041	35.7
316.507	29.2
316.973	39.6
317.439	35.7
317.905	30
318.371	35.3
318.837	34.3
319.303	28.6
319.769	30.9
320.235	33.7
320.701	35.2
321.167	37.3
321.633	31.8
322.099	37.4
322.564	41.1
323.03	34.7
323.496	37.5
323.962	35.3
324.427	37.7
324.893	44.4
325.359	36.8
325.824	36.9
326.29	35.4
326.755	35.3
327.221	39.9
327.686	34.9
328.152	42.9
328.617	40.4
329.083	47.6
329.548	49.2
330.014	38.8
330.479	38.2
330.944	36
331.41	44.8
331.875	42.9
332.34	35.5
332.805	39.4
333.271	41.1
333.736	39.5
334.201	48.4
334.666	49.5
335.131	43.8
335.596	47.1
336.061	51.3
336.526	39.8
336.991	47.1
337.456	50
337.921	37.9
338.386	43.9
338.851	44.4
339.316	42.3
339.781	47.8
340.246	49.8
340.711	41
341.175	47.3
341.64	40.5
342.105	50.7
342.569	49.2
343.034	50.8
343.499	48.3
343.963	45.3
344.428	62.7
344.893	58.9
345.357	57.5
345.822	53.3
346.286	67.5
346.751	66.4
347.215	65.1
347.679	65
348.144	94.5
348.608	81.8
349.073	62.9
349.537	71.3
350.001	72.1
350.465	88
350.93	82.5
351.394	75.3
351.858	66.5
352.322	85.5
352.786	72.4
353.25	98.2
353.715	102.1
354.179	92
354.643	117.5
355.107	116.4
355.571	100.9
356.035	101.4
356.498	112.4
356.962	115.5
357.426	127.6
357.89	110.8
358.354	89.2
358.818	75.9
359.281	77.4
359.745	72.2
360.209	73.3
360.673	73.4
361.136	80.7
361.6	81.8
362.064	86.7
362.527	78.9
362.991	89.3
363.454	73.6
363.918	69
364.381	73.4
364.845	79.5
365.308	80.3
365.772	82.2
366.235	86.9
366.698	83.8
367.162	81
367.625	84.6
368.088	85
368.552	85.4
369.015	84.5
369.478	97.3
369.941	95.8
370.404	87.4
370.867	102.1
371.331	103.7
371.794	101.3
372.257	103.6
372.72	114.7
373.183	107.9
373.646	96.9
374.109	99.8
374.572	97.1
375.035	103.6
375.497	104.7
375.96	103.8
376.423	93.1
376.886	101.8
377.349	103.3
377.811	99.2
378.274	105.9
378.737	104.8
379.199	109.2
379.662	109.2
380.125	115.1
380.587	116.9
381.05	120.3
381.512	126
381.975	135.1
382.437	124.1
382.9	122.7
383.362	127
383.825	135.6
384.287	142.8
384.75	135.9
385.212	139.1
385.674	133.7
386.136	136
386.599	116.2
387.061	127.2
387.523	126.4
387.985	128.2
388.447	144
388.91	141.4
389.372	153.9
389.834	146.7
390.296	141.3
390.758	148.6
391.22	163.1
391.682	198.8
392.144	290.6
392.606	217.7
393.068	167.3
393.529	162.9
393.991	152.5
394.453	139.9
394.915	149.5
395.377	185.7
395.838	214.1
396.3	152.4
396.762	141.1
397.224	134.3
397.685	128.2
398.147	125.3
398.608	128.4
399.07	124.9
399.531	126.7
399.993	142.1
400.454	157.8
400.916	140.3
401.377	136.9
401.839	142.7
402.3	147.9
402.762	162
403.223	174.1
403.684	166.8
404.145	162.6
404.607	161.9
405.068	164.4
405.529	167
405.99	184.4
406.451	171.2
406.913	166
407.374	159.1
407.835	154.6
408.296	161.7
408.757	169.4
409.218	181
409.679	179
410.14	173.7
410.601	169.2
411.062	181.3
411.522	187.5
411.983	182.6
412.444	173.7
412.905	176.1
413.366	173.9
413.826	184.1
414.287	211.6
414.748	253
415.208	237.6
415.669	205.2
416.13	198.3
416.59	192.1
417.051	213.9
417.511	210.4
417.972	234.7
418.432	231.6
418.893	280.5
419.353	245.2
419.814	192.9
420.274	181.8
420.734	175.4
421.195	194.4
421.655	196.6
422.115	193.1
422.576	186.9
423.036	194.8
423.496	202.4
423.956	211.5
424.416	223.7
424.876	261.3
425.336	246.9
425.797	255.1
426.257	253.7
426.717	240.9
427.177	222.7
427.637	220.1
428.097	233.7
428.556	240.7
429.016	266.2
429.476	258.5
429.936	272.4
430.396	269.4
430.856	285.4
431.315	311.4
431.775	342.3
432.235	379.1
432.694	347.4
433.154	354
433.614	384
434.073	337.1
434.533	278.8
434.993	266.2
435.452	278
435.912	291.9
436.371	284.8
436.83	276.1
437.29	267.4
437.749	249.6
438.209	249.5
438.668	268
439.127	293
439.587	267.9
440.046	242.9
440.505	258.4
440.964	274.9
441.424	312.6
441.883	306.3
442.342	254.9
442.801	216.8
443.26	208.4
443.719	217.4
444.178	221.5
444.637	208.5
445.096	217.5
445.555	219.2
446.014	220.8
446.473	220
446.932	229.8
447.391	222.9
447.849	226.9
448.308	214.2
448.767	214.5
449.226	233.2
449.685	232.7
450.143	241.6
450.602	236.9
451.061	226.2
451.519	229
451.978	230.1
452.436	225.9
452.895	235.3
453.353	242.8
453.812	239.1
454.27	240.5
454.729	237.6
455.187	240.5
455.646	239.7
456.104	242.9
456.562	261.5
457.021	262
457.479	260.5
457.937	269.7
458.395	259.6
458.854	248.1
459.312	254.6
459.77	265.1
460.228	250.7
460.686	236.1
461.144	240
461.602	238.5
462.06	242.5
462.518	246.5
462.976	249.9
463.434	256.7
463.892	261.4
464.35	264.4
464.808	288.6
465.266	268.2
465.724	266.4
466.181	274.1
466.639	268.5
467.097	283.8
467.555	298.7
468.012	298.3
468.47	301.5
468.928	312.6
469.385	338
469.843	340.8
470.3	342.6
470.758	357.7
471.215	384.4
471.673	388
472.13	399.9
472.588	407.1
473.045	373
473.503	376.4
473.96	388.1
474.417	399.6
474.875	428.2
475.332	465.7
475.789	452.8
476.246	462
476.704	480.2
477.161	509.9
477.618	514.2
478.075	551.3
478.532	608.2
478.989	684.3
479.446	790
479.903	761.4
480.36	796.5
480.817	840.4
481.274	948.3
481.731	1042.5
482.188	1137.4
482.645	1271.5
483.102	1370.8
483.558	1507.9
484.015	1566.9
484.472	1522.1
484.929	1485.7
485.385	1441.4
485.842	1388.1
486.299	1334.4
486.755	1276.9
487.212	1078.9
487.668	905.2
488.125	831.8
488.582	763.9
489.038	727.7
489.494	694
489.951	672.1
490.407	652
490.864	637.4
491.32	642.1
491.776	633.3
492.233	647
492.689	608.8
493.145	604.3
493.602	594.5
494.058	609.5
494.514	605.3
494.97	627.3
495.426	639.4
495.882	617.1
496.338	594.7
496.794	610.9
497.251	602
497.707	612.9
498.163	619.2
498.618	621.2
499.074	635.1
499.53	670.3
499.986	663.8
500.442	640.9
500.898	624.7
501.354	614.8
501.809	627
502.265	627.7
502.721	655.6
503.177	655
503.632	654.9
504.088	663.2
504.543	703.9
504.999	693.2
505.455	650.6
505.91	631.6
506.366	625.7
506.821	614.1
507.277	609.8
507.732	609.3
508.187	617.1
508.643	627.5
509.098	627.2
509.553	635.6
510.009	657
510.464	663.2
510.919	673.9
511.375	689.5
511.83	696.1
512.285	711.8
512.74	754.1
513.195	775.8
513.65	755.4
514.105	755.5
514.56	763.4
515.015	781.1
515.47	794.8
515.925	775.9
516.38	775.7
516.835	778.2
517.29	779.7
517.745	754.2
518.2	755
518.655	743.8
519.109	728.8
519.564	724.6
520.019	714.5
520.474	712.7
520.928	704
521.383	708.4
521.838	697.9
522.292	699.7
522.747	693.2
523.201	695.4
523.656	683.8
524.11	681.9
524.565	681.8
525.019	678.1
525.474	688.2
525.928	703.3
526.382	683.1
526.837	684.4
527.291	692.1
527.745	692.3
528.2	693.4
528.654	687
529.108	671
529.562	681.9
530.016	677.8
530.47	687
530.925	686.4
531.379	680.8
531.833	698.5
532.287	680.6
532.741	691.2
533.195	699.9
533.649	697.1
534.103	709.5
534.556	703.3
535.01	699
535.464	699.8
535.918	708.4
536.372	706.9
536.826	703.7
537.279	695
537.733	703.4
538.187	698.6
538.64	704.2
539.094	709.3
539.548	722.7
540.001	721.9
540.455	724.1
540.908	720.2
541.362	724.6
541.815	729.3
542.269	746.8
542.722	755.7
543.175	757.3
543.629	761
544.082	782.4
544.536	782.9
544.989	780
545.442	782.1
545.895	789.2
546.349	776.1
546.802	781.4
547.255	780.1
547.708	799.9
548.161	799.2
548.614	812.1
549.067	817.9
549.52	803.4
549.973	802.2
550.426	801.5
550.879	786.9
551.332	792.2
551.785	794.3
552.238	793.4
552.691	803.9
553.144	830.6
553.596	843.7
554.049	851.7
554.502	884.3
554.955	900.9
555.407	899.8
555.86	892.6
556.313	890.1
556.765	863.8
557.218	874.7
557.67	877.6
558.123	872
558.576	851.4
559.028	860.3
559.48	879.3
559.933	862.7
560.385	835.2
560.838	804
561.29	768.2
561.742	776.2
562.195	760.2
562.647	756
563.099	768.2
563.551	765.4
564.004	777.4
564.456	768.8
564.908	758.1
565.36	740.3
565.812	720.1
566.264	712.1
566.716	710.4
567.168	704.1
567.62	717.5
568.072	692.3
568.524	691.8
568.976	679.5
569.428	673
569.88	663.3
570.332	682.8
570.784	683.9
571.235	687.6
571.687	694.2
572.139	690
572.59	713.7
573.042	707
573.494	704.8
573.945	692.7
574.397	688.5
574.849	684.1
575.3	683.8
575.752	686.7
576.203	670.7
576.655	682
577.106	669.1
577.557	654
578.009	666.9
578.46	661.1
578.912	659.8
579.363	664.4
579.814	662.3
580.265	661.1
580.717	667.7
581.168	672.2
581.619	671.7
582.07	677.8
582.521	668.9
582.972	671.5
583.423	680.3
583.875	687.1
584.326	700.8
584.777	746
585.227	813.8
585.678	898.8
586.129	978.9
586.58	1049.2
587.031	1126.2
587.482	1277.3
587.933	1443
588.384	1269.3
588.834	960
589.285	790.3
589.736	779.6
590.186	774.6
590.637	761.2
591.088	739.4
591.538	737
591.989	727.5
592.439	720.5
592.89	720.7
593.34	710.4
593.791	701.6
594.241	701.8
594.692	702
595.142	700
595.593	695.7
596.043	708.4
596.493	718.3
596.943	713.5
597.394	719.7
597.844	723
598.294	732.6
598.744	747.7
599.195	779
599.645	813.7
600.095	854.3
600.545	912.6
600.995	971.4
601.445	1015.1
601.895	1082.5
602.345	1129.3
602.795	1099.4
603.245	1054.4
603.695	1008.7
604.145	955.3
604.594	904.4
605.044	859.6
605.494	791.8
605.944	750.1
606.393	745.1
606.843	727.5
607.293	726.8
607.743	731.7
608.192	740.7
608.642	762.2
609.091	764.9
609.541	774.1
609.99	773.7
610.44	763.9
610.889	728.9
611.339	690.8
611.788	687
612.238	694.3
612.687	718.1
613.136	719.5
613.586	739.3
614.035	733.8
614.484	755.5
614.933	753.8
615.383	750.2
615.832	740.5
616.281	719.2
616.73	685.7
617.179	672.1
617.628	649.2
618.077	633.6
618.526	622.6
618.975	619.1
619.424	610.3
619.873	610
620.322	621.5
620.771	602
621.22	599.2
621.669	584.4
622.118	594.4
622.567	573.9
623.015	575.9
623.464	566.6
623.913	558.4
624.361	556.7
624.81	545.8
625.259	548.9
625.707	556.5
626.156	550
626.604	562.2
627.053	560.9
627.501	559.3
627.95	570.8
628.398	580.3
628.847	566.6
629.295	568.2
629.744	569.6
630.192	558.6
630.64	568.4
631.089	570.1
631.537	575.5
631.985	599.5
632.433	598.3
632.881	617.3
633.33	658
633.778	654.1
634.226	566.9
634.674	567.4
635.122	573.2
635.57	598.7
636.018	627.9
636.466	583.2
636.914	570.3
637.362	571
637.81	575.7
638.258	572.7
638.705	578
639.153	615.5
639.601	613.2
640.049	641.1
640.497	676.3
640.944	698.7
641.392	643.9
641.84	614.4
642.287	579.8
642.735	567.6
643.182	568.3
643.63	573.5
644.078	578.8
644.525	584.3
644.973	596.7
645.42	601.6
645.867	631.8
646.315	643.7
646.762	653.9
647.21	692.9
647.657	715.9
648.104	756
648.551	769.6
648.999	839.3
649.446	929.2
649.893	1004.9
650.34	1163.4
650.787	1397.4
651.234	1734.7
651.682	2274.3
652.129	3102.5
652.576	4490.2
653.023	6581.5
653.47	8985.4
653.917	11183.4
654.363	12865.2
654.81	14129.5
655.257	13439.3
655.704	8799
656.151	5196.5
656.598	3387.9
657.044	2391.2
657.491	1823.7
657.938	1481.8
658.385	1227.5
658.831	1071.2
659.278	962.3
659.724	848.2
660.171	784.3
660.618	721.3
661.064	692.7
661.511	654.8
661.957	651.1
662.404	646.8
662.85	645.4
663.296	624.6
663.743	565.8
664.189	533.5
664.635	523
665.082	534
665.528	534.7
665.974	518.2
666.42	510.8
666.867	504.4
667.313	493.3
667.759	485.7
668.205	477.2
668.651	484.3
669.097	480.9
669.543	491.7
669.989	474.2
670.435	455.5
670.881	445.2
671.327	444.7
671.773	466.9
672.219	488.8
672.665	539
673.11	585.2
673.556	635.8
674.002	666.5
674.448	662.5
674.893	543.9
675.339	467.9
675.785	428.9
676.23	416.5
676.676	397.7
677.122	378.5
677.567	367.1
678.013	363.8
678.458	361.6
678.904	357.7
679.349	346.3
679.794	358.1
680.24	352.1
680.685	337.3
681.131	347.6
681.576	344.2
682.021	355.2
682.466	346.9
682.912	360.1
683.357	350.2
683.802	381.7
684.247	414.2
684.692	455.4
685.137	507.8
685.583	545.2
686.028	562.2
686.473	517.6
686.918	448.5
687.363	413.8
687.807	389.8
688.252	367.3
688.697	356.2
689.142	332.9
689.587	329.5
690.032	326.6
690.477	341.4
690.921	355.6
691.366	387.6
691.811	396.6
692.255	429.5
692.7	460
693.145	508.2
693.589	710.9
694.034	1146.4
694.478	1541
694.923	1725
695.367	2232.2
695.812	1186.6
696.256	496.3
696.701	372.7
697.145	338.7
697.59	327.9
698.034	314.8
698.478	331.9
698.922	325.9
699.367	327.2
699.811	347.2
700.255	354.4
700.699	387.7
701.143	427.8
701.588	476.1
702.032	512.3
702.476	510.9
702.92	493
703.364	493.4
703.808	645.8
704.252	1045.2
704.696	1463.8
705.14	1656.5
705.584	2111.3
706.027	1061.3
706.471	523.4
706.915	399.4
707.359	344.7
707.803	315.1
708.246	316.1
708.69	314
709.134	310.9
709.577	309.8
710.021	317.1
710.465	311.7
710.908	308.3
711.352	303
711.795	311.2
712.239	356.7
712.682	396
713.126	410.9
713.569	459.5
714.012	367
714.456	314.4
714.899	300.2
715.342	273.7
715.786	264.4
716.229	256.3
716.672	254.7
717.115	244.9
717.558	251.8
718.002	254.2
718.445	272.1
718.888	289.9
719.331	284.9
719.774	307.9
720.217	303.6
720.66	291.5
721.103	270.6
721.546	256.8
721.989	253.9
722.432	235.4
722.874	236.2
723.317	228.5
723.76	234.6
724.203	258.5
724.645	325.2
725.088	460.7
725.531	571.1
725.974	634.7
726.416	542.5
726.859	309.8
727.301	242.8
727.744	244.1
728.187	235.5
728.629	238.5
729.071	242.5
729.514	263.3
729.956	271.3
730.399	289
730.841	289.7
731.283	274.1
731.726	261.4
732.168	260.8
732.61	264.4
733.053	289.9
733.495	323.2
733.937	351.8
734.379	401.7
734.821	436.3
735.263	543.7
735.705	849.7
736.148	1618.2
736.59	2605.4
737.032	2992.2
737.474	2440.4
737.916	806.8
738.357	429.1
738.799	333.7
739.241	294.3
739.683	281.1
740.125	294.7
740.567	302.3
741.008	314.4
741.45	317.3
741.892	321.4
742.334	341.8
742.775	353
743.217	341.6
743.658	274.3
744.1	259.4
744.542	260.5
744.983	319
745.425	342.4
745.866	341.2
746.307	286.5
746.749	283.1
747.19	329.7
747.632	461.9
748.073	913.3
748.514	1887.4
748.956	2851.8
749.397	3572.5
749.838	2942.7
750.279	2910.6
750.72	1481
751.162	547.3
751.603	315.9
752.044	253.2
752.485	218.4
752.926	213.1
753.367	201.5
753.808	191.8
754.249	189.8
754.69	188.2
755.131	184.2
755.572	187.1
756.013	184.2
756.453	194.5
756.894	199.1
757.335	189.7
757.776	195
758.216	197.2
758.657	200.6
759.098	201.5
759.538	224.3
759.979	267
760.42	387.4
760.86	725.6
761.301	1883.3
761.741	4484.5
762.182	6297
762.622	4444.3
763.063	1307.9
763.503	536.9
763.943	350.5
764.384	332.5
764.824	391
765.264	418
765.705	294.4
766.145	214.6
766.585	183.3
767.025	181.4
767.465	183.5
767.906	238
768.346	310.5
768.786	331
769.226	255.1
769.666	325.7
770.106	648
770.546	1587.5
770.986	2626.4
771.426	2331.3
771.866	792.3
772.306	333.5
772.745	205.9
773.185	177.9
773.625	172.2
774.065	168.6
774.505	189.1
774.944	298.8
775.384	674.8
775.824	1163.2
776.263	1129.8
776.703	492.5
777.142	221.8
777.582	149.9
778.021	135.2
778.461	136.7
778.9	136.8
779.34	132
779.779	117
780.219	117.1
780.658	108.6
781.097	106.4
781.537	108.6
781.976	108
782.415	107.6
782.855	108.9
783.294	108
783.733	104.4
784.172	110.5
784.611	102.3
785.05	106
785.489	116.2
785.928	117.3
786.367	122.6
786.806	118.6
787.245	129.9
787.684	138.3
788.123	149.1
788.562	137.6
789.001	126.8
789.44	122.1
789.879	121.1
790.317	117.8
790.756	129.8
791.195	131.7
791.634	156.1
792.072	207.2
792.511	376.9
792.95	1024.3
793.388	2137.5
793.827	1898.5
794.265	674.2
794.704	276.8
795.142	188.1
795.581	150.9
796.019	135.2
796.458	125
796.896	122.1
797.334	130.9
797.773	160.4
798.211	223.6
798.649	455.8
799.087	1037.7
799.526	1603.1
799.964	2011.5
800.402	1981.6
800.84	750.1
801.278	301
801.716	181.8
802.154	158
802.592	146.9
803.03	142.2
803.468	136.8
803.906	142.8
804.344	153.1
804.782	143.6
805.22	133.6
805.658	127.1
806.096	149.9
806.533	157.1
806.971	171.4
807.409	218.8
