Data from 20171114-ORNL-Ar_H_NY_Subt18_08-05-32-144.txt Node
Date: Tue Nov 14 08:05:32 EST 2017
User: Ender
Spectrometer: HR+D1039
Trigger mode: 0
Integration Time (sec): 2.730000E-2
Scans to average: 10
Electric dark correction enabled: true
Nonlinearity correction enabled: false
Boxcar width: 0
XAxis mode: Wavelengths
Number of Pixels in Spectrum: 2048
>>>>>Begin Spectral Data<<<<<
187.836	-5.92
188.309	-5.92
188.782	-5.92
189.255	1.18
189.728	-0.82
190.201	6.38
190.674	1.18
191.147	7.18
191.619	-10.62
192.092	-0.32
192.565	4.48
193.038	-4.02
193.511	3.28
193.984	-3.42
194.456	-2.02
194.929	3.78
195.402	-1.52
195.874	1.18
196.347	-4.82
196.82	-4.92
197.292	1.18
197.765	-2.82
198.237	-0.82
198.71	4.58
199.182	-2.02
199.655	0.28
200.127	-0.12
200.6	-0.52
201.072	0.98
201.544	-0.52
202.017	-1.72
202.489	3.68
202.961	-4.62
203.433	0.48
203.906	-6.12
204.378	-3.82
204.85	-3.02
205.322	-8.62
205.794	-2.02
206.266	-1.82
206.739	-10.72
207.211	0.08
207.683	-3.72
208.155	-5.32
208.627	-4.62
209.099	-7.92
209.57	-7.72
210.042	-6.52
210.514	-5.22
210.986	-2.92
211.458	-6.22
211.93	-3.12
212.402	5.48
212.873	-1.52
213.345	-8.72
213.817	-12.82
214.288	-6.12
214.76	-4.02
215.232	-6.72
215.703	6.98
216.175	-0.72
216.646	-1.72
217.118	-1.92
217.589	0.88
218.061	-1.32
218.532	-7.52
219.004	2.68
219.475	1.08
219.946	0.58
220.418	-2.92
220.889	-1.02
221.36	2.48
221.832	-2.32
222.303	-6.72
222.774	-0.62
223.245	-11.52
223.717	-9.82
224.188	-3.32
224.659	-6.62
225.13	-2.32
225.601	-3.92
226.072	-0.42
226.543	4.88
227.014	1.48
227.485	0.28
227.956	-6.22
228.427	1.68
228.898	6.78
229.369	3.08
229.839	-2.22
230.31	-2.62
230.781	8.18
231.252	2.08
231.722	-4.72
232.193	-2.62
232.664	0.58
233.135	2.68
233.605	2.88
234.076	-1.82
234.546	-3.22
235.017	13.18
235.487	4.68
235.958	2.28
236.428	-0.02
236.899	8.98
237.369	5.18
237.84	0.18
238.31	7.78
238.78	4.68
239.251	3.18
239.721	6.98
240.191	5.18
240.662	-0.62
241.132	0.58
241.602	0.38
242.072	2.08
242.542	5.58
243.013	1.78
243.483	4.28
243.953	1.38
244.423	3.58
244.893	1.78
245.363	9.48
245.833	4.38
246.303	-0.32
246.773	8.28
247.243	6.18
247.712	7.08
248.182	7.08
248.652	7.88
249.122	-0.42
249.592	16.38
250.061	22.08
250.531	33.88
251.001	19.18
251.471	19.68
251.94	19.88
252.41	13.78
252.879	5.98
253.349	12.18
253.818	16.08
254.288	0.88
254.757	7.98
255.227	8.78
255.696	9.38
256.166	11.38
256.635	10.38
257.105	6.48
257.574	6.78
258.043	14.38
258.513	16.58
258.982	20.78
259.451	10.08
259.92	16.38
260.389	13.38
260.859	20.38
261.328	20.08
261.797	21.48
262.266	8.78
262.735	10.18
263.204	10.08
263.673	3.68
264.142	4.98
264.611	1.78
265.08	3.88
265.549	4.48
266.018	10.68
266.487	-4.12
266.955	-3.92
267.424	3.88
267.893	9.48
268.362	7.48
268.83	4.48
269.299	6.18
269.768	8.78
270.236	15.58
270.705	11.28
271.174	8.18
271.642	12.48
272.111	12.28
272.579	31.08
273.048	26.08
273.516	26.28
273.985	29.98
274.453	29.48
274.922	21.68
275.39	13.78
275.858	9.78
276.327	14.28
276.795	20.78
277.263	10.28
277.731	33.78
278.2	65.48
278.668	66.38
279.136	59.28
279.604	22.58
280.072	18.18
280.54	10.48
281.008	14.88
281.477	13.98
281.945	19.08
282.413	11.08
282.881	19.68
283.348	9.88
283.816	19.88
284.284	14.58
284.752	19.28
285.22	17.88
285.688	21.78
286.156	18.18
286.623	46.98
287.091	59.28
287.559	36.48
288.026	24.08
288.494	16.58
288.962	6.18
289.429	15.08
289.897	24.98
290.364	17.18
290.832	18.88
291.3	16.18
291.767	15.78
292.234	22.28
292.702	21.28
293.169	20.68
293.637	22.78
294.104	23.38
294.571	10.88
295.039	10.98
295.506	16.28
295.973	25.08
296.44	24.48
296.908	24.38
297.375	16.28
297.842	24.58
298.309	15.78
298.776	19.68
299.243	19.08
299.71	16.18
300.177	29.58
300.644	25.48
301.111	27.38
301.578	27.78
302.045	22.58
302.512	25.78
302.979	28.18
303.446	24.68
303.913	19.28
304.379	17.38
304.846	32.78
305.313	26.38
305.78	23.88
306.246	27.68
306.713	28.18
307.18	26.08
307.646	30.28
308.113	27.78
308.579	26.48
309.046	27.38
309.512	29.88
309.979	20.18
310.445	25.58
310.912	28.88
311.378	30.78
311.845	33.98
312.311	34.68
312.777	38.78
313.244	32.28
313.71	46.88
314.176	33.08
314.642	34.68
315.109	41.28
315.575	42.68
316.041	42.68
316.507	40.08
316.973	47.18
317.439	39.58
317.905	42.78
318.371	40.58
318.837	37.38
319.303	36.08
319.769	39.48
320.235	37.68
320.701	33.58
321.167	40.28
321.633	40.08
322.099	43.88
322.564	49.98
323.03	47.38
323.496	46.18
323.962	40.08
324.427	40.48
324.893	48.48
325.359	39.98
325.824	39.48
326.29	43.48
326.755	43.38
327.221	46.28
327.686	41.08
328.152	51.18
328.617	42.98
329.083	45.48
329.548	55.38
330.014	46.38
330.479	44.28
330.944	46.38
331.41	44.38
331.875	51.58
332.34	45.68
332.805	45.38
333.271	48.38
333.736	48.28
334.201	54.68
334.666	54.58
335.131	61.88
335.596	56.48
336.061	56.88
336.526	45.88
336.991	45.78
337.456	52.68
337.921	54.08
338.386	47.08
338.851	52.68
339.316	47.98
339.781	52.78
340.246	57.38
340.711	51.18
341.175	52.28
341.64	46.28
342.105	53.48
342.569	59.18
343.034	62.28
343.499	65.08
343.963	56.78
344.428	64.98
344.893	65.08
345.357	68.98
345.822	64.98
346.286	68.08
346.751	79.08
347.215	80.18
347.679	79.28
348.144	99.58
348.608	91.78
349.073	72.38
349.537	76.68
350.001	86.58
350.465	91.18
350.93	87.08
351.394	87.68
351.858	76.78
352.322	89.78
352.786	94.18
353.25	102.08
353.715	112.98
354.179	109.38
354.643	131.88
355.107	132.88
355.571	110.58
356.035	105.48
356.498	125.88
356.962	126.98
357.426	134.38
357.89	123.08
358.354	95.08
358.818	86.28
359.281	83.48
359.745	86.78
360.209	79.98
360.673	81.18
361.136	84.88
361.6	87.58
362.064	90.98
362.527	94.88
362.991	95.28
363.454	81.58
363.918	75.88
364.381	81.28
364.845	85.98
365.308	93.78
365.772	94.78
366.235	86.28
366.698	88.58
367.162	87.88
367.625	92.58
368.088	89.88
368.552	90.78
369.015	95.38
369.478	97.38
369.941	101.18
370.404	102.08
370.867	111.88
371.331	107.28
371.794	114.78
372.257	112.78
372.72	123.88
373.183	110.08
373.646	110.78
374.109	106.18
374.572	119.28
375.035	115.48
375.497	108.68
375.96	105.98
376.423	105.88
376.886	111.58
377.349	120.28
377.811	98.88
378.274	113.28
378.737	115.08
379.199	117.78
379.662	116.48
380.125	127.18
380.587	122.98
381.05	122.68
381.512	138.78
381.975	138.68
382.437	134.88
382.9	133.78
383.362	133.68
383.825	138.98
384.287	150.38
384.75	143.18
385.212	137.08
385.674	144.88
386.136	141.68
386.599	128.98
387.061	132.88
387.523	126.48
387.985	139.58
388.447	151.08
388.91	145.88
389.372	159.98
389.834	154.78
390.296	148.08
390.758	161.48
391.22	168.18
391.682	212.68
392.144	303.88
392.606	238.68
393.068	174.98
393.529	171.18
393.991	163.08
394.453	153.78
394.915	163.78
395.377	197.18
395.838	224.58
396.3	156.98
396.762	141.68
397.224	134.48
397.685	137.98
398.147	137.58
398.608	133.88
399.07	132.98
399.531	137.88
399.993	151.78
400.454	153.78
400.916	146.58
401.377	149.88
401.839	154.58
402.3	152.58
402.762	171.18
403.223	182.68
403.684	175.28
404.145	170.28
404.607	168.58
405.068	173.08
405.529	172.08
405.99	200.68
406.451	184.48
406.913	177.88
407.374	169.58
407.835	167.98
408.296	175.88
408.757	175.58
409.218	193.08
409.679	182.58
410.14	184.18
410.601	183.78
411.062	184.18
411.522	195.78
411.983	196.28
412.444	181.18
412.905	183.98
413.366	192.38
413.826	194.78
414.287	216.88
414.748	264.98
415.208	247.78
415.669	209.38
416.13	222.68
416.59	213.48
417.051	221.88
417.511	225.38
417.972	236.88
418.432	247.98
418.893	290.48
419.353	249.08
419.814	205.28
420.274	184.08
420.734	183.78
421.195	203.78
421.655	201.08
422.115	194.38
422.576	199.18
423.036	203.18
423.496	209.08
423.956	219.68
424.416	233.38
424.876	266.58
425.336	268.98
425.797	270.68
426.257	262.38
426.717	240.48
427.177	234.88
427.637	222.48
428.097	235.88
428.556	247.48
429.016	275.78
429.476	262.78
429.936	280.88
430.396	283.28
430.856	302.88
431.315	325.18
431.775	358.98
432.235	396.38
432.694	362.78
433.154	372.88
433.614	402.18
434.073	359.68
434.533	288.78
434.993	275.68
435.452	286.08
435.912	293.88
436.371	300.98
436.83	298.38
437.29	278.08
437.749	254.58
438.209	247.88
438.668	273.98
439.127	290.38
439.587	265.88
440.046	250.48
440.505	262.68
440.964	279.28
441.424	328.78
441.883	316.28
442.342	270.78
442.801	235.38
443.26	232.48
443.719	227.68
444.178	224.48
444.637	219.88
445.096	222.98
445.555	223.08
446.014	224.88
446.473	226.38
446.932	237.28
447.391	227.98
447.849	234.38
448.308	219.98
448.767	229.18
449.226	237.48
449.685	238.08
450.143	249.98
450.602	244.68
451.061	238.88
451.519	239.28
451.978	230.28
452.436	244.88
452.895	241.98
453.353	251.38
453.812	243.98
454.27	250.58
454.729	243.38
455.187	240.18
455.646	250.98
456.104	253.38
456.562	274.58
457.021	264.88
457.479	260.38
457.937	274.18
458.395	263.68
458.854	243.58
459.312	260.88
459.77	283.48
460.228	265.08
460.686	248.88
461.144	253.38
461.602	250.28
462.06	243.58
462.518	257.78
462.976	259.58
463.434	257.18
463.892	260.58
464.35	283.38
464.808	289.68
465.266	270.68
465.724	274.78
466.181	268.18
466.639	274.78
467.097	286.78
467.555	305.98
468.012	307.48
468.47	312.48
468.928	337.18
469.385	345.38
469.843	349.98
470.3	363.78
470.758	369.18
471.215	389.38
471.673	407.28
472.13	421.28
472.588	418.18
473.045	383.88
473.503	376.38
473.96	398.98
474.417	406.08
474.875	437.98
475.332	484.38
475.789	472.48
476.246	475.38
476.704	484.58
477.161	525.88
477.618	532.98
478.075	568.38
478.532	628.78
478.989	704.38
479.446	819.58
479.903	794.48
480.36	830.78
480.817	884.18
481.274	981.68
481.731	1092.18
482.188	1196.38
482.645	1331.38
483.102	1448.88
483.558	1576.78
484.015	1642.28
484.472	1604.28
484.929	1562.88
485.385	1516.68
485.842	1468.48
486.299	1391.88
486.755	1330.48
487.212	1116.58
487.668	948.58
488.125	867.08
488.582	792.68
489.038	761.08
489.494	720.78
489.951	705.38
490.407	677.28
490.864	650.78
491.32	659.48
491.776	654.68
492.233	653.78
492.689	626.28
493.145	607.58
493.602	607.58
494.058	625.88
494.514	629.88
494.97	646.48
495.426	653.48
495.882	636.38
496.338	624.58
496.794	638.78
497.251	634.68
497.707	645.28
498.163	649.38
498.618	656.18
499.074	662.48
499.53	692.88
499.986	686.98
500.442	668.98
500.898	643.68
501.354	633.48
501.809	652.58
502.265	651.68
502.721	666.08
503.177	683.18
503.632	678.98
504.088	684.28
504.543	710.68
504.999	717.58
505.455	675.48
505.91	632.08
506.366	644.18
506.821	641.58
507.277	625.08
507.732	641.28
508.187	632.28
508.643	641.38
509.098	644.08
509.553	666.08
510.009	678.98
510.464	676.78
510.919	704.58
511.375	708.48
511.83	719.38
512.285	728.58
512.74	769.18
513.195	796.88
513.65	784.38
514.105	777.18
514.56	775.48
515.015	805.88
515.47	814.18
515.925	809.38
516.38	791.38
516.835	806.58
517.29	800.58
517.745	787.48
518.2	769.98
518.655	746.38
519.109	753.38
519.564	752.08
520.019	746.18
520.474	733.48
520.928	732.38
521.383	726.28
521.838	712.88
522.292	713.88
522.747	720.58
523.201	713.28
523.656	701.48
524.11	703.78
524.565	695.68
525.019	704.68
525.474	714.98
525.928	711.48
526.382	704.98
526.837	698.08
527.291	709.18
527.745	706.28
528.2	705.48
528.654	691.68
529.108	691.28
529.562	696.08
530.016	690.58
530.47	694.48
530.925	701.58
531.379	704.58
531.833	720.28
532.287	718.28
532.741	710.38
533.195	722.88
533.649	723.48
534.103	724.18
534.556	718.78
535.01	715.98
535.464	709.68
535.918	727.58
536.372	730.58
536.826	727.38
537.279	721.98
537.733	726.38
538.187	723.38
538.64	720.68
539.094	731.78
539.548	738.58
540.001	730.38
540.455	736.68
540.908	732.38
541.362	744.48
541.815	751.68
542.269	758.38
542.722	767.28
543.175	772.48
543.629	773.88
544.082	796.58
544.536	785.98
544.989	792.98
545.442	796.68
545.895	800.88
546.349	799.28
546.802	792.88
547.255	811.78
547.708	811.88
548.161	821.28
548.614	829.98
549.067	825.38
549.52	821.58
549.973	811.08
550.426	809.08
550.879	796.58
551.332	806.68
551.785	807.68
552.238	814.28
552.691	823.28
553.144	836.78
553.596	848.88
554.049	873.78
554.502	899.58
554.955	913.78
555.407	899.98
555.86	906.18
556.313	892.78
556.765	883.28
557.218	885.08
557.67	891.78
558.123	874.78
558.576	879.48
559.028	880.48
559.48	900.48
559.933	885.18
560.385	848.28
560.838	802.78
561.29	797.98
561.742	788.68
562.195	759.08
562.647	759.48
563.099	768.48
563.551	769.38
564.004	780.18
564.456	772.38
564.908	764.48
565.36	748.08
565.812	739.98
566.264	730.68
566.716	725.38
567.168	713.88
567.62	730.68
568.072	701.58
568.524	692.28
568.976	686.08
569.428	671.18
569.88	669.88
570.332	682.78
570.784	685.08
571.235	684.98
571.687	684.48
572.139	690.98
572.59	704.28
573.042	712.38
573.494	719.98
573.945	707.98
574.397	686.48
574.849	681.98
575.3	690.58
575.752	684.38
576.203	677.28
576.655	675.98
577.106	671.88
577.557	673.38
578.009	661.88
578.46	662.98
578.912	658.28
579.363	655.68
579.814	660.68
580.265	659.98
580.717	673.48
581.168	666.68
581.619	668.58
582.07	681.38
582.521	680.38
582.972	667.48
583.423	671.38
583.875	684.78
584.326	708.08
584.777	743.48
585.227	815.68
585.678	915.58
586.129	1009.08
586.58	1065.88
587.031	1149.18
587.482	1317.28
587.933	1510.38
588.384	1309.48
588.834	970.78
589.285	798.88
589.736	776.28
590.186	761.78
590.637	758.88
591.088	739.38
591.538	729.08
591.989	725.68
592.439	711.58
592.89	721.38
593.34	708.08
593.791	701.78
594.241	701.28
594.692	706.98
595.142	702.98
595.593	696.78
596.043	710.08
596.493	712.58
596.943	716.78
597.394	711.48
597.844	701.48
598.294	724.38
598.744	735.28
599.195	762.68
599.645	795.08
600.095	842.18
600.545	900.58
600.995	952.68
601.445	1015.28
601.895	1073.38
602.345	1117.08
602.795	1097.98
603.245	1053.18
603.695	995.98
604.145	949.68
604.594	893.48
605.044	850.48
605.494	783.28
605.944	739.58
606.393	736.38
606.843	715.78
607.293	719.38
607.743	728.08
608.192	725.68
608.642	743.88
609.091	758.48
609.541	760.18
609.99	756.88
610.44	749.68
610.889	708.38
611.339	693.08
611.788	675.78
612.238	691.08
612.687	706.08
613.136	698.28
613.586	729.98
614.035	730.88
614.484	744.48
614.933	749.18
615.383	734.88
615.832	726.88
616.281	707.58
616.73	674.38
617.179	659.78
617.628	630.78
618.077	624.78
618.526	608.88
618.975	609.08
619.424	604.68
619.873	602.68
620.322	600.68
620.771	588.78
621.22	586.18
621.669	584.48
622.118	575.28
622.567	559.38
623.015	558.98
623.464	549.08
623.913	545.88
624.361	539.98
624.81	544.08
625.259	546.78
625.707	543.58
626.156	550.28
626.604	555.98
627.053	558.28
627.501	548.98
627.95	560.18
628.398	566.08
628.847	553.98
629.295	554.18
629.744	554.48
630.192	559.08
630.64	551.28
631.089	551.28
631.537	563.98
631.985	567.48
632.433	583.58
632.881	591.88
633.33	647.88
633.778	628.48
634.226	550.08
634.674	557.88
635.122	564.58
635.57	593.68
636.018	612.88
636.466	577.08
636.914	546.98
637.362	564.38
637.81	557.48
638.258	564.08
638.705	563.98
639.153	594.68
639.601	598.08
640.049	626.18
640.497	656.78
640.944	673.68
641.392	622.28
641.84	596.68
642.287	563.98
642.735	560.18
643.182	558.08
643.63	556.48
644.078	567.18
644.525	576.98
644.973	574.08
645.42	595.98
645.867	602.78
646.315	627.88
646.762	645.18
647.21	679.28
647.657	704.48
648.104	723.28
648.551	750.78
648.999	817.88
649.446	896.98
649.893	979.28
650.34	1130.98
650.787	1350.18
651.234	1687.08
651.682	2183.58
652.129	2993.68
652.576	4310.28
653.023	6334.48
653.47	8736.38
653.917	10995.18
654.363	12706.38
654.81	14173.18
655.257	13500.58
655.704	8814.78
656.151	5212.78
656.598	3362.48
657.044	2384.28
657.491	1835.58
657.938	1456.28
658.385	1213.48
658.831	1051.68
659.278	936.48
659.724	837.78
660.171	771.88
660.618	708.18
661.064	665.88
661.511	647.08
661.957	639.28
662.404	630.18
662.85	626.48
663.296	601.08
663.743	554.48
664.189	523.58
664.635	523.48
665.082	510.88
665.528	507.38
665.974	500.48
666.42	497.78
666.867	487.58
667.313	479.48
667.759	479.68
668.205	467.78
668.651	469.48
669.097	471.88
669.543	483.98
669.989	455.28
670.435	432.88
670.881	438.18
671.327	438.48
671.773	449.48
672.219	457.28
672.665	521.28
673.11	561.58
673.556	604.68
674.002	645.68
674.448	636.78
674.893	523.98
675.339	453.38
675.785	423.88
676.23	409.88
676.676	369.48
677.122	365.08
677.567	356.18
678.013	348.08
678.458	345.48
678.904	345.28
679.349	331.68
679.794	338.98
680.24	336.78
680.685	337.38
681.131	337.58
681.576	331.78
682.021	337.98
682.466	333.68
682.912	336.68
683.357	342.28
683.802	365.28
684.247	403.38
684.692	428.88
685.137	479.38
685.583	521.48
686.028	533.78
686.473	502.98
686.918	430.08
687.363	402.88
687.807	375.28
688.252	351.78
688.697	342.28
689.142	320.98
689.587	312.98
690.032	311.48
690.477	325.68
690.921	332.08
691.366	356.28
691.811	389.08
692.255	413.18
692.7	448.98
693.145	474.48
693.589	652.38
694.034	1056.28
694.478	1464.28
694.923	1672.68
695.367	2185.08
695.812	1149.58
696.256	479.78
696.701	350.88
697.145	328.98
697.59	314.48
698.034	308.58
698.478	312.98
698.922	309.98
699.367	307.98
699.811	326.58
700.255	341.78
700.699	358.58
701.143	405.18
701.588	457.38
702.032	487.98
702.476	493.08
702.92	474.58
703.364	468.08
703.808	601.98
704.252	969.08
704.696	1373.78
705.14	1594.28
705.584	2055.38
706.027	1024.88
706.471	497.38
706.915	379.08
707.359	337.48
707.803	300.28
708.246	295.28
708.69	292.58
709.134	307.18
709.577	301.18
710.021	298.38
710.465	289.28
710.908	288.48
711.352	279.38
711.795	291.28
712.239	343.48
712.682	364.78
713.126	401.98
713.569	451.38
714.012	357.18
714.456	318.08
714.899	281.18
715.342	262.58
715.786	246.28
716.229	241.98
716.672	239.98
717.115	236.88
717.558	239.48
718.002	241.48
718.445	244.88
718.888	262.18
719.331	275.88
719.774	287.48
720.217	291.58
720.66	264.68
721.103	245.38
721.546	240.08
721.989	236.68
722.432	222.28
722.874	224.48
723.317	218.88
723.76	224.08
724.203	250.68
724.645	306.38
725.088	424.28
725.531	542.58
725.974	625.38
726.416	519.68
726.859	293.18
727.301	234.68
727.744	224.18
728.187	226.18
728.629	225.48
729.071	230.68
729.514	242.88
729.956	261.68
730.399	273.08
730.841	270.68
731.283	262.88
731.726	256.88
732.168	245.18
732.61	248.48
733.053	269.48
733.495	297.38
733.937	330.08
734.379	373.68
734.821	409.58
735.263	506.18
735.705	772.78
736.148	1468.48
736.59	2432.38
737.032	2944.98
737.474	2382.38
737.916	755.48
738.357	411.38
738.799	314.08
739.241	285.48
739.683	264.38
740.125	279.98
740.567	278.58
741.008	300.38
741.45	295.38
741.892	309.08
742.334	325.78
742.775	343.18
743.217	322.08
743.658	257.88
744.1	240.28
744.542	246.58
744.983	288.98
745.425	328.28
745.866	334.48
746.307	276.18
746.749	273.28
747.19	302.28
747.632	418.98
748.073	820.18
748.514	1724.38
748.956	2695.18
749.397	3371.18
749.838	2812.38
750.279	2851.58
750.72	1433.78
751.162	514.68
751.603	304.08
752.044	233.08
752.485	202.38
752.926	197.08
753.367	193.88
753.808	188.58
754.249	178.78
754.69	177.68
755.131	167.98
755.572	176.58
756.013	174.48
756.453	168.68
756.894	173.88
757.335	190.28
757.776	190.28
758.216	180.68
758.657	188.78
759.098	199.28
759.538	206.88
759.979	239.48
760.42	347.78
760.86	643.68
761.301	1673.68
761.741	4105.38
762.182	6178.18
762.622	4353.68
