Data from 20171114-ORNL-Ar_H_NY_Subt18_08-06-21-826.txt Node
Date: Tue Nov 14 08:06:21 EST 2017
User: Ender
Spectrometer: HR+D1039
Trigger mode: 0
Integration Time (sec): 2.730000E-2
Scans to average: 10
Electric dark correction enabled: true
Nonlinearity correction enabled: false
Boxcar width: 0
XAxis mode: Wavelengths
Number of Pixels in Spectrum: 2048
>>>>>Begin Spectral Data<<<<<
187.836	-6.28
188.309	-6.28
188.782	-6.28
189.255	-0.98
189.728	-1.48
190.201	4.52
190.674	-0.18
191.147	3.22
191.619	-3.88
192.092	5.92
192.565	8.52
193.038	-1.88
193.511	0.22
193.984	-0.58
194.456	-2.48
194.929	-0.38
195.402	-5.28
195.874	1.02
196.347	-2.18
196.82	-7.38
197.292	8.22
197.765	1.42
198.237	-4.28
198.71	3.72
199.182	1.22
199.655	2.92
200.127	1.22
200.6	-1.08
201.072	4.42
201.544	-1.28
202.017	-0.98
202.489	5.22
202.961	-0.28
203.433	-2.08
203.906	-8.78
204.378	-0.38
204.85	-4.68
205.322	-7.48
205.794	-3.68
206.266	-1.48
206.739	-4.58
207.211	6.02
207.683	-6.58
208.155	-1.98
208.627	-3.38
209.099	-6.78
209.57	-8.88
210.042	0.42
210.514	4.92
210.986	-2.28
211.458	-7.08
211.93	-0.08
212.402	0.92
212.873	-7.78
213.345	-8.28
213.817	-12.18
214.288	-3.78
214.76	-10.28
215.232	2.32
215.703	2.12
216.175	-4.68
216.646	-2.08
217.118	-7.78
217.589	-0.48
218.061	-0.28
218.532	-0.58
219.004	-1.38
219.475	-2.18
219.946	1.82
220.418	-2.08
220.889	4.22
221.36	0.62
221.832	-1.78
222.303	-3.38
222.774	2.12
223.245	-5.48
223.717	-6.78
224.188	-3.68
224.659	-2.88
225.13	-0.48
225.601	0.52
226.072	3.62
226.543	1.62
227.014	2.52
227.485	-1.28
227.956	-3.28
228.427	4.82
228.898	-1.58
229.369	3.92
229.839	0.12
230.31	-5.08
230.781	2.82
231.252	-2.68
231.722	-6.28
232.193	0.22
232.664	5.72
233.135	-1.08
233.605	1.92
234.076	-5.58
234.546	4.32
235.017	7.62
235.487	-0.78
235.958	6.42
236.428	0.72
236.899	7.52
237.369	8.02
237.84	-0.78
238.31	6.42
238.78	4.62
239.251	0.52
239.721	6.22
240.191	3.42
240.662	1.32
241.132	4.92
241.602	-1.88
242.072	-3.58
242.542	6.52
243.013	7.72
243.483	6.42
243.953	2.62
244.423	2.22
244.893	1.32
245.363	-1.38
245.833	2.12
246.303	-3.08
246.773	6.72
247.243	2.52
247.712	8.42
248.182	13.22
248.652	3.82
249.122	1.62
249.592	20.02
250.061	20.82
250.531	35.72
251.001	15.42
251.471	28.52
251.94	22.52
252.41	11.62
252.879	5.02
253.349	9.42
253.818	10.62
254.288	5.82
254.757	4.62
255.227	1.42
255.696	5.92
256.166	12.22
256.635	7.22
257.105	11.32
257.574	8.52
258.043	9.72
258.513	12.72
258.982	18.42
259.451	10.12
259.92	20.32
260.389	14.02
260.859	17.52
261.328	8.92
261.797	23.72
262.266	13.52
262.735	10.02
263.204	8.52
263.673	7.02
264.142	9.32
264.611	-1.18
265.08	1.92
265.549	5.62
266.018	7.52
266.487	2.32
266.955	-1.08
267.424	2.82
267.893	9.92
268.362	-1.38
268.83	3.22
269.299	13.42
269.768	11.52
270.236	10.92
270.705	3.72
271.174	1.82
271.642	10.22
272.111	11.72
272.579	21.32
273.048	24.52
273.516	32.82
273.985	30.02
274.453	21.82
274.922	19.42
275.39	12.82
275.858	7.82
276.327	18.42
276.795	24.92
277.263	12.22
277.731	33.52
278.2	57.92
278.668	66.52
279.136	48.22
279.604	25.82
280.072	15.72
280.54	18.92
281.008	16.22
281.477	19.32
281.945	14.22
282.413	16.72
282.881	17.02
283.348	6.62
283.816	17.22
284.284	18.32
284.752	13.92
285.22	17.32
285.688	14.72
286.156	23.52
286.623	50.12
287.091	51.82
287.559	24.82
288.026	21.62
288.494	18.02
288.962	6.82
289.429	10.02
289.897	21.62
290.364	21.72
290.832	20.92
291.3	25.52
291.767	25.72
292.234	23.12
292.702	16.12
293.169	22.82
293.637	29.72
294.104	26.42
294.571	17.72
295.039	17.42
295.506	18.92
295.973	23.72
296.44	17.92
296.908	21.62
297.375	19.92
297.842	21.52
298.309	23.72
298.776	13.42
299.243	25.12
299.71	17.72
300.177	21.82
300.644	33.62
301.111	27.62
301.578	27.12
302.045	19.72
302.512	26.12
302.979	25.72
303.446	25.12
303.913	21.52
304.379	16.12
304.846	29.22
305.313	25.52
305.78	25.42
306.246	29.32
306.713	28.12
307.18	32.92
307.646	26.12
308.113	28.62
308.579	25.22
309.046	25.72
309.512	26.52
309.979	21.82
310.445	33.02
310.912	35.02
311.378	36.22
311.845	31.92
312.311	34.82
312.777	32.42
313.244	34.32
313.71	37.12
314.176	34.02
314.642	31.42
315.109	34.82
315.575	42.72
316.041	36.32
316.507	39.32
316.973	43.02
317.439	38.62
317.905	38.92
318.371	40.22
318.837	35.62
319.303	36.52
319.769	37.02
320.235	36.42
320.701	39.32
321.167	41.32
321.633	40.02
322.099	45.52
322.564	52.42
323.03	41.12
323.496	43.22
323.962	39.42
324.427	38.72
324.893	45.42
325.359	39.42
325.824	43.52
326.29	39.02
326.755	49.52
327.221	42.32
327.686	40.12
328.152	47.82
328.617	43.72
329.083	51.82
329.548	58.02
330.014	53.22
330.479	43.12
330.944	44.32
331.41	45.62
331.875	46.42
332.34	47.82
332.805	48.32
333.271	56.82
333.736	49.82
334.201	52.72
334.666	48.32
335.131	56.72
335.596	53.72
336.061	48.82
336.526	48.42
336.991	45.92
337.456	60.12
337.921	49.62
338.386	45.72
338.851	49.72
339.316	53.92
339.781	48.22
340.246	50.52
340.711	54.42
341.175	52.42
341.64	52.62
342.105	60.82
342.569	60.92
343.034	63.32
343.499	56.12
343.963	61.62
344.428	63.82
344.893	64.92
345.357	60.72
345.822	62.32
346.286	70.82
346.751	83.72
347.215	71.12
347.679	77.62
348.144	95.92
348.608	85.72
349.073	76.72
349.537	81.12
350.001	83.82
350.465	92.92
350.93	82.62
351.394	85.02
351.858	77.32
352.322	87.42
352.786	92.32
353.25	103.42
353.715	119.32
354.179	106.62
354.643	124.12
355.107	134.52
355.571	114.42
356.035	104.72
356.498	112.12
356.962	128.42
357.426	141.12
357.89	119.62
358.354	94.12
358.818	86.82
359.281	79.92
359.745	77.62
360.209	85.02
360.673	85.52
361.136	85.32
361.6	85.22
362.064	91.32
362.527	85.72
362.991	94.72
363.454	87.22
363.918	78.92
364.381	81.02
364.845	86.22
365.308	84.32
365.772	89.82
366.235	87.32
366.698	89.62
367.162	89.42
367.625	89.92
368.088	93.82
368.552	94.52
369.015	89.92
369.478	102.82
369.941	102.02
370.404	105.72
370.867	111.02
371.331	110.72
371.794	111.82
372.257	125.02
372.72	124.32
373.183	116.52
373.646	110.72
374.109	107.52
374.572	112.82
375.035	115.62
375.497	121.82
375.96	117.42
376.423	106.42
376.886	125.42
377.349	110.72
377.811	104.62
378.274	112.02
378.737	111.52
379.199	119.82
379.662	116.32
380.125	120.62
380.587	120.12
381.05	132.32
381.512	131.82
381.975	133.82
382.437	130.92
382.9	136.42
383.362	131.42
383.825	145.32
384.287	151.52
384.75	154.02
385.212	138.42
385.674	150.82
386.136	140.52
386.599	126.82
387.061	143.52
387.523	140.72
387.985	143.12
388.447	151.02
388.91	149.82
389.372	166.32
389.834	155.62
390.296	154.52
390.758	166.02
391.22	177.52
391.682	221.22
392.144	316.12
392.606	239.92
393.068	175.02
393.529	170.92
393.991	164.02
394.453	154.52
394.915	163.32
395.377	199.32
395.838	225.32
396.3	164.82
396.762	150.12
397.224	141.42
397.685	137.42
398.147	134.82
398.608	137.72
399.07	133.02
399.531	137.92
399.993	148.92
400.454	161.92
400.916	150.92
401.377	148.42
401.839	157.92
402.3	159.72
402.762	175.42
403.223	185.32
403.684	178.62
404.145	161.82
404.607	168.12
405.068	163.02
405.529	180.02
405.99	198.62
406.451	180.72
406.913	176.22
407.374	170.92
407.835	164.52
408.296	168.22
408.757	179.62
409.218	195.12
409.679	180.32
410.14	184.92
410.601	189.82
411.062	189.82
411.522	192.62
411.983	199.42
412.444	187.22
412.905	189.12
413.366	193.22
413.826	197.72
414.287	218.92
414.748	265.42
415.208	248.92
415.669	221.02
416.13	210.92
416.59	206.62
417.051	221.32
417.511	230.32
417.972	245.52
418.432	258.72
418.893	296.42
419.353	260.62
419.814	208.32
420.274	189.62
420.734	183.92
421.195	205.42
421.655	196.42
422.115	207.82
422.576	200.12
423.036	203.12
423.496	214.12
423.956	219.32
424.416	240.22
424.876	276.02
425.336	279.42
425.797	271.72
426.257	267.42
426.717	246.62
427.177	236.72
427.637	230.82
428.097	242.62
428.556	249.82
429.016	280.82
429.476	277.52
429.936	292.12
430.396	286.52
430.856	310.72
431.315	324.42
431.775	357.82
432.235	402.32
432.694	356.22
433.154	385.22
433.614	401.02
434.073	353.72
434.533	294.62
434.993	278.02
435.452	294.82
435.912	306.02
436.371	294.92
436.83	291.92
437.29	277.32
437.749	257.92
438.209	258.82
438.668	287.72
439.127	304.62
439.587	283.52
440.046	251.02
440.505	272.22
440.964	291.72
441.424	332.12
441.883	327.12
442.342	270.22
442.801	229.12
443.26	222.82
443.719	231.42
444.178	225.72
444.637	218.12
445.096	230.92
445.555	230.82
446.014	228.72
446.473	231.92
446.932	247.22
447.391	235.92
447.849	229.52
448.308	225.62
448.767	231.12
449.226	238.62
449.685	249.52
450.143	257.42
450.602	245.62
451.061	240.12
451.519	238.32
451.978	238.22
452.436	246.12
452.895	245.62
453.353	265.32
453.812	247.82
454.27	248.72
454.729	245.92
455.187	251.02
455.646	252.42
456.104	262.52
456.562	266.22
457.021	279.12
457.479	261.42
457.937	279.32
458.395	273.12
458.854	255.32
459.312	265.32
459.77	284.22
460.228	270.22
460.686	257.32
461.144	264.32
461.602	256.62
462.06	255.42
462.518	261.72
462.976	262.52
463.434	265.92
463.892	275.12
464.35	285.62
464.808	303.92
465.266	279.82
465.724	275.12
466.181	283.82
466.639	278.22
467.097	290.22
467.555	308.22
468.012	313.12
468.47	320.92
468.928	345.02
469.385	352.72
469.843	355.42
470.3	361.32
470.758	379.12
471.215	393.72
471.673	426.32
472.13	422.62
472.588	434.52
473.045	388.52
473.503	386.92
473.96	404.42
474.417	416.92
474.875	450.72
475.332	496.32
475.789	485.32
476.246	482.12
476.704	503.72
477.161	526.92
477.618	536.12
478.075	578.12
478.532	635.92
478.989	715.82
479.446	826.62
479.903	800.42
480.36	848.72
480.817	901.42
481.274	998.52
481.731	1106.02
482.188	1209.62
482.645	1356.72
483.102	1466.32
483.558	1615.22
484.015	1661.52
484.472	1637.12
484.929	1582.22
485.385	1531.22
485.842	1487.22
486.299	1426.72
486.755	1344.32
487.212	1127.52
487.668	951.82
488.125	875.72
488.582	795.62
489.038	765.52
489.494	732.32
489.951	705.42
490.407	675.22
490.864	659.82
491.32	652.42
491.776	663.92
492.233	674.52
492.689	631.42
493.145	628.52
493.602	614.52
494.058	635.92
494.514	629.62
494.97	651.82
495.426	672.02
495.882	642.62
496.338	629.82
496.794	641.72
497.251	634.22
497.707	651.92
498.163	653.12
498.618	657.22
499.074	672.22
499.53	692.42
499.986	691.12
500.442	675.02
500.898	644.62
501.354	636.32
501.809	660.32
502.265	660.22
502.721	676.82
503.177	692.62
503.632	682.52
504.088	693.42
504.543	732.12
504.999	725.92
505.455	685.42
505.91	649.12
506.366	642.32
506.821	648.22
507.277	643.82
507.732	646.82
508.187	638.12
508.643	644.62
509.098	640.22
509.553	668.12
510.009	678.92
510.464	696.72
510.919	699.82
511.375	719.12
511.83	729.52
512.285	738.62
512.74	779.72
513.195	800.42
513.65	796.72
514.105	788.92
514.56	791.52
515.015	817.22
515.47	835.72
515.925	818.72
516.38	809.22
516.835	821.32
517.29	804.72
517.745	808.82
518.2	785.52
518.655	768.62
519.109	769.52
519.564	757.42
520.019	749.22
520.474	755.52
520.928	747.62
521.383	735.72
521.838	731.02
522.292	730.72
522.747	735.82
523.201	729.32
523.656	714.52
524.11	706.52
524.565	717.72
525.019	710.32
525.474	721.52
525.928	718.32
526.382	711.22
526.837	715.52
527.291	723.12
527.745	716.82
528.2	718.42
528.654	706.72
529.108	699.22
529.562	714.02
530.016	715.32
530.47	708.52
530.925	712.32
531.379	726.62
531.833	727.12
532.287	723.42
532.741	727.42
533.195	727.52
533.649	730.12
534.103	741.12
534.556	724.42
535.01	729.32
535.464	722.02
535.918	738.52
536.372	749.92
536.826	740.32
537.279	728.72
537.733	732.52
538.187	731.22
538.64	734.12
539.094	735.12
539.548	753.02
540.001	749.02
540.455	744.32
540.908	758.02
541.362	765.52
541.815	761.92
542.269	780.02
542.722	784.42
543.175	791.12
543.629	793.62
544.082	802.72
544.536	800.42
544.989	799.22
545.442	807.12
545.895	820.72
546.349	816.22
546.802	823.52
547.255	823.02
547.708	814.22
548.161	834.12
548.614	841.52
549.067	848.32
549.52	846.92
549.973	826.72
550.426	830.52
550.879	816.22
551.332	814.22
551.785	825.72
552.238	837.42
552.691	857.82
553.144	853.82
553.596	872.12
554.049	895.62
554.502	914.42
554.955	933.92
555.407	926.02
555.86	920.62
556.313	911.32
556.765	911.32
557.218	905.62
557.67	903.82
558.123	902.02
558.576	903.92
559.028	908.92
559.48	902.72
559.933	892.12
560.385	861.92
560.838	831.12
561.29	809.32
561.742	798.02
562.195	784.22
562.647	790.72
563.099	801.22
563.551	797.12
564.004	799.52
564.456	789.72
564.908	780.32
565.36	764.92
565.812	750.52
566.264	744.92
566.716	741.82
567.168	728.62
567.62	749.02
568.072	722.02
568.524	708.32
568.976	710.02
569.428	697.62
569.88	696.02
570.332	702.82
570.784	704.42
571.235	699.62
571.687	718.72
572.139	714.82
572.59	729.62
573.042	725.12
573.494	718.72
573.945	714.82
574.397	696.32
574.849	714.92
575.3	712.52
575.752	700.42
576.203	703.12
576.655	706.82
577.106	695.92
577.557	681.62
578.009	692.22
578.46	691.52
578.912	683.52
579.363	680.12
579.814	683.52
580.265	676.92
580.717	695.92
581.168	685.72
581.619	696.02
582.07	693.92
582.521	691.62
582.972	698.72
583.423	698.52
583.875	701.22
584.326	719.62
584.777	770.72
585.227	845.02
585.678	951.42
586.129	1025.52
586.58	1113.72
587.031	1204.32
587.482	1352.52
587.933	1552.52
588.384	1353.72
588.834	1004.52
589.285	833.82
589.736	806.52
590.186	792.12
590.637	771.22
591.088	760.02
591.538	759.22
591.989	754.72
592.439	747.32
592.89	748.92
593.34	724.82
593.791	732.42
594.241	720.82
594.692	733.42
595.142	723.42
595.593	722.32
596.043	724.52
596.493	730.72
596.943	737.32
597.394	734.02
597.844	728.32
598.294	739.42
598.744	770.82
599.195	787.42
599.645	842.32
600.095	874.62
600.545	922.82
600.995	981.62
601.445	1048.02
601.895	1106.92
602.345	1156.72
602.795	1142.72
603.245	1097.02
603.695	1035.22
604.145	977.32
604.594	920.22
605.044	886.72
605.494	822.02
605.944	776.32
606.393	765.32
606.843	744.62
607.293	746.32
607.743	744.92
608.192	766.02
608.642	771.62
609.091	785.52
609.541	796.92
609.99	795.62
610.44	788.12
610.889	742.12
611.339	720.62
611.788	695.52
612.238	710.92
612.687	736.92
613.136	741.42
613.586	758.82
614.035	760.72
614.484	769.32
614.933	767.12
615.383	768.92
615.832	756.12
616.281	740.52
616.73	705.12
617.179	671.22
617.628	668.52
618.077	647.72
618.526	644.92
618.975	639.82
619.424	626.62
619.873	626.02
620.322	626.42
620.771	625.22
621.22	627.12
621.669	610.92
622.118	604.12
622.567	600.02
623.015	579.52
623.464	583.92
623.913	567.22
624.361	564.02
624.81	567.92
625.259	567.42
625.707	558.92
626.156	568.22
626.604	576.42
627.053	565.22
627.501	570.82
627.95	579.12
628.398	591.12
628.847	585.02
629.295	587.52
629.744	588.12
630.192	573.02
630.64	571.02
631.089	564.72
631.537	587.42
631.985	599.42
632.433	621.42
632.881	629.42
633.33	668.02
633.778	650.22
634.226	579.02
634.674	579.12
635.122	580.72
635.57	604.22
636.018	638.82
636.466	587.32
636.914	563.92
637.362	580.82
637.81	587.72
638.258	592.52
638.705	585.32
639.153	621.62
639.601	635.02
640.049	649.52
640.497	693.12
640.944	704.62
641.392	648.02
641.84	621.02
642.287	594.72
642.735	584.22
643.182	580.02
643.63	589.12
644.078	584.22
644.525	604.22
644.973	607.42
645.42	614.02
645.867	626.22
646.315	645.02
646.762	676.62
647.21	703.52
647.657	731.32
648.104	759.02
648.551	787.92
648.999	851.52
649.446	934.02
649.893	1017.32
650.34	1187.02
650.787	1417.52
651.234	1768.62
651.682	2310.42
652.129	3175.42
652.576	4567.32
653.023	6765.32
653.47	9276.42
653.917	11609.92
654.363	13397.72
654.81	14775.92
655.257	14086.32
655.704	9207.22
656.151	5437.12
656.598	3517.02
657.044	2489.52
657.491	1911.72
657.938	1532.82
658.385	1271.72
658.831	1088.82
659.278	985.22
659.724	867.52
660.171	797.62
660.618	737.22
661.064	714.12
661.511	688.82
661.957	674.22
662.404	649.22
662.85	660.02
663.296	636.42
663.743	569.42
664.189	546.62
664.635	544.02
665.082	543.92
665.528	540.42
665.974	531.62
666.42	519.42
666.867	514.42
667.313	498.62
667.759	493.52
668.205	490.62
668.651	505.32
669.097	496.72
669.543	516.22
669.989	480.72
670.435	452.22
670.881	455.02
671.327	453.62
671.773	472.92
672.219	491.52
672.665	543.82
673.11	588.62
673.556	635.52
674.002	676.12
674.448	660.22
674.893	551.72
675.339	477.82
675.785	451.42
676.23	429.52
676.676	398.12
677.122	395.12
677.567	378.42
678.013	369.82
678.458	366.52
678.904	368.22
679.349	352.82
679.794	357.02
680.24	362.32
680.685	355.82
681.131	350.92
681.576	350.82
682.021	364.32
682.466	352.22
682.912	350.92
683.357	364.52
683.802	387.42
684.247	421.22
684.692	455.52
685.137	496.52
685.583	544.42
686.028	567.92
686.473	521.22
686.918	451.92
687.363	411.22
687.807	395.22
688.252	368.42
688.697	358.92
689.142	339.82
689.587	328.32
690.032	322.92
690.477	342.42
690.921	339.52
691.366	388.62
691.811	414.92
692.255	438.12
692.7	466.92
693.145	506.52
693.589	698.22
694.034	1122.92
694.478	1553.52
694.923	1751.22
695.367	2279.92
695.812	1197.62
696.256	500.02
696.701	374.82
697.145	347.52
697.59	333.32
698.034	336.12
698.478	333.62
698.922	336.22
699.367	339.42
699.811	350.02
700.255	355.52
700.699	393.72
701.143	429.72
701.588	486.32
702.032	514.62
702.476	516.42
702.92	492.32
703.364	502.02
703.808	638.92
704.252	1038.92
704.696	1460.22
705.14	1679.02
705.584	2140.62
706.027	1065.12
706.471	527.52
706.915	403.32
707.359	353.32
707.803	325.12
708.246	320.62
708.69	314.42
709.134	318.42
709.577	317.72
710.021	312.02
710.465	315.22
710.908	306.42
711.352	307.02
711.795	320.42
712.239	353.62
712.682	392.62
713.126	420.12
713.569	465.22
714.012	368.92
714.456	330.42
714.899	310.02
715.342	281.62
715.786	262.62
716.229	266.02
716.672	261.72
717.115	257.22
717.558	251.32
718.002	250.12
718.445	267.72
718.888	293.22
719.331	293.72
719.774	314.72
720.217	306.72
720.66	295.02
721.103	276.32
721.546	251.32
721.989	252.72
722.432	231.02
722.874	239.72
723.317	232.02
723.76	236.52
724.203	263.72
724.645	325.02
725.088	454.42
725.531	574.22
725.974	648.92
726.416	551.22
726.859	318.22
727.301	250.22
727.744	246.22
728.187	233.22
728.629	237.52
729.071	246.12
729.514	260.32
729.956	283.42
730.399	284.22
730.841	295.52
731.283	283.42
731.726	272.32
732.168	258.62
732.61	265.52
733.053	291.22
733.495	321.72
733.937	362.72
734.379	402.22
734.821	442.42
735.263	537.72
735.705	832.22
736.148	1573.92
736.59	2580.52
737.032	3073.22
737.474	2488.52
737.916	809.02
738.357	432.92
738.799	330.92
739.241	305.02
739.683	286.12
740.125	292.52
740.567	294.52
741.008	316.12
741.45	323.82
741.892	321.72
742.334	342.02
742.775	364.62
743.217	348.62
743.658	268.72
744.1	258.52
744.542	259.52
744.983	311.32
745.425	343.32
745.866	334.52
746.307	281.32
746.749	289.32
747.19	325.82
747.632	458.42
748.073	876.62
748.514	1857.32
748.956	2859.22
749.397	3584.72
749.838	2969.32
750.279	2971.22
750.72	1499.02
751.162	551.82
751.603	318.52
752.044	253.02
752.485	218.22
752.926	210.22
753.367	202.22
753.808	193.62
754.249	187.92
754.69	192.32
755.131	186.02
755.572	183.32
756.013	185.02
756.453	183.12
756.894	192.22
757.335	196.02
757.776	198.22
758.216	198.02
758.657	201.22
759.098	210.32
759.538	229.72
759.979	265.02
760.42	375.12
760.86	699.22
761.301	1803.92
761.741	4395.92
762.182	6461.12
