Data from 20171114-ORNL-Ar_H_NY_Subt18_08-06-59-497.txt Node
Date: Tue Nov 14 08:06:59 EST 2017
User: Ender
Spectrometer: HR+D1039
Trigger mode: 0
Integration Time (sec): 2.730000E-2
Scans to average: 10
Electric dark correction enabled: true
Nonlinearity correction enabled: false
Boxcar width: 0
XAxis mode: Wavelengths
Number of Pixels in Spectrum: 2048
>>>>>Begin Spectral Data<<<<<
187.836	1.1
188.309	1.1
188.782	1.1
189.255	-3
189.728	2.5
190.201	1.4
190.674	-2.2
191.147	0.4
191.619	-7
192.092	0.3
192.565	6.4
193.038	6
193.511	2.1
193.984	0.3
194.456	-4.4
194.929	2.6
195.402	-7.9
195.874	1.4
196.347	-2.8
196.82	-8.1
197.292	9.8
197.765	-3.8
198.237	-6.9
198.71	1.5
199.182	0.6
199.655	6.6
200.127	8.7
200.6	1.8
201.072	-0.1
201.544	-10.6
202.017	-6.1
202.489	0.8
202.961	0.7
203.433	-0.2
203.906	-8.2
204.378	-4.4
204.85	-1.1
205.322	-7.6
205.794	-2.3
206.266	-8.6
206.739	-7.7
207.211	-2.8
207.683	-5.2
208.155	-10.3
208.627	-9.6
209.099	-4.8
209.57	-9.4
210.042	-5.2
210.514	-7.2
210.986	-0.1
211.458	-11.3
211.93	-10.3
212.402	-4.4
212.873	-6.9
213.345	-5.7
213.817	-8.3
214.288	-5.8
214.76	-7.1
215.232	-1.9
215.703	0.7
216.175	-4.3
216.646	-12.3
217.118	-15.8
217.589	-9
218.061	-4.4
218.532	-5.1
219.004	-4.1
219.475	-3.8
219.946	-7
220.418	-3.2
220.889	4.4
221.36	2.7
221.832	-2.4
222.303	-9.5
222.774	-2.8
223.245	-6
223.717	-7.9
224.188	-4.8
224.659	-12.6
225.13	-8.7
225.601	-5.4
226.072	5.4
226.543	-3
227.014	-2.6
227.485	-1.5
227.956	-7.5
228.427	-2.2
228.898	1.7
229.369	0.4
229.839	-1.3
230.31	-8.9
230.781	-3.1
231.252	-4
231.722	-5.2
232.193	-5.6
232.664	-8
233.135	-0.9
233.605	-7.1
234.076	-6.8
234.546	-4.8
235.017	4.2
235.487	3.9
235.958	-1.4
236.428	-5.7
236.899	-7.4
237.369	4.3
237.84	-1.9
238.31	0.5
238.78	-6.6
239.251	-6.7
239.721	2.8
240.191	-0.7
240.662	-4.8
241.132	-7.7
241.602	-9.1
242.072	-6.6
242.542	-1.8
243.013	-4.8
243.483	3.3
243.953	0.6
244.423	-4.3
244.893	-2.4
245.363	-4.9
245.833	-3.9
246.303	-8.6
246.773	3.9
247.243	2.6
247.712	-1.6
248.182	1
248.652	1.6
249.122	-13.4
249.592	-8.1
250.061	3.9
250.531	11.2
251.001	-5.1
251.471	4.7
251.94	7.2
252.41	5.7
252.879	-2.4
253.349	6
253.818	2.5
254.288	-2.3
254.757	-0.9
255.227	-6.2
255.696	-0.5
256.166	7.1
256.635	-3.3
257.105	1.2
257.574	0.3
258.043	1.8
258.513	-5.6
258.982	-1
259.451	-2.1
259.92	-0.4
260.389	-2
260.859	-1.3
261.328	-6.2
261.797	4.9
262.266	-2.9
262.735	3.2
263.204	-2.7
263.673	-4.2
264.142	8.4
264.611	-4.4
265.08	2.1
265.549	-2.3
266.018	2
266.487	-4.2
266.955	-6.5
267.424	-1.9
267.893	10.5
268.362	1.9
268.83	0.7
269.299	7.9
269.768	3.4
270.236	1.4
270.705	-0.6
271.174	-0.5
271.642	0.7
272.111	1.4
272.579	-2.3
273.048	2.3
273.516	4.6
273.985	3.3
274.453	1.5
274.922	8.8
275.39	6.2
275.858	0.3
276.327	5
276.795	11.4
277.263	2.5
277.731	6.6
278.2	9.1
278.668	2.3
279.136	14.8
279.604	1.2
280.072	5.9
280.54	4.8
281.008	3.2
281.477	9.7
281.945	0.8
282.413	11.1
282.881	9.2
283.348	4
283.816	14.4
284.284	6.5
284.752	18
285.22	7.3
285.688	15.9
286.156	15.4
286.623	13.1
287.091	6.1
287.559	9.5
288.026	13.1
288.494	11.5
288.962	6.5
289.429	10.3
289.897	19.1
290.364	13
290.832	11.8
291.3	11.5
291.767	10.1
292.234	14.2
292.702	11.5
293.169	13.4
293.637	12.7
294.104	15.8
294.571	1.2
295.039	10.4
295.506	3.5
295.973	17.3
296.44	10.7
296.908	11.8
297.375	13.3
297.842	12.3
298.309	8.1
298.776	10
299.243	17.9
299.71	7.7
300.177	17
300.644	20.8
301.111	11.1
301.578	16.6
302.045	6.9
302.512	18.4
302.979	22.1
303.446	18.1
303.913	11.6
304.379	20.1
304.846	21.3
305.313	16.2
305.78	19.2
306.246	21.4
306.713	21.7
307.18	15.7
307.646	21.3
308.113	24.1
308.579	18.7
309.046	18.7
309.512	18.1
309.979	16.1
310.445	20.6
310.912	21.6
311.378	21.5
311.845	28.1
312.311	22.5
312.777	24.6
313.244	30.5
313.71	23.9
314.176	20.7
314.642	23.8
315.109	22.6
315.575	25.1
316.041	30.6
316.507	20.7
316.973	26.7
317.439	23.3
317.905	31.1
318.371	33.8
318.837	30.5
319.303	27.9
319.769	30.1
320.235	25.6
320.701	30.4
321.167	27
321.633	25
322.099	28
322.564	30.8
323.03	28
323.496	32.5
323.962	34.2
324.427	33.8
324.893	34.8
325.359	31.1
325.824	31.4
326.29	26.4
326.755	35.2
327.221	34.3
327.686	36.7
328.152	39.1
328.617	43.8
329.083	38.1
329.548	45.1
330.014	44.5
330.479	30.4
330.944	31.5
331.41	34.4
331.875	36.3
332.34	33.8
332.805	39.7
333.271	39.8
333.736	34.8
334.201	41.9
334.666	42.5
335.131	48
335.596	43.2
336.061	41.8
336.526	37.1
336.991	42.2
337.456	43.1
337.921	43.4
338.386	38.8
338.851	36.9
339.316	37.9
339.781	42.7
340.246	44.7
340.711	41.3
341.175	43.9
341.64	40
342.105	49.4
342.569	46.7
343.034	50.6
343.499	50.2
343.963	44.5
344.428	52.9
344.893	57.5
345.357	56.5
345.822	53
346.286	61
346.751	61
347.215	60.9
347.679	64.7
348.144	74.2
348.608	68
349.073	68.2
349.537	64.2
350.001	66.3
350.465	68.9
350.93	66.1
351.394	69
351.858	62.8
352.322	70.5
352.786	76.3
353.25	85.1
353.715	96.7
354.179	89.6
354.643	101.5
355.107	99.7
355.571	94.5
356.035	86.9
356.498	100.1
356.962	99.7
357.426	99.9
357.89	99.2
358.354	83
358.818	74.8
359.281	70.6
359.745	66.9
360.209	68.7
360.673	68.5
361.136	72.2
361.6	77.4
362.064	73.9
362.527	71.6
362.991	84.1
363.454	74.3
363.918	71.1
364.381	69.3
364.845	72
365.308	80.4
365.772	74.2
366.235	71.5
366.698	70.2
367.162	80.4
367.625	74.2
368.088	81.7
368.552	76.4
369.015	70.9
369.478	83.3
369.941	94.9
370.404	91.7
370.867	86.9
371.331	96.6
371.794	101.4
372.257	89
372.72	99
373.183	100.6
373.646	84.1
374.109	87.4
374.572	91.8
375.035	91.9
375.497	97.7
375.96	90
376.423	98.3
376.886	107.3
377.349	102.6
377.811	92.2
378.274	91.1
378.737	98
379.199	96.3
379.662	108.7
380.125	104
380.587	100.4
381.05	101.4
381.512	108.3
381.975	119.8
382.437	111.3
382.9	106.3
383.362	115.1
383.825	121.3
384.287	116.9
384.75	113.2
385.212	110.7
385.674	126.3
386.136	124.3
386.599	113.5
387.061	114
387.523	113.1
387.985	120.1
388.447	127.3
388.91	118.4
389.372	117.9
389.834	118.8
390.296	117.5
390.758	121.6
391.22	133.6
391.682	140.1
392.144	151.1
392.606	138.5
393.068	129.2
393.529	140.8
393.991	131.5
394.453	124.8
394.915	124.8
395.377	123.1
395.838	128
396.3	132.5
396.762	139.8
397.224	135
397.685	124.1
398.147	133.2
398.608	132.7
399.07	130
399.531	129.2
399.993	141.2
400.454	144.1
400.916	135
401.377	147.2
401.839	146.9
402.3	148.3
402.762	161.4
403.223	171.6
403.684	167.3
404.145	163.9
404.607	154.6
405.068	163.7
405.529	170.5
405.99	173.8
406.451	164.5
406.913	166.5
407.374	156.9
407.835	157.1
408.296	164
408.757	166.4
409.218	178.7
409.679	178
410.14	171.4
410.601	173.6
411.062	170.6
411.522	174.3
411.983	173.2
412.444	168.3
412.905	180.4
413.366	183.9
413.826	196
414.287	223.8
414.748	266.2
415.208	258.1
415.669	214.5
416.13	206.3
416.59	202.8
417.051	214.7
417.511	226.2
417.972	235.7
418.432	244.7
418.893	291.3
419.353	256.5
419.814	201.8
420.274	180.9
420.734	179.7
421.195	195.9
421.655	187.8
422.115	194.1
422.576	192.6
423.036	204.8
423.496	210.4
423.956	222.9
424.416	229
424.876	263.4
425.336	256.4
425.797	264.5
426.257	255.3
426.717	238.8
427.177	228.8
427.637	228.2
428.097	229.2
428.556	242.5
429.016	265.4
429.476	251.5
429.936	262.5
430.396	275.2
430.856	277.2
431.315	303.1
431.775	334.5
432.235	375.2
432.694	344.6
433.154	345.1
433.614	376
434.073	326.8
434.533	277.8
434.993	264.2
435.452	278.4
435.912	288.5
436.371	283.6
436.83	277.2
437.29	261.4
437.749	239.9
438.209	242.6
438.668	271.4
439.127	277.6
439.587	263.9
440.046	250.8
440.505	265.5
440.964	273.2
441.424	324.5
441.883	305.7
442.342	261.9
442.801	231.4
443.26	230.6
443.719	235.7
444.178	225.1
444.637	222
445.096	226.8
445.555	232.2
446.014	229.8
446.473	229.9
446.932	239.9
447.391	238.1
447.849	228.3
448.308	226.3
448.767	230.3
449.226	243.2
449.685	248.4
450.143	257.7
450.602	241.6
451.061	233.1
451.519	239.5
451.978	241.3
452.436	230.4
452.895	249.7
453.353	249.6
453.812	246.9
454.27	252.5
454.729	253.6
455.187	247
455.646	245.9
456.104	260.3
456.562	272.3
457.021	274.2
457.479	265.4
457.937	278.5
458.395	278.5
458.854	263.7
459.312	256.3
459.77	276.2
460.228	264.8
460.686	252
461.144	258.7
461.602	256
462.06	253.8
462.518	267.3
462.976	271.7
463.434	276.2
463.892	273.2
464.35	281.6
464.808	292.1
465.266	280.9
465.724	278.8
466.181	292.5
466.639	291.8
467.097	305.5
467.555	320
468.012	314.1
468.47	324.1
468.928	351.6
469.385	357.8
469.843	365.9
470.3	360
470.758	377.7
471.215	394
471.673	414.6
472.13	420.2
472.588	429.3
473.045	390.4
473.503	388.9
473.96	414.3
474.417	418.4
474.875	446.5
475.332	492.1
475.789	479.3
476.246	479.5
476.704	498.5
477.161	520.6
477.618	540.2
478.075	577.4
478.532	632
478.989	692
479.446	807.6
479.903	766.8
480.36	795.9
480.817	850.1
481.274	942.7
481.731	1034.4
482.188	1104
482.645	1238.5
483.102	1316.1
483.558	1445.7
484.015	1466.1
484.472	1451.2
484.929	1413.6
485.385	1379.2
485.842	1344.6
486.299	1297.8
486.755	1255.8
487.212	1073.8
487.668	917.6
488.125	844.1
488.582	781.1
489.038	748.4
489.494	720.7
489.951	710.7
490.407	685.6
490.864	659
491.32	651.9
491.776	661.1
492.233	670.5
492.689	643.5
493.145	633.2
493.602	618
494.058	628
494.514	632.9
494.97	650.9
495.426	663.6
495.882	646
496.338	638.5
496.794	645.4
497.251	639.2
497.707	652.4
498.163	659.8
498.618	658.5
499.074	673.4
499.53	687.3
499.986	697.8
500.442	665.3
500.898	647.8
501.354	635.9
501.809	648.4
502.265	639.5
502.721	659.8
503.177	656.1
503.632	655.7
504.088	676.9
504.543	696
504.999	707.4
505.455	680.8
505.91	656.3
506.366	667.8
506.821	654.7
507.277	659.2
507.732	654.4
508.187	662.2
508.643	665.8
509.098	674.5
509.553	680.7
510.009	705
510.464	698.8
510.919	728.1
511.375	726.5
511.83	739.1
512.285	752.5
512.74	779.5
513.195	811.4
513.65	805.6
514.105	791.5
514.56	801.2
515.015	821.7
515.47	847.6
515.925	818.2
516.38	824
516.835	823
517.29	814.9
517.745	817.8
518.2	789.7
518.655	785.4
519.109	782.1
519.564	762.1
520.019	759
520.474	758.2
520.928	756.2
521.383	749.1
521.838	744.9
522.292	749.1
522.747	746.8
523.201	741.5
523.656	726.1
524.11	736.7
524.565	731.4
525.019	727.5
525.474	731.2
525.928	730
526.382	732.6
526.837	734.8
527.291	734
527.745	727.6
528.2	726.6
528.654	724.4
529.108	715.9
529.562	726.1
530.016	714.6
530.47	722.7
530.925	722.4
531.379	717.3
531.833	721.7
532.287	724.9
532.741	739.7
533.195	731.7
533.649	740.8
534.103	751.9
534.556	733.3
535.01	743.9
535.464	735
535.918	754.2
536.372	754.6
536.826	755.7
537.279	732.6
537.733	750.3
538.187	741.4
538.64	755.2
539.094	752.2
539.548	759.4
540.001	754.5
540.455	756.3
540.908	753.9
541.362	771
541.815	779.2
542.269	786.9
542.722	795.6
543.175	803.4
543.629	812
544.082	818.4
544.536	819.8
544.989	838.9
545.442	846.9
545.895	832.9
546.349	833.8
546.802	820.7
547.255	836.9
547.708	849.7
548.161	855.4
548.614	863.9
549.067	868
549.52	859
549.973	855.2
550.426	851.3
550.879	846.9
551.332	845.9
551.785	861.8
552.238	854.6
552.691	867.9
553.144	879.5
553.596	888.6
554.049	906.5
554.502	938.6
554.955	951.3
555.407	952
555.86	953.9
556.313	939.9
556.765	922.3
557.218	933.8
557.67	922.6
558.123	927.6
558.576	916.9
559.028	925.5
559.48	929.2
559.933	912.5
560.385	881.5
560.838	859.1
561.29	821.8
561.742	827.8
562.195	812.9
562.647	807.3
563.099	817.5
563.551	819.9
564.004	826.2
564.456	807.2
564.908	795
565.36	783.1
565.812	773.7
566.264	759.6
566.716	761
567.168	738.3
567.62	745.9
568.072	728.2
568.524	729.3
568.976	721.3
569.428	710.9
569.88	704.4
570.332	715
570.784	725.2
571.235	720.9
571.687	731.7
572.139	735.3
572.59	751.2
573.042	749.5
573.494	747.1
573.945	733.9
574.397	722.5
574.849	726.5
575.3	723.7
575.752	717.4
576.203	714.3
576.655	714.8
577.106	704.8
577.557	699.3
578.009	706.8
578.46	702.7
578.912	688.9
579.363	697.3
579.814	699
580.265	701.6
580.717	699.2
581.168	702.9
581.619	709.4
582.07	711.7
582.521	712.7
582.972	698.1
583.423	710.8
583.875	694.6
584.326	715
584.777	727.9
585.227	753.7
585.678	755.2
586.129	781.6
586.58	796.2
587.031	818.3
587.482	850.9
587.933	880.1
588.384	857.7
588.834	821.9
589.285	816.7
589.736	807.6
590.186	809.1
590.637	803.4
591.088	774.8
591.538	764.9
591.989	758.9
592.439	755.3
592.89	755.1
593.34	739.7
593.791	729
594.241	722.5
594.692	729.4
595.142	733.9
595.593	723.8
596.043	730.3
596.493	724.1
596.943	732.2
597.394	751.7
597.844	747.6
598.294	776
598.744	785.3
599.195	825.1
599.645	865.4
600.095	890
600.545	963.8
600.995	1006.7
601.445	1079
601.895	1139
602.345	1186.1
602.795	1165.8
603.245	1119.2
603.695	1060.7
604.145	999.4
604.594	952
605.044	901.5
605.494	833.4
605.944	785.3
606.393	779.2
606.843	765.8
607.293	759.8
607.743	756.1
608.192	759.4
608.642	782.9
609.091	772.5
609.541	788.4
609.99	789.3
610.44	784.7
610.889	744.3
611.339	719.4
611.788	708.7
612.238	720.4
612.687	724
613.136	717.1
613.586	743.4
614.035	729.2
614.484	734
614.933	731.9
615.383	731.7
615.832	744
616.281	724.3
616.73	705
617.179	681.7
617.628	663.4
618.077	650.7
618.526	650.4
618.975	639.2
619.424	635
619.873	629.7
620.322	642.2
620.771	631.9
621.22	629.5
621.669	618.8
622.118	608.7
622.567	602.6
623.015	591.8
623.464	594.3
623.913	583.9
624.361	578.3
624.81	579.1
625.259	574.4
625.707	573
626.156	576.6
626.604	589.1
627.053	581.2
627.501	589.3
627.95	592.4
628.398	610.1
628.847	594
629.295	593.4
629.744	597.4
630.192	589.4
630.64	577.3
631.089	565.9
631.537	552.1
631.985	548.8
632.433	551.4
632.881	549.6
633.33	548.8
633.778	550.5
634.226	544.7
634.674	560.8
635.122	558.4
635.57	562.5
636.018	576.9
636.466	575.5
636.914	588.3
637.362	587.3
637.81	594.8
638.258	601
638.705	601.9
639.153	631.9
639.601	642.9
640.049	667.2
640.497	697.2
640.944	721.1
641.392	667.7
641.84	633.4
642.287	606.6
642.735	587.1
643.182	580.3
643.63	577.1
644.078	577.6
644.525	588.8
644.973	595.9
645.42	609.4
645.867	626.8
646.315	652.4
646.762	670.8
647.21	705.6
647.657	723.7
648.104	758.8
648.551	776.6
648.999	831.2
649.446	912.7
649.893	987.4
650.34	1136.7
650.787	1352.3
651.234	1654.1
651.682	2126.5
652.129	2883.9
652.576	4107.2
653.023	5959.4
653.47	8087.3
653.917	10064.9
654.363	11593
654.81	12780.6
655.257	12070.1
655.704	8036.1
656.151	4814.1
656.598	3169.8
657.044	2277.6
657.491	1769.2
657.938	1446.9
658.385	1210.2
658.831	1055.3
659.278	947.4
659.724	851.3
660.171	780.8
660.618	718
661.064	688.5
661.511	668.3
661.957	666.7
662.404	643.4
662.85	645.8
663.296	642.6
663.743	566.8
664.189	550.3
664.635	544.7
665.082	539.4
665.528	541.7
665.974	532.2
666.42	525.4
666.867	529.8
667.313	486.1
667.759	478
668.205	464.2
668.651	462
669.097	460.2
669.543	449.7
669.989	455.9
670.435	454.5
670.881	464
671.327	465.6
671.773	488.1
672.219	509.4
672.665	568.5
673.11	606.4
673.556	663.4
674.002	697.1
674.448	682.8
674.893	579.5
675.339	492.6
675.785	456.1
676.23	433.5
676.676	404.2
677.122	402.5
677.567	390.8
678.013	389
678.458	381.8
678.904	372.7
679.349	356.6
679.794	372
680.24	363.1
680.685	362.6
681.131	363.7
681.576	353.8
682.021	369.7
682.466	360.4
682.912	368.6
683.357	364.6
683.802	399.7
684.247	425.8
684.692	470.2
685.137	509
685.583	556.5
686.028	585.5
686.473	542
686.918	464.2
687.363	438.6
687.807	413.3
688.252	389.2
688.697	364.1
689.142	354.4
689.587	348.7
690.032	341.9
690.477	357.9
690.921	362.5
691.366	398.3
691.811	414.3
692.255	442.7
692.7	479.8
693.145	528
693.589	738.4
694.034	1190.1
694.478	1602.7
694.923	1816.4
695.367	2368.3
695.812	1260.2
696.256	535.5
696.701	383.5
697.145	358.4
697.59	339.5
698.034	327.4
698.478	336.6
698.922	338.3
699.367	336
699.811	352.9
700.255	369
700.699	396.2
701.143	433.4
701.588	492.8
702.032	529.1
702.476	542.5
702.92	509.8
703.364	514.4
703.808	670.2
704.252	1082.2
704.696	1513.3
705.14	1757.7
705.584	2234.1
706.027	1104.2
706.471	542.1
706.915	412.8
707.359	364.2
707.803	332.7
708.246	320.4
708.69	332.2
709.134	322
709.577	323.9
710.021	337.6
710.465	315.8
710.908	313.5
711.352	302.5
711.795	329.9
712.239	361.8
712.682	401.5
713.126	423.9
713.569	472.3
714.012	373.8
714.456	313
714.899	297.8
715.342	279.6
715.786	271.6
716.229	269.2
716.672	262.2
717.115	253.4
717.558	250.8
718.002	257.7
718.445	277.4
718.888	298.6
719.331	297.1
719.774	322.8
720.217	314.5
720.66	293.8
721.103	280.1
721.546	268.3
721.989	262.1
722.432	249.6
722.874	244
723.317	241.7
723.76	241.3
724.203	270.1
724.645	327.5
725.088	459.2
725.531	596.7
725.974	663.3
726.416	562.2
726.859	320.8
727.301	257.1
727.744	247
728.187	239.7
728.629	249.9
729.071	250.3
729.514	268.6
729.956	288.8
730.399	292.5
730.841	296.3
731.283	284.8
731.726	276
732.168	259
732.61	284.3
733.053	303.5
733.495	335.7
733.937	362.7
734.379	414.8
734.821	455.5
735.263	564.3
735.705	878.9
736.148	1660.6
736.59	2730.6
737.032	3199.7
737.474	2615.2
737.916	857.8
738.357	452.3
738.799	351
739.241	309.6
739.683	294.2
740.125	306
740.567	306.7
741.008	333.3
741.45	327.7
741.892	327.9
742.334	368.5
742.775	379.7
743.217	360.7
743.658	280.3
744.1	267.9
744.542	278.7
744.983	325.2
745.425	370.9
745.866	360.2
746.307	289
746.749	290.1
747.19	340.4
747.632	480.1
748.073	933.7
748.514	1960.2
748.956	3001.1
749.397	3738.4
749.838	3121.3
750.279	3090.1
750.72	1568.2
751.162	575.1
751.603	336.7
752.044	260.3
752.485	226.8
752.926	222.4
753.367	215.7
753.808	198.9
754.249	207
754.69	195.1
755.131	191.7
755.572	184.1
756.013	187.3
756.453	190.3
756.894	192.6
757.335	198.7
757.776	196.5
758.216	202
758.657	202.1
759.098	206.6
759.538	233.7
759.979	276.3
760.42	392.8
760.86	749.8
761.301	1946.5
761.741	4692.3
762.182	6753.2
762.622	4769.2
763.063	1369.9
763.503	558.5
763.943	340.2
764.384	277.9
764.824	257.1
765.264	247.2
765.705	219.3
766.145	195.7
766.585	182.3
767.025	170.3
767.465	170.1
767.906	185.8
768.346	197.9
768.786	202.9
769.226	221.5
769.666	320
770.106	657.1
770.546	1630.1
770.986	2757.4
771.426	2478.8
771.866	821.6
772.306	335
772.745	211.8
773.185	175.6
773.625	170.2
774.065	153.4
774.505	174
774.944	211.5
775.384	375.8
775.824	608.7
776.263	590.1
776.703	287.4
777.142	164.3
777.582	137
778.021	129.4
778.461	124.9
778.9	131.9
779.34	130.3
779.779	115.5
780.219	116
780.658	112.3
781.097	114.1
781.537	117
781.976	107.3
782.415	112.9
782.855	103.9
783.294	111
783.733	101.8
784.172	113.2
784.611	104.9
785.05	105.9
785.489	113
785.928	121.4
786.367	127.2
786.806	124.7
787.245	138
787.684	139.8
788.123	149.4
788.562	141.1
789.001	133.1
789.44	124.4
789.879	121.2
790.317	120.7
790.756	130.3
791.195	139.5
791.634	157.9
792.072	214.3
792.511	377
792.95	1056.9
793.388	2217.2
793.827	1995
794.265	692.5
794.704	293.2
795.142	183.8
795.581	161.5
796.019	145.9
796.458	133.4
796.896	127.8
797.334	135.9
797.773	159.3
798.211	226.4
798.649	463.1
799.087	1070.1
799.526	1665.5
799.964	2123
800.402	2108.8
800.84	795.9
801.278	313.3
801.716	206.6
802.154	161.6
802.592	151.6
803.03	146.8
803.468	138.2
803.906	150.8
804.344	154
804.782	151
805.22	135.7
805.658	137.6
806.096	151.5
806.533	167.3
806.971	181
807.409	223.3
807.847	342.1
