Data from 20171114-ORNL-Ar_H_NY_Subt18_08-05-11-671.txt Node
Date: Tue Nov 14 08:05:11 EST 2017
User: Ender
Spectrometer: HR+D1039
Trigger mode: 0
Integration Time (sec): 2.730000E-2
Scans to average: 10
Electric dark correction enabled: true
Nonlinearity correction enabled: false
Boxcar width: 0
XAxis mode: Wavelengths
Number of Pixels in Spectrum: 2048
>>>>>Begin Spectral Data<<<<<
187.836	-7.4
188.309	-7.4
188.782	-7.4
189.255	3.5
189.728	-0.4
190.201	7.7
190.674	1.6
191.147	3.1
191.619	-7.8
192.092	3.5
192.565	6.9
193.038	-2.7
193.511	0.3
193.984	-2.5
194.456	-2.1
194.929	-1.4
195.402	-5.3
195.874	3
196.347	-2.7
196.82	-7.3
197.292	5.9
197.765	5.9
198.237	-4.8
198.71	-1.7
199.182	-0.4
199.655	4.4
200.127	1.5
200.6	-2.6
201.072	0.3
201.544	-1.7
202.017	-5.1
202.489	1.3
202.961	3.3
203.433	-0.5
203.906	-3.7
204.378	-4.6
204.85	-6.6
205.322	-5.6
205.794	-4.9
206.266	-3.5
206.739	-12.1
207.211	6.7
207.683	-9.7
208.155	-4.1
208.627	-3.2
209.099	-4.4
209.57	-0.3
210.042	2.3
210.514	-1
210.986	-6.4
211.458	-6.7
211.93	-3.3
212.402	4.3
212.873	-6.7
213.345	-10.4
213.817	-12.6
214.288	0.2
214.76	-9.1
215.232	-7.9
215.703	-0.1
216.175	-2
216.646	1.8
217.118	-5
217.589	-4.5
218.061	0.8
218.532	-2.2
219.004	2
219.475	-6.6
219.946	-2.6
220.418	-3.3
220.889	6.6
221.36	0.3
221.832	0.4
222.303	-7.9
222.774	-2.8
223.245	-12.5
223.717	-7.5
224.188	-5.8
224.659	-6.8
225.13	-7.5
225.601	-3.3
226.072	3
226.543	-3.3
227.014	4.7
227.485	-1.4
227.956	-7.3
228.427	-0
228.898	-3.4
229.369	5.7
229.839	-5.9
230.31	-6
230.781	1.9
231.252	-4
231.722	-3
232.193	-1.8
232.664	3.9
233.135	-4.9
233.605	-0.2
234.076	-1.8
234.546	0.8
235.017	1.1
235.487	-1.5
235.958	-1.8
236.428	-4.1
236.899	7.3
237.369	3
237.84	3.1
238.31	5.6
238.78	3.4
239.251	-1.6
239.721	2.5
240.191	1.1
240.662	-2
241.132	2.2
241.602	2.9
242.072	-0.1
242.542	9.7
243.013	2.1
243.483	0.5
243.953	0.3
244.423	1.6
244.893	-8.1
245.363	4.9
245.833	5.6
246.303	0.4
246.773	8.7
247.243	10.7
247.712	4.1
248.182	11
248.652	10.9
249.122	3.9
249.592	9.8
250.061	18
250.531	41.9
251.001	17.4
251.471	18.4
251.94	28
252.41	6.6
252.879	3
253.349	10.1
253.818	14
254.288	6.1
254.757	7.1
255.227	3.3
255.696	6.9
256.166	12.8
256.635	9.5
257.105	10.1
257.574	6.8
258.043	12.5
258.513	17.9
258.982	23
259.451	9
259.92	17.2
260.389	20.3
260.859	23
261.328	15.8
261.797	18.8
262.266	21.2
262.735	14.2
263.204	3.6
263.673	5.5
264.142	7.7
264.611	1.4
265.08	1.2
265.549	1.9
266.018	6
266.487	5.9
266.955	-1.7
267.424	0.5
267.893	12.9
268.362	4.3
268.83	4.4
269.299	12.9
269.768	6.4
270.236	4.3
270.705	8.7
271.174	8.1
271.642	7.7
272.111	5.5
272.579	16.7
273.048	24.3
273.516	33.8
273.985	24.9
274.453	26.5
274.922	27
275.39	18.2
275.858	8
276.327	13.9
276.795	19.7
277.263	4.5
277.731	35
278.2	55.4
278.668	66
279.136	58.8
279.604	22.9
280.072	17.7
280.54	16.1
281.008	13
281.477	12.3
281.945	17.4
282.413	15.4
282.881	14
283.348	11.9
283.816	20.6
284.284	15.6
284.752	24.4
285.22	15.5
285.688	15.3
286.156	19.6
286.623	45.7
287.091	52.8
287.559	32.4
288.026	18.4
288.494	15.4
288.962	9.5
289.429	11.2
289.897	15.6
290.364	16.7
290.832	16.9
291.3	17.5
291.767	16
292.234	13.7
292.702	7.5
293.169	21.3
293.637	26.6
294.104	20.6
294.571	13.2
295.039	14.2
295.506	15.3
295.973	18.6
296.44	17.6
296.908	20.8
297.375	23.9
297.842	27.8
298.309	11.2
298.776	16.8
299.243	18
299.71	11.1
300.177	22.2
300.644	23.1
301.111	22.3
301.578	26.1
302.045	25.7
302.512	26.4
302.979	32.1
303.446	22.5
303.913	24.7
304.379	19.4
304.846	33.2
305.313	29.3
305.78	25.5
306.246	37.3
306.713	32.6
307.18	29.3
307.646	31.8
308.113	35
308.579	22.5
309.046	32.3
309.512	36.2
309.979	23.5
310.445	32.1
310.912	31.9
311.378	32.1
311.845	29.1
312.311	31.6
312.777	37.5
313.244	37.5
313.71	42.1
314.176	32.2
314.642	38.7
315.109	35.2
315.575	39.1
316.041	42.9
316.507	37.1
316.973	41.7
317.439	34.9
317.905	42.5
318.371	32.3
318.837	32.9
319.303	35.4
319.769	36.7
320.235	38.3
320.701	45.3
321.167	42
321.633	40.2
322.099	46.1
322.564	47.3
323.03	46.2
323.496	39
323.962	43.3
324.427	40.7
324.893	49.4
325.359	40.6
325.824	48.8
326.29	42.4
326.755	46.7
327.221	45.4
327.686	39.8
328.152	49.9
328.617	42.9
329.083	49.5
329.548	53
330.014	53.6
330.479	45.5
330.944	50.9
331.41	48.1
331.875	48.6
332.34	48.4
332.805	41.3
333.271	55.8
333.736	46.3
334.201	55.6
334.666	54.8
335.131	57.2
335.596	56.4
336.061	48.3
336.526	44.5
336.991	49.7
337.456	57.9
337.921	49.3
338.386	47.7
338.851	49.7
339.316	44.4
339.781	51
340.246	56
340.711	46.4
341.175	56
341.64	52
342.105	55.4
342.569	55.7
343.034	61.4
343.499	52.6
343.963	56.3
344.428	74.1
344.893	67.4
345.357	61.6
345.822	64.3
346.286	73.3
346.751	76
347.215	72.3
347.679	78.4
348.144	101.7
348.608	82.3
349.073	68.9
349.537	83.2
350.001	81.8
350.465	96.4
350.93	79.6
351.394	85.6
351.858	82.1
352.322	92.7
352.786	80.4
353.25	105.5
353.715	113.4
354.179	108
354.643	125.7
355.107	130.5
355.571	110.2
356.035	104.8
356.498	122.8
356.962	132
357.426	131.7
357.89	124.7
358.354	95.4
358.818	91.1
359.281	87.3
359.745	77.6
360.209	78.2
360.673	78.3
361.136	87.4
361.6	88.5
362.064	86.7
362.527	84.2
362.991	89.3
363.454	80.3
363.918	75.3
364.381	81.7
364.845	80.8
365.308	87.5
365.772	89.4
366.235	86.3
366.698	86
367.162	89
367.625	86.4
368.088	86.6
368.552	89.3
369.015	89.7
369.478	96.8
369.941	99.9
370.404	98.5
370.867	111.3
371.331	107.5
371.794	113.7
372.257	110.9
372.72	122.2
373.183	114.8
373.646	105.9
374.109	103.9
374.572	112.4
375.035	109.1
375.497	107.9
375.96	107.7
376.423	103.3
376.886	118
377.349	110.6
377.811	102.2
378.274	106.7
378.737	110
379.199	113.3
379.662	122
380.125	126.2
380.587	120.4
381.05	123.6
381.512	126.5
381.975	135.8
382.437	130.2
382.9	136
383.362	129.6
383.825	142.7
384.287	147.7
384.75	147
385.212	140.8
385.674	144.5
386.136	137.6
386.599	126
387.061	135.9
387.523	126
387.985	130.3
388.447	152.2
388.91	153.4
389.372	163.1
389.834	156.6
390.296	151.1
390.758	159.2
391.22	174.5
391.682	210.3
392.144	292
392.606	232.5
393.068	166.7
393.529	172.9
393.991	158.7
394.453	155
394.915	150.5
395.377	188.3
395.838	211.1
396.3	156.4
396.762	146.3
397.224	131.9
397.685	130.4
398.147	137.3
398.608	135.7
399.07	126.5
399.531	138.3
399.993	140.7
400.454	157.6
400.916	144.8
401.377	151.3
401.839	154.3
402.3	151.6
402.762	166.4
403.223	172.7
403.684	171.7
404.145	167.4
404.607	159.4
405.068	171.2
405.529	166.5
405.99	182
406.451	176
406.913	171.3
407.374	168.4
407.835	160.9
408.296	170.5
408.757	175.2
409.218	192.9
409.679	176.4
410.14	171.6
410.601	180.9
411.062	181.3
411.522	186.8
411.983	196.8
412.444	170.2
412.905	183.1
413.366	182.3
413.826	193.4
414.287	218
414.748	261.5
415.208	247.9
415.669	211.1
416.13	206.8
416.59	203.3
417.051	216.6
417.511	222.2
417.972	235.1
418.432	247.5
418.893	285.6
419.353	248.9
419.814	197.5
420.274	184.3
420.734	181.7
421.195	194.1
421.655	201.6
422.115	195.4
422.576	187.3
423.036	195.1
423.496	200.5
423.956	213
424.416	229.6
424.876	264.4
425.336	255.6
425.797	257.5
426.257	251.2
426.717	237.5
427.177	234.1
427.637	224.6
428.097	229.1
428.556	246.7
429.016	268.1
429.476	258.9
429.936	263.4
430.396	277.5
430.856	291.5
431.315	314.9
431.775	351.1
432.235	380.3
432.694	349.8
433.154	360.2
433.614	389.6
434.073	334.5
434.533	287.9
434.993	271.9
435.452	289.8
435.912	287.4
436.371	282.7
436.83	287.6
437.29	276.9
437.749	243.5
438.209	246.4
438.668	266.2
439.127	291.9
439.587	259.7
440.046	252.6
440.505	259.8
440.964	286.2
441.424	316.6
441.883	307
442.342	258.4
442.801	225.9
443.26	217.6
443.719	219
444.178	219.2
444.637	211.2
445.096	227.8
445.555	218.6
446.014	220.6
446.473	227
446.932	227
447.391	223.4
447.849	223.5
448.308	218.8
448.767	220
449.226	230.6
449.685	235.1
450.143	248
450.602	238.2
451.061	234.4
451.519	235.7
451.978	233.3
452.436	237.3
452.895	244.5
453.353	244.7
453.812	235.5
454.27	240.8
454.729	240.8
455.187	237.3
455.646	246.2
456.104	244.7
456.562	261.5
457.021	263.1
457.479	262.9
457.937	269
458.395	261.1
458.854	244.8
459.312	249.6
459.77	275.1
460.228	261.3
460.686	245
461.144	247.7
461.602	237.8
462.06	246.3
462.518	252.2
462.976	253.5
463.434	253.9
463.892	261.2
464.35	273.5
464.808	287.4
465.266	263.9
465.724	268.6
466.181	273.4
466.639	274.5
467.097	284.6
467.555	292.1
468.012	297
468.47	307.4
468.928	330
469.385	347.6
469.843	349.7
470.3	350
470.758	360.2
471.215	389
471.673	411.9
472.13	402.4
472.588	414.1
473.045	367.7
473.503	369
473.96	390.6
474.417	399.3
474.875	436.7
475.332	467.5
475.789	458.2
476.246	460.8
476.704	480.8
477.161	507
477.618	523.8
478.075	563.8
478.532	613
478.989	679.9
479.446	794.9
479.903	783.8
480.36	809.9
480.817	862.1
481.274	973.3
481.731	1074.9
482.188	1162.2
482.645	1304.9
483.102	1410.3
483.558	1539.7
484.015	1595.9
484.472	1570.1
484.929	1533.4
485.385	1476.6
485.842	1440.7
486.299	1357.9
486.755	1295.2
487.212	1081
487.668	930.3
488.125	844.1
488.582	775
489.038	743.7
489.494	716.3
489.951	687.4
490.407	659
490.864	644.4
491.32	644.2
491.776	633.9
492.233	638.2
492.689	613.1
493.145	588.3
493.602	591.2
494.058	616.1
494.514	612.6
494.97	638.4
495.426	640.3
495.882	624.1
496.338	602.8
496.794	623.5
497.251	613
497.707	624.7
498.163	637
498.618	637.8
499.074	641.2
499.53	683.6
499.986	672.7
500.442	659.4
500.898	637
501.354	620.4
501.809	628.7
502.265	633.7
502.721	655.7
503.177	674.3
503.632	650.7
504.088	671
504.543	697.9
504.999	695.3
505.455	657.4
505.91	637.3
506.366	636.6
506.821	624.2
507.277	615.3
507.732	621.3
508.187	620.8
508.643	623.4
509.098	626.9
509.553	649.2
510.009	663.9
510.464	660.7
510.919	690
511.375	687.2
511.83	703.1
512.285	724
512.74	760.7
513.195	789.1
513.65	777.1
514.105	763.6
514.56	770.3
515.015	798.9
515.47	806.8
515.925	786.8
516.38	784.6
516.835	781.3
517.29	769.7
517.745	777.1
518.2	763.4
518.655	747.1
519.109	745.8
519.564	739.6
520.019	725.5
520.474	721.5
520.928	726.4
521.383	706.4
521.838	697.7
522.292	707
522.747	710.3
523.201	696
523.656	690.2
524.11	694.4
524.565	679.2
525.019	676.6
525.474	693.5
525.928	689.2
526.382	686.4
526.837	689.4
527.291	692.9
527.745	691.8
528.2	684.9
528.654	684.7
529.108	674.7
529.562	681.2
530.016	674
530.47	687.5
530.925	687.8
531.379	690.8
531.833	694.8
532.287	698.5
532.741	684.5
533.195	699.6
533.649	697.2
534.103	719.8
534.556	700
535.01	713.8
535.464	699.3
535.918	712.7
536.372	721.5
536.826	710.2
537.279	704.9
537.733	707.9
538.187	709.1
538.64	711.1
539.094	721.1
539.548	713.7
540.001	699.3
540.455	706
540.908	716.2
541.362	719.8
541.815	738.3
542.269	742.1
542.722	748.5
543.175	762.5
543.629	749.4
544.082	769.7
544.536	772
544.989	769.3
545.442	790.1
545.895	766.7
546.349	776.3
546.802	774.7
547.255	786.8
547.708	789.9
548.161	791.5
548.614	809.1
549.067	817.2
549.52	806.7
549.973	787.1
550.426	792.7
550.879	780.4
551.332	780.4
551.785	781.5
552.238	797.4
552.691	799.4
553.144	821.6
553.596	822.9
554.049	838.3
554.502	877.3
554.955	888.3
555.407	899.2
555.86	884.5
556.313	880.6
556.765	864.2
557.218	866.4
557.67	872.7
558.123	860.7
558.576	856.6
559.028	862.8
559.48	859.4
559.933	849
560.385	816.5
560.838	786.6
561.29	759.5
561.742	759
562.195	744.3
562.647	737.9
563.099	751.7
563.551	746.1
564.004	762.8
564.456	755
564.908	748
565.36	731.3
565.812	721.2
566.264	710.9
566.716	710.5
567.168	702.4
567.62	706.4
568.072	682.9
568.524	675.4
568.976	668.8
569.428	652.7
569.88	653
570.332	657.5
570.784	656.7
571.235	661.9
571.687	677.9
572.139	681.9
572.59	687.6
573.042	684.1
573.494	687.5
573.945	688
574.397	669.5
574.849	668.7
575.3	673.4
575.752	674.6
576.203	657.6
576.655	667.2
577.106	652.7
577.557	646.4
578.009	649.2
578.46	648.8
578.912	637.2
579.363	640.6
579.814	641.2
580.265	634.3
580.717	648.4
581.168	645.5
581.619	657.5
582.07	665.8
582.521	645.1
582.972	645.4
583.423	652.8
583.875	653.3
584.326	677.9
584.777	720.2
585.227	784.2
585.678	885.5
586.129	967.7
586.58	1034.7
587.031	1121.8
587.482	1275
587.933	1468.7
588.384	1262.6
588.834	947.4
589.285	783.3
589.736	757.4
590.186	744
590.637	738
591.088	709
591.538	712.7
591.989	711.8
592.439	699.5
592.89	692
593.34	679.8
593.791	682.5
594.241	670
594.692	674.1
595.142	668.8
595.593	673.8
596.043	681.8
596.493	687.4
596.943	687.8
597.394	693.1
597.844	686.4
598.294	697.3
598.744	720.1
599.195	741.6
599.645	779
600.095	822.4
600.545	870.2
600.995	926.6
601.445	984.9
601.895	1037.5
602.345	1069.7
602.795	1074.3
603.245	1020.3
603.695	965
604.145	921.1
604.594	879.7
605.044	822.6
605.494	763.3
605.944	719
606.393	713.8
606.843	699.8
607.293	696.7
607.743	700.3
608.192	704.8
608.642	716.5
609.091	725.2
609.541	733.6
609.99	723.5
610.44	718
610.889	681.5
611.339	668.8
611.788	653
612.238	662.8
612.687	678.4
613.136	678.6
613.586	688.7
614.035	699.4
614.484	718.3
614.933	716.1
615.383	701.4
615.832	708.9
616.281	691.4
616.73	653.1
617.179	639.1
617.628	623.6
618.077	595.1
618.526	591.6
618.975	573.7
619.424	580.6
619.873	579.3
620.322	581.3
620.771	570.8
621.22	575.7
621.669	565.4
622.118	556.8
622.567	555.1
623.015	541.6
623.464	531.1
623.913	539.1
624.361	524.5
624.81	525.3
625.259	524.3
625.707	528
626.156	525.8
626.604	537.3
627.053	536
627.501	530.8
627.95	538
628.398	541.9
628.847	537.5
629.295	538.8
629.744	540.5
630.192	542.6
630.64	531.4
631.089	531.5
631.537	539
631.985	555.9
632.433	559.6
632.881	573.1
633.33	618.5
633.778	601.1
634.226	533
634.674	528.4
635.122	536
635.57	556.6
636.018	592.2
636.466	552.3
636.914	527.6
637.362	540.8
637.81	537
638.258	538.3
638.705	540.6
639.153	575.3
639.601	566.8
640.049	596.8
640.497	626.3
640.944	645.5
641.392	604.5
641.84	574.5
642.287	553
642.735	536.6
643.182	534.7
643.63	526.1
644.078	537.4
644.525	547.9
644.973	557
645.42	568
645.867	577.4
646.315	598.9
646.762	613.4
647.21	650.7
647.657	676.3
648.104	704.5
648.551	713.4
648.999	780.3
649.446	854
649.893	946.2
650.34	1073.9
650.787	1295
651.234	1597.9
651.682	2087.1
652.129	2849.1
652.576	4106.2
653.023	6108
653.47	8406.7
653.917	10560.9
654.363	12270.8
654.81	13723.4
655.257	13064.1
655.704	8534.1
656.151	5021.5
656.598	3261
657.044	2293.1
657.491	1766.1
657.938	1398.5
658.385	1165.5
658.831	1032.6
659.278	907.3
659.724	807.5
660.171	741.5
660.618	686
661.064	654.4
661.511	627.9
661.957	617.6
662.404	604.3
662.85	614.8
663.296	589.9
663.743	517.8
664.189	504.3
664.635	499.5
665.082	496.2
665.528	500.4
665.974	480.7
666.42	482.1
666.867	467.7
667.313	458.4
667.759	450.5
668.205	456.4
668.651	448.2
669.097	453.3
669.543	475.2
669.989	441.3
670.435	417.4
670.881	415.7
671.327	415.7
671.773	430.5
672.219	455.3
672.665	510.8
673.11	552.1
673.556	584.3
674.002	626.5
674.448	611.3
674.893	504.1
675.339	443.3
675.785	408.6
676.23	394.2
676.676	364.9
677.122	356.5
677.567	347.3
678.013	343.1
678.458	331.9
678.904	327.8
679.349	325.7
679.794	327.3
680.24	329.2
680.685	318
681.131	319.7
681.576	322
682.021	323.9
682.466	320.4
682.912	319.1
683.357	329.1
683.802	359.1
684.247	378.2
684.692	410.7
685.137	454.2
685.583	487.8
686.028	519.9
686.473	476.1
686.918	419.3
687.363	388.6
687.807	363.4
688.252	337.7
688.697	323
689.142	311.8
689.587	307.9
690.032	295.8
690.477	312.6
690.921	325.9
691.366	350.7
691.811	364.5
692.255	393.9
692.7	426.3
693.145	460.1
693.589	618.5
694.034	1016
694.478	1404.2
694.923	1612.2
695.367	2102.9
695.812	1102.6
696.256	459.2
696.701	344.6
697.145	319.7
697.59	301.8
698.034	301.6
698.478	299.9
698.922	294.8
699.367	302.4
699.811	313.5
700.255	317.6
700.699	347.7
701.143	384.3
701.588	441
702.032	466.6
702.476	470.7
702.92	457.5
703.364	447.1
703.808	576.6
704.252	925.8
704.696	1308.8
705.14	1536.1
705.584	1980.4
706.027	984.3
706.471	488.9
706.915	365.9
707.359	318.6
707.803	292.8
708.246	285.7
708.69	283.3
709.134	286.1
709.577	282
710.021	292.3
710.465	281.3
710.908	276.5
711.352	265.1
711.795	283.8
712.239	316.1
712.682	349.5
713.126	379.6
713.569	433
714.012	345.3
714.456	302.6
714.899	278.9
715.342	251.6
715.786	243.5
716.229	240.6
716.672	236.9
717.115	227.3
717.558	233
718.002	227.5
718.445	237.7
718.888	259.3
719.331	270.4
719.774	277
720.217	273.4
720.66	263.8
721.103	238.2
721.546	232.1
721.989	227.6
722.432	202.6
722.874	216
723.317	208.4
723.76	216.3
724.203	240.4
724.645	286.9
725.088	397
725.531	518.9
725.974	591.3
726.416	506.6
726.859	281.9
727.301	220.9
727.744	216.2
728.187	213.7
728.629	226.1
729.071	224.8
729.514	238.9
729.956	252.3
730.399	257.2
730.841	262.5
731.283	251.5
731.726	244.7
732.168	239.5
732.61	241.1
733.053	258.9
733.495	288.3
733.937	321.6
734.379	364.1
734.821	395.7
735.263	493.2
735.705	746.5
736.148	1400.7
736.59	2341.1
737.032	2847.2
737.474	2303.6
737.916	743.6
738.357	391.5
738.799	300.2
739.241	270.4
739.683	258.4
740.125	265.3
740.567	275.8
741.008	287.9
741.45	294
741.892	287.6
742.334	314.1
742.775	321.7
743.217	315
743.658	248.6
744.1	233.9
744.542	239.1
744.983	279.1
745.425	311.3
745.866	317.5
746.307	264.7
746.749	261.4
747.19	291.5
747.632	406.1
748.073	776.5
748.514	1671.9
748.956	2589.8
749.397	3229.8
749.838	2699.7
750.279	2746.8
750.72	1378.4
751.162	499.9
751.603	290.9
752.044	233
752.485	200.4
752.926	186.6
753.367	180
753.808	178.6
754.249	172.8
754.69	172.1
755.131	168.7
755.572	168
756.013	159.8
756.453	167.1
756.894	173.2
757.335	174.7
757.776	174.9
758.216	176.3
758.657	177.6
759.098	181
759.538	207.4
759.979	236.1
760.42	338.4
760.86	618.7
761.301	1607.9
761.741	3965.1
762.182	5984.3
762.622	4220.6
763.063	1200.7
763.503	491.2
763.943	314.2
764.384	312.9
764.824	378.1
765.264	415.4
765.705	282.9
766.145	197.4
766.585	172.3
767.025	166
767.465	171.4
767.906	220.4
768.346	296.3
768.786	316.4
769.226	238.3
769.666	288.6
770.106	541
770.546	1368.3
770.986	2417.3
771.426	2199.5
771.866	729.6
772.306	293.7
772.745	192.7
773.185	164.6
773.625	151
774.065	151.3
774.505	177.6
774.944	277.2
775.384	611.3
775.824	1142.9
776.263	1132.5
776.703	478.6
777.142	203.6
777.582	146.7
778.021	125.7
778.461	126.6
778.9	129
779.34	121.2
779.779	104.4
780.219	104.1
780.658	90.3
781.097	104.3
781.537	104.8
781.976	101.1
782.415	99
782.855	97.5
783.294	98.1
783.733	99.8
784.172	103.7
784.611	95.3
785.05	96
785.489	91.1
785.928	110.5
786.367	111.4
786.806	104.6
787.245	120.4
787.684	128.2
788.123	136.5
788.562	127.6
789.001	119
789.44	105.6
789.879	103.1
790.317	107.5
790.756	110.6
791.195	116.6
791.634	129.8
792.072	183.8
792.511	323.7
792.95	888.7
793.388	1959.7
793.827	1799.1
794.265	619.9
794.704	263.7
795.142	168.6
795.581	135.9
796.019	123.8
796.458	108.6
796.896	109.1
797.334	118.2
797.773	144.7
798.211	199.6
798.649	387
799.087	913.8
799.526	1447.4
799.964	1810.6
800.402	1865.8
800.84	689.7
801.278	272.6
801.716	170.6
802.154	139.5
802.592	134.3
803.03	129.7
803.468	117.5
803.906	130.3
804.344	130.7
804.782	125
805.22	123.6
805.658	118.5
806.096	132.9
806.533	141.4
806.971	151
807.409	203.5
807.847	286.6
