Data from 20171114-ORNL-Ar_H_NY_Subt18_08-04-10-252.txt Node
Date: Tue Nov 14 08:04:10 EST 2017
User: Ender
Spectrometer: HR+D1039
Trigger mode: 0
Integration Time (sec): 2.730000E-2
Scans to average: 10
Electric dark correction enabled: true
Nonlinearity correction enabled: false
Boxcar width: 0
XAxis mode: Wavelengths
Number of Pixels in Spectrum: 2048
>>>>>Begin Spectral Data<<<<<
187.836	-5.16
188.309	-5.16
188.782	-5.16
189.255	-1.66
189.728	-2.16
190.201	0.84
190.674	4.14
191.147	7.34
191.619	-7.36
192.092	-2.76
192.565	5.84
193.038	2.74
193.511	1.34
193.984	-0.96
194.456	-2.16
194.929	3.54
195.402	-3.56
195.874	0.04
196.347	-0.56
196.82	-4.36
197.292	5.74
197.765	-1.86
198.237	-14.86
198.71	0.04
199.182	1.24
199.655	1.44
200.127	0.94
200.6	-4.46
201.072	-3.46
201.544	-5.16
202.017	-1.66
202.489	4.14
202.961	2.94
203.433	-7.06
203.906	-5.56
204.378	-6.46
204.85	-2.96
205.322	-13.06
205.794	-2.56
206.266	-0.46
206.739	-9.36
207.211	3.24
207.683	-8.66
208.155	-3.96
208.627	-0.06
209.099	0.54
209.57	-9.76
210.042	-8.66
210.514	-5.76
210.986	-4.06
211.458	-5.96
211.93	-0.06
212.402	-0.66
212.873	-2.56
213.345	-2.86
213.817	-13.26
214.288	5.74
214.76	-8.46
215.232	-4.46
215.703	-1.16
216.175	-3.26
216.646	-6.56
217.118	-8.26
217.589	-6.76
218.061	-1.46
218.532	-6.56
219.004	-2.46
219.475	-0.76
219.946	0.64
220.418	-3.36
220.889	2.64
221.36	2.44
221.832	-3.76
222.303	-6.56
222.774	-3.16
223.245	-6.36
223.717	-6.66
224.188	-1.26
224.659	-8.86
225.13	-0.86
225.601	-3.16
226.072	1.64
226.543	-0.46
227.014	-0.56
227.485	-2.86
227.956	-9.36
228.427	-3.56
228.898	3.64
229.369	5.74
229.839	2.64
230.31	-3.36
230.781	4.54
231.252	-5.76
231.722	-4.56
232.193	-3.56
232.664	1.44
233.135	5.24
233.605	1.64
234.076	-3.36
234.546	2.54
235.017	2.64
235.487	0.54
235.958	-1.36
236.428	-4.26
236.899	5.64
237.369	2.34
237.84	-2.36
238.31	3.64
238.78	3.34
239.251	-0.76
239.721	1.44
240.191	4.04
240.662	-0.46
241.132	3.64
241.602	0.94
242.072	-2.16
242.542	9.64
243.013	0.64
243.483	5.64
243.953	4.94
244.423	1.64
244.893	-5.36
245.363	4.84
245.833	-5.36
246.303	-0.76
246.773	7.34
247.243	3.14
247.712	3.34
248.182	11.74
248.652	8.14
249.122	-3.86
249.592	11.44
250.061	19.04
250.531	27.24
251.001	6.74
251.471	19.14
251.94	19.04
252.41	8.74
252.879	-2.06
253.349	13.94
253.818	12.84
254.288	5.94
254.757	9.14
255.227	4.24
255.696	3.14
256.166	5.14
256.635	16.44
257.105	10.54
257.574	5.64
258.043	11.94
258.513	10.54
258.982	15.84
259.451	3.84
259.92	8.04
260.389	14.44
260.859	15.74
261.328	13.54
261.797	9.64
262.266	5.24
262.735	7.04
263.204	7.24
263.673	-4.06
264.142	6.84
264.611	-7.06
265.08	1.44
265.549	-7.26
266.018	4.14
266.487	-3.06
266.955	-5.86
267.424	3.74
267.893	4.84
268.362	-0.56
268.83	0.54
269.299	10.34
269.768	-2.26
270.236	2.44
270.705	-2.96
271.174	10.24
271.642	9.34
272.111	5.44
272.579	12.64
273.048	14.74
273.516	21.84
273.985	15.74
274.453	19.64
274.922	16.54
275.39	9.74
275.858	4.44
276.327	6.44
276.795	18.64
277.263	-4.66
277.731	24.24
278.2	41.34
278.668	43.94
279.136	39.84
279.604	13.84
280.072	10.74
280.54	9.64
281.008	10.04
281.477	8.24
281.945	9.54
282.413	12.04
282.881	16.14
283.348	8.54
283.816	8.14
284.284	14.54
284.752	17.94
285.22	8.84
285.688	8.54
286.156	12.54
286.623	34.04
287.091	40.94
287.559	17.34
288.026	14.94
288.494	15.34
288.962	8.34
289.429	11.44
289.897	15.24
290.364	13.14
290.832	16.74
291.3	15.14
291.767	16.24
292.234	14.94
292.702	12.74
293.169	11.94
293.637	26.84
294.104	13.04
294.571	8.84
295.039	5.64
295.506	16.04
295.973	13.64
296.44	11.64
296.908	11.54
297.375	17.34
297.842	11.54
298.309	11.04
298.776	10.74
299.243	11.84
299.71	7.14
300.177	15.64
300.644	23.34
301.111	19.84
301.578	22.04
302.045	13.04
302.512	19.84
302.979	24.44
303.446	12.44
303.913	14.34
304.379	20.64
304.846	26.14
305.313	22.24
305.78	17.74
306.246	21.14
306.713	22.24
307.18	21.34
307.646	24.34
308.113	27.94
308.579	17.54
309.046	16.34
309.512	20.94
309.979	13.44
310.445	25.54
310.912	20.64
311.378	29.04
311.845	21.34
312.311	28.94
312.777	26.14
313.244	22.44
313.71	25.64
314.176	21.94
314.642	26.84
315.109	24.84
315.575	29.64
316.041	30.54
316.507	24.94
316.973	27.84
317.439	29.64
317.905	30.34
318.371	23.44
318.837	31.24
319.303	27.54
319.769	22.84
320.235	24.34
320.701	28.64
321.167	25.94
321.633	26.94
322.099	33.74
322.564	36.54
323.03	39.14
323.496	33.24
323.962	31.44
324.427	29.84
324.893	33.94
325.359	29.14
325.824	33.84
326.29	35.24
326.755	30.54
327.221	34.84
327.686	27.34
328.152	36.34
328.617	31.44
329.083	36.94
329.548	43.14
330.014	42.64
330.479	32.14
330.944	33.74
331.41	38.04
331.875	38.54
332.34	41.54
332.805	28.44
333.271	43.74
333.736	33.04
334.201	43.74
334.666	42.44
335.131	51.24
335.596	42.64
336.061	41.54
336.526	36.44
336.991	40.64
337.456	46.54
337.921	40.24
338.386	34.94
338.851	36.94
339.316	39.44
339.781	37.04
340.246	45.04
340.711	39.94
341.175	42.04
341.64	38.24
342.105	42.54
342.569	46.84
343.034	45.74
343.499	46.04
343.963	35.84
344.428	57.94
344.893	52.34
345.357	44.34
345.822	51.74
346.286	54.84
346.751	61.14
347.215	53.44
347.679	56.04
348.144	75.64
348.608	64.94
349.073	55.84
349.537	50.04
350.001	62.14
350.465	74.04
350.93	65.54
351.394	71.54
351.858	56.54
352.322	65.44
352.786	71.04
353.25	83.84
353.715	89.64
354.179	83.24
354.643	88.34
355.107	102.34
355.571	82.24
356.035	85.24
356.498	97.54
356.962	101.34
357.426	99.44
357.89	101.64
358.354	75.64
358.818	69.34
359.281	67.44
359.745	57.64
360.209	65.44
360.673	69.24
361.136	66.94
361.6	71.04
362.064	64.34
362.527	72.04
362.991	71.54
363.454	61.64
363.918	65.44
364.381	66.74
364.845	73.04
365.308	71.44
365.772	72.54
366.235	71.24
366.698	64.24
367.162	76.84
367.625	67.94
368.088	74.04
368.552	70.04
369.015	72.34
369.478	88.74
369.941	84.54
370.404	78.24
370.867	84.04
371.331	92.84
371.794	98.04
372.257	96.04
372.72	100.34
373.183	95.54
373.646	82.64
374.109	87.34
374.572	89.24
375.035	95.44
375.497	91.64
375.96	92.44
376.423	90.74
376.886	94.24
377.349	93.64
377.811	84.84
378.274	89.54
378.737	90.44
379.199	95.84
379.662	91.24
380.125	103.54
380.587	99.04
381.05	103.44
381.512	100.64
381.975	112.64
382.437	112.34
382.9	110.04
383.362	113.54
383.825	118.14
384.287	120.94
384.75	119.24
385.212	124.04
385.674	120.84
386.136	117.34
386.599	110.34
387.061	109.24
387.523	110.84
387.985	112.84
388.447	122.04
388.91	117.14
389.372	136.54
389.834	124.04
390.296	126.24
390.758	129.44
391.22	141.14
391.682	177.44
392.144	246.04
392.606	189.54
393.068	138.04
393.529	148.74
393.991	130.84
394.453	125.24
394.915	135.64
395.377	166.14
395.838	192.34
396.3	132.24
396.762	124.74
397.224	112.44
397.685	109.84
398.147	109.74
398.608	113.64
399.07	106.24
399.531	119.14
399.993	123.14
400.454	130.84
400.916	119.14
401.377	123.74
401.839	132.74
402.3	129.84
402.762	141.44
403.223	150.54
403.684	153.74
404.145	135.34
404.607	141.14
405.068	141.94
405.529	144.24
405.99	154.64
406.451	140.24
406.913	146.84
407.374	137.74
407.835	147.44
408.296	140.74
408.757	145.04
409.218	157.14
409.679	151.14
410.14	154.94
410.601	153.24
411.062	162.24
411.522	165.54
411.983	163.34
412.444	152.24
412.905	148.34
413.366	154.84
413.826	169.94
414.287	190.94
414.748	225.44
415.208	214.54
415.669	182.84
416.13	185.34
416.59	172.44
417.051	189.24
417.511	192.94
417.972	206.44
418.432	220.44
418.893	247.34
419.353	218.74
419.814	170.54
420.274	162.64
420.734	152.94
421.195	180.74
421.655	171.14
422.115	171.24
422.576	166.64
423.036	166.64
423.496	188.64
423.956	186.74
424.416	197.34
424.876	229.64
425.336	228.74
425.797	222.34
426.257	215.34
426.717	202.14
427.177	193.14
427.637	190.44
428.097	202.04
428.556	208.04
429.016	229.34
429.476	229.64
429.936	233.84
430.396	241.24
430.856	249.64
431.315	271.74
431.775	300.34
432.235	322.34
432.694	303.54
433.154	305.54
433.614	321.14
434.073	290.84
434.533	241.14
434.993	236.04
435.452	235.44
435.912	251.04
436.371	245.54
436.83	236.14
437.29	225.94
437.749	208.24
438.209	200.04
438.668	225.04
439.127	233.94
439.587	218.14
440.046	212.84
440.505	217.64
440.964	230.14
441.424	265.64
441.883	264.34
442.342	219.84
442.801	199.14
443.26	185.54
443.719	196.94
444.178	191.84
444.637	182.14
445.096	186.14
445.555	193.34
446.014	195.84
446.473	198.74
446.932	201.94
447.391	200.64
447.849	201.64
448.308	193.74
448.767	193.84
449.226	204.14
449.685	207.64
450.143	209.34
450.602	205.34
451.061	201.34
451.519	198.04
451.978	204.54
452.436	204.14
452.895	201.74
453.353	221.44
453.812	209.44
454.27	213.54
454.729	205.04
455.187	206.74
455.646	211.34
456.104	210.54
456.562	223.04
457.021	230.54
457.479	221.14
457.937	222.74
458.395	224.14
458.854	210.74
459.312	217.34
459.77	225.74
460.228	222.44
460.686	203.24
461.144	211.54
461.602	210.14
462.06	217.34
462.518	221.94
462.976	220.94
463.434	222.04
463.892	228.34
464.35	242.14
464.808	248.74
465.266	234.94
465.724	242.14
466.181	242.04
466.639	236.24
467.097	248.14
467.555	268.34
468.012	263.24
468.47	263.44
468.928	283.44
469.385	288.54
469.843	302.74
470.3	294.34
470.758	309.14
471.215	323.54
471.673	339.34
472.13	332.24
472.588	353.94
473.045	319.84
473.503	323.74
473.96	336.84
474.417	348.64
474.875	373.34
475.332	406.54
475.789	396.04
476.246	403.04
476.704	425.54
477.161	433.84
477.618	453.74
478.075	482.74
478.532	510.54
478.989	583.14
479.446	660.74
479.903	656.54
480.36	703.84
480.817	759.74
481.274	834.74
481.731	934.44
482.188	1018.64
482.645	1142.24
483.102	1231.64
483.558	1338.14
484.015	1404.74
484.472	1371.24
484.929	1336.94
485.385	1298.54
485.842	1260.14
486.299	1193.64
486.755	1103.14
487.212	949.54
487.668	816.14
488.125	752.94
488.582	679.64
489.038	646.14
489.494	624.24
489.951	601.24
490.407	587.94
490.864	554.54
491.32	561.34
491.776	554.84
492.233	556.74
492.689	526.24
493.145	521.34
493.602	508.24
494.058	527.54
494.514	533.54
494.97	552.04
495.426	557.04
495.882	529.24
496.338	529.64
496.794	539.44
497.251	533.94
497.707	550.04
498.163	552.94
498.618	547.94
499.074	557.84
499.53	581.64
499.986	582.24
500.442	555.94
500.898	535.54
501.354	537.54
501.809	543.04
502.265	550.44
502.721	567.04
503.177	580.54
503.632	571.04
504.088	579.64
504.543	615.74
504.999	601.14
505.455	564.74
505.91	549.54
506.366	549.44
506.821	542.14
507.277	538.04
507.732	543.74
508.187	546.44
508.643	552.24
509.098	546.64
509.553	566.14
510.009	565.94
510.464	569.44
510.919	585.44
511.375	589.94
511.83	599.54
512.285	627.44
512.74	650.64
513.195	669.34
513.65	650.14
514.105	659.64
514.56	661.84
515.015	679.84
515.47	693.04
515.925	682.84
516.38	681.34
516.835	682.74
517.29	667.14
517.745	672.64
518.2	670.64
518.655	652.14
519.109	643.54
519.564	646.64
520.019	627.74
520.474	617.64
520.928	621.44
521.383	618.54
521.838	610.04
522.292	616.54
522.747	613.34
523.201	596.54
523.656	600.24
524.11	594.24
524.565	602.54
525.019	599.24
525.474	607.84
525.928	596.54
526.382	588.14
526.837	603.04
527.291	596.94
527.745	591.24
528.2	598.44
528.654	592.74
529.108	588.44
529.562	592.44
530.016	586.14
530.47	593.44
530.925	593.24
531.379	593.94
531.833	597.44
532.287	593.44
532.741	599.24
533.195	602.44
533.649	595.44
534.103	615.34
534.556	594.94
535.01	602.74
535.464	604.14
535.918	617.24
536.372	611.34
536.826	614.74
537.279	594.94
537.733	592.64
538.187	610.94
538.64	603.74
539.094	611.64
539.548	617.64
540.001	613.44
540.455	611.84
540.908	625.64
541.362	619.04
541.815	624.24
542.269	638.94
542.722	630.54
543.175	639.14
543.629	657.84
544.082	666.54
544.536	659.04
544.989	665.54
545.442	668.64
545.895	678.54
546.349	658.84
546.802	665.64
547.255	668.24
547.708	671.94
548.161	690.64
548.614	685.54
549.067	693.24
549.52	690.04
549.973	687.04
550.426	694.84
550.879	669.64
551.332	671.84
551.785	680.84
552.238	675.14
552.691	681.44
553.144	697.04
553.596	706.54
554.049	723.04
554.502	744.34
554.955	763.94
555.407	765.84
555.86	751.24
556.313	745.94
556.765	737.04
557.218	730.34
557.67	730.94
558.123	725.74
558.576	731.34
559.028	740.74
559.48	736.04
559.933	728.84
560.385	699.84
560.838	667.64
561.29	652.14
561.742	645.54
562.195	629.24
562.647	639.74
563.099	650.14
563.551	638.04
564.004	640.54
564.456	647.14
564.908	633.04
565.36	625.34
565.812	602.94
566.264	600.84
566.716	604.94
567.168	586.44
567.62	600.94
568.072	579.74
568.524	563.14
568.976	564.04
569.428	561.44
569.88	561.44
570.332	556.84
570.784	558.84
571.235	556.54
571.687	564.74
572.139	570.54
572.59	585.14
573.042	579.74
573.494	576.84
573.945	583.94
574.397	565.84
574.849	566.14
575.3	560.64
575.752	555.64
576.203	557.74
576.655	562.54
577.106	547.54
577.557	543.64
578.009	545.74
578.46	546.04
578.912	546.34
579.363	544.14
579.814	547.84
580.265	542.14
580.717	534.24
581.168	537.04
581.619	544.84
582.07	554.04
582.521	548.64
582.972	548.14
583.423	548.54
583.875	553.44
584.326	564.64
584.777	607.84
585.227	670.34
585.678	760.84
586.129	836.04
586.58	899.64
587.031	967.44
587.482	1120.94
587.933	1295.74
588.384	1102.64
588.834	799.24
589.285	661.64
589.736	642.04
590.186	623.14
590.637	620.54
591.088	602.34
591.538	608.64
591.989	590.24
592.439	585.54
592.89	576.44
593.34	571.14
593.791	572.54
594.241	558.54
594.692	572.44
595.142	573.64
595.593	561.74
596.043	565.44
596.493	575.54
596.943	570.94
597.394	574.14
597.844	575.94
598.294	576.94
598.744	605.44
599.195	615.94
599.645	660.44
600.095	685.44
600.545	723.34
600.995	765.44
601.445	818.94
601.895	872.44
602.345	920.34
602.795	903.34
603.245	850.24
603.695	811.64
604.145	773.04
604.594	734.64
605.044	693.24
605.494	647.74
605.944	597.94
606.393	584.74
606.843	569.44
607.293	587.94
607.743	581.34
608.192	589.14
608.642	603.84
609.091	602.54
609.541	603.74
609.99	610.24
610.44	607.44
610.889	575.64
611.339	554.44
611.788	548.94
612.238	557.44
612.687	580.04
613.136	565.64
613.586	585.14
614.035	582.04
614.484	608.54
614.933	598.94
615.383	594.34
615.832	577.84
616.281	571.44
616.73	550.64
617.179	529.44
617.628	510.44
618.077	492.34
618.526	482.04
618.975	487.24
619.424	488.84
619.873	489.44
620.322	482.54
620.771	472.74
621.22	475.44
621.669	468.64
622.118	469.84
622.567	456.44
623.015	442.74
623.464	438.44
623.913	441.04
624.361	432.44
624.81	432.74
625.259	432.24
625.707	435.94
626.156	431.54
626.604	439.94
627.053	433.14
627.501	436.04
627.95	443.54
628.398	446.64
628.847	439.94
629.295	445.14
629.744	457.74
630.192	445.64
630.64	444.94
631.089	441.04
631.537	450.64
631.985	452.64
632.433	469.04
632.881	460.04
633.33	504.84
633.778	482.94
634.226	427.54
634.674	433.04
635.122	449.34
635.57	466.04
636.018	482.04
636.466	458.34
636.914	432.54
637.362	446.04
637.81	453.74
638.258	450.84
638.705	451.94
639.153	472.74
639.601	473.04
640.049	491.44
640.497	529.84
640.944	551.04
641.392	505.64
641.84	479.04
642.287	451.44
642.735	446.14
643.182	440.24
643.63	441.04
644.078	436.54
644.525	462.04
644.973	467.64
645.42	469.14
645.867	482.54
646.315	491.44
646.762	508.54
647.21	538.44
647.657	549.64
648.104	582.04
648.551	591.04
648.999	650.14
649.446	709.34
649.893	771.54
650.34	884.54
650.787	1064.94
651.234	1317.94
651.682	1704.94
652.129	2335.74
652.576	3329.54
653.023	4976.14
653.47	6925.64
653.917	8729.64
654.363	10281.44
654.81	11615.64
655.257	11072.04
655.704	7173.74
656.151	4189.94
656.598	2704.44
657.044	1909.64
657.491	1462.54
657.938	1166.14
658.385	975.74
658.831	847.64
659.278	750.84
659.724	654.64
660.171	604.34
660.618	551.54
661.064	537.14
661.511	502.84
661.957	488.14
662.404	476.64
662.85	481.54
663.296	472.74
663.743	431.64
664.189	408.64
664.635	412.54
665.082	410.54
665.528	406.44
665.974	399.84
666.42	388.84
666.867	389.64
667.313	369.54
667.759	375.24
668.205	374.94
668.651	385.74
669.097	375.64
669.543	389.74
669.989	365.44
670.435	350.04
670.881	347.44
671.327	344.14
671.773	356.54
672.219	377.94
672.665	422.24
673.11	448.84
673.556	481.84
674.002	508.24
674.448	510.64
674.893	425.24
675.339	364.84
675.785	331.34
676.23	311.34
676.676	296.54
677.122	293.64
677.567	289.14
678.013	282.74
678.458	270.94
678.904	266.14
679.349	263.44
679.794	276.54
680.24	266.04
680.685	262.44
681.131	257.84
681.576	266.24
682.021	272.64
682.466	264.24
682.912	265.34
683.357	264.64
683.802	292.54
684.247	310.64
684.692	340.94
685.137	370.64
685.583	402.14
686.028	423.84
686.473	394.34
686.918	341.84
687.363	313.84
687.807	297.24
688.252	270.64
688.697	270.54
689.142	259.04
689.587	252.34
690.032	248.34
690.477	249.34
690.921	254.44
691.366	283.04
691.811	300.04
692.255	320.44
692.7	342.24
693.145	372.94
693.589	506.54
694.034	826.04
694.478	1160.74
694.923	1352.24
695.367	1780.24
695.812	925.54
696.256	379.34
696.701	281.44
697.145	264.34
697.59	255.94
698.034	242.94
698.478	257.94
698.922	249.24
699.367	244.94
699.811	260.64
700.255	269.04
700.699	290.14
701.143	317.34
701.588	361.34
702.032	391.74
702.476	391.14
702.92	371.04
703.364	365.84
703.808	457.24
704.252	760.54
704.696	1070.54
705.14	1280.14
705.584	1680.44
706.027	812.64
706.471	397.34
706.915	299.74
707.359	263.34
707.803	244.54
708.246	227.24
708.69	234.24
709.134	241.14
709.577	228.74
710.021	234.04
710.465	229.04
710.908	227.34
711.352	221.34
711.795	233.04
712.239	264.64
712.682	280.94
713.126	311.14
713.569	354.74
714.012	282.14
714.456	250.74
714.899	232.74
715.342	207.64
715.786	199.34
716.229	196.74
716.672	193.04
717.115	192.14
717.558	189.54
718.002	187.84
718.445	193.74
718.888	212.94
719.331	225.84
719.774	238.44
720.217	224.34
720.66	216.84
721.103	197.94
721.546	190.64
721.989	188.14
722.432	167.54
722.874	178.74
723.317	169.14
723.76	175.54
724.203	193.44
724.645	234.24
725.088	323.04
725.531	427.24
725.974	494.74
726.416	418.74
726.859	223.64
727.301	186.44
727.744	182.44
728.187	176.54
728.629	184.84
729.071	183.84
729.514	196.14
729.956	195.94
730.399	205.94
730.841	219.24
731.283	209.24
731.726	199.54
732.168	193.64
732.61	199.84
733.053	209.34
733.495	230.94
733.937	263.04
734.379	297.74
734.821	318.14
735.263	391.44
735.705	612.94
736.148	1151.14
736.59	1915.34
737.032	2400.44
737.474	1953.04
737.916	610.44
738.357	324.84
738.799	244.54
739.241	217.54
739.683	210.44
740.125	217.14
740.567	228.34
741.008	235.74
741.45	234.54
741.892	238.24
742.334	264.74
742.775	273.14
743.217	263.44
743.658	206.04
744.1	191.74
744.542	193.74
744.983	233.04
745.425	268.64
745.866	266.44
746.307	218.74
746.749	211.64
747.19	243.64
747.632	327.64
748.073	620.74
748.514	1374.54
748.956	2161.54
749.397	2711.84
749.838	2258.34
750.279	2320.74
750.72	1155.94
751.162	412.34
751.603	237.14
752.044	190.34
752.485	166.24
752.926	156.44
753.367	154.34
753.808	142.14
754.249	142.94
754.69	133.64
755.131	140.64
755.572	141.34
756.013	138.94
756.453	143.74
756.894	143.74
757.335	138.34
757.776	143.14
758.216	143.64
758.657	146.54
759.098	152.94
759.538	165.94
759.979	197.94
760.42	273.94
760.86	504.34
761.301	1312.44
761.741	3303.74
762.182	5117.94
762.622	3621.54
763.063	1016.84
763.503	414.44
763.943	264.14
