Data from 20171114-ORNL-Ar_H_NY_Subt18_08-07-59-278.txt Node
Date: Tue Nov 14 08:07:59 EST 2017
User: Ender
Spectrometer: HR+D1039
Trigger mode: 0
Integration Time (sec): 2.730000E-2
Scans to average: 10
Electric dark correction enabled: true
Nonlinearity correction enabled: false
Boxcar width: 0
XAxis mode: Wavelengths
Number of Pixels in Spectrum: 2048
>>>>>Begin Spectral Data<<<<<
187.836	-3.31
188.309	-3.31
188.782	-3.31
189.255	3.19
189.728	-3.01
190.201	1.79
190.674	2.89
191.147	0.69
191.619	-6.31
192.092	2.59
192.565	5.49
193.038	0.19
193.511	3.79
193.984	2.49
194.456	-5.71
194.929	4.39
195.402	-4.81
195.874	-4.31
196.347	1.49
196.82	-6.71
197.292	5.59
197.765	4.79
198.237	-5.71
198.71	3.29
199.182	-2.81
199.655	8.79
200.127	-1.81
200.6	-3.91
201.072	-1.21
201.544	-8.41
202.017	-3.91
202.489	5.79
202.961	1.49
203.433	-3.31
203.906	1.99
204.378	-11.01
204.85	-0.61
205.322	-2.61
205.794	-2.51
206.266	-3.21
206.739	-9.31
207.211	-1.81
207.683	-7.61
208.155	-5.51
208.627	-6.41
209.099	-4.11
209.57	-5.71
210.042	-5.01
210.514	-2.11
210.986	-7.81
211.458	-9.21
211.93	-0.81
212.402	1.99
212.873	-5.01
213.345	-2.31
213.817	-10.11
214.288	-4.11
214.76	-14.91
215.232	-3.81
215.703	3.09
216.175	-3.71
216.646	-9.91
217.118	-5.71
217.589	-7.71
218.061	-1.31
218.532	-2.81
219.004	1.09
219.475	-6.41
219.946	0.39
220.418	-4.51
220.889	4.09
221.36	3.09
221.832	-5.61
222.303	-9.21
222.774	-1.41
223.245	-9.31
223.717	-4.91
224.188	-6.51
224.659	-12.51
225.13	-4.71
225.601	-5.41
226.072	-5.01
226.543	-3.91
227.014	-0.91
227.485	5.99
227.956	-6.31
228.427	-1.21
228.898	-4.01
229.369	5.99
229.839	-0.31
230.31	-3.31
230.781	1.49
231.252	-5.51
231.722	-5.11
232.193	2.79
232.664	-0.71
233.135	0.69
233.605	-2.51
234.076	-4.01
234.546	5.29
235.017	6.49
235.487	1.09
235.958	4.89
236.428	-0.91
236.899	9.29
237.369	0.19
237.84	3.59
238.31	4.49
238.78	5.49
239.251	0.49
239.721	1.89
240.191	3.19
240.662	-0.61
241.132	3.19
241.602	-4.11
242.072	1.59
242.542	5.29
243.013	0.39
243.483	7.49
243.953	2.49
244.423	-1.61
244.893	0.19
245.363	0.89
245.833	-3.61
246.303	2.09
246.773	7.59
247.243	3.19
247.712	3.99
248.182	8.09
248.652	5.79
249.122	1.29
249.592	12.59
250.061	22.39
250.531	29.09
251.001	13.19
251.471	14.49
251.94	20.29
252.41	7.29
252.879	2.59
253.349	15.49
253.818	11.59
254.288	0.79
254.757	2.69
255.227	5.19
255.696	5.69
256.166	8.79
256.635	9.99
257.105	4.89
257.574	6.89
258.043	9.29
258.513	7.29
258.982	18.49
259.451	6.19
259.92	19.99
260.389	5.59
260.859	16.29
261.328	9.09
261.797	19.39
262.266	9.69
262.735	3.79
263.204	8.59
263.673	2.39
264.142	6.79
264.611	-5.01
265.08	0.49
265.549	0.19
266.018	8.69
266.487	2.89
266.955	1.39
267.424	1.29
267.893	7.69
268.362	0.69
268.83	0.99
269.299	11.39
269.768	4.79
270.236	6.99
270.705	0.79
271.174	1.59
271.642	8.49
272.111	5.19
272.579	16.99
273.048	20.59
273.516	28.09
273.985	25.79
274.453	23.29
274.922	20.59
275.39	7.29
275.858	7.49
276.327	11.09
276.795	13.59
277.263	9.59
277.731	33.49
278.2	50.49
278.668	52.99
279.136	45.09
279.604	11.99
280.072	12.39
280.54	12.69
281.008	14.99
281.477	11.89
281.945	16.39
282.413	13.69
282.881	20.89
283.348	6.39
283.816	13.79
284.284	16.49
284.752	23.69
285.22	14.29
285.688	13.99
286.156	18.99
286.623	44.39
287.091	50.09
287.559	22.69
288.026	11.89
288.494	16.09
288.962	6.89
289.429	5.69
289.897	18.39
290.364	19.49
290.832	15.09
291.3	16.79
291.767	22.69
292.234	16.49
292.702	10.09
293.169	14.99
293.637	21.69
294.104	26.39
294.571	8.29
295.039	12.79
295.506	12.39
295.973	20.29
296.44	12.69
296.908	16.89
297.375	19.29
297.842	21.09
298.309	18.69
298.776	20.09
299.243	17.19
299.71	15.89
300.177	27.29
300.644	21.89
301.111	19.79
301.578	24.09
302.045	15.19
302.512	20.69
302.979	20.89
303.446	21.09
303.913	20.19
304.379	19.49
304.846	30.39
305.313	24.39
305.78	20.99
306.246	27.09
306.713	25.99
307.18	21.09
307.646	26.09
308.113	33.79
308.579	28.39
309.046	20.39
309.512	26.69
309.979	21.69
310.445	30.09
310.912	25.19
311.378	26.09
311.845	27.89
312.311	30.19
312.777	29.19
313.244	27.59
313.71	37.39
314.176	32.59
314.642	32.99
315.109	34.29
315.575	42.89
316.041	37.89
316.507	30.89
316.973	39.69
317.439	33.59
317.905	36.69
318.371	27.19
318.837	32.59
319.303	31.49
319.769	30.59
320.235	32.09
320.701	33.99
321.167	37.49
321.633	34.69
322.099	44.49
322.564	46.79
323.03	40.09
323.496	33.99
323.962	45.19
324.427	35.19
324.893	40.49
325.359	35.69
325.824	37.99
326.29	34.29
326.755	40.29
327.221	41.49
327.686	37.19
328.152	49.29
328.617	36.09
329.083	47.09
329.548	52.69
330.014	47.29
330.479	39.19
330.944	44.79
331.41	43.39
331.875	46.89
332.34	42.19
332.805	46.29
333.271	38.99
333.736	47.29
334.201	53.39
334.666	52.49
335.131	50.39
335.596	47.29
336.061	45.39
336.526	42.39
336.991	43.89
337.456	55.99
337.921	48.09
338.386	38.19
338.851	40.99
339.316	44.59
339.781	46.89
340.246	41.39
340.711	47.99
341.175	54.79
341.64	46.59
342.105	49.39
342.569	58.09
343.034	54.39
343.499	55.59
343.963	52.09
344.428	65.99
344.893	59.69
345.357	54.29
345.822	64.59
346.286	65.29
346.751	69.79
347.215	63.59
347.679	74.99
348.144	95.09
348.608	79.09
349.073	67.29
349.537	76.29
350.001	81.19
350.465	87.29
350.93	83.59
351.394	75.19
351.858	69.49
352.322	94.79
352.786	83.29
353.25	107.59
353.715	111.99
354.179	95.39
354.643	116.59
355.107	125.09
355.571	103.39
356.035	104.69
356.498	123.29
356.962	118.69
357.426	128.39
357.89	113.99
358.354	90.39
358.818	84.69
359.281	78.19
359.745	82.69
360.209	72.79
360.673	70.49
361.136	79.89
361.6	84.19
362.064	79.39
362.527	88.09
362.991	85.99
363.454	81.49
363.918	80.79
364.381	78.59
364.845	86.89
365.308	86.99
365.772	83.09
366.235	84.19
366.698	79.99
367.162	86.69
367.625	88.19
368.088	85.59
368.552	88.19
369.015	86.59
369.478	93.09
369.941	102.59
370.404	95.59
370.867	103.49
371.331	107.69
371.794	116.99
372.257	110.59
372.72	116.09
373.183	105.99
373.646	105.59
374.109	108.29
374.572	105.59
375.035	107.29
375.497	113.19
375.96	100.49
376.423	102.29
376.886	110.29
377.349	103.89
377.811	103.39
378.274	111.79
378.737	106.99
379.199	109.09
379.662	110.19
380.125	122.99
380.587	121.09
381.05	117.99
381.512	127.59
381.975	136.09
382.437	132.09
382.9	126.89
383.362	137.29
383.825	142.89
384.287	143.99
384.75	137.49
385.212	143.09
385.674	141.19
386.136	134.29
386.599	128.29
387.061	127.89
387.523	133.59
387.985	139.09
388.447	147.29
388.91	145.39
389.372	162.89
389.834	158.19
390.296	144.19
390.758	159.19
391.22	176.69
391.682	207.09
392.144	298.09
392.606	228.49
393.068	171.79
393.529	173.99
393.991	155.69
394.453	154.29
394.915	160.99
395.377	195.59
395.838	213.69
396.3	162.29
396.762	141.69
397.224	134.19
397.685	127.39
398.147	132.49
398.608	135.89
399.07	131.39
399.531	141.29
399.993	148.79
400.454	153.49
400.916	150.69
401.377	147.49
401.839	156.89
402.3	154.19
402.762	163.09
403.223	178.79
403.684	174.99
404.145	164.19
404.607	162.29
405.068	167.19
405.529	172.59
405.99	192.69
406.451	184.49
406.913	170.59
407.374	162.09
407.835	162.59
408.296	167.69
408.757	174.99
409.218	191.69
409.679	183.29
410.14	178.69
410.601	180.49
411.062	180.59
411.522	193.19
411.983	193.49
412.444	176.59
412.905	182.89
413.366	189.69
413.826	189.29
414.287	215.69
414.748	265.89
415.208	245.89
415.669	214.39
416.13	203.79
416.59	203.39
417.051	211.39
417.511	215.49
417.972	231.19
418.432	250.49
418.893	293.39
419.353	250.19
419.814	201.99
420.274	185.29
420.734	179.99
421.195	211.99
421.655	195.49
422.115	194.69
422.576	194.29
423.036	198.19
423.496	208.59
423.956	220.99
424.416	229.39
424.876	269.59
425.336	266.99
425.797	269.49
426.257	253.39
426.717	241.69
427.177	237.59
427.637	228.09
428.097	240.29
428.556	243.69
429.016	275.19
429.476	271.19
429.936	280.79
430.396	279.19
430.856	301.19
431.315	321.49
431.775	352.39
432.235	388.99
432.694	354.79
433.154	371.69
433.614	390.49
434.073	341.49
434.533	292.39
434.993	271.29
435.452	282.99
435.912	296.99
436.371	285.29
436.83	294.09
437.29	277.09
437.749	252.09
438.209	241.69
438.668	277.99
439.127	296.49
439.587	269.69
440.046	247.69
440.505	261.79
440.964	280.89
441.424	323.79
441.883	310.09
442.342	263.79
442.801	233.79
443.26	227.49
443.719	225.49
444.178	221.29
444.637	213.99
445.096	223.19
445.555	225.39
446.014	225.69
446.473	231.49
446.932	239.39
447.391	225.79
447.849	228.49
448.308	218.19
448.767	228.79
449.226	239.39
449.685	243.09
450.143	245.09
450.602	237.69
451.061	234.39
451.519	237.69
451.978	240.59
452.436	235.49
452.895	240.29
453.353	253.29
453.812	243.09
454.27	238.99
454.729	238.99
455.187	244.39
455.646	251.29
456.104	245.69
456.562	261.99
457.021	272.99
457.479	260.59
457.937	274.59
458.395	259.09
458.854	250.99
459.312	261.49
459.77	281.19
460.228	255.89
460.686	246.09
461.144	252.99
461.602	249.29
462.06	239.49
462.518	260.39
462.976	261.09
463.434	260.49
463.892	267.19
464.35	279.69
464.808	284.99
465.266	267.89
465.724	268.79
466.181	281.29
466.639	273.69
467.097	290.89
467.555	293.59
468.012	305.69
468.47	307.29
468.928	329.69
469.385	343.09
469.843	344.89
470.3	354.69
470.758	362.59
471.215	387.29
471.673	411.79
472.13	415.49
472.588	427.09
473.045	377.29
473.503	374.79
473.96	404.89
474.417	404.99
474.875	437.89
475.332	479.09
475.789	472.99
476.246	480.39
476.704	484.19
477.161	512.39
477.618	528.49
478.075	566.79
478.532	620.19
478.989	699.59
479.446	808.59
479.903	785.09
480.36	811.49
480.817	860.69
481.274	964.39
481.731	1076.09
482.188	1168.79
482.645	1308.99
483.102	1404.79
483.558	1533.99
484.015	1598.39
484.472	1557.79
484.929	1517.99
485.385	1469.79
485.842	1419.09
486.299	1359.19
486.755	1300.39
487.212	1097.09
487.668	934.49
488.125	853.39
488.582	789.69
489.038	742.99
489.494	704.89
489.951	686.19
490.407	666.29
490.864	652.89
491.32	635.99
491.776	650.19
492.233	643.49
492.689	609.59
493.145	602.89
493.602	601.19
494.058	616.99
494.514	617.09
494.97	646.19
495.426	646.39
495.882	620.99
496.338	622.29
496.794	621.29
497.251	617.19
497.707	625.89
498.163	638.09
498.618	641.89
499.074	648.49
499.53	687.69
499.986	680.29
500.442	660.59
500.898	631.29
501.354	624.99
501.809	642.89
502.265	643.89
502.721	652.89
503.177	679.79
503.632	676.09
504.088	687.29
504.543	712.09
504.999	706.79
505.455	663.59
505.91	629.29
506.366	634.99
506.821	627.89
507.277	626.69
507.732	628.09
508.187	633.59
508.643	632.89
509.098	640.09
509.553	659.99
510.009	660.69
510.464	677.99
510.919	687.19
511.375	691.59
511.83	711.69
512.285	726.79
512.74	751.69
513.195	782.69
513.65	775.79
514.105	759.29
514.56	769.39
515.015	781.89
515.47	802.69
515.925	790.29
516.38	778.69
516.835	787.59
517.29	782.79
517.745	769.99
518.2	764.79
518.655	746.29
519.109	741.99
519.564	740.89
520.019	727.69
520.474	719.19
520.928	725.29
521.383	722.69
521.838	703.69
522.292	707.69
522.747	705.19
523.201	708.79
523.656	694.79
524.11	696.29
524.565	702.69
525.019	689.29
525.474	704.09
525.928	695.99
526.382	702.69
526.837	704.39
527.291	698.29
527.745	691.39
528.2	689.29
528.654	688.59
529.108	687.89
529.562	691.59
530.016	688.19
530.47	690.19
530.925	694.09
531.379	700.69
531.833	712.29
532.287	694.59
532.741	699.69
533.195	696.69
533.649	705.99
534.103	717.19
534.556	704.49
535.01	711.49
535.464	701.79
535.918	712.89
536.372	709.79
536.826	707.89
537.279	705.89
537.733	717.49
538.187	719.99
538.64	707.79
539.094	719.29
539.548	729.19
540.001	719.49
540.455	717.09
540.908	736.89
541.362	734.49
541.815	749.59
542.269	752.29
542.722	756.89
543.175	776.09
543.629	772.59
544.082	782.39
544.536	782.09
544.989	777.69
545.442	794.29
545.895	795.39
546.349	785.79
546.802	787.99
547.255	803.49
547.708	802.39
548.161	813.09
548.614	825.49
549.067	831.79
549.52	819.99
549.973	809.39
550.426	801.69
550.879	789.69
551.332	798.59
551.785	803.09
552.238	805.39
552.691	809.19
553.144	829.69
553.596	839.29
554.049	863.09
554.502	888.89
554.955	910.99
555.407	905.19
555.86	907.39
556.313	891.49
556.765	888.99
557.218	880.59
557.67	871.99
558.123	871.59
558.576	873.39
559.028	880.99
559.48	879.89
559.933	868.69
560.385	847.59
560.838	797.29
561.29	785.79
561.742	787.09
562.195	771.09
562.647	773.89
563.099	775.69
563.551	767.59
564.004	791.09
564.456	770.09
564.908	764.39
565.36	741.89
565.812	737.19
566.264	724.59
566.716	725.99
567.168	718.19
567.62	716.69
568.072	705.99
568.524	693.89
568.976	699.19
569.428	670.89
569.88	677.29
570.332	682.89
570.784	681.19
571.235	682.59
571.687	704.49
572.139	708.69
572.59	706.99
573.042	705.59
573.494	714.09
573.945	698.19
574.397	684.39
574.849	684.69
575.3	693.79
575.752	682.29
576.203	674.49
576.655	688.59
577.106	673.59
577.557	667.49
578.009	662.49
578.46	669.09
578.912	659.39
579.363	664.09
579.814	665.39
580.265	664.49
580.717	679.79
581.168	672.09
581.619	676.39
582.07	685.49
582.521	675.29
582.972	665.99
583.423	678.19
583.875	685.49
584.326	696.09
584.777	747.69
585.227	829.29
585.678	913.39
586.129	996.49
586.58	1066.79
587.031	1150.79
587.482	1306.49
587.933	1471.09
588.384	1287.39
588.834	974.89
589.285	804.19
589.736	785.09
590.186	778.19
590.637	764.39
591.088	747.79
591.538	732.99
591.989	734.19
592.439	727.09
592.89	726.89
593.34	710.29
593.791	712.29
594.241	711.69
594.692	714.19
595.142	703.19
595.593	698.09
596.043	708.29
596.493	718.99
596.943	716.49
597.394	720.79
597.844	711.39
598.294	739.19
598.744	756.49
599.195	774.59
599.645	819.09
600.095	853.69
600.545	924.59
600.995	972.49
601.445	1026.99
601.895	1090.59
602.345	1141.19
602.795	1121.09
603.245	1063.69
603.695	1012.89
604.145	958.49
604.594	907.49
605.044	853.39
605.494	803.09
605.944	751.89
606.393	736.39
606.843	734.69
607.293	745.29
607.743	736.19
608.192	751.69
608.642	755.29
609.091	766.49
609.541	770.09
609.99	758.39
610.44	771.69
610.889	723.49
611.339	709.49
611.788	692.19
612.238	705.79
612.687	728.49
613.136	733.29
613.586	744.89
614.035	734.79
614.484	762.69
614.933	760.69
615.383	745.39
615.832	749.69
616.281	732.69
616.73	697.49
617.179	673.99
617.628	655.29
618.077	640.99
618.526	625.29
618.975	626.29
619.424	624.19
619.873	613.69
620.322	612.49
620.771	613.19
621.22	603.39
621.669	587.59
622.118	596.89
622.567	583.39
623.015	574.69
623.464	568.89
623.913	550.89
624.361	554.59
624.81	557.89
625.259	560.69
625.707	556.59
626.156	559.49
626.604	569.39
627.053	556.79
627.501	563.19
627.95	571.49
628.398	579.89
628.847	568.09
629.295	562.59
629.744	570.09
630.192	568.69
630.64	569.99
631.089	575.39
631.537	584.19
631.985	588.29
632.433	611.49
632.881	616.39
633.33	666.49
633.778	654.89
634.226	562.99
634.674	576.09
635.122	583.89
635.57	606.69
636.018	637.09
636.466	587.99
636.914	569.29
637.362	579.79
637.81	574.49
638.258	570.69
638.705	578.09
639.153	606.89
639.601	631.69
640.049	645.79
640.497	676.99
640.944	698.39
641.392	640.99
641.84	611.69
642.287	588.79
642.735	561.89
643.182	570.69
643.63	578.09
644.078	583.99
644.525	599.19
644.973	598.09
645.42	603.39
645.867	623.39
646.315	648.39
646.762	660.39
647.21	707.29
647.657	713.99
648.104	746.89
648.551	777.19
648.999	841.99
649.446	911.39
649.893	1013.89
650.34	1171.79
650.787	1412.69
651.234	1748.59
651.682	2298.09
652.129	3166.99
652.576	4563.39
653.023	6696.69
653.47	9162.79
653.917	11424.99
654.363	13058.39
654.81	14345.69
655.257	13663.29
655.704	8931.79
656.151	5265.59
656.598	3420.79
657.044	2426.19
657.491	1852.29
657.938	1498.59
658.385	1247.19
658.831	1096.29
659.278	959.19
659.724	856.79
660.171	788.49
660.618	733.89
661.064	697.49
661.511	667.49
661.957	655.69
662.404	640.59
662.85	649.59
663.296	623.59
663.743	557.79
664.189	536.89
664.635	544.79
665.082	529.89
665.528	532.99
665.974	528.19
666.42	518.29
666.867	512.89
667.313	487.49
667.759	486.89
668.205	489.49
668.651	490.79
669.097	490.59
669.543	503.79
669.989	470.99
670.435	457.19
670.881	449.49
671.327	447.69
671.773	477.99
672.219	493.99
672.665	546.69
673.11	588.39
673.556	636.19
674.002	670.89
674.448	651.69
674.893	550.69
675.339	480.09
675.785	437.99
676.23	419.59
676.676	389.89
677.122	387.69
677.567	372.39
678.013	368.69
678.458	363.59
678.904	356.59
679.349	347.69
679.794	364.89
680.24	350.79
680.685	341.29
681.131	351.99
681.576	353.09
682.021	357.29
682.466	344.89
682.912	346.99
683.357	360.89
683.802	388.49
684.247	411.89
684.692	461.19
685.137	497.69
685.583	534.89
686.028	563.79
686.473	511.49
686.918	444.69
687.363	419.79
687.807	390.29
688.252	369.99
688.697	350.39
689.142	347.79
689.587	336.49
690.032	324.19
690.477	340.99
690.921	355.49
691.366	383.79
691.811	400.29
692.255	434.79
692.7	465.29
693.145	512.19
693.589	716.99
694.034	1159.79
694.478	1551.59
694.923	1739.09
695.367	2249.39
695.812	1183.89
696.256	502.79
696.701	377.09
697.145	341.99
697.59	328.89
698.034	321.19
698.478	331.09
698.922	327.49
699.367	330.49
699.811	344.49
700.255	355.59
700.699	393.29
701.143	431.09
701.588	483.39
702.032	524.49
702.476	513.79
702.92	495.79
703.364	494.09
703.808	659.19
704.252	1056.89
704.696	1466.89
705.14	1661.79
705.584	2120.59
706.027	1064.89
706.471	520.79
706.915	401.29
707.359	349.49
707.803	323.69
708.246	304.29
708.69	317.39
709.134	317.99
709.577	314.79
710.021	320.49
710.465	311.39
710.908	304.59
711.352	304.89
711.795	311.39
712.239	356.89
712.682	388.19
713.126	405.99
713.569	476.19
714.012	372.29
714.456	322.19
714.899	302.69
715.342	275.29
715.786	258.29
716.229	259.79
716.672	256.89
717.115	253.69
717.558	252.99
718.002	249.09
718.445	271.89
718.888	288.49
719.331	296.29
719.774	312.49
720.217	310.99
720.66	290.89
721.103	266.49
721.546	263.99
721.989	250.19
722.432	233.89
722.874	244.19
723.317	230.89
723.76	241.79
724.203	256.89
724.645	326.69
725.088	449.59
725.531	572.19
725.974	629.59
726.416	551.09
726.859	309.49
727.301	244.89
727.744	237.99
728.187	229.89
728.629	236.29
729.071	241.19
729.514	262.19
729.956	277.29
730.399	282.69
730.841	291.49
731.283	279.79
731.726	267.89
732.168	266.89
732.61	268.79
733.053	296.49
733.495	313.69
733.937	353.69
734.379	407.49
734.821	446.69
735.263	548.49
735.705	862.69
736.148	1624.69
736.59	2590.09
737.032	3031.19
737.474	2462.39
737.916	801.89
738.357	433.49
738.799	332.79
739.241	300.69
739.683	284.69
740.125	290.59
740.567	297.99
741.008	314.59
741.45	308.19
741.892	316.49
742.334	350.39
742.775	361.29
743.217	338.39
743.658	273.09
744.1	264.19
744.542	258.09
744.983	303.99
745.425	336.29
745.866	349.39
746.307	287.09
746.749	291.59
747.19	335.39
747.632	481.29
748.073	913.79
748.514	1914.99
748.956	2860.79
749.397	3587.39
749.838	2958.09
750.279	2923.49
750.72	1484.19
751.162	544.59
751.603	324.29
752.044	246.49
752.485	215.59
752.926	211.59
753.367	203.39
753.808	196.09
754.249	195.09
754.69	186.79
755.131	187.79
755.572	182.49
756.013	185.29
756.453	183.59
756.894	188.79
757.335	190.89
757.776	199.89
758.216	194.69
758.657	195.19
759.098	201.89
759.538	227.79
759.979	272.69
760.42	384.59
760.86	735.09
761.301	1886.59
761.741	4467.59
762.182	6330.29
762.622	4434.99
