Data from 20171114-ORNL-Ar_H_NY_Subt18_08-08-35-584.txt Node
Date: Tue Nov 14 08:08:35 EST 2017
User: Ender
Spectrometer: HR+D1039
Trigger mode: 0
Integration Time (sec): 2.730000E-2
Scans to average: 10
Electric dark correction enabled: true
Nonlinearity correction enabled: false
Boxcar width: 0
XAxis mode: Wavelengths
Number of Pixels in Spectrum: 2048
>>>>>Begin Spectral Data<<<<<
187.836	-5.55
188.309	-5.55
188.782	-5.55
189.255	2.45
189.728	-5.65
190.201	7.55
190.674	1.75
191.147	-2.95
191.619	-4.35
192.092	1.15
192.565	5.45
193.038	0.55
193.511	1.85
193.984	0.75
194.456	-1.55
194.929	1.65
195.402	-4.45
195.874	1.35
196.347	1.55
196.82	-4.75
197.292	7.95
197.765	0.25
198.237	-6.55
198.71	0.35
199.182	-1.55
199.655	6.85
200.127	3.75
200.6	-5.05
201.072	-3.45
201.544	-9.75
202.017	0.25
202.489	5.05
202.961	-5.55
203.433	-0.55
203.906	-5.85
204.378	-5.65
204.85	-0.75
205.322	-5.95
205.794	0.05
206.266	1.35
206.739	-9.45
207.211	0.35
207.683	-8.95
208.155	-6.85
208.627	-5.25
209.099	-2.95
209.57	-5.05
210.042	-10.35
210.514	-0.45
210.986	-2.65
211.458	-4.45
211.93	-3.55
212.402	-2.25
212.873	-8.45
213.345	-8.05
213.817	-13.05
214.288	-6.55
214.76	-9.75
215.232	-1.25
215.703	1.75
216.175	-4.15
216.646	-3.65
217.118	-6.65
217.589	-3.25
218.061	0.55
218.532	-10.85
219.004	-4.65
219.475	-4.15
219.946	1.35
220.418	-8.05
220.889	2.15
221.36	-0.45
221.832	-7.35
222.303	-8.85
222.774	1.65
223.245	-9.95
223.717	-6.95
224.188	-0.55
224.659	-6.35
225.13	-4.75
225.601	-4.95
226.072	2.15
226.543	0.15
227.014	-7.15
227.485	-0.85
227.956	-0.45
228.427	-6.35
228.898	-1.55
229.369	5.05
229.839	-1.55
230.31	-7.45
230.781	1.05
231.252	-2.85
231.722	-9.15
232.193	-5.25
232.664	-5.05
233.135	-7.25
233.605	-3.25
234.076	-5.25
234.546	-1.35
235.017	1.45
235.487	2.35
235.958	0.75
236.428	-6.35
236.899	-7.15
237.369	-0.85
237.84	-5.75
238.31	6.35
238.78	2.85
239.251	-6.75
239.721	-0.55
240.191	-6.05
240.662	-1.55
241.132	-3.35
241.602	-6.95
242.072	-2.65
242.542	1.95
243.013	0.05
243.483	7.55
243.953	0.65
244.423	-2.45
244.893	-3.75
245.363	-0.55
245.833	-4.15
246.303	-6.15
246.773	0.25
247.243	-5.35
247.712	1.95
248.182	3.75
248.652	1.85
249.122	-8.45
249.592	6.25
250.061	8.05
250.531	14.05
251.001	0.25
251.471	4.85
251.94	7.85
252.41	3.25
252.879	-3.05
253.349	6.75
253.818	7.55
254.288	5.15
254.757	3.05
255.227	-3.85
255.696	-1.65
256.166	7.75
256.635	1.45
257.105	4.15
257.574	2.55
258.043	2.45
258.513	3.65
258.982	13.45
259.451	-1.35
259.92	5.95
260.389	3.15
260.859	12.65
261.328	5.85
261.797	5.45
262.266	-1.55
262.735	10.65
263.204	-0.25
263.673	-5.85
264.142	2.45
264.611	-7.75
265.08	-5.75
265.549	-6.15
266.018	1.45
266.487	-9.85
266.955	-8.65
267.424	-4.25
267.893	-0.55
268.362	-0.75
268.83	3.05
269.299	2.85
269.768	6.75
270.236	4.65
270.705	-2.95
271.174	-1.15
271.642	5.35
272.111	5.95
272.579	10.25
273.048	6.15
273.516	6.55
273.985	12.95
274.453	7.25
274.922	11.05
275.39	5.35
275.858	1.05
276.327	6.65
276.795	15.65
277.263	3.15
277.731	18.05
278.2	25.85
278.668	29.05
279.136	23.75
279.604	2.15
280.072	12.55
280.54	9.15
281.008	9.05
281.477	10.35
281.945	2.15
282.413	11.45
282.881	6.65
283.348	1.75
283.816	13.05
284.284	12.35
284.752	17.85
285.22	13.15
285.688	6.05
286.156	10.05
286.623	23.35
287.091	25.65
287.559	19.05
288.026	9.65
288.494	14.55
288.962	5.85
289.429	5.65
289.897	15.25
290.364	12.55
290.832	16.35
291.3	14.95
291.767	15.35
292.234	16.35
292.702	7.65
293.169	9.65
293.637	19.05
294.104	17.85
294.571	8.85
295.039	3.55
295.506	12.55
295.973	14.75
296.44	7.15
296.908	15.75
297.375	13.75
297.842	20.45
298.309	14.25
298.776	7.55
299.243	20.25
299.71	13.35
300.177	20.25
300.644	17.45
301.111	18.15
301.578	14.55
302.045	10.85
302.512	19.55
302.979	24.65
303.446	22.25
303.913	12.75
304.379	14.65
304.846	21.35
305.313	20.35
305.78	22.15
306.246	20.05
306.713	24.95
307.18	23.75
307.646	21.25
308.113	24.95
308.579	17.95
309.046	23.25
309.512	19.85
309.979	15.85
310.445	25.35
310.912	21.75
311.378	29.05
311.845	20.55
312.311	23.55
312.777	22.45
313.244	21.65
313.71	34.55
314.176	26.95
314.642	23.45
315.109	21.05
315.575	31.65
316.041	32.95
316.507	27.45
316.973	32.95
317.439	26.15
317.905	27.75
318.371	33.45
318.837	27.15
319.303	29.55
319.769	21.85
320.235	29.95
320.701	33.75
321.167	32.85
321.633	29.05
322.099	32.55
322.564	34.85
323.03	33.65
323.496	28.45
323.962	33.75
324.427	25.85
324.893	36.05
325.359	32.95
325.824	27.75
326.29	35.55
326.755	34.55
327.221	34.55
327.686	33.95
328.152	39.85
328.617	37.55
329.083	41.15
329.548	43.35
330.014	40.95
330.479	34.05
330.944	39.15
331.41	39.85
331.875	36.45
332.34	41.25
332.805	40.85
333.271	37.75
333.736	37.35
334.201	45.95
334.666	49.95
335.131	48.35
335.596	41.65
336.061	46.25
336.526	30.15
336.991	44.25
337.456	48.55
337.921	44.65
338.386	40.75
338.851	42.55
339.316	47.45
339.781	44.55
340.246	44.05
340.711	46.05
341.175	49.65
341.64	46.55
342.105	44.75
342.569	50.65
343.034	51.15
343.499	50.25
343.963	39.95
344.428	58.65
344.893	57.05
345.357	52.65
345.822	52.25
346.286	66.85
346.751	68.05
347.215	64.05
347.679	66.95
348.144	83.75
348.608	72.05
349.073	64.05
349.537	68.65
350.001	70.35
350.465	77.55
350.93	72.95
351.394	68.85
351.858	62.25
352.322	67.25
352.786	71.45
353.25	90.35
353.715	100.25
354.179	86.35
354.643	108.65
355.107	110.15
355.571	98.95
356.035	90.35
356.498	106.25
356.962	105.35
357.426	116.05
357.89	107.05
358.354	75.15
358.818	79.65
359.281	69.15
359.745	61.85
360.209	67.65
360.673	67.05
361.136	77.65
361.6	71.65
362.064	81.05
362.527	73.95
362.991	79.95
363.454	79.15
363.918	72.05
364.381	69.05
364.845	81.05
365.308	86.05
365.772	75.05
366.235	78.55
366.698	72.85
367.162	80.35
367.625	81.05
368.088	85.05
368.552	80.75
369.015	81.65
369.478	86.35
369.941	92.55
370.404	82.95
370.867	91.95
371.331	99.05
371.794	108.45
372.257	96.75
372.72	101.55
373.183	103.15
373.646	91.55
374.109	91.35
374.572	96.75
375.035	93.85
375.497	101.45
375.96	99.55
376.423	101.45
376.886	102.75
377.349	108.05
377.811	91.45
378.274	95.75
378.737	97.25
379.199	105.85
379.662	104.95
380.125	109.75
380.587	100.75
381.05	109.75
381.512	118.55
381.975	124.75
382.437	116.65
382.9	111.95
383.362	118.85
383.825	127.15
384.287	126.35
384.75	120.65
385.212	117.25
385.674	128.45
386.136	124.35
386.599	118.45
387.061	119.85
387.523	120.75
387.985	129.05
388.447	132.85
388.91	127.65
389.372	137.25
389.834	136.05
390.296	133.25
390.758	140.85
391.22	150.95
391.682	176.15
392.144	220.55
392.606	186.15
393.068	148.95
393.529	154.55
393.991	143.05
394.453	139.25
394.915	143.95
395.377	159.65
395.838	173.25
396.3	144.35
396.762	134.85
397.224	128.45
397.685	128.15
398.147	126.15
398.608	127.65
399.07	128.45
399.531	128.15
399.993	138.15
400.454	153.55
400.916	150.35
401.377	151.25
401.839	152.65
402.3	150.55
402.762	165.35
403.223	174.85
403.684	167.95
404.145	167.25
404.607	156.25
405.068	158.55
405.529	160.25
405.99	177.85
406.451	171.15
406.913	164.15
407.374	159.45
407.835	155.85
408.296	166.15
408.757	173.25
409.218	179.35
409.679	173.95
410.14	166.95
410.601	175.85
411.062	174.65
411.522	182.45
411.983	177.35
412.444	174.85
412.905	178.95
413.366	178.75
413.826	196.85
414.287	219.05
414.748	254.75
415.208	245.35
415.669	207.75
416.13	206.45
416.59	203.85
417.051	204.25
417.511	218.55
417.972	236.45
418.432	250.65
418.893	289.05
419.353	256.75
419.814	197.75
420.274	177.05
420.734	185.45
421.195	198.85
421.655	198.85
422.115	194.65
422.576	194.45
423.036	198.35
423.496	205.05
423.956	214.45
424.416	228.25
424.876	267.75
425.336	258.15
425.797	261.15
426.257	256.85
426.717	232.95
427.177	231.95
427.637	220.95
428.097	222.65
428.556	245.85
429.016	269.85
429.476	261.25
429.936	270.75
430.396	280.65
430.856	284.55
431.315	306.65
431.775	335.25
432.235	376.85
432.694	349.25
433.154	355.95
433.614	377.05
434.073	323.15
434.533	284.85
434.993	257.45
435.452	279.75
435.912	291.95
436.371	283.25
436.83	278.85
437.29	260.15
437.749	247.15
438.209	247.55
438.668	277.55
439.127	286.05
439.587	265.55
440.046	249.15
440.505	265.75
440.964	280.65
441.424	318.45
441.883	309.05
442.342	262.85
442.801	229.15
443.26	224.95
443.719	221.55
444.178	223.75
444.637	221.25
445.096	220.45
445.555	225.25
446.014	228.05
446.473	229.85
446.932	235.25
447.391	229.65
447.849	234.25
448.308	216.85
448.767	220.95
449.226	236.85
449.685	237.55
450.143	252.95
450.602	238.85
451.061	226.75
451.519	234.05
451.978	236.95
452.436	235.25
452.895	233.35
453.353	253.25
453.812	241.95
454.27	238.75
454.729	238.55
455.187	246.95
455.646	247.85
456.104	254.85
456.562	263.25
457.021	262.35
457.479	257.25
457.937	275.25
458.395	269.15
458.854	251.95
459.312	256.15
459.77	279.65
460.228	258.05
460.686	255.75
461.144	253.15
461.602	244.15
462.06	250.45
462.518	259.05
462.976	262.95
463.434	268.75
463.892	260.25
464.35	276.35
464.808	284.95
465.266	270.95
465.724	271.45
466.181	277.65
466.639	271.85
467.097	289.75
467.555	290.75
468.012	297.95
468.47	312.45
468.928	332.35
469.385	351.55
469.843	350.75
470.3	347.75
470.758	369.05
471.215	384.65
471.673	411.85
472.13	417.55
472.588	425.45
473.045	368.55
473.503	380.75
473.96	388.85
474.417	409.25
474.875	427.75
475.332	469.75
475.789	456.15
476.246	467.25
476.704	494.75
477.161	513.95
477.618	527.85
478.075	563.85
478.532	620.05
478.989	677.95
479.446	796.65
479.903	753.15
480.36	785.95
480.817	835.85
481.274	919.85
481.731	1016.35
482.188	1096.75
482.645	1215.25
483.102	1314.05
483.558	1440.35
484.015	1488.75
484.472	1455.85
484.929	1421.95
485.385	1370.95
485.842	1334.35
486.299	1277.35
486.755	1239.95
487.212	1052.65
487.668	901.85
488.125	825.05
488.582	755.55
489.038	730.65
489.494	684.25
489.951	673.45
490.407	660.95
490.864	643.55
491.32	637.95
491.776	639.45
492.233	649.55
492.689	610.25
493.145	607.65
493.602	607.05
494.058	619.35
494.514	611.75
494.97	638.15
495.426	640.75
495.882	620.25
496.338	604.15
496.794	624.75
497.251	610.95
497.707	622.95
498.163	625.45
498.618	645.05
499.074	640.75
499.53	660.65
499.986	665.65
500.442	651.45
500.898	619.85
501.354	620.95
501.809	619.85
502.265	628.75
502.721	646.65
503.177	652.85
503.632	648.05
504.088	663.15
504.543	683.55
504.999	691.35
505.455	664.35
505.91	634.75
506.366	629.45
506.821	631.75
507.277	630.05
507.732	631.15
508.187	635.15
508.643	631.85
509.098	639.75
509.553	665.25
510.009	661.15
510.464	677.95
510.919	699.35
511.375	700.55
511.83	709.55
512.285	727.55
512.74	766.15
513.195	783.25
513.65	776.25
514.105	766.25
514.56	766.55
515.015	780.45
515.47	803.55
515.925	784.95
516.38	789.65
516.835	798.95
517.29	774.05
517.745	770.55
518.2	765.05
518.655	752.35
519.109	744.65
519.564	733.35
520.019	734.15
520.474	729.25
520.928	732.65
521.383	725.45
521.838	715.05
522.292	714.45
522.747	718.75
523.201	698.35
523.656	707.05
524.11	696.45
524.565	699.45
525.019	695.55
525.474	704.65
525.928	699.25
526.382	701.95
526.837	702.25
527.291	699.95
527.745	695.35
528.2	705.55
528.654	697.65
529.108	686.15
529.562	701.05
530.016	686.15
530.47	692.25
530.925	689.75
531.379	698.55
531.833	711.25
532.287	697.65
532.741	700.85
533.195	702.45
533.649	716.55
534.103	723.15
534.556	714.55
535.01	708.95
535.464	698.55
535.918	714.35
536.372	720.75
536.826	724.35
537.279	706.85
537.733	714.95
538.187	710.85
538.64	714.45
539.094	722.05
539.548	733.35
540.001	723.85
540.455	717.05
540.908	729.55
541.362	743.55
541.815	758.75
542.269	761.45
542.722	770.85
543.175	765.05
543.629	778.05
544.082	791.65
544.536	793.35
544.989	789.75
545.442	799.25
545.895	794.15
546.349	799.05
546.802	796.55
547.255	802.75
547.708	823.65
548.161	821.45
548.614	828.95
549.067	838.15
549.52	826.25
549.973	817.05
550.426	807.35
550.879	798.35
551.332	799.45
551.785	808.25
552.238	809.25
552.691	827.55
553.144	836.25
553.596	849.25
554.049	876.35
554.502	900.85
554.955	923.05
555.407	911.05
555.86	911.45
556.313	898.25
556.765	885.15
557.218	894.25
557.67	894.05
558.123	882.75
558.576	871.85
559.028	883.85
559.48	883.65
559.933	878.85
560.385	857.45
560.838	823.85
561.29	786.15
561.742	790.05
562.195	770.75
562.647	765.65
563.099	780.65
563.551	779.45
564.004	797.15
564.456	777.55
564.908	758.25
565.36	748.65
565.812	729.65
566.264	733.35
566.716	725.25
567.168	718.35
567.62	719.95
568.072	713.85
568.524	702.25
568.976	701.15
569.428	683.55
569.88	680.35
570.332	693.65
570.784	686.65
571.235	694.25
571.687	709.15
572.139	707.85
572.59	716.05
573.042	719.55
573.494	714.65
573.945	711.85
574.397	691.45
574.849	698.35
575.3	697.25
575.752	690.15
576.203	684.05
576.655	691.15
577.106	679.55
577.557	670.75
578.009	675.15
578.46	673.75
578.912	670.55
579.363	675.35
579.814	680.15
580.265	660.25
580.717	675.85
581.168	678.75
581.619	688.25
582.07	689.25
582.521	688.45
582.972	677.65
583.423	683.75
583.875	677.85
584.326	697.05
584.777	724.45
585.227	758.85
585.678	808.35
586.129	847.95
586.58	892.85
587.031	930.05
587.482	1006.45
587.933	1079.05
588.384	1007.05
588.834	872.45
589.285	797.65
589.736	789.65
590.186	780.45
590.637	771.65
591.088	753.85
591.538	746.05
591.989	740.65
592.439	732.25
592.89	724.25
593.34	722.95
593.791	716.25
594.241	700.65
594.692	705.85
595.142	702.25
595.593	708.45
596.043	708.85
596.493	709.15
596.943	718.15
597.394	726.05
597.844	718.65
598.294	735.85
598.744	770.15
599.195	781.35
599.645	837.65
600.095	867.65
600.545	935.35
600.995	984.75
601.445	1041.25
601.895	1096.45
602.345	1147.95
602.795	1120.35
603.245	1080.55
603.695	1030.85
604.145	963.95
604.594	925.25
605.044	872.65
605.494	811.15
605.944	758.65
606.393	757.95
606.843	747.45
607.293	741.75
607.743	742.75
608.192	748.75
608.642	773.75
609.091	779.95
609.541	776.45
609.99	776.95
610.44	773.65
610.889	732.25
611.339	708.25
611.788	702.45
612.238	706.75
612.687	710.75
613.136	712.65
613.586	727.35
614.035	712.45
614.484	731.95
614.933	736.55
615.383	727.25
615.832	728.65
616.281	720.65
616.73	688.05
617.179	659.55
617.628	657.45
618.077	636.75
618.526	631.85
618.975	625.75
619.424	630.55
619.873	623.85
620.322	621.25
620.771	622.05
621.22	610.75
621.669	609.75
622.118	592.35
622.567	594.25
623.015	582.05
623.464	572.15
623.913	573.05
624.361	561.85
624.81	566.45
625.259	556.55
625.707	561.55
626.156	559.85
626.604	575.05
627.053	568.65
627.501	570.85
627.95	576.05
628.398	586.35
628.847	580.95
629.295	577.85
629.744	584.75
630.192	585.65
630.64	578.85
631.089	560.35
631.537	569.85
631.985	552.65
632.433	566.95
632.881	563.95
633.33	584.85
633.778	569.35
634.226	549.15
634.674	561.15
635.122	564.45
635.57	578.35
636.018	595.05
636.466	579.85
636.914	566.35
637.362	580.65
637.81	585.05
638.258	593.85
638.705	595.25
639.153	628.15
639.601	624.45
640.049	660.85
640.497	687.05
640.944	702.85
641.392	659.95
641.84	623.15
642.287	597.35
642.735	571.35
643.182	575.55
643.63	572.95
644.078	581.55
644.525	581.65
644.973	594.85
645.42	610.65
645.867	624.25
646.315	649.95
646.762	664.95
647.21	690.25
647.657	713.25
648.104	743.45
648.551	769.85
648.999	828.95
649.446	910.55
649.893	1000.05
650.34	1146.35
650.787	1359.55
651.234	1676.55
651.682	2181.15
652.129	2969.45
652.576	4257.15
653.023	6178.35
653.47	8326.85
653.917	10320.25
654.363	11883.95
654.81	12977.95
655.257	12321.25
655.704	8142.65
656.151	4890.35
656.598	3186.15
657.044	2301.15
657.491	1777.45
657.938	1432.75
658.385	1209.25
658.831	1047.25
659.278	945.85
659.724	842.05
660.171	780.05
660.618	711.15
661.064	685.95
661.511	659.55
661.957	659.65
662.404	653.55
662.85	653.55
663.296	624.25
663.743	560.45
664.189	540.15
664.635	530.05
665.082	531.35
665.528	530.65
665.974	525.35
666.42	519.65
666.867	510.65
667.313	498.45
667.759	475.45
668.205	459.65
668.651	463.35
669.097	458.65
669.543	460.15
669.989	463.95
670.435	453.95
670.881	455.25
671.327	454.75
671.773	480.55
672.219	505.75
672.665	555.65
673.11	595.65
673.556	636.25
674.002	681.55
674.448	668.65
674.893	562.45
675.339	484.45
675.785	448.35
676.23	428.35
676.676	412.15
677.122	401.85
677.567	383.15
678.013	374.75
678.458	375.05
678.904	380.55
679.349	352.15
679.794	356.85
680.24	357.95
680.685	367.05
681.131	359.45
681.576	353.25
682.021	361.15
682.466	347.75
682.912	350.85
683.357	366.75
683.802	393.15
684.247	420.85
684.692	467.95
685.137	506.55
685.583	544.05
686.028	567.25
686.473	525.05
686.918	454.65
687.363	430.65
687.807	403.35
688.252	375.25
688.697	365.05
689.142	344.15
689.587	346.55
690.032	329.65
690.477	350.55
690.921	361.35
691.366	396.15
691.811	414.05
692.255	443.75
692.7	467.95
693.145	516.85
693.589	727.05
694.034	1189.55
694.478	1587.35
694.923	1763.25
695.367	2288.95
695.812	1225.65
696.256	515.95
696.701	382.75
697.145	349.45
697.59	333.75
698.034	333.05
698.478	324.95
698.922	334.15
699.367	334.35
699.811	341.55
700.255	367.95
700.699	386.55
701.143	435.35
701.588	486.55
702.032	530.85
702.476	521.95
702.92	509.75
703.364	521.85
703.808	664.45
704.252	1089.15
704.696	1514.85
705.14	1698.15
705.584	2156.25
706.027	1078.35
706.471	535.85
706.915	400.15
707.359	358.15
707.803	320.85
708.246	318.55
708.69	317.55
709.134	322.05
709.577	320.55
710.021	326.25
710.465	315.85
710.908	305.45
711.352	315.15
711.795	316.75
712.239	367.15
712.682	396.15
713.126	431.35
713.569	467.35
714.012	368.75
714.456	323.15
714.899	293.45
715.342	278.15
715.786	266.45
716.229	264.45
716.672	261.95
717.115	252.35
717.558	258.15
718.002	258.65
718.445	270.95
718.888	295.55
719.331	303.85
719.774	316.65
720.217	310.25
720.66	288.45
721.103	274.35
721.546	260.25
721.989	251.55
722.432	233.05
722.874	243.75
723.317	234.85
723.76	238.35
724.203	267.85
724.645	335.35
725.088	457.85
725.531	583.25
725.974	656.65
726.416	560.15
726.859	321.15
727.301	257.85
727.744	232.65
728.187	232.05
728.629	244.05
729.071	244.75
729.514	260.35
729.956	286.85
730.399	288.15
730.841	298.75
731.283	282.55
731.726	271.95
732.168	271.95
732.61	273.45
733.053	294.45
733.495	321.25
733.937	367.25
734.379	412.35
734.821	458.85
735.263	581.55
735.705	889.75
736.148	1676.55
736.59	2672.85
737.032	3078.05
737.474	2531.45
737.916	835.25
738.357	446.95
738.799	335.35
739.241	308.55
739.683	295.05
740.125	301.15
740.567	307.55
741.008	318.85
741.45	321.55
741.892	328.15
742.334	358.35
742.775	367.95
743.217	353.65
743.658	275.85
744.1	262.25
744.542	269.75
744.983	326.85
745.425	353.35
745.866	351.75
746.307	280.55
746.749	289.65
747.19	341.25
747.632	484.95
748.073	951.95
748.514	1960.75
748.956	2932.35
749.397	3699.05
749.838	3072.65
750.279	3001.85
750.72	1531.25
751.162	563.85
751.603	338.75
752.044	258.35
752.485	220.75
752.926	215.25
753.367	207.35
753.808	202.75
754.249	198.45
754.69	191.75
755.131	187.55
755.572	194.85
756.013	175.65
756.453	188.85
756.894	195.05
757.335	197.85
757.776	208.15
758.216	201.35
758.657	201.15
759.098	208.95
759.538	232.35
759.979	277.65
760.42	394.85
760.86	756.05
761.301	1981.05
761.741	4662.55
762.182	6492.75
762.622	4591.95
763.063	1340.15
