Data from 20171114-ORNL-Ar_H_NY_Subt18_08-04-36-457.txt Node
Date: Tue Nov 14 08:04:36 EST 2017
User: Ender
Spectrometer: HR+D1039
Trigger mode: 0
Integration Time (sec): 2.730000E-2
Scans to average: 10
Electric dark correction enabled: true
Nonlinearity correction enabled: false
Boxcar width: 0
XAxis mode: Wavelengths
Number of Pixels in Spectrum: 2048
>>>>>Begin Spectral Data<<<<<
187.836	-11.51
188.309	-11.51
188.782	-11.51
189.255	-0.61
189.728	-0.61
190.201	3.29
190.674	1.99
191.147	3.29
191.619	-8.01
192.092	5.09
192.565	7.49
193.038	2.09
193.511	0.79
193.984	0.69
194.456	-1.01
194.929	0.49
195.402	-4.91
195.874	1.49
196.347	-4.01
196.82	-5.61
197.292	2.49
197.765	0.89
198.237	-8.11
198.71	1.79
199.182	-7.11
199.655	4.59
200.127	0.99
200.6	0.89
201.072	-1.71
201.544	-9.11
202.017	0.39
202.489	3.19
202.961	2.49
203.433	-4.61
203.906	-6.31
204.378	0.69
204.85	-8.71
205.322	-4.71
205.794	-0.21
206.266	-3.61
206.739	-6.41
207.211	-0.71
207.683	-6.81
208.155	-6.71
208.627	-2.01
209.099	-5.61
209.57	-10.01
210.042	-2.61
210.514	-7.91
210.986	-7.91
211.458	-5.51
211.93	-1.31
212.402	-0.51
212.873	-6.21
213.345	-10.71
213.817	-11.31
214.288	-7.91
214.76	-15.21
215.232	-5.91
215.703	0.69
216.175	-0.11
216.646	-3.51
217.118	-7.31
217.589	1.39
218.061	-2.51
218.532	-7.01
219.004	-4.81
219.475	-2.51
219.946	-4.91
220.418	-4.61
220.889	-0.81
221.36	2.19
221.832	-1.91
222.303	-1.91
222.774	3.59
223.245	-7.41
223.717	-5.51
224.188	-5.11
224.659	-6.21
225.13	-2.91
225.601	-4.71
226.072	1.49
226.543	-0.41
227.014	-0.01
227.485	2.29
227.956	-8.01
228.427	3.89
228.898	4.59
229.369	2.69
229.839	-3.11
230.31	-5.81
230.781	2.39
231.252	-0.81
231.722	-3.01
232.193	3.89
232.664	-2.31
233.135	2.89
233.605	-3.21
234.076	-1.11
234.546	4.09
235.017	10.59
235.487	2.29
235.958	-0.51
236.428	-1.91
236.899	6.89
237.369	4.49
237.84	0.19
238.31	4.19
238.78	4.99
239.251	-3.81
239.721	3.89
240.191	1.09
240.662	6.19
241.132	4.69
241.602	-6.01
242.072	0.09
242.542	5.59
243.013	5.49
243.483	12.49
243.953	7.29
244.423	3.49
244.893	-2.61
245.363	2.19
245.833	5.39
246.303	-1.41
246.773	11.49
247.243	4.19
247.712	7.29
248.182	10.99
248.652	8.69
249.122	0.89
249.592	9.69
250.061	21.29
250.531	31.59
251.001	16.79
251.471	31.69
251.94	24.39
252.41	13.99
252.879	1.49
253.349	13.49
253.818	6.29
254.288	2.19
254.757	2.39
255.227	-1.01
255.696	5.49
256.166	6.69
256.635	11.29
257.105	17.39
257.574	8.69
258.043	19.79
258.513	7.89
258.982	22.19
259.451	10.89
259.92	13.99
260.389	11.49
260.859	16.59
261.328	11.49
261.797	20.89
262.266	11.09
262.735	12.79
263.204	10.49
263.673	4.59
264.142	8.79
264.611	-2.31
265.08	7.39
265.549	3.29
266.018	2.39
266.487	-1.51
266.955	-7.01
267.424	3.59
267.893	3.69
268.362	-0.71
268.83	0.39
269.299	14.49
269.768	14.99
270.236	8.39
270.705	5.59
271.174	2.49
271.642	10.69
272.111	8.79
272.579	18.99
273.048	23.59
273.516	29.29
273.985	29.99
274.453	24.29
274.922	18.29
275.39	10.69
275.858	7.19
276.327	21.09
276.795	19.19
277.263	10.09
277.731	32.59
278.2	60.09
278.668	68.39
279.136	51.39
279.604	24.19
280.072	17.79
280.54	23.49
281.008	7.69
281.477	17.79
281.945	11.69
282.413	14.39
282.881	13.49
283.348	10.19
283.816	16.49
284.284	23.19
284.752	22.59
285.22	16.19
285.688	15.69
286.156	23.09
286.623	48.19
287.091	54.29
287.559	31.59
288.026	18.79
288.494	17.99
288.962	7.79
289.429	11.39
289.897	23.99
290.364	15.89
290.832	17.39
291.3	16.09
291.767	21.09
292.234	21.99
292.702	17.49
293.169	24.89
293.637	22.89
294.104	24.09
294.571	10.49
295.039	10.49
295.506	18.89
295.973	17.69
296.44	15.79
296.908	23.09
297.375	22.59
297.842	26.29
298.309	20.89
298.776	11.49
299.243	18.89
299.71	15.99
300.177	24.19
300.644	20.39
301.111	22.69
301.578	27.99
302.045	19.49
302.512	26.39
302.979	28.49
303.446	27.79
303.913	21.39
304.379	19.39
304.846	30.99
305.313	32.39
305.78	22.69
306.246	34.19
306.713	28.79
307.18	31.69
307.646	32.09
308.113	34.69
308.579	27.29
309.046	27.29
309.512	34.49
309.979	23.29
310.445	31.39
310.912	29.79
311.378	37.89
311.845	30.59
312.311	33.59
312.777	35.59
313.244	31.59
313.71	42.39
314.176	32.59
314.642	33.79
315.109	39.09
315.575	37.39
316.041	42.39
316.507	35.09
316.973	39.89
317.439	34.69
317.905	39.99
318.371	36.69
318.837	36.79
319.303	38.59
319.769	33.09
320.235	42.09
320.701	36.39
321.167	33.69
321.633	33.49
322.099	47.59
322.564	47.29
323.03	43.09
323.496	38.39
323.962	40.89
324.427	38.89
324.893	46.19
325.359	43.39
325.824	36.89
326.29	34.59
326.755	42.99
327.221	40.99
327.686	42.09
328.152	53.99
328.617	45.29
329.083	47.79
329.548	52.69
330.014	45.09
330.479	39.79
330.944	37.89
331.41	41.79
331.875	53.49
332.34	46.69
332.805	48.79
333.271	50.59
333.736	44.89
334.201	51.19
334.666	51.69
335.131	54.19
335.596	55.19
336.061	49.29
336.526	47.49
336.991	51.19
337.456	63.29
337.921	46.29
338.386	50.29
338.851	47.89
339.316	49.89
339.781	49.29
340.246	56.09
340.711	54.79
341.175	57.09
341.64	41.29
342.105	53.69
342.569	55.39
343.034	54.09
343.499	61.39
343.963	48.29
344.428	63.69
344.893	68.69
345.357	61.69
345.822	61.69
346.286	69.69
346.751	74.09
347.215	68.09
347.679	72.59
348.144	90.39
348.608	81.79
349.073	78.29
349.537	78.29
350.001	81.49
350.465	89.49
350.93	82.79
351.394	84.59
351.858	70.59
352.322	84.69
352.786	80.49
353.25	104.99
353.715	108.49
354.179	101.39
354.643	116.89
355.107	122.99
355.571	109.49
356.035	104.39
356.498	114.19
356.962	119.59
357.426	123.59
357.89	117.49
358.354	88.99
358.818	82.59
359.281	79.29
359.745	76.99
360.209	84.19
360.673	77.99
361.136	81.09
361.6	83.39
362.064	85.39
362.527	86.69
362.991	96.69
363.454	74.79
363.918	74.89
364.381	75.69
364.845	79.49
365.308	86.89
365.772	90.99
366.235	80.89
366.698	82.09
367.162	79.79
367.625	79.79
368.088	89.99
368.552	91.89
369.015	82.19
369.478	94.79
369.941	100.09
370.404	93.29
370.867	101.69
371.331	103.79
371.794	108.59
372.257	111.79
372.72	110.09
373.183	106.99
373.646	98.29
374.109	99.39
374.572	99.79
375.035	104.29
375.497	102.89
375.96	106.79
376.423	102.59
376.886	114.69
377.349	105.69
377.811	99.49
378.274	96.69
378.737	97.89
379.199	104.19
379.662	108.99
380.125	114.99
380.587	111.89
381.05	118.59
381.512	124.89
381.975	124.09
382.437	119.69
382.9	121.99
383.362	122.99
383.825	136.89
384.287	143.69
384.75	140.39
385.212	135.29
385.674	137.59
386.136	135.19
386.599	125.89
387.061	122.59
387.523	123.09
387.985	127.09
388.447	148.19
388.91	132.19
389.372	145.39
389.834	136.69
390.296	137.79
390.758	149.39
391.22	169.89
391.682	195.49
392.144	277.79
392.606	213.69
393.068	150.39
393.529	159.99
393.991	146.99
394.453	143.59
394.915	152.59
395.377	179.19
395.838	199.39
396.3	142.59
396.762	139.59
397.224	126.29
397.685	127.69
398.147	126.09
398.608	127.89
399.07	125.19
399.531	133.89
399.993	130.69
400.454	142.89
400.916	141.59
401.377	143.39
401.839	142.89
402.3	149.29
402.762	163.39
403.223	168.99
403.684	168.79
404.145	148.59
404.607	154.79
405.068	160.89
405.529	165.89
405.99	179.99
406.451	164.89
406.913	161.89
407.374	156.09
407.835	154.09
408.296	159.79
408.757	163.19
409.218	181.99
409.679	163.39
410.14	176.49
410.601	165.59
411.062	175.29
411.522	187.49
411.983	177.49
412.444	171.59
412.905	167.39
413.366	174.09
413.826	188.19
414.287	207.79
414.748	246.39
415.208	235.59
415.669	204.79
416.13	192.59
416.59	196.49
417.051	199.99
417.511	204.09
417.972	224.69
418.432	236.39
418.893	282.29
419.353	239.89
419.814	190.69
420.274	170.89
420.734	172.29
421.195	188.79
421.655	180.39
422.115	182.89
422.576	175.79
423.036	183.29
423.496	195.29
423.956	209.79
424.416	222.39
424.876	253.19
425.336	254.89
425.797	249.79
426.257	238.49
426.717	220.79
427.177	217.59
427.637	214.69
428.097	218.09
428.556	226.89
429.016	252.99
429.476	248.59
429.936	257.29
430.396	258.49
430.856	280.89
431.315	295.29
431.775	334.49
432.235	360.59
432.694	330.19
433.154	343.39
433.614	350.59
434.073	313.89
434.533	272.19
434.993	252.19
435.452	269.69
435.912	276.49
436.371	271.89
436.83	263.99
437.29	249.99
437.749	233.69
438.209	230.99
438.668	255.39
439.127	263.69
439.587	252.89
440.046	234.59
440.505	246.99
440.964	259.99
441.424	295.99
441.883	289.59
442.342	246.29
442.801	217.19
443.26	209.89
443.719	208.09
444.178	205.89
444.637	200.79
445.096	209.09
445.555	210.19
446.014	215.09
446.473	211.59
446.932	209.59
447.391	218.39
447.849	217.49
448.308	207.99
448.767	209.79
449.226	223.19
449.685	221.39
450.143	234.79
450.602	222.29
451.061	213.49
451.519	217.09
451.978	213.39
452.436	218.49
452.895	225.39
453.353	244.09
453.812	234.09
454.27	230.09
454.729	225.59
455.187	226.99
455.646	238.69
456.104	235.79
456.562	244.89
457.021	247.19
457.479	235.99
457.937	256.19
458.395	245.99
458.854	234.59
459.312	238.89
459.77	266.99
460.228	241.19
460.686	229.49
461.144	236.49
461.602	236.39
462.06	233.49
462.518	245.39
462.976	234.09
463.434	248.69
463.892	248.89
464.35	254.19
464.808	271.49
465.266	247.49
465.724	248.49
466.181	261.19
466.639	260.59
467.097	278.19
467.555	280.29
468.012	295.29
468.47	297.09
468.928	319.59
469.385	329.59
469.843	329.89
470.3	321.99
470.758	340.19
471.215	356.69
471.673	383.79
472.13	385.69
472.588	393.99
473.045	346.69
473.503	357.99
473.96	375.79
474.417	377.39
474.875	407.59
475.332	444.89
475.789	429.89
476.246	447.79
476.704	459.69
477.161	473.99
477.618	490.59
478.075	533.39
478.532	582.09
478.989	644.49
479.446	747.79
479.903	728.09
480.36	762.09
480.817	819.59
481.274	902.69
481.731	1004.49
482.188	1108.99
482.645	1226.39
483.102	1323.09
483.558	1452.49
484.015	1510.49
484.472	1485.89
484.929	1442.99
485.385	1392.59
485.842	1350.69
486.299	1277.49
486.755	1211.29
487.212	1015.59
487.668	872.89
488.125	807.79
488.582	744.09
489.038	712.99
489.494	674.29
489.951	652.99
490.407	637.59
490.864	619.69
491.32	601.99
491.776	606.69
492.233	612.39
492.689	572.49
493.145	575.09
493.602	566.19
494.058	580.29
494.514	585.39
494.97	601.89
495.426	612.19
495.882	591.89
496.338	584.19
496.794	591.89
497.251	584.59
497.707	594.59
498.163	607.69
498.618	607.39
499.074	607.29
499.53	631.49
499.986	637.59
500.442	620.39
500.898	590.79
501.354	587.09
501.809	588.79
502.265	603.19
502.721	617.19
503.177	625.59
503.632	626.99
504.088	630.89
504.543	672.99
504.999	664.69
505.455	618.59
505.91	598.59
506.366	601.79
506.821	596.89
507.277	584.79
507.732	590.89
508.187	586.59
508.643	603.19
509.098	603.09
509.553	614.39
510.009	624.69
510.464	633.59
510.919	646.39
511.375	648.49
511.83	667.19
512.285	679.39
512.74	714.09
513.195	735.29
513.65	728.19
514.105	731.39
514.56	719.89
515.015	749.29
515.47	763.99
515.925	750.69
516.38	743.29
516.835	745.29
517.29	735.89
517.745	731.59
518.2	721.09
518.655	707.89
519.109	694.39
519.564	692.49
520.019	686.29
520.474	686.19
520.928	688.59
521.383	680.49
521.838	668.39
522.292	661.49
522.747	670.19
523.201	651.99
523.656	653.39
524.11	644.29
524.565	646.89
525.019	648.79
525.474	653.89
525.928	657.29
526.382	653.69
526.837	650.09
527.291	660.29
527.745	658.39
528.2	648.59
528.654	641.39
529.108	645.29
529.562	639.89
530.016	647.99
530.47	639.79
530.925	652.89
531.379	651.39
531.833	653.89
532.287	657.39
532.741	660.59
533.195	661.39
533.649	678.69
534.103	679.99
534.556	667.69
535.01	679.19
535.464	676.89
535.918	678.19
536.372	681.79
536.826	670.59
537.279	657.79
537.733	666.79
538.187	661.09
538.64	668.49
539.094	677.39
539.548	684.09
540.001	683.89
540.455	679.69
540.908	671.19
541.362	679.39
541.815	694.29
542.269	700.19
542.722	708.89
543.175	720.69
543.629	718.69
544.082	732.39
544.536	725.59
544.989	730.59
545.442	740.19
545.895	733.39
546.349	739.29
546.802	731.79
547.255	741.99
547.708	742.09
548.161	748.09
548.614	756.79
549.067	775.59
549.52	761.59
549.973	750.79
550.426	740.79
550.879	735.19
551.332	734.59
551.785	746.19
552.238	751.09
552.691	759.39
553.144	777.29
553.596	777.69
554.049	801.29
554.502	839.99
554.955	840.99
555.407	843.89
555.86	840.09
556.313	825.59
556.765	820.19
557.218	810.99
557.67	816.89
558.123	809.99
558.576	813.69
559.028	808.29
559.48	813.89
559.933	801.99
560.385	771.99
560.838	751.89
561.29	721.09
561.742	720.49
562.195	704.89
562.647	716.59
563.099	707.09
563.551	703.49
564.004	724.59
564.456	709.59
564.908	693.69
565.36	688.89
565.812	674.69
566.264	663.39
566.716	671.39
567.168	663.69
567.62	660.29
568.072	657.59
568.524	642.39
568.976	623.19
569.428	610.19
569.88	614.39
570.332	616.69
570.784	636.69
571.235	626.69
571.687	635.79
572.139	651.99
572.59	659.69
573.042	651.09
573.494	649.79
573.945	652.29
574.397	629.29
574.849	635.09
575.3	636.59
575.752	630.59
576.203	627.99
576.655	632.79
577.106	608.09
577.557	607.89
578.009	608.29
578.46	595.59
578.912	602.79
579.363	602.69
579.814	606.99
580.265	603.19
580.717	606.29
581.168	611.19
581.619	619.99
582.07	611.09
582.521	623.09
582.972	611.99
583.423	613.79
583.875	621.19
584.326	637.19
584.777	678.89
585.227	741.99
585.678	818.99
586.129	899.69
586.58	953.59
587.031	1036.29
587.482	1179.69
587.933	1356.49
588.384	1167.99
588.834	886.89
589.285	724.19
589.736	705.49
590.186	709.39
590.637	687.59
591.088	673.79
591.538	665.79
591.989	663.59
592.439	658.69
592.89	648.59
593.34	638.39
593.791	637.49
594.241	629.69
594.692	633.49
595.142	631.69
595.593	630.09
596.043	627.39
596.493	638.99
596.943	635.19
597.394	650.19
597.844	645.89
598.294	656.29
598.744	680.59
599.195	697.59
599.645	727.89
600.095	764.29
600.545	813.29
600.995	854.99
601.445	902.49
601.895	969.69
602.345	1030.09
602.795	995.09
603.245	964.69
603.695	914.49
604.145	872.99
604.594	828.09
605.044	773.29
605.494	718.89
605.944	670.09
606.393	674.19
606.843	640.19
607.293	651.99
607.743	660.49
608.192	667.89
608.642	667.89
609.091	686.99
609.541	690.19
609.99	687.19
610.44	675.99
610.889	642.59
611.339	624.29
611.788	609.39
612.238	623.99
612.687	631.29
613.136	629.59
613.586	656.79
614.035	644.59
614.484	669.69
614.933	667.69
615.383	662.09
615.832	652.49
616.281	633.89
616.73	605.79
617.179	585.79
617.628	579.19
618.077	561.89
618.526	564.69
618.975	557.59
619.424	549.49
619.873	536.39
620.322	550.99
620.771	532.99
621.22	531.29
621.669	521.79
622.118	521.59
622.567	511.89
623.015	497.89
623.464	502.19
623.913	480.79
624.361	492.99
624.81	486.39
625.259	489.89
625.707	489.49
626.156	490.39
626.604	498.39
627.053	484.99
627.501	487.99
627.95	501.89
628.398	510.99
628.847	502.19
629.295	508.79
629.744	512.99
630.192	501.19
630.64	507.19
631.089	496.99
631.537	505.79
631.985	507.39
632.433	523.39
632.881	527.39
633.33	565.19
633.778	551.49
634.226	496.69
634.674	501.09
635.122	503.19
635.57	515.69
636.018	544.99
636.466	517.99
636.914	498.59
637.362	495.59
637.81	505.89
638.258	502.49
638.705	504.39
639.153	531.39
639.601	534.19
640.049	559.09
640.497	595.19
640.944	608.59
641.392	557.09
641.84	531.99
642.287	513.19
642.735	507.89
643.182	493.29
643.63	504.89
644.078	498.29
644.525	516.09
644.973	515.89
645.42	522.89
645.867	539.19
646.315	560.59
646.762	577.69
647.21	595.89
647.657	619.19
648.104	651.29
648.551	669.59
648.999	723.49
649.446	793.29
649.893	864.89
650.34	994.89
650.787	1183.89
651.234	1473.59
651.682	1904.89
652.129	2614.09
652.576	3740.39
653.023	5550.59
653.47	7680.89
653.917	9679.59
654.363	11289.29
654.81	12679.19
655.257	12043.79
655.704	7812.89
656.151	4593.99
656.598	2993.09
657.044	2107.99
657.491	1621.79
657.938	1295.89
658.385	1070.69
658.831	933.09
659.278	835.59
659.724	747.59
660.171	683.89
660.618	628.99
661.064	591.49
661.511	574.59
661.957	550.89
662.404	545.39
662.85	563.29
663.296	531.39
663.743	487.19
664.189	469.19
664.635	458.99
665.082	457.49
665.528	455.19
665.974	440.39
666.42	439.99
666.867	441.99
667.313	418.99
667.759	403.99
668.205	417.19
668.651	417.89
669.097	421.59
669.543	426.89
669.989	403.79
670.435	386.49
670.881	388.79
671.327	381.99
671.773	407.49
672.219	417.29
672.665	467.49
673.11	495.39
673.556	541.49
674.002	581.29
674.448	569.99
674.893	477.49
675.339	405.19
675.785	373.19
676.23	360.39
676.676	341.69
677.122	327.29
677.567	323.99
678.013	318.99
678.458	306.49
678.904	305.89
679.349	292.89
679.794	296.29
680.24	296.79
680.685	293.49
681.131	300.79
681.576	298.29
682.021	298.19
682.466	291.89
682.912	292.49
683.357	297.89
683.802	329.09
684.247	343.29
684.692	384.39
685.137	425.69
685.583	458.79
686.028	478.79
686.473	449.79
686.918	383.59
687.363	365.19
687.807	349.49
688.252	321.49
688.697	306.49
689.142	289.29
689.587	289.49
690.032	276.99
690.477	293.59
690.921	301.99
691.366	328.59
691.811	340.29
692.255	368.19
692.7	399.89
693.145	427.99
693.589	572.49
694.034	932.49
694.478	1299.69
694.923	1506.29
695.367	1980.69
695.812	1037.49
696.256	428.29
696.701	315.49
697.145	287.89
697.59	277.39
698.034	268.59
698.478	289.69
698.922	275.59
699.367	280.09
699.811	287.79
700.255	297.79
700.699	322.09
701.143	367.39
701.588	402.69
702.032	445.39
702.476	437.79
702.92	424.69
703.364	409.19
703.808	527.59
704.252	853.29
704.696	1226.89
705.14	1438.89
705.584	1856.39
706.027	919.19
706.471	447.29
706.915	334.09
707.359	292.69
707.803	270.49
708.246	261.09
708.69	268.09
709.134	267.89
709.577	266.89
710.021	275.59
710.465	270.99
710.908	258.19
711.352	251.39
711.795	263.39
712.239	294.49
712.682	325.79
713.126	355.79
713.569	400.79
714.012	316.69
714.456	265.49
714.899	253.19
715.342	234.39
715.786	224.59
716.229	223.89
716.672	220.19
717.115	216.09
717.558	209.99
718.002	208.09
718.445	214.29
718.888	239.19
719.331	244.39
719.774	260.49
720.217	261.69
720.66	235.59
721.103	227.99
721.546	215.69
721.989	216.59
722.432	196.69
722.874	200.59
723.317	196.99
723.76	204.79
724.203	218.59
724.645	265.39
725.088	376.29
725.531	479.69
725.974	555.39
726.416	474.69
726.859	259.89
727.301	212.89
727.744	203.99
728.187	199.49
728.629	197.89
729.071	199.89
729.514	221.59
729.956	220.29
730.399	238.19
730.841	248.69
731.283	223.89
731.726	229.69
732.168	220.59
732.61	223.09
733.053	238.39
733.495	263.59
733.937	297.59
734.379	329.49
734.821	369.89
735.263	449.29
735.705	693.09
736.148	1285.39
736.59	2176.49
737.032	2656.69
737.474	2156.39
737.916	695.69
738.357	372.29
738.799	280.89
739.241	247.59
739.683	240.69
740.125	252.19
740.567	243.69
741.008	272.49
741.45	265.99
741.892	269.29
742.334	290.59
742.775	299.89
743.217	293.99
743.658	226.59
744.1	214.19
744.542	226.19
744.983	264.99
745.425	296.79
745.866	303.39
746.307	241.49
746.749	239.19
747.19	265.59
747.632	375.19
748.073	714.39
748.514	1525.59
748.956	2427.99
749.397	3021.59
749.838	2523.79
750.279	2586.79
750.72	1300.99
751.162	472.49
751.603	268.09
752.044	219.19
752.485	190.49
752.926	177.69
753.367	167.49
753.808	161.99
754.249	161.49
754.69	151.49
755.131	157.29
755.572	159.39
756.013	147.79
756.453	157.49
756.894	159.79
757.335	158.39
757.776	160.89
758.216	161.89
758.657	167.49
759.098	164.89
759.538	189.69
759.979	221.39
760.42	311.49
760.86	574.19
761.301	1478.19
761.741	3687.89
762.182	5637.59
762.622	3986.49
