Data from 20171114-ORNL-Ar_H_NY_Subt18_08-07-25-429.txt Node
Date: Tue Nov 14 08:07:25 EST 2017
User: Ender
Spectrometer: HR+D1039
Trigger mode: 0
Integration Time (sec): 2.730000E-2
Scans to average: 10
Electric dark correction enabled: true
Nonlinearity correction enabled: false
Boxcar width: 0
XAxis mode: Wavelengths
Number of Pixels in Spectrum: 2048
>>>>>Begin Spectral Data<<<<<
187.836	-1.56
188.309	-1.56
188.782	-1.56
189.255	0.34
189.728	1.04
190.201	3.74
190.674	0.24
191.147	3.24
191.619	-5.96
192.092	-1.36
192.565	0.04
193.038	1.54
193.511	2.54
193.984	1.54
194.456	-4.66
194.929	-0.96
195.402	3.84
195.874	-3.66
196.347	5.94
196.82	-7.06
197.292	1.14
197.765	-4.66
198.237	-6.36
198.71	-0.36
199.182	0.04
199.655	1.34
200.127	3.84
200.6	-1.26
201.072	-2.76
201.544	-4.96
202.017	-5.26
202.489	5.24
202.961	1.54
203.433	0.44
203.906	-5.66
204.378	-2.16
204.85	0.04
205.322	-8.36
205.794	-4.96
206.266	-1.16
206.739	-10.16
207.211	0.14
207.683	-7.36
208.155	-4.16
208.627	-4.66
209.099	-8.66
209.57	-4.56
210.042	0.34
210.514	-6.36
210.986	1.34
211.458	-5.06
211.93	-6.06
212.402	1.64
212.873	-2.86
213.345	-7.06
213.817	-6.96
214.288	-6.76
214.76	-13.56
215.232	-5.26
215.703	-3.26
216.175	-3.76
216.646	-0.36
217.118	-4.36
217.589	-4.96
218.061	-2.36
218.532	-9.06
219.004	-5.26
219.475	-5.56
219.946	-3.66
220.418	-2.76
220.889	9.34
221.36	1.64
221.832	-4.96
222.303	-4.86
222.774	3.84
223.245	-7.46
223.717	-9.56
224.188	-3.96
224.659	-7.16
225.13	-8.46
225.601	-2.16
226.072	1.84
226.543	-2.26
227.014	-0.66
227.485	-3.96
227.956	-8.56
228.427	-4.16
228.898	3.74
229.369	3.04
229.839	-5.66
230.31	-8.66
230.781	-2.66
231.252	-4.56
231.722	-2.86
232.193	-1.66
232.664	-1.56
233.135	-0.56
233.605	2.44
234.076	-6.96
234.546	-0.26
235.017	0.64
235.487	-3.16
235.958	-1.96
236.428	-8.16
236.899	-0.96
237.369	0.44
237.84	-3.56
238.31	2.64
238.78	5.34
239.251	-2.96
239.721	-2.16
240.191	-0.26
240.662	-1.96
241.132	-2.56
241.602	-6.56
242.072	-3.76
242.542	2.64
243.013	-0.36
243.483	6.04
243.953	3.54
244.423	-2.16
244.893	-6.56
245.363	5.74
245.833	2.74
246.303	-2.96
246.773	4.04
247.243	0.74
247.712	0.14
248.182	6.04
248.652	2.54
249.122	-3.46
249.592	3.04
250.061	8.94
250.531	22.14
251.001	9.74
251.471	10.84
251.94	13.64
252.41	2.14
252.879	-1.36
253.349	6.24
253.818	7.44
254.288	0.94
254.757	2.44
255.227	3.14
255.696	1.74
256.166	-3.06
256.635	5.44
257.105	0.24
257.574	2.04
258.043	3.74
258.513	4.04
258.982	11.74
259.451	2.44
259.92	10.24
260.389	4.44
260.859	10.24
261.328	12.44
261.797	7.94
262.266	6.94
262.735	11.14
263.204	1.94
263.673	1.94
264.142	1.84
264.611	-4.16
265.08	-3.86
265.549	2.04
266.018	4.64
266.487	-3.76
266.955	-6.96
267.424	-3.16
267.893	9.24
268.362	-0.96
268.83	1.74
269.299	9.04
269.768	2.24
270.236	3.44
270.705	0.94
271.174	2.14
271.642	3.64
272.111	5.04
272.579	10.54
273.048	13.24
273.516	13.04
273.985	21.64
274.453	18.44
274.922	14.34
275.39	8.84
275.858	-3.76
276.327	7.74
276.795	15.94
277.263	6.84
277.731	20.44
278.2	38.44
278.668	42.04
279.136	31.44
279.604	12.04
280.072	11.14
280.54	7.64
281.008	6.34
281.477	13.24
281.945	8.84
282.413	8.84
282.881	8.74
283.348	4.24
283.816	5.74
284.284	8.14
284.752	18.94
285.22	8.14
285.688	11.34
286.156	5.74
286.623	35.34
287.091	29.24
287.559	17.24
288.026	10.54
288.494	10.34
288.962	0.24
289.429	4.94
289.897	10.64
290.364	4.64
290.832	10.64
291.3	7.94
291.767	11.94
292.234	7.54
292.702	11.04
293.169	14.94
293.637	15.44
294.104	13.44
294.571	-0.96
295.039	4.84
295.506	9.34
295.973	15.04
296.44	13.54
296.908	14.24
297.375	15.14
297.842	11.14
298.309	13.64
298.776	11.44
299.243	16.24
299.71	6.64
300.177	14.54
300.644	16.54
301.111	10.24
301.578	15.84
302.045	8.24
302.512	16.84
302.979	18.94
303.446	14.44
303.913	2.94
304.379	7.34
304.846	17.94
305.313	16.74
305.78	17.54
306.246	17.54
306.713	25.34
307.18	15.44
307.646	20.74
308.113	15.04
308.579	21.04
309.046	16.74
309.512	13.74
309.979	9.44
310.445	18.04
310.912	19.84
311.378	16.14
311.845	19.64
312.311	21.64
312.777	22.54
313.244	24.94
313.71	25.04
314.176	19.04
314.642	22.34
315.109	22.64
315.575	23.94
316.041	31.84
316.507	25.24
316.973	35.14
317.439	25.94
317.905	30.94
318.371	27.54
318.837	25.14
319.303	27.84
319.769	21.34
320.235	23.64
320.701	24.84
321.167	28.94
321.633	23.24
322.099	29.54
322.564	38.34
323.03	30.84
323.496	22.94
323.962	27.74
324.427	27.74
324.893	32.54
325.359	28.04
325.824	29.14
326.29	27.24
326.755	26.84
327.221	25.94
327.686	34.34
328.152	31.84
328.617	32.24
329.083	36.04
329.548	42.14
330.014	36.94
330.479	30.54
330.944	30.54
331.41	31.84
331.875	37.94
332.34	29.34
332.805	39.04
333.271	33.24
333.736	31.24
334.201	41.14
334.666	44.34
335.131	45.54
335.596	32.74
336.061	34.04
336.526	29.94
336.991	38.24
337.456	44.74
337.921	38.54
338.386	37.54
338.851	36.24
339.316	38.74
339.781	34.84
340.246	39.74
340.711	30.94
341.175	44.34
341.64	34.94
342.105	42.04
342.569	48.04
343.034	49.04
343.499	43.64
343.963	36.54
344.428	50.14
344.893	49.24
345.357	45.14
345.822	44.14
346.286	57.14
346.751	59.34
347.215	54.94
347.679	55.64
348.144	73.04
348.608	61.84
349.073	54.34
349.537	59.84
350.001	60.14
350.465	67.04
350.93	64.54
351.394	64.14
351.858	55.44
352.322	69.14
352.786	61.84
353.25	83.34
353.715	88.24
354.179	78.64
354.643	96.04
355.107	98.54
355.571	93.44
356.035	80.14
356.498	86.14
356.962	95.94
357.426	105.84
357.89	84.44
358.354	67.04
358.818	66.54
359.281	62.54
359.745	65.34
360.209	62.04
360.673	54.44
361.136	66.64
361.6	71.24
362.064	75.74
362.527	65.94
362.991	77.34
363.454	69.04
363.918	59.54
364.381	56.94
364.845	70.34
365.308	74.94
365.772	67.44
366.235	71.64
366.698	70.74
367.162	74.04
367.625	67.44
368.088	68.64
368.552	69.64
369.015	75.44
369.478	77.64
369.941	85.74
370.404	79.34
370.867	89.14
371.331	95.44
371.794	95.64
372.257	87.34
372.72	91.54
373.183	94.94
373.646	89.34
374.109	86.04
374.572	90.84
375.035	86.84
375.497	91.44
375.96	92.74
376.423	93.64
376.886	94.64
377.349	89.84
377.811	89.74
378.274	96.74
378.737	86.94
379.199	93.34
379.662	95.54
380.125	102.14
380.587	103.14
381.05	101.64
381.512	117.34
381.975	113.84
382.437	113.14
382.9	113.34
383.362	113.64
383.825	117.44
384.287	120.54
384.75	129.64
385.212	114.24
385.674	111.44
386.136	114.64
386.599	112.64
387.061	113.64
387.523	114.04
387.985	119.64
388.447	125.84
388.91	123.24
389.372	132.24
389.834	135.94
390.296	126.14
390.758	142.54
391.22	143.84
391.682	186.04
392.144	257.34
392.606	201.34
393.068	152.14
393.529	145.44
393.991	134.34
394.453	123.74
394.915	140.64
395.377	167.94
395.838	187.04
396.3	138.94
396.762	130.54
397.224	118.84
397.685	115.54
398.147	114.44
398.608	116.84
399.07	113.94
399.531	118.64
399.993	131.14
400.454	138.54
400.916	127.04
401.377	132.84
401.839	129.74
402.3	134.84
402.762	144.54
403.223	163.84
403.684	152.64
404.145	137.84
404.607	139.64
405.068	145.34
405.529	151.64
405.99	165.94
406.451	154.34
406.913	151.94
407.374	150.34
407.835	144.24
408.296	151.24
408.757	156.34
409.218	160.04
409.679	160.14
410.14	160.74
410.601	163.04
411.062	172.74
411.522	171.14
411.983	176.44
412.444	158.24
412.905	160.04
413.366	158.84
413.826	171.04
414.287	194.74
414.748	239.54
415.208	225.44
415.669	191.24
416.13	186.44
416.59	188.04
417.051	195.74
417.511	200.14
417.972	212.24
418.432	221.74
418.893	263.34
419.353	222.24
419.814	174.54
420.274	167.64
420.734	166.94
421.195	180.44
421.655	174.74
422.115	175.84
422.576	173.94
423.036	183.54
423.496	189.24
423.956	202.74
424.416	211.54
424.876	247.14
425.336	237.94
425.797	243.34
426.257	237.94
426.717	220.54
427.177	210.34
427.637	199.14
428.097	227.84
428.556	221.84
429.016	250.04
429.476	236.64
429.936	247.74
430.396	256.54
430.856	264.04
431.315	292.54
431.775	317.64
432.235	350.44
432.694	327.24
433.154	335.34
433.614	352.64
434.073	305.74
434.533	263.14
434.993	244.54
435.452	256.74
435.912	261.34
436.371	260.34
436.83	250.44
437.29	249.34
437.749	225.74
438.209	227.24
438.668	251.34
439.127	269.74
439.587	238.94
440.046	225.24
440.505	240.74
440.964	252.94
441.424	290.94
441.883	293.84
442.342	235.74
442.801	207.64
443.26	202.64
443.719	200.64
444.178	204.54
444.637	202.14
445.096	205.94
445.555	209.84
446.014	210.14
446.473	208.54
446.932	218.34
447.391	209.14
447.849	211.64
448.308	202.54
448.767	211.04
449.226	225.04
449.685	227.94
450.143	229.14
450.602	217.24
451.061	205.94
451.519	215.94
451.978	224.54
452.436	220.14
452.895	222.64
453.353	235.04
453.812	226.04
454.27	224.54
454.729	223.74
455.187	220.54
455.646	227.54
456.104	230.34
456.562	241.34
457.021	247.74
457.479	244.74
457.937	252.24
458.395	247.54
458.854	229.24
459.312	236.04
459.77	258.14
460.228	229.04
460.686	224.34
461.144	234.64
461.602	225.34
462.06	228.04
462.518	241.74
462.976	244.14
463.434	241.04
463.892	245.04
464.35	259.14
464.808	263.54
465.266	248.84
465.724	247.24
466.181	263.24
466.639	254.04
467.097	267.94
467.555	275.44
468.012	281.54
468.47	289.04
468.928	301.74
469.385	315.24
469.843	326.84
470.3	331.04
470.758	343.94
471.215	363.34
471.673	383.24
472.13	387.74
472.588	397.24
473.045	340.54
473.503	357.74
473.96	371.64
474.417	383.04
474.875	411.54
475.332	448.04
475.789	435.94
476.246	448.24
476.704	459.34
477.161	478.44
477.618	493.34
478.075	515.84
478.532	576.64
478.989	653.54
479.446	756.24
479.903	727.94
480.36	761.24
480.817	821.64
481.274	914.14
481.731	1011.14
482.188	1097.44
482.645	1224.54
483.102	1326.84
483.558	1463.74
484.015	1515.14
484.472	1482.44
484.929	1442.64
485.385	1395.34
485.842	1356.04
486.299	1287.84
486.755	1216.24
487.212	1019.34
487.668	855.24
488.125	803.54
488.582	740.24
489.038	703.54
489.494	665.14
489.951	657.84
490.407	619.94
490.864	607.24
491.32	617.04
491.776	600.94
492.233	604.94
492.689	577.84
493.145	577.54
493.602	574.94
494.058	580.74
494.514	573.64
494.97	599.24
495.426	614.64
495.882	588.94
496.338	571.24
496.794	583.14
497.251	579.94
497.707	589.24
498.163	595.44
498.618	605.04
499.074	604.24
499.53	630.24
499.986	628.64
500.442	610.74
500.898	600.84
501.354	586.74
501.809	597.14
502.265	604.84
502.721	617.84
503.177	637.34
503.632	622.94
504.088	639.64
504.543	657.94
504.999	665.44
505.455	617.74
505.91	594.44
506.366	607.24
506.821	587.54
507.277	581.24
507.732	588.14
508.187	592.74
508.643	592.94
509.098	603.14
509.553	617.44
510.009	635.74
510.464	629.94
510.919	651.14
511.375	658.34
511.83	667.94
512.285	682.94
512.74	720.64
513.195	741.34
513.65	728.24
514.105	723.44
514.56	735.84
515.015	745.04
515.47	759.14
515.925	752.54
516.38	745.24
516.835	755.54
517.29	743.34
517.745	733.74
518.2	726.44
518.655	709.94
519.109	698.74
519.564	702.84
520.019	693.64
520.474	692.24
520.928	683.74
521.383	675.24
521.838	673.94
522.292	677.74
522.747	672.64
523.201	663.84
523.656	663.04
524.11	664.24
524.565	666.94
525.019	651.24
525.474	663.24
525.928	662.14
526.382	658.84
526.837	666.34
527.291	669.54
527.745	663.44
528.2	657.64
528.654	661.94
529.108	658.14
529.562	661.84
530.016	662.14
530.47	657.84
530.925	656.14
531.379	662.84
531.833	661.54
532.287	662.34
532.741	670.84
533.195	665.34
533.649	679.24
534.103	689.14
534.556	669.94
535.01	668.54
535.464	673.84
535.918	681.94
536.372	676.94
536.826	687.14
537.279	667.04
537.733	674.44
538.187	676.44
538.64	681.24
539.094	685.14
539.548	696.54
540.001	688.14
540.455	697.24
540.908	703.94
541.362	709.04
541.815	717.84
542.269	723.14
542.722	723.24
543.175	735.54
543.629	738.84
544.082	754.14
544.536	757.04
544.989	746.54
545.442	757.34
545.895	746.44
546.349	751.44
546.802	753.44
547.255	757.84
547.708	767.94
548.161	772.04
548.614	798.04
549.067	795.34
549.52	778.54
549.973	768.34
550.426	766.44
550.879	763.64
551.332	763.34
551.785	768.74
552.238	772.34
552.691	776.64
553.144	794.14
553.596	798.64
554.049	823.44
554.502	854.74
554.955	875.14
555.407	861.34
555.86	862.74
556.313	842.84
556.765	835.44
557.218	841.84
557.67	842.84
558.123	829.24
558.576	831.04
559.028	843.94
559.48	839.34
559.933	837.74
560.385	798.94
560.838	777.44
561.29	758.54
561.742	757.44
562.195	738.34
562.647	734.74
563.099	743.24
563.551	741.94
564.004	751.74
564.456	733.64
564.908	722.04
565.36	716.34
565.812	704.14
566.264	689.14
566.716	690.04
567.168	684.34
567.62	687.74
568.072	675.44
568.524	674.54
568.976	666.44
569.428	653.84
569.88	638.64
570.332	656.54
570.784	656.24
571.235	664.04
571.687	662.94
572.139	665.04
572.59	681.24
573.042	683.44
573.494	680.24
573.945	672.24
574.397	660.54
574.849	656.64
575.3	656.84
575.752	649.04
576.203	647.04
576.655	654.74
577.106	643.34
577.557	644.14
578.009	642.54
578.46	635.24
578.912	628.94
579.363	646.24
579.814	647.74
580.265	633.94
580.717	635.54
581.168	641.54
581.619	651.04
582.07	645.14
582.521	648.94
582.972	645.94
583.423	653.34
583.875	654.94
584.326	670.14
584.777	719.04
585.227	781.14
585.678	854.24
586.129	944.94
586.58	1004.44
587.031	1077.24
587.482	1219.04
587.933	1385.14
588.384	1207.04
588.834	906.54
589.285	763.84
589.736	749.84
590.186	746.64
590.637	739.44
591.088	705.44
591.538	715.14
591.989	698.94
592.439	704.64
592.89	700.04
593.34	678.64
593.791	679.74
594.241	673.84
594.692	672.14
595.142	671.24
595.593	676.74
596.043	681.64
596.493	679.24
596.943	688.54
597.394	688.34
597.844	687.64
598.294	696.74
598.744	735.54
599.195	743.24
599.645	798.84
600.095	817.54
600.545	871.04
600.995	933.64
601.445	988.54
601.895	1056.14
602.345	1103.94
602.795	1079.04
603.245	1026.34
603.695	963.64
604.145	919.54
604.594	878.44
605.044	810.14
605.494	760.34
605.944	722.44
606.393	707.94
606.843	695.24
607.293	700.64
607.743	700.74
608.192	722.44
608.642	726.14
609.091	737.34
609.541	749.64
609.99	738.14
610.44	744.34
610.889	696.44
611.339	675.84
611.788	658.34
612.238	670.24
612.687	696.44
613.136	688.64
613.586	722.54
614.035	705.24
614.484	724.84
614.933	729.34
615.383	718.74
615.832	705.24
616.281	687.34
616.73	662.74
617.179	637.34
617.628	623.14
618.077	614.64
618.526	601.44
618.975	600.34
619.424	592.24
619.873	588.44
620.322	592.64
620.771	589.74
621.22	578.64
621.669	570.34
622.118	562.04
622.567	558.84
623.015	544.84
623.464	549.64
623.913	533.74
624.361	523.74
624.81	524.14
625.259	524.24
625.707	541.24
626.156	532.44
626.604	544.64
627.053	539.94
627.501	543.04
627.95	539.14
628.398	554.34
628.847	552.04
629.295	547.74
629.744	557.74
630.192	552.84
630.64	555.94
631.089	540.44
631.537	556.04
631.985	550.94
632.433	559.84
632.881	570.64
633.33	611.84
633.778	601.34
634.226	534.74
634.674	545.14
635.122	548.04
635.57	566.74
636.018	590.94
636.466	557.44
636.914	537.14
637.362	545.74
637.81	560.94
638.258	557.94
638.705	554.44
639.153	588.34
639.601	594.94
640.049	620.54
640.497	646.44
640.944	666.04
641.392	618.54
641.84	590.64
642.287	559.84
642.735	556.74
643.182	552.94
643.63	546.54
644.078	551.34
644.525	564.54
644.973	580.24
645.42	578.04
645.867	597.64
646.315	617.64
646.762	646.44
647.21	675.54
647.657	682.54
648.104	727.74
648.551	741.84
648.999	801.64
649.446	870.44
649.893	983.64
650.34	1125.44
650.787	1351.74
651.234	1680.24
651.682	2176.44
652.129	3021.84
652.576	4351.44
653.023	6410.44
653.47	8748.14
653.917	10888.24
654.363	12591.54
654.81	13894.94
655.257	13221.94
655.704	8596.84
656.151	5079.34
656.598	3258.14
657.044	2309.74
657.491	1777.04
657.938	1429.74
658.385	1188.64
658.831	1035.84
659.278	918.64
659.724	819.24
660.171	752.04
660.618	698.44
661.064	654.24
661.511	638.94
661.957	625.24
662.404	616.94
662.85	625.64
663.296	601.74
663.743	539.64
664.189	523.64
664.635	510.24
665.082	502.54
665.528	507.04
665.974	493.44
666.42	491.04
666.867	498.74
667.313	478.94
667.759	464.54
668.205	467.54
668.651	462.74
669.097	464.64
669.543	472.24
669.989	455.34
670.435	427.74
670.881	435.94
671.327	433.44
671.773	453.24
672.219	478.44
672.665	527.14
673.11	557.84
673.556	604.44
674.002	646.24
674.448	641.14
674.893	533.34
675.339	457.34
675.785	416.74
676.23	400.64
676.676	382.34
677.122	368.24
677.567	360.24
678.013	349.04
678.458	340.24
678.904	347.44
679.349	334.24
679.794	344.84
680.24	330.44
680.685	334.54
681.131	329.54
681.576	333.64
682.021	340.04
682.466	334.54
682.912	337.24
683.357	335.94
683.802	377.64
684.247	403.24
684.692	441.24
685.137	476.04
685.583	521.74
686.028	548.44
686.473	495.64
686.918	429.84
687.363	395.94
687.807	377.14
688.252	357.54
688.697	342.14
689.142	321.14
689.587	319.84
690.032	309.14
690.477	324.54
690.921	342.54
691.366	361.74
691.811	391.64
692.255	410.04
692.7	447.24
693.145	487.64
693.589	686.24
694.034	1089.44
694.478	1491.44
694.923	1682.44
695.367	2180.74
695.812	1152.74
696.256	479.84
696.701	354.44
697.145	329.14
697.59	323.84
698.034	309.14
698.478	322.34
698.922	315.24
699.367	311.04
699.811	320.74
700.255	341.04
700.699	380.14
701.143	420.74
701.588	463.64
702.032	497.74
702.476	497.74
702.92	464.74
703.364	472.54
703.808	615.54
704.252	1003.94
704.696	1426.24
705.14	1614.64
705.584	2054.64
706.027	1020.34
706.471	508.44
706.915	385.64
707.359	332.84
707.803	306.14
708.246	298.74
708.69	303.84
709.134	306.74
709.577	292.64
710.021	303.14
710.465	299.44
710.908	290.24
711.352	290.44
711.795	308.64
712.239	339.74
712.682	366.14
713.126	402.74
713.569	446.64
714.012	359.04
714.456	315.04
714.899	283.44
715.342	258.44
715.786	249.34
716.229	244.34
716.672	247.24
717.115	242.84
717.558	242.84
718.002	242.34
718.445	250.14
718.888	277.54
719.331	288.34
719.774	302.64
720.217	300.54
720.66	274.74
721.103	262.24
721.546	245.14
721.989	242.14
722.432	220.64
722.874	223.54
723.317	225.34
723.76	233.14
724.203	241.84
724.645	312.94
725.088	432.54
725.531	558.34
725.974	624.54
726.416	527.64
726.859	297.14
727.301	234.64
727.744	231.24
728.187	225.84
728.629	228.64
729.071	227.24
729.514	251.84
729.956	258.34
730.399	277.14
730.841	280.74
731.283	265.04
731.726	254.64
732.168	252.04
732.61	264.84
733.053	274.04
733.495	301.44
733.937	331.34
734.379	385.64
734.821	424.64
735.263	527.04
735.705	824.34
736.148	1544.04
736.59	2519.34
737.032	2924.34
737.474	2390.74
737.916	782.34
738.357	418.04
738.799	310.24
739.241	284.34
739.683	274.34
740.125	282.34
740.567	294.24
741.008	306.14
741.45	308.34
741.892	306.34
742.334	340.74
742.775	344.94
743.217	335.14
743.658	263.04
744.1	246.54
744.542	260.24
744.983	297.24
745.425	328.84
745.866	328.94
746.307	277.84
746.749	274.84
747.19	318.34
747.632	453.14
748.073	872.84
748.514	1845.24
748.956	2768.24
749.397	3469.34
749.838	2875.14
750.279	2860.54
750.72	1432.64
751.162	520.74
751.603	311.84
752.044	247.24
752.485	211.14
752.926	203.04
753.367	197.24
753.808	186.54
754.249	185.94
754.69	176.74
755.131	178.34
755.572	178.24
756.013	174.84
756.453	179.04
756.894	183.34
757.335	181.84
757.776	189.14
758.216	190.94
758.657	193.64
759.098	192.14
759.538	214.54
759.979	253.04
760.42	369.34
760.86	692.54
761.301	1811.64
761.741	4348.04
762.182	6217.34
762.622	4344.84
763.063	1261.34
763.503	516.14
763.943	327.64
