Data from 20171114-ORNL-Ar_H_NY_Subt18_08-08-59-392.txt Node
Date: Tue Nov 14 08:08:59 EST 2017
User: Ender
Spectrometer: HR+D1039
Trigger mode: 0
Integration Time (sec): 2.730000E-2
Scans to average: 10
Electric dark correction enabled: true
Nonlinearity correction enabled: false
Boxcar width: 0
XAxis mode: Wavelengths
Number of Pixels in Spectrum: 2048
>>>>>Begin Spectral Data<<<<<
187.836	-2.63
188.309	-2.63
188.782	-2.63
189.255	-2.63
189.728	-1.53
190.201	3.07
190.674	-0.03
191.147	4.97
191.619	-12.63
192.092	-0.93
192.565	7.27
193.038	7.07
193.511	7.87
193.984	-1.03
194.456	-0.53
194.929	1.07
195.402	-4.73
195.874	-4.63
196.347	-1.43
196.82	-5.03
197.292	1.97
197.765	-0.73
198.237	-8.13
198.71	-0.53
199.182	-0.93
199.655	2.67
200.127	3.97
200.6	-3.83
201.072	-6.03
201.544	-4.23
202.017	-5.83
202.489	2.27
202.961	-3.93
203.433	-2.13
203.906	-3.53
204.378	-8.83
204.85	-6.63
205.322	-9.73
205.794	-2.53
206.266	-2.43
206.739	-7.83
207.211	-0.43
207.683	-5.43
208.155	-1.23
208.627	-1.13
209.099	1.07
209.57	-8.33
210.042	-9.13
210.514	-7.73
210.986	-5.73
211.458	-4.83
211.93	-3.03
212.402	-0.23
212.873	-5.13
213.345	-13.93
213.817	-15.53
214.288	-1.63
214.76	-9.93
215.232	2.67
215.703	-0.43
216.175	-1.33
216.646	0.57
217.118	-6.63
217.589	-5.33
218.061	0.07
218.532	-2.53
219.004	0.17
219.475	-5.43
219.946	-9.33
220.418	-6.93
220.889	3.27
221.36	-2.53
221.832	-7.43
222.303	-5.43
222.774	-7.73
223.245	-11.23
223.717	-6.93
224.188	-6.03
224.659	-8.83
225.13	-6.23
225.601	-0.73
226.072	1.57
226.543	-1.23
227.014	-3.73
227.485	-3.73
227.956	-7.43
228.427	-0.13
228.898	0.47
229.369	-2.53
229.839	-4.03
230.31	1.17
230.781	5.97
231.252	-0.33
231.722	-8.23
232.193	-5.73
232.664	-2.23
233.135	-1.93
233.605	-2.03
234.076	-5.73
234.546	-2.03
235.017	0.17
235.487	-0.33
235.958	-4.23
236.428	-10.73
236.899	-2.43
237.369	-2.03
237.84	-4.13
238.31	-1.33
238.78	-9.83
239.251	-3.23
239.721	-0.63
240.191	-4.83
240.662	-3.83
241.132	-8.23
241.602	-8.03
242.072	-3.73
242.542	1.17
243.013	-9.03
243.483	0.67
243.953	-4.93
244.423	-8.43
244.893	-5.83
245.363	-2.53
245.833	-3.23
246.303	-7.83
246.773	1.17
247.243	-1.83
247.712	-0.03
248.182	-0.53
248.652	2.87
249.122	-7.83
249.592	-6.23
250.061	-1.33
250.531	6.17
251.001	-3.73
251.471	0.07
251.94	4.07
252.41	0.67
252.879	-2.33
253.349	0.17
253.818	6.47
254.288	-2.43
254.757	2.77
255.227	-3.93
255.696	0.27
256.166	4.07
256.635	1.07
257.105	-2.63
257.574	-1.63
258.043	1.97
258.513	-5.23
258.982	2.57
259.451	-8.53
259.92	3.07
260.389	-0.23
260.859	7.57
261.328	-2.33
261.797	2.17
262.266	-5.93
262.735	6.97
263.204	-0.43
263.673	2.47
264.142	6.87
264.611	-8.03
265.08	-0.53
265.549	-9.33
266.018	-0.93
266.487	-3.23
266.955	-5.83
267.424	-1.13
267.893	1.47
268.362	-8.23
268.83	-4.93
269.299	4.57
269.768	5.37
270.236	0.77
270.705	-5.73
271.174	1.17
271.642	-0.43
272.111	2.77
272.579	-0.73
273.048	-0.43
273.516	3.97
273.985	4.57
274.453	3.47
274.922	3.97
275.39	5.37
275.858	-2.83
276.327	2.47
276.795	8.07
277.263	-0.73
277.731	6.67
278.2	7.17
278.668	7.67
279.136	14.97
279.604	3.37
280.072	6.37
280.54	5.87
281.008	6.07
281.477	6.17
281.945	5.17
282.413	8.77
282.881	4.77
283.348	0.07
283.816	9.27
284.284	6.27
284.752	11.17
285.22	2.37
285.688	5.27
286.156	8.67
286.623	13.67
287.091	14.37
287.559	10.87
288.026	8.37
288.494	9.27
288.962	2.27
289.429	-2.93
289.897	5.57
290.364	5.17
290.832	10.47
291.3	6.97
291.767	10.77
292.234	16.47
292.702	9.97
293.169	8.07
293.637	15.07
294.104	12.77
294.571	0.37
295.039	6.77
295.506	5.87
295.973	8.37
296.44	12.77
296.908	10.37
297.375	11.27
297.842	4.57
298.309	3.27
298.776	2.67
299.243	14.37
299.71	7.57
300.177	12.27
300.644	13.77
301.111	7.47
301.578	10.97
302.045	11.07
302.512	9.77
302.979	15.87
303.446	11.47
303.913	9.67
304.379	7.97
304.846	19.97
305.313	14.07
305.78	9.87
306.246	13.67
306.713	21.67
307.18	10.37
307.646	12.37
308.113	17.87
308.579	9.47
309.046	9.37
309.512	18.67
309.979	7.87
310.445	19.67
310.912	16.97
311.378	22.87
311.845	23.27
312.311	22.47
312.777	25.27
313.244	27.87
313.71	28.97
314.176	19.87
314.642	16.77
315.109	21.37
315.575	23.17
316.041	29.67
316.507	19.17
316.973	22.77
317.439	23.27
317.905	19.37
318.371	26.07
318.837	20.47
319.303	20.37
319.769	24.47
320.235	24.17
320.701	27.27
321.167	22.07
321.633	22.17
322.099	24.47
322.564	24.97
323.03	26.37
323.496	26.67
323.962	34.47
324.427	19.27
324.893	28.27
325.359	30.37
325.824	29.87
326.29	29.27
326.755	28.27
327.221	29.57
327.686	28.97
328.152	34.27
328.617	34.17
329.083	34.37
329.548	35.27
330.014	34.17
330.479	21.87
330.944	34.37
331.41	25.07
331.875	32.07
332.34	30.57
332.805	30.07
333.271	34.57
333.736	28.97
334.201	38.87
334.666	34.27
335.131	41.67
335.596	40.97
336.061	33.47
336.526	26.67
336.991	31.77
337.456	41.37
337.921	29.17
338.386	33.37
338.851	32.17
339.316	40.17
339.781	35.47
340.246	47.37
340.711	33.47
341.175	43.67
341.64	36.87
342.105	43.37
342.569	43.97
343.034	46.77
343.499	41.77
343.963	39.97
344.428	47.37
344.893	48.07
345.357	50.97
345.822	44.67
346.286	53.87
346.751	59.47
347.215	47.87
347.679	55.67
348.144	69.87
348.608	65.27
349.073	54.67
349.537	59.57
350.001	62.57
350.465	65.97
350.93	62.87
351.394	60.77
351.858	61.77
352.322	67.57
352.786	64.97
353.25	80.67
353.715	85.57
354.179	77.37
354.643	95.27
355.107	94.37
355.571	84.67
356.035	74.37
356.498	84.47
356.962	88.17
357.426	98.77
357.89	86.77
358.354	73.67
358.818	69.47
359.281	63.37
359.745	63.27
360.209	63.07
360.673	63.07
361.136	62.47
361.6	71.67
362.064	65.17
362.527	69.77
362.991	76.47
363.454	64.37
363.918	59.97
364.381	56.77
364.845	74.17
365.308	70.37
365.772	76.67
366.235	71.17
366.698	70.77
367.162	64.47
367.625	72.37
368.088	74.37
368.552	73.67
369.015	68.67
369.478	76.87
369.941	78.07
370.404	76.47
370.867	85.17
371.331	85.07
371.794	96.37
372.257	84.17
372.72	94.27
373.183	83.67
373.646	79.57
374.109	83.77
374.572	86.27
375.035	82.17
375.497	86.57
375.96	94.27
376.423	95.87
376.886	95.07
377.349	91.27
377.811	93.47
378.274	88.77
378.737	96.87
379.199	98.57
379.662	98.27
380.125	96.07
380.587	91.77
381.05	96.77
381.512	100.17
381.975	103.37
382.437	102.27
382.9	103.97
383.362	107.97
383.825	113.07
384.287	112.17
384.75	102.87
385.212	113.67
385.674	111.37
386.136	118.17
386.599	104.47
387.061	110.27
387.523	108.17
387.985	110.97
388.447	115.27
388.91	117.67
389.372	115.47
389.834	118.17
390.296	114.37
390.758	119.47
391.22	125.67
391.682	136.67
392.144	151.87
392.606	138.57
393.068	129.07
393.529	141.87
393.991	130.37
394.453	118.87
394.915	119.47
395.377	132.27
395.838	128.97
396.3	125.07
396.762	125.87
397.224	125.57
397.685	114.47
398.147	120.97
398.608	120.47
399.07	120.87
399.531	125.87
399.993	129.47
400.454	143.67
400.916	136.97
401.377	132.67
401.839	135.97
402.3	139.07
402.762	152.07
403.223	163.57
403.684	153.17
404.145	143.17
404.607	146.17
405.068	147.37
405.529	154.27
405.99	169.67
406.451	159.17
406.913	156.47
407.374	151.47
407.835	156.67
408.296	153.07
408.757	158.27
409.218	171.07
409.679	163.87
410.14	159.87
410.601	162.97
411.062	165.57
411.522	168.47
411.983	165.37
412.444	160.27
412.905	170.37
413.366	168.87
413.826	183.17
414.287	207.57
414.748	247.97
415.208	236.37
415.669	206.27
416.13	194.67
416.59	193.37
417.051	208.37
417.511	207.97
417.972	226.97
418.432	239.67
418.893	280.57
419.353	239.47
419.814	192.27
420.274	175.87
420.734	170.87
421.195	183.97
421.655	182.07
422.115	185.17
422.576	184.77
423.036	185.47
423.496	195.97
423.956	203.67
424.416	217.77
424.876	255.17
425.336	248.17
425.797	247.67
426.257	242.17
426.717	222.67
427.177	216.37
427.637	215.07
428.097	217.27
428.556	232.57
429.016	251.47
429.476	248.77
429.936	258.47
430.396	262.87
430.856	273.17
431.315	292.07
431.775	325.27
432.235	360.77
432.694	322.87
433.154	334.97
433.614	362.17
434.073	309.57
434.533	265.67
434.993	254.67
435.452	262.97
435.912	271.47
436.371	269.57
436.83	262.27
437.29	244.37
437.749	238.47
438.209	233.77
438.668	265.37
439.127	271.17
439.587	256.27
440.046	234.97
440.505	251.37
440.964	264.07
441.424	306.97
441.883	299.67
442.342	250.47
442.801	210.37
443.26	212.17
443.719	218.67
444.178	213.17
444.637	206.17
445.096	220.37
445.555	226.27
446.014	225.47
446.473	221.07
446.932	224.57
447.391	219.87
447.849	220.27
448.308	209.97
448.767	217.77
449.226	232.37
449.685	233.77
450.143	246.77
450.602	236.27
451.061	229.17
451.519	231.67
451.978	225.27
452.436	232.47
452.895	231.07
453.353	247.77
453.812	227.97
454.27	231.37
454.729	231.67
455.187	235.57
455.646	246.77
456.104	243.17
456.562	257.67
457.021	263.57
457.479	251.97
457.937	265.47
458.395	252.97
458.854	244.37
459.312	251.17
459.77	271.07
460.228	250.47
460.686	239.57
461.144	251.27
461.602	240.47
462.06	239.27
462.518	258.27
462.976	253.97
463.434	251.47
463.892	260.97
464.35	274.87
464.808	284.37
465.266	259.97
465.724	262.57
466.181	270.27
466.639	269.87
467.097	282.07
467.555	296.37
468.012	308.37
468.47	310.17
468.928	317.17
469.385	340.07
469.843	340.17
470.3	342.27
470.758	356.27
471.215	375.77
471.673	394.77
472.13	398.57
472.588	409.77
473.045	365.67
473.503	373.07
473.96	381.77
474.417	404.57
474.875	421.57
475.332	466.87
475.789	452.77
476.246	460.87
476.704	472.77
477.161	494.67
477.618	508.47
478.075	549.77
478.532	592.27
478.989	666.67
479.446	770.47
479.903	739.87
480.36	770.47
480.817	806.17
481.274	907.07
481.731	984.97
482.188	1059.87
482.645	1178.37
483.102	1262.17
483.558	1385.57
484.015	1404.97
484.472	1386.97
484.929	1368.97
485.385	1318.17
485.842	1281.77
486.299	1249.97
486.755	1197.87
487.212	1018.77
487.668	882.17
488.125	809.97
488.582	745.47
489.038	725.47
489.494	690.27
489.951	659.47
490.407	642.77
490.864	617.47
491.32	630.17
491.776	632.87
492.233	624.17
492.689	599.87
493.145	587.77
493.602	587.37
494.058	596.87
494.514	602.07
494.97	618.37
495.426	640.87
495.882	608.27
496.338	589.87
496.794	616.27
497.251	595.37
497.707	622.07
498.163	611.07
498.618	624.97
499.074	625.37
499.53	653.57
499.986	663.47
500.442	636.07
500.898	612.97
501.354	611.97
501.809	617.87
502.265	615.17
502.721	615.07
503.177	629.67
503.632	637.27
504.088	636.87
504.543	669.67
504.999	687.97
505.455	645.37
505.91	629.27
506.366	626.77
506.821	625.87
507.277	623.37
507.732	628.67
508.187	626.07
508.643	635.17
509.098	635.77
509.553	657.17
510.009	668.57
510.464	668.97
510.919	683.67
511.375	699.87
511.83	701.47
512.285	717.37
512.74	751.87
513.195	773.57
513.65	764.87
514.105	763.47
514.56	756.57
515.015	774.37
515.47	792.07
515.925	774.97
516.38	769.07
516.835	780.77
517.29	770.47
517.745	761.97
518.2	758.27
518.655	735.47
519.109	740.17
519.564	735.07
520.019	730.47
520.474	719.67
520.928	727.07
521.383	714.67
521.838	710.87
522.292	704.47
522.747	703.27
523.201	703.17
523.656	695.97
524.11	692.27
524.565	698.47
525.019	681.57
525.474	696.17
525.928	695.77
526.382	690.27
526.837	698.87
527.291	701.07
527.745	702.27
528.2	693.57
528.654	684.67
529.108	686.07
529.562	697.87
530.016	674.87
530.47	690.07
530.925	683.67
531.379	692.67
531.833	703.47
532.287	692.77
532.741	686.07
533.195	695.97
533.649	709.87
534.103	712.07
534.556	698.27
535.01	702.67
535.464	693.57
535.918	712.17
536.372	716.17
536.826	712.77
537.279	704.87
537.733	704.47
538.187	710.67
538.64	712.57
539.094	712.67
539.548	724.57
540.001	719.27
540.455	718.97
540.908	727.97
541.362	735.17
541.815	751.47
542.269	760.37
542.722	762.97
543.175	773.07
543.629	763.27
544.082	783.57
544.536	786.87
544.989	781.57
545.442	786.67
545.895	801.27
546.349	800.67
546.802	798.17
547.255	796.77
547.708	802.77
548.161	818.07
548.614	814.27
549.067	829.17
549.52	832.37
549.973	822.37
550.426	817.87
550.879	797.17
551.332	800.07
551.785	814.97
552.238	804.37
552.691	814.17
553.144	836.77
553.596	841.37
554.049	873.27
554.502	902.07
554.955	915.77
555.407	902.77
555.86	896.17
556.313	892.77
556.765	884.17
557.218	878.37
557.67	886.97
558.123	868.97
558.576	872.37
559.028	879.87
559.48	889.37
559.933	882.97
560.385	844.37
560.838	812.17
561.29	784.77
561.742	787.87
562.195	776.07
562.647	776.17
563.099	785.97
563.551	779.17
564.004	795.47
564.456	781.27
564.908	762.87
565.36	745.47
565.812	732.47
566.264	731.47
566.716	731.37
567.168	710.27
567.62	714.27
568.072	702.37
568.524	699.67
568.976	689.87
569.428	680.67
569.88	679.17
570.332	693.47
570.784	699.17
571.235	701.77
571.687	706.57
572.139	712.27
572.59	719.87
573.042	718.27
573.494	714.47
573.945	711.77
574.397	684.77
574.849	698.67
575.3	700.37
575.752	694.97
576.203	677.07
576.655	687.17
577.106	679.07
577.557	681.17
578.009	677.97
578.46	678.37
578.912	663.67
579.363	668.37
579.814	674.47
580.265	674.97
580.717	676.87
581.168	669.57
581.619	684.77
582.07	696.17
582.521	678.07
582.972	672.87
583.423	693.37
583.875	687.87
584.326	697.07
584.777	715.77
585.227	733.37
585.678	755.67
586.129	782.17
586.58	809.77
587.031	846.37
587.482	891.07
587.933	933.87
588.384	895.57
588.834	816.17
589.285	788.87
589.736	789.87
590.186	779.67
590.637	774.07
591.088	755.27
591.538	746.17
591.989	743.97
592.439	725.67
592.89	723.77
593.34	713.97
593.791	724.47
594.241	714.77
594.692	708.57
595.142	702.47
595.593	696.77
596.043	703.77
596.493	715.67
596.943	721.77
597.394	731.67
597.844	713.87
598.294	742.57
598.744	762.67
599.195	791.57
599.645	833.37
600.095	868.97
600.545	933.27
600.995	980.07
601.445	1034.77
601.895	1106.87
602.345	1144.17
602.795	1126.97
603.245	1086.27
603.695	1021.97
604.145	976.57
604.594	929.97
605.044	870.27
605.494	817.37
605.944	764.67
606.393	755.67
606.843	728.97
607.293	736.97
607.743	738.37
608.192	744.47
608.642	759.47
609.091	763.07
609.541	783.27
609.99	766.57
610.44	765.67
610.889	734.57
611.339	706.67
611.788	701.47
612.238	697.57
612.687	715.37
613.136	720.07
613.586	714.07
614.035	709.47
614.484	719.37
614.933	723.67
615.383	717.17
615.832	720.27
616.281	717.07
616.73	674.57
617.179	663.07
617.628	652.27
618.077	642.87
618.526	627.27
618.975	626.67
619.424	615.27
619.873	615.97
620.322	623.17
620.771	610.67
621.22	607.47
621.669	597.27
622.118	590.67
622.567	584.17
623.015	572.87
623.464	584.27
623.913	561.17
624.361	557.37
624.81	557.37
625.259	567.47
625.707	565.07
626.156	557.57
626.604	578.17
627.053	580.77
627.501	571.57
627.95	581.97
628.398	591.47
628.847	569.07
629.295	577.87
629.744	577.07
630.192	577.67
630.64	572.27
631.089	558.37
631.537	556.37
631.985	545.27
632.433	543.27
632.881	537.37
633.33	559.67
633.778	544.57
634.226	528.87
634.674	543.17
635.122	549.27
635.57	555.27
636.018	578.17
636.466	578.47
636.914	571.17
637.362	577.27
637.81	593.97
638.258	585.07
638.705	591.37
639.153	615.67
639.601	621.37
640.049	654.47
640.497	677.57
640.944	701.97
641.392	653.77
641.84	622.47
642.287	590.77
642.735	579.37
643.182	570.27
643.63	573.47
644.078	572.07
644.525	580.27
644.973	585.67
645.42	592.87
645.867	626.87
646.315	635.37
646.762	667.27
647.21	683.47
647.657	708.37
648.104	743.77
648.551	771.27
648.999	824.37
649.446	890.67
649.893	991.37
650.34	1119.07
650.787	1337.37
651.234	1664.17
651.682	2147.07
652.129	2913.07
652.576	4143.07
653.023	6053.07
653.47	8162.17
653.917	10075.17
654.363	11546.17
654.81	12692.77
655.257	12030.07
655.704	7932.87
656.151	4758.27
656.598	3142.17
657.044	2257.67
657.491	1754.27
657.938	1410.07
658.385	1187.47
658.831	1044.47
659.278	934.57
659.724	842.37
660.171	778.77
660.618	715.67
661.064	674.97
661.511	661.87
661.957	657.87
662.404	645.17
662.85	650.77
663.296	647.17
663.743	565.37
664.189	539.07
664.635	532.27
665.082	538.27
665.528	541.47
665.974	520.77
666.42	519.67
666.867	512.67
667.313	489.27
667.759	472.67
668.205	460.97
668.651	463.17
669.097	459.27
669.543	455.37
669.989	456.87
670.435	453.07
670.881	453.77
671.327	458.27
671.773	474.87
672.219	499.67
672.665	567.37
673.11	608.07
673.556	653.87
674.002	682.57
674.448	665.37
674.893	566.37
675.339	489.57
675.785	451.47
676.23	429.87
676.676	402.37
677.122	392.97
677.567	394.07
678.013	381.27
678.458	375.57
678.904	372.87
679.349	357.07
679.794	365.17
680.24	361.27
680.685	360.27
681.131	356.47
681.576	360.27
682.021	357.37
682.466	366.87
682.912	357.97
683.357	363.17
683.802	398.37
684.247	425.57
684.692	470.57
685.137	514.67
685.583	546.47
686.028	579.97
686.473	535.17
686.918	461.07
687.363	428.57
687.807	403.07
688.252	378.27
688.697	363.97
689.142	339.07
689.587	350.57
690.032	342.57
690.477	348.67
690.921	361.17
691.366	397.37
691.811	414.17
692.255	442.47
692.7	485.07
693.145	535.77
693.589	750.27
694.034	1212.97
694.478	1628.47
694.923	1798.07
695.367	2328.17
695.812	1245.37
696.256	512.07
696.701	379.07
697.145	349.27
697.59	345.17
698.034	326.17
698.478	333.67
698.922	319.97
699.367	328.47
699.811	345.87
700.255	367.37
700.699	395.37
701.143	448.07
701.588	495.57
702.032	523.47
702.476	531.97
702.92	510.27
703.364	520.97
703.808	689.87
704.252	1113.27
704.696	1533.17
705.14	1718.37
705.584	2191.67
706.027	1103.47
706.471	543.87
706.915	413.77
707.359	361.87
707.803	330.77
708.246	324.27
708.69	322.97
709.134	315.57
709.577	323.17
710.021	326.47
710.465	318.17
710.908	311.07
711.352	307.87
711.795	316.07
712.239	360.07
712.682	394.47
713.126	427.27
713.569	470.37
714.012	372.97
714.456	322.17
714.899	291.37
715.342	282.97
715.786	267.37
716.229	268.37
716.672	271.07
717.115	253.87
717.558	260.97
718.002	251.77
718.445	270.47
718.888	288.07
719.331	297.97
719.774	319.47
720.217	312.67
720.66	291.27
721.103	273.07
721.546	259.37
721.989	257.47
722.432	236.57
722.874	246.37
723.317	232.67
723.76	241.47
724.203	259.27
724.645	330.07
725.088	474.47
725.531	598.97
725.974	657.57
726.416	569.17
726.859	320.87
727.301	249.57
727.744	249.17
728.187	241.97
728.629	255.87
729.071	253.37
729.514	268.77
729.956	280.87
730.399	289.37
730.841	301.07
731.283	280.07
731.726	278.27
732.168	264.87
732.61	273.37
733.053	290.47
733.495	325.67
733.937	369.47
734.379	413.47
734.821	454.07
735.263	588.07
735.705	900.07
736.148	1709.97
736.59	2736.37
737.032	3139.27
737.474	2556.97
737.916	849.27
738.357	446.97
738.799	345.57
739.241	311.97
739.683	294.77
740.125	299.57
740.567	304.97
741.008	328.17
741.45	331.17
741.892	335.87
742.334	363.07
742.775	374.37
743.217	354.67
743.658	285.27
744.1	272.47
744.542	284.77
744.983	332.57
745.425	362.17
745.866	350.77
746.307	286.37
746.749	286.37
747.19	340.27
747.632	485.37
748.073	963.27
748.514	2015.67
748.956	2995.07
749.397	3766.67
749.838	3123.97
750.279	3029.77
750.72	1552.97
751.162	565.97
751.603	333.97
752.044	269.07
752.485	227.07
752.926	217.97
753.367	213.07
753.808	204.37
754.249	193.77
754.69	197.47
755.131	192.17
755.572	183.77
756.013	184.97
756.453	196.17
756.894	197.87
757.335	200.07
757.776	198.37
758.216	201.07
758.657	201.67
759.098	209.37
759.538	236.37
759.979	284.27
760.42	409.67
760.86	779.67
761.301	2037.07
761.741	4774.07
762.182	6582.17
762.622	4656.27
763.063	1384.17
763.503	560.57
763.943	340.57
