Data from 20171114-ORNL-Ar_H_NY_Subt18_08-07-45-629.txt Node
Date: Tue Nov 14 08:07:45 EST 2017
User: Ender
Spectrometer: HR+D1039
Trigger mode: 0
Integration Time (sec): 2.730000E-2
Scans to average: 10
Electric dark correction enabled: true
Nonlinearity correction enabled: false
Boxcar width: 0
XAxis mode: Wavelengths
Number of Pixels in Spectrum: 2048
>>>>>Begin Spectral Data<<<<<
187.836	-4.35
188.309	-4.35
188.782	-4.35
189.255	2.45
189.728	-1.95
190.201	5.05
190.674	-3.85
191.147	-3.35
191.619	-3.15
192.092	10.35
192.565	8.05
193.038	-1.05
193.511	-3.15
193.984	-2.45
194.456	-1.85
194.929	-2.75
195.402	4.15
195.874	-2.15
196.347	1.45
196.82	-10.35
197.292	-0.25
197.765	1.85
198.237	-4.35
198.71	3.45
199.182	-1.45
199.655	0.45
200.127	7.65
200.6	0.05
201.072	-8.65
201.544	-5.75
202.017	-5.95
202.489	5.15
202.961	-5.35
203.433	-0.15
203.906	-4.25
204.378	-3.65
204.85	-6.45
205.322	-8.05
205.794	-1.75
206.266	-4.25
206.739	-4.95
207.211	-0.05
207.683	-10.55
208.155	-2.15
208.627	-4.95
209.099	-0.85
209.57	-4.65
210.042	-2.95
210.514	-6.15
210.986	0.75
211.458	-5.45
211.93	-3.55
212.402	-0.25
212.873	-3.15
213.345	-8.05
213.817	-17.15
214.288	-3.15
214.76	-12.45
215.232	-1.95
215.703	-3.05
216.175	1.05
216.646	-7.35
217.118	-3.65
217.589	-5.35
218.061	-3.25
218.532	-0.65
219.004	-0.85
219.475	-2.75
219.946	-3.95
220.418	-0.85
220.889	1.15
221.36	2.55
221.832	-2.25
222.303	-8.05
222.774	0.15
223.245	-9.75
223.717	-5.65
224.188	-5.15
224.659	-9.65
225.13	-3.15
225.601	-2.25
226.072	-1.75
226.543	-0.35
227.014	-2.75
227.485	-4.05
227.956	-0.25
228.427	-1.45
228.898	2.65
229.369	4.85
229.839	-1.05
230.31	0.15
230.781	3.45
231.252	0.35
231.722	-4.75
232.193	-2.25
232.664	-0.45
233.135	-1.95
233.605	4.75
234.076	-1.95
234.546	-1.75
235.017	1.65
235.487	-3.55
235.958	-4.05
236.428	-2.85
236.899	3.95
237.369	10.45
237.84	-2.35
238.31	3.35
238.78	6.75
239.251	-2.35
239.721	1.05
240.191	2.75
240.662	5.15
241.132	2.85
241.602	-0.25
242.072	2.05
242.542	1.55
243.013	0.05
243.483	3.85
243.953	2.85
244.423	-0.85
244.893	-1.35
245.363	-1.15
245.833	3.55
246.303	6.55
246.773	8.85
247.243	-2.65
247.712	5.95
248.182	10.15
248.652	6.05
249.122	-0.95
249.592	5.95
250.061	17.45
250.531	33.15
251.001	20.75
251.471	20.75
251.94	17.25
252.41	10.95
252.879	-3.95
253.349	10.15
253.818	4.05
254.288	4.55
254.757	5.55
255.227	-3.45
255.696	-0.95
256.166	3.95
256.635	6.85
257.105	11.15
257.574	7.95
258.043	7.55
258.513	8.15
258.982	9.95
259.451	14.15
259.92	15.65
260.389	8.95
260.859	13.25
261.328	13.15
261.797	15.65
262.266	13.25
262.735	11.75
263.204	9.45
263.673	-1.45
264.142	2.35
264.611	-0.85
265.08	1.25
265.549	5.15
266.018	-1.15
266.487	-3.55
266.955	1.65
267.424	3.15
267.893	2.45
268.362	1.25
268.83	4.55
269.299	6.65
269.768	3.35
270.236	9.35
270.705	1.95
271.174	10.95
271.642	5.75
272.111	11.75
272.579	17.05
273.048	19.05
273.516	26.35
273.985	22.65
274.453	22.45
274.922	14.55
275.39	11.25
275.858	4.95
276.327	9.65
276.795	8.95
277.263	9.65
277.731	24.05
278.2	56.35
278.668	57.15
279.136	43.05
279.604	15.15
280.072	11.95
280.54	12.35
281.008	8.55
281.477	14.65
281.945	12.65
282.413	12.35
282.881	17.25
283.348	9.35
283.816	15.35
284.284	16.55
284.752	18.15
285.22	12.75
285.688	19.15
286.156	14.65
286.623	36.65
287.091	49.05
287.559	26.95
288.026	13.55
288.494	9.15
288.962	-3.25
289.429	11.15
289.897	16.75
290.364	14.55
290.832	21.85
291.3	15.75
291.767	14.75
292.234	20.65
292.702	15.25
293.169	18.35
293.637	25.05
294.104	16.15
294.571	8.95
295.039	17.65
295.506	16.15
295.973	15.35
296.44	17.65
296.908	18.85
297.375	21.75
297.842	21.75
298.309	18.25
298.776	7.15
299.243	22.55
299.71	13.35
300.177	21.25
300.644	22.75
301.111	19.15
301.578	28.25
302.045	16.75
302.512	22.55
302.979	28.05
303.446	24.55
303.913	17.55
304.379	18.35
304.846	31.55
305.313	23.15
305.78	22.05
306.246	23.95
306.713	29.25
307.18	23.15
307.646	27.75
308.113	28.85
308.579	27.45
309.046	27.85
309.512	29.05
309.979	20.35
310.445	20.65
310.912	23.55
311.378	31.45
311.845	30.95
312.311	29.25
312.777	23.95
313.244	28.65
313.71	30.95
314.176	27.65
314.642	28.85
315.109	33.05
315.575	30.25
316.041	39.25
316.507	36.15
316.973	33.95
317.439	28.25
317.905	28.35
318.371	33.15
318.837	31.75
319.303	27.65
319.769	33.95
320.235	31.35
320.701	28.25
321.167	34.65
321.633	31.95
322.099	38.85
322.564	44.85
323.03	35.25
323.496	40.35
323.962	41.85
324.427	37.95
324.893	39.25
325.359	36.25
325.824	37.35
326.29	33.85
326.755	34.95
327.221	40.25
327.686	37.15
328.152	50.45
328.617	40.05
329.083	48.05
329.548	48.45
330.014	44.75
330.479	36.75
330.944	38.05
331.41	36.95
331.875	39.15
332.34	41.15
332.805	41.35
333.271	45.35
333.736	47.25
334.201	49.25
334.666	49.15
335.131	54.05
335.596	49.55
336.061	51.65
336.526	39.55
336.991	50.65
337.456	57.85
337.921	46.95
338.386	40.85
338.851	42.55
339.316	48.15
339.781	44.05
340.246	44.35
340.711	38.95
341.175	48.75
341.64	45.65
342.105	52.05
342.569	57.05
343.034	53.15
343.499	52.25
343.963	50.65
344.428	60.95
344.893	56.05
345.357	55.35
345.822	55.05
346.286	69.95
346.751	69.75
347.215	61.75
347.679	70.85
348.144	89.55
348.608	82.05
349.073	61.45
349.537	66.95
350.001	71.95
350.465	83.45
350.93	76.75
351.394	73.35
351.858	68.35
352.322	78.95
352.786	78.95
353.25	93.05
353.715	102.95
354.179	92.55
354.643	113.45
355.107	118.65
355.571	104.95
356.035	96.55
356.498	115.95
356.962	120.25
357.426	125.25
357.89	113.55
358.354	84.85
358.818	77.85
359.281	75.65
359.745	70.45
360.209	70.95
360.673	65.95
361.136	77.65
361.6	85.05
362.064	82.55
362.527	77.05
362.991	82.65
363.454	80.35
363.918	71.05
364.381	75.55
364.845	78.95
365.308	77.65
365.772	77.65
366.235	79.65
366.698	82.05
367.162	81.85
367.625	80.15
368.088	81.45
368.552	84.05
369.015	80.45
369.478	96.05
369.941	95.05
370.404	92.45
370.867	97.25
371.331	103.45
371.794	111.15
372.257	103.45
372.72	113.65
373.183	107.05
373.646	96.55
374.109	97.55
374.572	106.35
375.035	106.45
375.497	104.35
375.96	96.75
376.423	102.15
376.886	108.95
377.349	103.35
377.811	95.35
378.274	106.05
378.737	107.55
379.199	110.55
379.662	102.75
380.125	104.75
380.587	117.05
381.05	121.95
381.512	126.15
381.975	135.85
382.437	118.85
382.9	122.05
383.362	122.75
383.825	134.35
384.287	144.75
384.75	143.15
385.212	137.55
385.674	131.15
386.136	134.85
386.599	116.85
387.061	124.45
387.523	123.35
387.985	130.85
388.447	137.85
388.91	145.65
389.372	151.65
389.834	145.45
390.296	150.05
390.758	152.55
391.22	169.65
391.682	203.75
392.144	298.75
392.606	223.15
393.068	166.25
393.529	167.05
393.991	151.15
394.453	147.55
394.915	149.75
395.377	189.25
395.838	204.25
396.3	153.95
396.762	143.95
397.224	130.85
397.685	128.05
398.147	128.85
398.608	122.25
399.07	125.65
399.531	133.85
399.993	136.45
400.454	147.45
400.916	141.05
401.377	145.05
401.839	151.15
402.3	146.85
402.762	162.65
403.223	177.05
403.684	167.35
404.145	152.15
404.607	162.25
405.068	160.75
405.529	163.65
405.99	186.35
406.451	170.75
406.913	166.55
407.374	156.05
407.835	152.25
408.296	160.75
408.757	167.05
409.218	184.95
409.679	172.35
410.14	177.45
410.601	178.55
411.062	181.05
411.522	185.35
411.983	183.95
412.444	178.55
412.905	175.95
413.366	180.45
413.826	192.55
414.287	216.05
414.748	250.75
415.208	230.45
415.669	206.85
416.13	206.95
416.59	199.85
417.051	208.75
417.511	215.55
417.972	230.45
418.432	236.85
418.893	284.85
419.353	243.55
419.814	192.95
420.274	176.45
420.734	178.65
421.195	199.55
421.655	192.35
422.115	189.85
422.576	187.85
423.036	189.55
423.496	202.15
423.956	215.75
424.416	230.35
424.876	260.55
425.336	255.35
425.797	253.15
426.257	253.65
426.717	240.05
427.177	234.65
427.637	219.85
428.097	225.65
428.556	238.15
429.016	258.75
429.476	261.35
429.936	271.05
430.396	276.55
430.856	286.75
431.315	303.95
431.775	348.55
432.235	372.45
432.694	349.25
433.154	347.95
433.614	393.65
434.073	334.55
434.533	275.45
434.993	262.55
435.452	277.85
435.912	298.55
436.371	280.35
436.83	284.75
437.29	270.05
437.749	243.75
438.209	238.55
438.668	271.25
439.127	281.35
439.587	261.35
440.046	245.15
440.505	258.95
440.964	275.75
441.424	317.15
441.883	299.65
442.342	246.25
442.801	223.95
443.26	219.15
443.719	219.55
444.178	222.85
444.637	211.15
445.096	220.95
445.555	217.05
446.014	228.25
446.473	225.35
446.932	232.45
447.391	224.05
447.849	225.75
448.308	214.55
448.767	223.35
449.226	231.95
449.685	227.55
450.143	249.55
450.602	233.55
451.061	225.35
451.519	229.65
451.978	225.95
452.436	237.95
452.895	242.85
453.353	245.35
453.812	241.25
454.27	239.35
454.729	233.25
455.187	243.35
455.646	244.75
456.104	242.05
456.562	256.55
457.021	264.45
457.479	255.15
457.937	272.85
458.395	258.05
458.854	248.75
459.312	253.95
459.77	270.35
460.228	252.55
460.686	235.75
461.144	247.75
461.602	239.05
462.06	241.55
462.518	250.45
462.976	247.75
463.434	252.95
463.892	263.25
464.35	266.25
464.808	280.55
465.266	255.15
465.724	262.35
466.181	268.85
466.639	270.25
467.097	283.45
467.555	290.65
468.012	291.55
468.47	294.65
468.928	321.35
469.385	325.85
469.843	341.35
470.3	346.25
470.758	357.35
471.215	377.95
471.673	401.65
472.13	403.25
472.588	407.35
473.045	365.95
473.503	375.95
473.96	390.65
474.417	398.25
474.875	423.85
475.332	463.45
475.789	461.75
476.246	457.25
476.704	473.05
477.161	494.45
477.618	512.75
478.075	551.35
478.532	596.25
478.989	677.75
479.446	783.25
479.903	752.55
480.36	799.65
480.817	845.55
481.274	946.45
481.731	1058.25
482.188	1143.95
482.645	1270.65
483.102	1389.55
483.558	1518.15
484.015	1566.65
484.472	1545.55
484.929	1496.55
485.385	1443.95
485.842	1410.45
486.299	1332.85
486.755	1275.05
487.212	1082.95
487.668	913.05
488.125	842.65
488.582	775.15
489.038	733.95
489.494	692.45
489.951	679.05
490.407	654.25
490.864	643.15
491.32	628.65
491.776	635.95
492.233	630.85
492.689	607.45
493.145	590.65
493.602	587.25
494.058	608.75
494.514	599.55
494.97	626.85
495.426	638.05
495.882	610.05
496.338	596.35
496.794	609.75
497.251	614.55
497.707	626.95
498.163	628.95
498.618	627.95
499.074	631.55
499.53	659.65
499.986	662.05
500.442	653.25
500.898	621.35
501.354	614.45
501.809	620.25
502.265	636.25
502.721	661.45
503.177	661.15
503.632	649.15
504.088	667.75
504.543	695.05
504.999	693.15
505.455	651.05
505.91	626.15
506.366	623.95
506.821	614.95
507.277	612.55
507.732	625.85
508.187	606.65
508.643	628.85
509.098	626.65
509.553	639.25
510.009	657.05
510.464	662.55
510.919	679.25
511.375	679.55
511.83	693.25
512.285	711.95
512.74	745.65
513.195	766.85
513.65	761.25
514.105	753.55
514.56	762.05
515.015	782.05
515.47	794.55
515.925	778.05
516.38	778.45
516.835	781.95
517.29	776.85
517.745	758.85
518.2	740.15
518.655	745.05
519.109	730.55
519.564	739.05
520.019	717.25
520.474	712.45
520.928	710.95
521.383	710.85
521.838	708.55
522.292	707.75
522.747	693.25
523.201	696.55
523.656	685.65
524.11	688.35
524.565	684.45
525.019	684.45
525.474	684.45
525.928	693.55
526.382	675.45
526.837	686.35
527.291	689.95
527.745	684.65
528.2	680.95
528.654	685.45
529.108	681.85
529.562	688.25
530.016	677.25
530.47	680.85
530.925	683.05
531.379	684.55
531.833	691.35
532.287	701.95
532.741	686.85
533.195	692.75
533.649	706.35
534.103	713.95
534.556	690.95
535.01	704.95
535.464	696.75
535.918	709.95
536.372	705.15
536.826	712.55
537.279	699.95
537.733	702.25
538.187	702.25
538.64	710.05
539.094	718.35
539.548	716.55
540.001	720.55
540.455	719.95
540.908	725.55
541.362	727.55
541.815	734.55
542.269	746.75
542.722	751.35
543.175	762.65
543.629	763.25
544.082	780.85
544.536	775.85
544.989	768.95
545.442	778.35
545.895	781.15
546.349	789.35
546.802	782.65
547.255	792.15
547.708	791.85
548.161	810.75
548.614	805.65
549.067	819.45
549.52	797.05
549.973	799.55
550.426	798.85
550.879	778.95
551.332	792.35
551.785	801.85
552.238	803.45
552.691	812.55
553.144	825.55
553.596	843.45
554.049	847.75
554.502	888.85
554.955	899.05
555.407	908.45
555.86	886.55
556.313	880.55
556.765	876.25
557.218	869.15
557.67	875.35
558.123	864.85
558.576	860.05
559.028	866.75
559.48	872.05
559.933	868.45
560.385	839.45
560.838	798.65
561.29	772.75
561.742	774.75
562.195	760.15
562.647	755.75
563.099	768.65
563.551	761.35
564.004	775.25
564.456	772.65
564.908	752.95
565.36	738.75
565.812	728.65
566.264	716.85
566.716	713.45
567.168	709.85
567.62	725.75
568.072	697.15
568.524	685.25
568.976	690.95
569.428	676.65
569.88	665.85
570.332	677.75
570.784	675.85
571.235	676.15
571.687	688.65
572.139	697.45
572.59	708.55
573.042	705.55
573.494	705.85
573.945	695.65
574.397	683.95
574.849	684.45
575.3	686.75
575.752	675.25
576.203	670.85
576.655	679.95
577.106	668.35
577.557	660.85
578.009	666.35
578.46	655.15
578.912	659.45
579.363	663.35
579.814	660.45
580.265	652.15
580.717	667.75
581.168	667.25
581.619	669.75
582.07	673.65
582.521	663.35
582.972	671.45
583.423	673.25
583.875	679.35
584.326	692.15
584.777	746.45
585.227	816.05
585.678	917.55
586.129	1001.25
586.58	1072.65
587.031	1152.95
587.482	1315.25
587.933	1516.75
588.384	1304.45
588.834	977.55
589.285	795.75
589.736	784.35
590.186	780.75
590.637	760.45
591.088	734.85
591.538	728.65
591.989	723.05
592.439	723.85
592.89	710.15
593.34	709.95
593.791	712.95
594.241	703.85
594.692	695.05
595.142	710.85
595.593	697.15
596.043	702.25
596.493	718.35
596.943	712.05
597.394	724.35
597.844	714.85
598.294	728.15
598.744	747.45
599.195	772.75
599.645	808.85
600.095	854.05
600.545	920.45
600.995	954.55
601.445	1016.25
601.895	1086.55
602.345	1131.25
602.795	1109.55
603.245	1048.55
603.695	1012.95
604.145	950.95
604.594	904.45
605.044	846.95
605.494	788.05
605.944	746.65
606.393	738.25
606.843	721.15
607.293	732.75
607.743	726.75
608.192	741.45
608.642	758.65
609.091	759.15
609.541	769.65
609.99	769.95
610.44	760.85
610.889	726.65
611.339	699.65
611.788	686.25
612.238	707.25
612.687	719.85
613.136	719.55
613.586	739.45
614.035	737.65
614.484	752.65
614.933	751.95
615.383	754.35
615.832	746.95
616.281	720.65
616.73	689.65
617.179	663.75
617.628	653.05
618.077	637.75
618.526	624.95
618.975	617.25
619.424	616.75
619.873	613.05
620.322	614.25
620.771	610.55
621.22	602.75
621.669	596.25
622.118	588.75
622.567	576.85
623.015	579.75
623.464	579.85
623.913	564.05
624.361	549.05
624.81	545.85
625.259	558.95
625.707	548.05
626.156	557.05
626.604	573.05
627.053	562.75
627.501	559.55
627.95	566.15
628.398	575.35
628.847	569.05
629.295	570.25
629.744	576.75
630.192	565.35
630.64	566.75
631.089	565.35
631.537	577.65
631.985	594.15
632.433	608.75
632.881	614.45
633.33	664.15
633.778	639.95
634.226	576.95
634.674	569.95
635.122	588.85
635.57	602.95
636.018	635.85
636.466	579.95
636.914	545.05
637.362	573.05
637.81	584.95
638.258	576.35
638.705	581.45
639.153	614.35
639.601	628.15
640.049	645.65
640.497	666.15
640.944	687.35
641.392	643.25
641.84	611.45
642.287	587.15
642.735	562.55
643.182	571.05
643.63	569.65
644.078	579.05
644.525	595.05
644.973	603.75
645.42	605.45
645.867	625.65
646.315	643.55
646.762	659.85
647.21	697.65
647.657	711.45
648.104	738.35
648.551	763.85
648.999	840.45
649.446	920.25
649.893	1014.15
650.34	1157.95
650.787	1393.05
651.234	1729.25
651.682	2274.15
652.129	3126.65
652.576	4536.95
653.023	6666.35
653.47	9122.85
653.917	11359.25
654.363	12977.65
654.81	14280.75
655.257	13634.05
655.704	8899.95
656.151	5260.15
656.598	3411.15
657.044	2422.65
657.491	1855.25
657.938	1486.65
658.385	1238.75
658.831	1074.15
659.278	962.95
659.724	850.35
660.171	785.85
660.618	726.55
661.064	684.75
661.511	675.45
661.957	648.75
662.404	645.95
662.85	651.65
663.296	633.25
663.743	558.95
664.189	542.15
664.635	541.95
665.082	519.65
665.528	531.55
665.974	518.35
666.42	518.05
666.867	515.15
667.313	492.85
667.759	478.05
668.205	476.85
668.651	482.75
669.097	481.55
669.543	496.15
669.989	475.15
670.435	446.45
670.881	451.25
671.327	447.75
671.773	464.05
672.219	499.05
672.665	543.25
673.11	581.85
673.556	637.05
674.002	658.95
674.448	662.75
674.893	542.45
675.339	473.45
675.785	436.25
676.23	424.05
676.676	386.75
677.122	380.25
677.567	371.25
678.013	364.35
678.458	368.85
678.904	351.85
679.349	357.55
679.794	348.65
680.24	352.85
680.685	344.65
681.131	351.05
681.576	348.65
682.021	356.35
682.466	344.95
682.912	348.05
683.357	355.95
683.802	386.55
684.247	414.25
684.692	452.85
685.137	495.85
685.583	525.75
686.028	554.45
686.473	512.65
686.918	441.05
687.363	416.45
687.807	393.55
688.252	364.45
688.697	356.05
689.142	338.45
689.587	327.45
690.032	326.55
690.477	340.25
690.921	350.65
691.366	384.55
691.811	396.05
692.255	428.45
692.7	459.85
693.145	507.15
693.589	703.05
694.034	1139.55
694.478	1538.15
694.923	1717.65
695.367	2237.95
695.812	1187.75
696.256	496.25
696.701	361.95
697.145	350.45
697.59	333.75
698.034	328.45
698.478	330.45
698.922	317.95
699.367	331.55
699.811	335.05
700.255	361.95
700.699	396.75
701.143	427.05
701.588	488.75
702.032	509.55
702.476	516.45
702.92	491.25
703.364	493.05
703.808	646.55
704.252	1051.55
704.696	1456.25
705.14	1656.65
705.584	2102.25
706.027	1055.25
706.471	522.35
706.915	398.55
707.359	355.05
707.803	316.45
708.246	310.45
708.69	317.65
709.134	311.55
709.577	310.75
710.021	316.15
710.465	314.05
710.908	300.95
711.352	295.05
711.795	319.25
712.239	351.25
712.682	382.55
713.126	419.15
713.569	460.25
714.012	365.15
714.456	315.65
714.899	291.35
715.342	276.05
715.786	264.05
716.229	258.45
716.672	255.45
717.115	252.45
717.558	251.45
718.002	254.35
718.445	264.35
718.888	286.75
719.331	294.95
719.774	309.55
720.217	299.15
720.66	284.95
721.103	263.35
721.546	251.35
721.989	245.25
722.432	230.45
722.874	237.05
723.317	232.15
723.76	240.35
724.203	259.65
724.645	325.45
725.088	454.35
725.531	570.35
725.974	639.35
726.416	543.05
726.859	304.65
727.301	251.65
727.744	232.45
728.187	233.95
728.629	241.05
729.071	244.35
729.514	266.85
729.956	276.05
730.399	282.45
730.841	283.05
731.283	271.75
731.726	262.05
732.168	257.75
732.61	268.95
733.053	291.55
733.495	317.35
733.937	357.25
734.379	408.45
734.821	445.25
735.263	547.65
735.705	842.65
736.148	1602.65
736.59	2574.25
737.032	3008.05
737.474	2427.95
737.916	808.25
738.357	428.15
738.799	323.35
739.241	296.05
739.683	281.45
740.125	293.75
740.567	300.15
741.008	316.85
741.45	315.05
741.892	313.75
742.334	356.35
742.775	360.95
743.217	341.05
743.658	269.95
744.1	252.45
744.542	268.05
744.983	310.95
745.425	341.15
745.866	345.25
746.307	286.45
746.749	277.45
747.19	325.55
747.632	466.05
748.073	897.95
748.514	1887.55
748.956	2834.15
749.397	3549.75
749.838	2955.05
750.279	2904.65
750.72	1476.05
751.162	544.45
751.603	317.45
752.044	248.75
752.485	220.25
752.926	210.55
753.367	207.45
753.808	197.65
754.249	186.35
754.69	188.35
755.131	186.35
755.572	179.75
756.013	176.15
756.453	182.25
756.894	189.45
757.335	190.45
757.776	204.35
758.216	201.15
758.657	201.05
759.098	201.35
759.538	231.55
759.979	267.55
760.42	367.45
760.86	718.85
761.301	1875.95
761.741	4460.35
762.182	6311.35
