Data from 20171114-ORNL-Ar_H_NY_Subt18_08-05-47-704.txt Node
Date: Tue Nov 14 08:05:47 EST 2017
User: Ender
Spectrometer: HR+D1039
Trigger mode: 0
Integration Time (sec): 2.730000E-2
Scans to average: 10
Electric dark correction enabled: true
Nonlinearity correction enabled: false
Boxcar width: 0
XAxis mode: Wavelengths
Number of Pixels in Spectrum: 2048
>>>>>Begin Spectral Data<<<<<
187.836	-5.18
188.309	-5.18
188.782	-5.18
189.255	-2.18
189.728	-1.98
190.201	9.02
190.674	4.72
191.147	6.12
191.619	-10.18
192.092	-4.88
192.565	-2.38
193.038	1.82
193.511	4.52
193.984	0.12
194.456	1.42
194.929	-0.18
195.402	-1.58
195.874	0.72
196.347	0.42
196.82	-5.58
197.292	3.12
197.765	2.92
198.237	-7.78
198.71	0.62
199.182	-2.78
199.655	2.32
200.127	6.62
200.6	5.12
201.072	-2.38
201.544	-4.48
202.017	-2.38
202.489	6.42
202.961	-4.78
203.433	-6.38
203.906	-8.88
204.378	-2.98
204.85	-5.18
205.322	-7.58
205.794	-4.98
206.266	-1.98
206.739	-5.58
207.211	3.22
207.683	-6.28
208.155	-2.38
208.627	-1.88
209.099	-3.58
209.57	-10.48
210.042	-4.38
210.514	-2.38
210.986	-0.08
211.458	-8.18
211.93	-1.68
212.402	5.02
212.873	-5.38
213.345	-5.88
213.817	-12.28
214.288	0.02
214.76	-6.18
215.232	-0.98
215.703	-5.28
216.175	-7.78
216.646	-0.78
217.118	-10.08
217.589	-3.68
218.061	-2.08
218.532	-1.68
219.004	0.92
219.475	1.02
219.946	-2.88
220.418	-10.18
220.889	2.82
221.36	2.92
221.832	-6.98
222.303	-6.98
222.774	1.72
223.245	-3.58
223.717	-6.88
224.188	-1.38
224.659	-14.08
225.13	-8.38
225.601	-2.68
226.072	-2.78
226.543	-4.58
227.014	1.92
227.485	-3.88
227.956	-3.08
228.427	-7.48
228.898	-3.68
229.369	6.12
229.839	-3.28
230.31	-9.08
230.781	2.82
231.252	-3.48
231.722	1.32
232.193	-2.18
232.664	2.42
233.135	3.92
233.605	-3.88
234.076	-10.98
234.546	-1.38
235.017	5.82
235.487	4.22
235.958	-3.18
236.428	-1.98
236.899	9.02
237.369	-1.98
237.84	0.62
238.31	8.02
238.78	4.02
239.251	2.72
239.721	5.12
240.191	0.52
240.662	3.72
241.132	3.32
241.602	0.42
242.072	5.52
242.542	5.92
243.013	6.42
243.483	7.92
243.953	1.02
244.423	3.42
244.893	0.12
245.363	7.72
245.833	4.12
246.303	-4.68
246.773	6.12
247.243	6.92
247.712	0.52
248.182	9.32
248.652	4.52
249.122	-4.08
249.592	13.12
250.061	22.72
250.531	33.82
251.001	14.22
251.471	24.32
251.94	13.82
252.41	6.12
252.879	-2.88
253.349	12.32
253.818	9.92
254.288	2.42
254.757	2.42
255.227	-1.48
255.696	6.92
256.166	9.92
256.635	5.72
257.105	10.32
257.574	12.12
258.043	6.22
258.513	14.72
258.982	15.42
259.451	10.12
259.92	18.92
260.389	13.62
260.859	14.52
261.328	15.32
261.797	21.62
262.266	11.52
262.735	10.82
263.204	6.72
263.673	8.12
264.142	4.52
264.611	-1.58
265.08	4.42
265.549	3.92
266.018	5.12
266.487	-1.38
266.955	0.42
267.424	1.32
267.893	6.92
268.362	6.02
268.83	7.32
269.299	15.82
269.768	6.82
270.236	11.12
270.705	9.02
271.174	5.92
271.642	14.22
272.111	13.42
272.579	18.42
273.048	21.62
273.516	30.02
273.985	27.32
274.453	23.62
274.922	24.42
275.39	15.22
275.858	8.32
276.327	12.02
276.795	16.72
277.263	9.82
277.731	26.72
278.2	56.82
278.668	67.22
279.136	56.62
279.604	21.32
280.072	21.02
280.54	12.32
281.008	13.82
281.477	14.22
281.945	17.62
282.413	13.22
282.881	18.02
283.348	14.82
283.816	15.22
284.284	16.52
284.752	24.82
285.22	17.52
285.688	16.02
286.156	24.32
286.623	38.82
287.091	53.92
287.559	27.92
288.026	18.02
288.494	19.32
288.962	9.42
289.429	18.02
289.897	19.22
290.364	18.72
290.832	18.32
291.3	16.22
291.767	18.52
292.234	17.92
292.702	13.82
293.169	18.22
293.637	26.92
294.104	15.72
294.571	10.32
295.039	11.42
295.506	19.32
295.973	20.92
296.44	17.22
296.908	23.42
297.375	23.02
297.842	25.42
298.309	15.42
298.776	16.92
299.243	17.62
299.71	14.72
300.177	20.92
300.644	20.32
301.111	24.62
301.578	24.72
302.045	18.62
302.512	30.72
302.979	21.32
303.446	21.42
303.913	20.72
304.379	25.12
304.846	31.02
305.313	27.32
305.78	27.22
306.246	25.62
306.713	27.02
307.18	33.92
307.646	33.62
308.113	28.02
308.579	29.32
309.046	25.12
309.512	25.92
309.979	17.92
310.445	29.32
310.912	32.22
311.378	35.52
311.845	31.82
312.311	36.52
312.777	38.02
313.244	31.92
313.71	40.92
314.176	34.52
314.642	41.52
315.109	26.62
315.575	33.12
316.041	39.82
316.507	34.02
316.973	38.42
317.439	34.82
317.905	38.42
318.371	40.02
318.837	37.72
319.303	31.82
319.769	34.92
320.235	39.52
320.701	37.92
321.167	39.52
321.633	38.22
322.099	43.92
322.564	43.72
323.03	39.12
323.496	38.42
323.962	44.92
324.427	40.32
324.893	44.52
325.359	39.22
325.824	36.52
326.29	33.02
326.755	42.52
327.221	43.12
327.686	35.92
328.152	47.42
328.617	44.72
329.083	52.72
329.548	49.42
330.014	52.92
330.479	40.52
330.944	44.42
331.41	47.02
331.875	47.32
332.34	45.12
332.805	39.42
333.271	49.92
333.736	42.72
334.201	57.62
334.666	56.32
335.131	58.42
335.596	53.82
336.061	49.52
336.526	49.02
336.991	51.22
337.456	60.92
337.921	49.92
338.386	48.12
338.851	49.72
339.316	48.72
339.781	50.02
340.246	56.22
340.711	54.52
341.175	49.22
341.64	46.72
342.105	56.62
342.569	54.42
343.034	62.02
343.499	56.22
343.963	54.32
344.428	65.72
344.893	63.72
345.357	60.92
345.822	67.02
346.286	63.52
346.751	74.72
347.215	65.32
347.679	79.12
348.144	96.22
348.608	84.12
349.073	72.72
349.537	75.82
350.001	82.02
350.465	94.82
350.93	83.62
351.394	83.02
351.858	74.92
352.322	90.82
352.786	78.22
353.25	97.82
353.715	113.82
354.179	103.42
354.643	126.62
355.107	131.92
355.571	110.92
356.035	109.12
356.498	121.62
356.962	128.22
357.426	134.32
357.89	123.52
358.354	96.72
358.818	85.92
359.281	82.12
359.745	85.52
360.209	78.12
360.673	72.92
361.136	82.22
361.6	88.82
362.064	86.32
362.527	87.62
362.991	88.42
363.454	81.92
363.918	72.12
364.381	73.82
364.845	86.92
365.308	90.42
365.772	86.42
366.235	83.92
366.698	79.62
367.162	83.52
367.625	89.52
368.088	87.42
368.552	87.72
369.015	89.82
369.478	96.42
369.941	101.82
370.404	95.52
370.867	101.52
371.331	106.82
371.794	115.82
372.257	108.52
372.72	123.82
373.183	108.62
373.646	109.32
374.109	105.62
374.572	110.72
375.035	111.02
375.497	108.72
375.96	102.82
376.423	103.92
376.886	118.12
377.349	111.42
377.811	107.62
378.274	104.52
378.737	114.12
379.199	112.62
379.662	118.22
380.125	125.22
380.587	115.92
381.05	119.72
381.512	128.32
381.975	140.22
382.437	131.92
382.9	126.02
383.362	132.52
383.825	142.32
384.287	147.52
384.75	141.62
385.212	140.92
385.674	135.72
386.136	135.42
386.599	126.82
387.061	133.22
387.523	123.52
387.985	133.62
388.447	146.32
388.91	143.62
389.372	161.82
389.834	140.52
390.296	141.32
390.758	155.72
391.22	169.22
391.682	207.62
392.144	298.12
392.606	228.02
393.068	170.02
393.529	160.22
393.991	151.42
394.453	150.82
394.915	152.72
395.377	192.02
395.838	210.12
396.3	149.02
396.762	149.02
397.224	135.42
397.685	131.22
398.147	134.92
398.608	137.02
399.07	129.02
399.531	136.92
399.993	142.62
400.454	160.12
400.916	148.82
401.377	148.22
401.839	155.02
402.3	148.92
402.762	164.72
403.223	179.22
403.684	173.42
404.145	163.02
404.607	157.92
405.068	165.12
405.529	173.42
405.99	189.12
406.451	176.52
406.913	172.12
407.374	162.62
407.835	152.72
408.296	166.72
408.757	164.12
409.218	190.62
409.679	179.32
410.14	176.92
410.601	175.92
411.062	181.32
411.522	192.52
411.983	192.82
412.444	172.62
412.905	183.92
413.366	186.22
413.826	200.92
414.287	216.82
414.748	260.32
415.208	252.92
415.669	212.02
416.13	207.42
416.59	204.22
417.051	212.52
417.511	215.92
417.972	234.42
418.432	249.42
418.893	290.12
419.353	251.22
419.814	193.72
420.274	180.82
420.734	181.72
421.195	202.02
421.655	199.32
422.115	196.92
422.576	193.12
423.036	195.32
423.496	203.82
423.956	216.02
424.416	236.42
424.876	266.12
425.336	263.82
425.797	269.52
426.257	256.82
426.717	240.42
427.177	234.72
427.637	222.42
428.097	231.52
428.556	249.92
429.016	271.62
429.476	262.92
429.936	275.92
430.396	279.12
430.856	300.62
431.315	320.92
431.775	354.22
432.235	381.22
432.694	353.42
433.154	361.62
433.614	394.12
434.073	343.52
434.533	282.92
434.993	271.82
435.452	279.82
435.912	296.92
436.371	290.42
436.83	286.22
437.29	271.02
437.749	247.22
438.209	243.12
438.668	276.92
439.127	281.22
439.587	260.82
440.046	253.22
440.505	264.92
440.964	284.72
441.424	325.92
441.883	314.12
442.342	260.92
442.801	233.52
443.26	222.92
443.719	218.72
444.178	214.62
444.637	206.92
445.096	216.72
445.555	218.02
446.014	226.42
446.473	230.12
446.932	229.92
447.391	226.42
447.849	224.42
448.308	219.22
448.767	219.32
449.226	240.32
449.685	236.82
450.143	249.92
450.602	241.72
451.061	230.12
451.519	236.62
451.978	228.92
452.436	232.62
452.895	236.32
453.353	253.72
453.812	234.62
454.27	239.02
454.729	238.62
455.187	240.92
455.646	251.22
456.104	249.12
456.562	260.52
457.021	269.22
457.479	259.42
457.937	274.32
458.395	270.52
458.854	254.22
459.312	258.42
459.77	281.92
460.228	261.62
460.686	245.32
461.144	247.92
461.602	244.32
462.06	242.32
462.518	263.32
462.976	254.82
463.434	253.62
463.892	261.82
464.35	278.72
464.808	289.72
465.266	266.62
465.724	270.32
466.181	273.02
466.639	277.02
467.097	291.42
467.555	294.82
468.012	305.12
468.47	308.82
468.928	328.12
469.385	343.62
469.843	352.62
470.3	356.02
470.758	364.72
471.215	393.72
471.673	414.72
472.13	400.22
472.588	417.12
473.045	375.22
473.503	382.52
473.96	396.92
474.417	404.42
474.875	433.02
475.332	471.02
475.789	459.02
476.246	476.12
476.704	490.12
477.161	509.42
477.618	523.82
478.075	563.52
478.532	621.62
478.989	701.52
479.446	800.32
479.903	773.82
480.36	810.32
480.817	873.32
481.274	987.02
481.731	1080.32
482.188	1166.92
482.645	1309.22
483.102	1422.82
483.558	1557.42
484.015	1613.12
484.472	1586.12
484.929	1532.22
485.385	1480.72
485.842	1443.22
486.299	1383.02
486.755	1313.82
487.212	1107.62
487.668	927.82
488.125	855.82
488.582	789.92
489.038	750.02
489.494	722.32
489.951	695.22
490.407	678.02
490.864	658.02
491.32	632.42
491.776	646.02
492.233	647.92
492.689	616.12
493.145	610.22
493.602	600.62
494.058	610.42
494.514	624.52
494.97	639.12
495.426	657.32
495.882	631.42
496.338	615.82
496.794	628.32
497.251	620.72
497.707	636.32
498.163	644.52
498.618	654.32
499.074	655.32
499.53	686.32
499.986	684.52
500.442	647.22
500.898	628.42
501.354	625.62
501.809	649.92
502.265	648.22
502.721	662.62
503.177	684.52
503.632	673.32
504.088	679.72
504.543	706.62
504.999	718.52
505.455	666.22
505.91	637.22
506.366	628.42
506.821	630.52
507.277	623.92
507.732	623.92
508.187	624.42
508.643	636.82
509.098	643.42
509.553	659.52
510.009	666.22
510.464	668.32
510.919	697.62
511.375	697.92
511.83	707.82
512.285	724.72
512.74	764.52
513.195	789.52
513.65	784.52
514.105	777.72
514.56	773.42
515.015	796.52
515.47	814.62
515.925	798.82
516.38	790.92
516.835	809.82
517.29	783.52
517.745	788.72
518.2	767.72
518.655	749.82
519.109	752.82
519.564	753.62
520.019	745.12
520.474	731.62
520.928	731.72
521.383	720.02
521.838	717.12
522.292	714.42
522.747	712.92
523.201	705.62
523.656	703.52
524.11	696.82
524.565	696.02
525.019	693.12
525.474	699.92
525.928	701.92
526.382	689.72
526.837	697.82
527.291	706.82
527.745	703.52
528.2	702.02
528.654	693.22
529.108	696.62
529.562	699.62
530.016	700.22
530.47	693.32
530.925	691.12
531.379	705.22
531.833	718.22
532.287	710.22
532.741	699.52
533.195	710.12
533.649	723.42
534.103	726.62
534.556	702.42
535.01	716.22
535.464	711.22
535.918	718.02
536.372	729.72
536.826	715.12
537.279	723.62
537.733	718.42
538.187	708.62
538.64	718.72
539.094	735.92
539.548	734.32
540.001	725.62
540.455	732.62
540.908	716.92
541.362	745.92
541.815	754.62
542.269	762.82
542.722	761.32
543.175	765.12
543.629	762.22
544.082	788.02
544.536	785.82
544.989	784.92
545.442	793.12
545.895	783.02
546.349	791.72
546.802	793.52
547.255	798.42
547.708	810.82
548.161	815.32
548.614	826.42
549.067	819.72
549.52	823.62
549.973	812.32
550.426	809.22
550.879	794.72
551.332	797.92
551.785	812.42
552.238	809.92
552.691	810.82
553.144	837.72
553.596	849.72
554.049	863.42
554.502	899.62
554.955	923.12
555.407	912.52
555.86	911.62
556.313	897.62
556.765	888.62
557.218	885.92
557.67	895.22
558.123	878.12
558.576	873.92
559.028	885.72
559.48	892.12
559.933	869.82
560.385	829.62
560.838	805.42
561.29	782.32
561.742	777.92
562.195	762.42
562.647	756.62
563.099	773.12
563.551	767.92
564.004	772.72
564.456	776.22
564.908	769.42
565.36	737.82
565.812	732.52
566.264	723.52
566.716	726.72
567.168	705.62
567.62	723.42
568.072	697.72
568.524	690.22
568.976	692.52
569.428	669.82
569.88	681.12
570.332	672.12
570.784	678.22
571.235	677.72
571.687	693.52
572.139	699.42
572.59	714.52
573.042	706.52
573.494	701.22
573.945	703.22
574.397	686.92
574.849	683.72
575.3	689.72
575.752	684.12
576.203	675.72
576.655	682.22
577.106	667.12
577.557	660.62
578.009	671.32
578.46	670.32
578.912	662.42
579.363	669.92
579.814	672.92
580.265	660.52
580.717	674.92
581.168	671.12
581.619	681.02
582.07	677.82
582.521	675.62
582.972	671.62
583.423	682.32
583.875	676.82
584.326	699.52
584.777	742.92
585.227	803.42
585.678	900.22
586.129	995.22
586.58	1066.72
587.031	1138.62
587.482	1297.02
587.933	1472.22
588.384	1272.52
588.834	968.62
589.285	799.62
589.736	771.92
590.186	764.12
590.637	761.62
591.088	742.02
591.538	731.12
591.989	728.12
592.439	707.12
592.89	717.12
593.34	709.02
593.791	706.72
594.241	702.22
594.692	699.02
595.142	689.52
595.593	696.02
596.043	699.32
596.493	700.62
596.943	705.32
597.394	721.12
597.844	705.02
598.294	728.02
598.744	742.52
599.195	770.42
599.645	810.22
600.095	862.82
600.545	904.72
600.995	964.92
601.445	1007.82
601.895	1076.22
602.345	1123.92
602.795	1107.62
603.245	1061.02
603.695	992.12
604.145	948.32
604.594	903.82
605.044	861.42
605.494	793.02
605.944	739.22
606.393	728.02
606.843	729.82
607.293	716.12
607.743	717.92
608.192	743.02
608.642	746.52
609.091	757.62
609.541	758.72
609.99	757.92
610.44	749.52
610.889	710.82
611.339	692.62
611.788	678.52
612.238	693.82
612.687	711.62
613.136	712.82
613.586	726.02
614.035	729.32
614.484	763.02
614.933	753.92
615.383	735.72
615.832	732.52
616.281	714.92
616.73	673.42
617.179	655.72
617.628	629.02
618.077	631.82
618.526	612.42
618.975	601.82
619.424	614.02
619.873	607.72
620.322	613.62
620.771	598.42
621.22	592.42
621.669	592.62
622.118	579.72
622.567	573.42
623.015	567.62
623.464	565.42
623.913	553.42
624.361	537.42
624.81	544.02
625.259	542.92
625.707	539.02
626.156	548.12
626.604	555.42
627.053	548.82
627.501	554.42
627.95	560.42
628.398	574.82
628.847	567.62
629.295	560.22
629.744	562.72
630.192	554.52
630.64	554.42
631.089	559.62
631.537	570.02
631.985	577.82
632.433	581.92
632.881	587.72
633.33	652.42
633.778	625.72
634.226	554.22
634.674	569.72
635.122	572.12
635.57	592.82
636.018	610.92
636.466	570.42
636.914	548.32
637.362	562.32
637.81	562.92
638.258	570.92
638.705	561.92
639.153	597.02
639.601	618.12
640.049	629.22
640.497	663.12
640.944	682.12
641.392	634.72
641.84	606.42
642.287	576.12
642.735	556.82
643.182	558.92
643.63	567.22
644.078	565.82
644.525	587.22
644.973	581.22
645.42	595.02
645.867	608.82
646.315	622.72
646.762	648.02
647.21	674.02
647.657	694.72
648.104	736.52
648.551	751.52
648.999	820.82
649.446	897.22
649.893	975.72
650.34	1145.12
650.787	1369.42
651.234	1681.72
651.682	2190.02
652.129	3011.02
652.576	4320.32
653.023	6424.32
653.47	8773.52
653.917	11011.62
654.363	12760.63
654.81	14165.23
655.257	13499.93
655.704	8817.33
656.151	5211.52
656.598	3372.32
657.044	2372.12
657.491	1834.52
657.938	1467.52
658.385	1228.32
658.831	1055.92
659.278	950.52
659.724	834.12
660.171	780.02
660.618	719.62
661.064	678.92
661.511	647.62
661.957	636.52
662.404	637.42
662.85	640.92
663.296	602.62
663.743	547.82
664.189	521.72
664.635	517.22
665.082	505.72
665.528	504.42
665.974	501.02
666.42	504.72
666.867	493.62
667.313	466.22
667.759	473.42
668.205	467.82
668.651	473.82
669.097	469.62
669.543	483.72
669.989	457.52
670.435	434.52
670.881	430.12
671.327	431.82
671.773	458.32
672.219	480.52
672.665	525.22
673.11	566.92
673.556	605.12
674.002	647.52
674.448	636.62
674.893	539.82
675.339	463.22
675.785	426.92
676.23	411.42
676.676	387.22
677.122	376.72
677.567	364.72
678.013	361.02
678.458	352.02
678.904	347.12
679.349	342.92
679.794	347.52
680.24	338.12
680.685	339.32
681.131	338.82
681.576	341.32
682.021	346.42
682.466	338.02
682.912	332.02
683.357	341.72
683.802	368.82
684.247	394.52
684.692	443.82
685.137	481.02
685.583	518.62
686.028	540.62
686.473	499.42
686.918	429.22
687.363	400.02
687.807	382.12
688.252	357.72
688.697	344.92
689.142	328.62
689.587	314.72
690.032	316.42
690.477	331.32
690.921	340.92
691.366	360.62
691.811	391.82
692.255	415.92
692.7	447.02
693.145	482.92
693.589	665.72
694.034	1064.72
694.478	1466.02
694.923	1676.02
695.367	2205.32
695.812	1150.32
696.256	481.22
696.701	354.82
697.145	334.62
697.59	316.22
698.034	305.92
698.478	317.92
698.922	316.62
699.367	319.82
699.811	335.02
700.255	352.12
700.699	372.82
701.143	417.52
701.588	458.82
702.032	495.62
702.476	487.02
702.92	473.32
703.364	472.72
703.808	608.42
704.252	980.52
704.696	1384.82
705.14	1616.22
705.584	2046.52
706.027	1027.62
706.471	496.92
706.915	376.92
707.359	332.92
707.803	300.22
708.246	306.42
708.69	300.72
709.134	301.62
709.577	304.62
710.021	308.52
710.465	298.52
710.908	290.82
711.352	290.42
711.795	298.92
712.239	341.62
712.682	367.22
713.126	394.12
713.569	451.42
714.012	355.12
714.456	320.02
714.899	298.92
715.342	272.72
715.786	254.62
716.229	247.32
716.672	244.42
717.115	247.72
717.558	229.62
718.002	241.32
718.445	251.02
718.888	274.82
719.331	279.42
719.774	293.02
720.217	283.32
720.66	267.82
721.103	255.62
721.546	249.12
721.989	241.62
722.432	228.02
722.874	223.82
723.317	224.62
723.76	228.52
724.203	251.02
724.645	298.52
725.088	426.82
725.531	542.42
725.974	621.02
726.416	522.62
726.859	297.72
727.301	236.52
727.744	232.12
728.187	229.92
728.629	228.22
729.071	237.02
729.514	247.52
729.956	261.22
730.399	277.52
730.841	279.12
731.283	266.82
731.726	251.62
732.168	246.32
732.61	258.12
733.053	269.02
733.495	308.32
733.937	338.82
734.379	373.62
734.821	417.62
735.263	518.62
735.705	784.72
736.148	1481.62
736.59	2451.32
737.032	2929.22
737.474	2404.72
737.916	777.02
738.357	412.82
738.799	316.92
739.241	290.62
739.683	272.42
740.125	280.02
740.567	287.02
741.008	305.62
741.45	301.72
741.892	300.42
742.334	338.82
742.775	349.82
743.217	332.72
743.658	263.12
744.1	246.92
744.542	247.62
744.983	298.72
745.425	330.62
745.866	329.72
746.307	276.72
746.749	267.92
747.19	304.32
747.632	438.32
748.073	816.02
748.514	1744.12
748.956	2732.82
749.397	3417.53
749.838	2817.52
750.279	2861.72
750.72	1442.52
751.162	521.22
751.603	309.32
752.044	246.62
752.485	210.52
752.926	202.42
753.367	200.12
753.808	188.72
754.249	181.82
754.69	179.42
755.131	174.72
755.572	178.02
756.013	168.62
756.453	174.42
756.894	179.12
757.335	183.22
757.776	188.42
758.216	186.62
758.657	196.12
759.098	194.02
759.538	213.22
759.979	254.62
760.42	353.42
760.86	658.32
761.301	1700.02
761.741	4151.82
762.182	6187.82
