Data from 20171114-ORNL-Ar_H_NY_Subt18_08-07-11-781.txt Node
Date: Tue Nov 14 08:07:11 EST 2017
User: Ender
Spectrometer: HR+D1039
Trigger mode: 0
Integration Time (sec): 2.730000E-2
Scans to average: 10
Electric dark correction enabled: true
Nonlinearity correction enabled: false
Boxcar width: 0
XAxis mode: Wavelengths
Number of Pixels in Spectrum: 2048
>>>>>Begin Spectral Data<<<<<
187.836	-1.26
188.309	-1.26
188.782	-1.26
189.255	0.94
189.728	-3.16
190.201	3.64
190.674	0.94
191.147	2.24
191.619	-10.26
192.092	3.24
192.565	8.24
193.038	-2.66
193.511	1.14
193.984	1.54
194.456	-4.16
194.929	-2.26
195.402	-0.86
195.874	2.64
196.347	-4.16
196.82	-6.16
197.292	4.04
197.765	-2.46
198.237	-7.86
198.71	2.94
199.182	-2.16
199.655	-0.26
200.127	4.14
200.6	0.64
201.072	-2.46
201.544	-2.56
202.017	-1.46
202.489	4.94
202.961	-4.66
203.433	-6.26
203.906	-8.26
204.378	-5.66
204.85	-4.76
205.322	-5.56
205.794	-2.96
206.266	-3.66
206.739	-3.76
207.211	2.84
207.683	-4.46
208.155	-3.46
208.627	-14.36
209.099	-6.56
209.57	-7.56
210.042	-13.96
210.514	-4.66
210.986	-0.96
211.458	-4.76
211.93	-5.76
212.402	-1.56
212.873	-5.06
213.345	-10.26
213.817	-12.86
214.288	-2.86
214.76	-10.86
215.232	-4.66
215.703	-8.56
216.175	-1.26
216.646	-5.26
217.118	-8.46
217.589	-8.16
218.061	-4.06
218.532	-7.66
219.004	-3.46
219.475	-5.86
219.946	-2.06
220.418	-11.76
220.889	-0.16
221.36	1.84
221.832	-7.96
222.303	-10.36
222.774	-5.16
223.245	-6.86
223.717	-6.96
224.188	-5.26
224.659	-8.66
225.13	-8.36
225.601	-0.56
226.072	2.24
226.543	-3.96
227.014	5.04
227.485	-1.86
227.956	-11.56
228.427	-0.06
228.898	-1.66
229.369	-1.86
229.839	-10.96
230.31	-6.36
230.781	-3.86
231.252	-6.46
231.722	-9.16
232.193	-4.66
232.664	0.04
233.135	-6.86
233.605	-9.86
234.076	-8.76
234.546	-2.76
235.017	-0.86
235.487	-6.56
235.958	-6.86
236.428	-6.66
236.899	-7.46
237.369	-3.06
237.84	-8.76
238.31	-8.26
238.78	-3.76
239.251	-8.56
239.721	-8.36
240.191	-3.56
240.662	-1.96
241.132	-6.46
241.602	-6.66
242.072	-2.46
242.542	3.04
243.013	-5.16
243.483	-0.16
243.953	-3.76
244.423	-7.96
244.893	-7.86
245.363	-0.36
245.833	-1.26
246.303	-5.26
246.773	-1.16
247.243	-2.06
247.712	-9.16
248.182	-3.36
248.652	-0.56
249.122	-8.36
249.592	2.04
250.061	-1.26
250.531	5.34
251.001	-1.86
251.471	4.14
251.94	4.34
252.41	-6.26
252.879	-8.56
253.349	4.04
253.818	2.94
254.288	-8.16
254.757	-2.46
255.227	-6.56
255.696	-2.56
256.166	1.94
256.635	0.24
257.105	1.04
257.574	-7.26
258.043	-2.16
258.513	-5.96
258.982	2.84
259.451	-10.06
259.92	-0.66
260.389	-1.26
260.859	8.94
261.328	-3.66
261.797	1.54
262.266	-4.96
262.735	6.24
263.204	0.24
263.673	-5.56
264.142	-0.76
264.611	-10.16
265.08	-7.26
265.549	-2.36
266.018	-0.76
266.487	-3.56
266.955	-4.36
267.424	-1.86
267.893	-1.56
268.362	-4.46
268.83	-4.26
269.299	6.34
269.768	-0.36
270.236	-2.26
270.705	-3.56
271.174	-3.86
271.642	-1.16
272.111	0.34
272.579	-1.56
273.048	0.94
273.516	-0.86
273.985	0.64
274.453	1.44
274.922	7.24
275.39	0.04
275.858	-6.36
276.327	2.44
276.795	4.54
277.263	-0.46
277.731	9.64
278.2	4.64
278.668	3.24
279.136	4.44
279.604	-0.56
280.072	1.64
280.54	5.64
281.008	7.44
281.477	5.14
281.945	3.04
282.413	10.74
282.881	0.64
283.348	3.84
283.816	9.34
284.284	8.94
284.752	12.24
285.22	6.04
285.688	6.84
286.156	2.54
286.623	10.44
287.091	-2.86
287.559	6.24
288.026	11.94
288.494	7.34
288.962	-4.26
289.429	3.84
289.897	15.44
290.364	13.94
290.832	9.14
291.3	11.94
291.767	8.24
292.234	9.84
292.702	7.54
293.169	9.44
293.637	18.44
294.104	5.14
294.571	0.34
295.039	4.84
295.506	7.54
295.973	10.14
296.44	4.04
296.908	5.94
297.375	2.54
297.842	17.14
298.309	9.84
298.776	5.54
299.243	14.84
299.71	1.94
300.177	13.44
300.644	11.04
301.111	13.34
301.578	17.64
302.045	8.74
302.512	12.94
302.979	20.74
303.446	13.14
303.913	13.54
304.379	12.34
304.846	17.54
305.313	20.74
305.78	14.64
306.246	20.94
306.713	22.64
307.18	15.74
307.646	18.14
308.113	17.94
308.579	18.24
309.046	12.44
309.512	18.84
309.979	14.64
310.445	20.74
310.912	17.04
311.378	18.44
311.845	22.64
312.311	19.84
312.777	24.84
313.244	22.74
313.71	30.34
314.176	18.44
314.642	19.54
315.109	18.34
315.575	28.24
316.041	28.84
316.507	23.14
316.973	30.64
317.439	17.64
317.905	27.34
318.371	20.64
318.837	16.44
319.303	25.14
319.769	27.24
320.235	23.44
320.701	19.84
321.167	28.84
321.633	21.34
322.099	25.94
322.564	28.24
323.03	24.74
323.496	21.84
323.962	30.24
324.427	26.14
324.893	31.24
325.359	32.24
325.824	29.94
326.29	26.64
326.755	24.94
327.221	28.04
327.686	28.64
328.152	38.64
328.617	33.34
329.083	32.64
329.548	40.74
330.014	40.84
330.479	29.64
330.944	28.44
331.41	36.44
331.875	40.44
332.34	38.24
332.805	35.54
333.271	40.44
333.736	25.84
334.201	37.54
334.666	40.34
335.131	44.54
335.596	38.84
336.061	34.94
336.526	32.34
336.991	32.64
337.456	47.74
337.921	36.54
338.386	35.54
338.851	38.64
339.316	39.34
339.781	44.94
340.246	44.74
340.711	35.74
341.175	37.54
341.64	34.04
342.105	42.24
342.569	46.34
343.034	49.24
343.499	44.04
343.963	44.94
344.428	52.34
344.893	51.04
345.357	44.04
345.822	54.64
346.286	56.24
346.751	55.44
347.215	50.94
347.679	57.04
348.144	71.64
348.608	60.44
349.073	56.44
349.537	57.64
350.001	62.34
350.465	74.24
350.93	64.94
351.394	66.44
351.858	59.74
352.322	68.34
352.786	65.44
353.25	75.74
353.715	84.94
354.179	84.04
354.643	93.84
355.107	96.04
355.571	85.14
356.035	81.54
356.498	89.64
356.962	89.34
357.426	101.74
357.89	91.74
358.354	77.54
358.818	68.44
359.281	64.44
359.745	68.54
360.209	65.14
360.673	64.04
361.136	65.34
361.6	75.74
362.064	62.54
362.527	73.14
362.991	77.54
363.454	67.54
363.918	67.94
364.381	69.54
364.845	74.74
365.308	75.04
365.772	74.44
366.235	72.24
366.698	76.84
367.162	70.84
367.625	71.14
368.088	75.34
368.552	77.34
369.015	74.44
369.478	84.04
369.941	94.74
370.404	83.14
370.867	86.04
371.331	89.64
371.794	93.84
372.257	85.94
372.72	89.44
373.183	90.74
373.646	77.64
374.109	87.54
374.572	85.84
375.035	86.44
375.497	85.24
375.96	94.94
376.423	95.44
376.886	101.14
377.349	99.04
377.811	86.34
378.274	94.74
378.737	93.94
379.199	92.44
379.662	94.54
380.125	102.94
380.587	90.74
381.05	91.14
381.512	98.04
381.975	113.84
382.437	102.84
382.9	98.24
383.362	111.44
383.825	121.34
384.287	114.34
384.75	110.54
385.212	111.74
385.674	115.44
386.136	113.54
386.599	106.44
387.061	109.24
387.523	115.44
387.985	114.74
388.447	127.84
388.91	114.74
389.372	118.14
389.834	121.94
390.296	113.84
390.758	117.54
391.22	118.44
391.682	133.44
392.144	138.64
392.606	132.04
393.068	130.24
393.529	133.24
393.991	136.24
394.453	120.64
394.915	121.64
395.377	121.84
395.838	122.74
396.3	127.54
396.762	130.54
397.224	124.64
397.685	120.34
398.147	127.64
398.608	119.24
399.07	121.04
399.531	122.94
399.993	135.34
400.454	146.34
400.916	137.54
401.377	136.04
401.839	153.74
402.3	140.94
402.762	157.14
403.223	164.94
403.684	163.24
404.145	156.44
404.607	151.44
405.068	152.44
405.529	159.14
405.99	177.24
406.451	163.04
406.913	163.44
407.374	160.14
407.835	152.34
408.296	157.04
408.757	158.44
409.218	181.34
409.679	172.94
410.14	166.84
410.601	169.14
411.062	174.64
411.522	173.44
411.983	174.04
412.444	167.04
412.905	170.74
413.366	182.44
413.826	193.94
414.287	216.14
414.748	262.04
415.208	248.84
415.669	217.64
416.13	203.94
416.59	199.84
417.051	210.14
417.511	220.74
417.972	238.74
418.432	247.64
418.893	276.14
419.353	247.44
419.814	197.24
420.274	183.84
420.734	170.24
421.195	187.74
421.655	184.54
422.115	188.04
422.576	192.54
423.036	187.44
423.496	208.24
423.956	213.34
424.416	230.04
424.876	265.34
425.336	262.84
425.797	259.14
426.257	247.64
426.717	236.44
427.177	227.04
427.637	210.44
428.097	231.74
428.556	235.54
429.016	257.94
429.476	250.74
429.936	261.74
430.396	265.24
430.856	271.14
431.315	299.54
431.775	336.54
432.235	365.64
432.694	336.84
433.154	344.14
433.614	370.44
434.073	331.94
434.533	277.34
434.993	267.54
435.452	273.74
435.912	275.74
436.371	275.94
436.83	269.74
437.29	255.74
437.749	237.44
438.209	240.44
438.668	266.64
439.127	287.74
439.587	263.34
440.046	242.04
440.505	254.84
440.964	269.84
441.424	306.94
441.883	295.64
442.342	254.54
442.801	224.74
443.26	224.54
443.719	218.64
444.178	220.54
444.637	210.34
445.096	225.04
445.555	225.34
446.014	229.94
446.473	228.74
446.932	240.74
447.391	230.14
447.849	235.94
448.308	223.04
448.767	223.24
449.226	235.84
449.685	238.54
450.143	255.74
450.602	248.14
451.061	242.04
451.519	241.94
451.978	230.84
452.436	228.64
452.895	236.24
453.353	256.34
453.812	241.54
454.27	241.74
454.729	253.14
455.187	243.04
455.646	248.24
456.104	250.44
456.562	262.04
457.021	270.84
457.479	267.34
457.937	282.24
458.395	269.84
458.854	252.24
459.312	257.84
459.77	282.54
460.228	264.24
460.686	255.94
461.144	252.64
461.602	255.24
462.06	245.94
462.518	260.74
462.976	257.44
463.434	262.44
463.892	273.84
464.35	267.34
464.808	299.94
465.266	275.24
465.724	281.74
466.181	278.14
466.639	281.24
467.097	294.74
467.555	315.84
468.012	310.74
468.47	319.74
468.928	333.04
469.385	340.74
469.843	360.74
470.3	358.04
470.758	361.14
471.215	389.64
471.673	412.24
472.13	417.34
472.588	427.64
473.045	384.14
473.503	395.84
473.96	406.34
474.417	409.64
474.875	437.84
475.332	480.14
475.789	465.14
476.246	473.64
476.704	498.14
477.161	521.64
477.618	530.54
478.075	560.44
478.532	617.74
478.989	677.84
479.446	799.84
479.903	759.74
480.36	789.24
480.817	831.24
481.274	926.14
481.731	1004.64
482.188	1093.04
482.645	1210.44
483.102	1296.94
483.558	1409.74
484.015	1461.44
484.472	1445.34
484.929	1397.54
485.385	1355.44
485.842	1340.74
486.299	1284.24
486.755	1238.84
487.212	1052.34
487.668	893.24
488.125	831.94
488.582	766.64
489.038	743.34
489.494	710.34
489.951	691.74
490.407	676.64
490.864	653.54
491.32	645.24
491.776	651.94
492.233	657.84
492.689	625.64
493.145	622.94
493.602	606.94
494.058	624.04
494.514	627.24
494.97	654.44
495.426	669.74
495.882	644.04
496.338	640.04
496.794	641.04
497.251	625.14
497.707	636.94
498.163	646.54
498.618	652.94
499.074	657.24
499.53	690.84
499.986	678.84
500.442	652.34
500.898	644.24
501.354	630.14
501.809	631.84
502.265	636.64
502.721	652.34
503.177	655.74
503.632	663.34
504.088	669.64
504.543	681.54
504.999	705.44
505.455	673.44
505.91	658.04
506.366	651.94
506.821	651.54
507.277	658.44
507.732	651.14
508.187	651.04
508.643	666.14
509.098	653.14
509.553	681.54
510.009	702.54
510.464	700.14
510.919	724.84
511.375	712.94
511.83	733.14
512.285	742.74
512.74	776.44
513.195	807.74
513.65	799.34
514.105	791.94
514.56	793.04
515.015	815.24
515.47	824.34
515.925	815.44
516.38	811.04
516.835	820.64
517.29	811.34
517.745	803.64
518.2	786.94
518.655	775.64
519.109	775.94
519.564	775.84
520.019	760.94
520.474	747.84
520.928	761.74
521.383	746.04
521.838	730.24
522.292	735.44
522.747	734.64
523.201	735.84
523.656	736.54
524.11	726.24
524.565	721.84
525.019	712.54
525.474	729.44
525.928	726.44
526.382	721.54
526.837	726.94
527.291	728.34
527.745	729.34
528.2	731.34
528.654	713.54
529.108	706.04
529.562	712.04
530.016	708.94
530.47	708.14
530.925	722.74
531.379	719.14
531.833	724.34
532.287	719.84
532.741	722.84
533.195	719.04
533.649	735.04
534.103	739.34
534.556	744.74
535.01	731.84
535.464	732.94
535.918	739.04
536.372	739.94
536.826	743.84
537.279	726.14
537.733	734.64
538.187	740.24
538.64	735.04
539.094	737.64
539.548	756.44
540.001	754.34
540.455	760.54
540.908	755.74
541.362	759.84
541.815	767.14
542.269	780.54
542.722	788.44
543.175	798.44
543.629	801.54
544.082	816.84
544.536	812.24
544.989	813.64
545.442	825.64
545.895	824.84
546.349	822.04
546.802	824.74
547.255	830.14
547.708	835.94
548.161	858.14
548.614	859.54
549.067	862.94
549.52	848.74
549.973	832.04
550.426	843.74
550.879	835.44
551.332	829.74
551.785	835.44
552.238	844.24
552.691	854.24
553.144	870.14
553.596	882.14
554.049	895.64
554.502	922.54
554.955	948.34
555.407	941.44
555.86	939.24
556.313	939.14
556.765	924.64
557.218	915.24
557.67	904.24
558.123	911.04
558.576	912.04
559.028	914.44
559.48	912.74
559.933	912.74
560.385	880.04
560.838	848.24
561.29	823.04
561.742	817.84
562.195	797.04
562.647	800.44
563.099	806.84
563.551	798.74
564.004	813.24
564.456	796.64
564.908	784.44
565.36	765.34
565.812	764.24
566.264	740.14
566.716	740.24
567.168	739.64
567.62	745.54
568.072	719.94
568.524	723.34
568.976	719.44
569.428	696.64
569.88	709.24
570.332	706.24
570.784	709.14
571.235	715.74
571.687	706.24
572.139	726.84
572.59	736.54
573.042	736.64
573.494	737.94
573.945	734.54
574.397	714.54
574.849	716.84
575.3	729.34
575.752	709.04
576.203	706.34
576.655	708.84
577.106	695.04
577.557	694.64
578.009	696.64
578.46	691.64
578.912	678.04
579.363	694.54
579.814	691.74
580.265	692.34
580.717	692.34
581.168	700.54
581.619	694.74
582.07	699.24
582.521	698.54
582.972	698.54
583.423	705.94
583.875	691.84
584.326	703.64
584.777	715.94
585.227	738.64
585.678	742.14
586.129	754.34
586.58	775.14
587.031	790.94
587.482	818.04
587.933	839.84
588.384	819.74
588.834	793.44
589.285	796.94
589.736	793.84
590.186	802.64
590.637	786.14
591.088	764.54
591.538	760.84
591.989	764.44
592.439	746.34
592.89	735.44
593.34	724.34
593.791	724.44
594.241	730.24
594.692	719.54
595.142	722.94
595.593	715.74
596.043	721.04
596.493	728.54
596.943	730.54
597.394	741.54
597.844	745.44
598.294	757.84
598.744	780.24
599.195	803.54
599.645	842.44
600.095	889.64
600.545	947.84
600.995	989.24
601.445	1055.54
601.895	1128.34
602.345	1168.84
602.795	1164.84
603.245	1106.34
603.695	1053.44
604.145	986.34
604.594	949.04
605.044	896.54
605.494	826.14
605.944	783.74
606.393	767.14
606.843	756.04
607.293	754.54
607.743	753.04
608.192	762.34
608.642	776.24
609.091	774.64
609.541	783.84
609.99	781.94
610.44	786.04
610.889	741.64
611.339	718.54
611.788	697.04
612.238	721.94
612.687	720.34
613.136	707.04
613.586	733.84
614.035	717.04
614.484	736.44
614.933	733.84
615.383	719.74
615.832	723.84
616.281	714.54
616.73	675.34
617.179	674.54
617.628	662.34
618.077	648.84
618.526	638.04
618.975	633.24
619.424	631.54
619.873	631.64
620.322	635.14
620.771	620.64
621.22	613.24
621.669	607.14
622.118	597.04
622.567	596.14
623.015	582.64
623.464	586.04
623.913	573.14
624.361	563.44
624.81	559.54
625.259	559.64
625.707	565.54
626.156	560.44
626.604	578.84
627.053	576.44
627.501	577.34
627.95	592.54
628.398	595.74
628.847	579.04
629.295	591.34
629.744	578.14
630.192	572.14
630.64	574.54
631.089	560.34
631.537	559.04
631.985	542.24
632.433	538.54
632.881	530.54
633.33	533.94
633.778	535.84
634.226	541.24
634.674	548.14
635.122	557.94
635.57	568.54
636.018	566.64
636.466	579.34
636.914	575.04
637.362	586.24
637.81	591.84
638.258	596.34
638.705	604.84
639.153	628.94
639.601	633.84
640.049	656.84
640.497	686.94
640.944	713.24
641.392	658.74
641.84	634.14
642.287	598.54
642.735	577.24
643.182	572.34
643.63	571.84
644.078	578.14
644.525	584.84
644.973	588.54
645.42	602.34
645.867	619.74
646.315	642.24
646.762	667.44
647.21	699.74
647.657	713.94
648.104	741.54
648.551	762.04
648.999	827.34
649.446	900.54
649.893	983.84
650.34	1119.74
650.787	1334.94
651.234	1637.04
651.682	2106.24
652.129	2857.44
652.576	4046.34
653.023	5896.04
653.47	7992.84
653.917	9958.44
654.363	11436.14
654.81	12623.24
655.257	11985.54
655.704	7926.74
656.151	4754.34
656.598	3145.24
657.044	2256.94
657.491	1752.14
657.938	1408.74
658.385	1195.04
658.831	1038.24
659.278	939.94
659.724	837.34
660.171	779.14
660.618	714.24
661.064	694.14
661.511	667.64
661.957	655.44
662.404	641.14
662.85	645.64
663.296	633.04
663.743	567.74
664.189	542.14
664.635	539.34
665.082	539.74
665.528	540.34
665.974	529.54
666.42	518.14
666.867	514.64
667.313	500.14
667.759	479.34
668.205	456.94
668.651	464.34
669.097	458.24
669.543	453.14
669.989	442.14
670.435	461.04
670.881	448.54
671.327	460.84
671.773	480.34
672.219	501.54
672.665	555.04
673.11	593.74
673.556	645.14
674.002	693.84
674.448	677.44
674.893	555.14
675.339	489.84
675.785	453.34
676.23	427.44
676.676	405.14
677.122	395.54
677.567	378.24
678.013	381.24
678.458	367.54
678.904	375.54
679.349	367.44
679.794	369.34
680.24	367.24
680.685	367.14
681.131	362.34
681.576	357.24
682.021	366.94
682.466	361.64
682.912	353.14
683.357	365.94
683.802	393.44
684.247	424.84
684.692	466.64
685.137	513.34
685.583	548.14
686.028	583.84
686.473	536.24
686.918	458.34
687.363	429.94
687.807	403.94
688.252	381.44
688.697	372.14
689.142	345.54
689.587	343.34
690.032	332.04
690.477	349.34
690.921	365.24
691.366	393.84
691.811	418.64
692.255	434.74
692.7	472.54
693.145	527.54
693.589	728.74
694.034	1187.74
694.478	1603.54
694.923	1815.74
695.367	2345.74
695.812	1245.84
696.256	509.24
696.701	376.84
697.145	357.74
697.59	337.84
698.034	323.04
698.478	334.04
698.922	326.84
699.367	330.24
699.811	347.74
700.255	358.84
700.699	391.24
701.143	443.74
701.588	482.84
702.032	520.64
702.476	523.44
702.92	506.84
703.364	504.84
703.808	665.54
704.252	1081.14
704.696	1524.74
705.14	1722.74
705.584	2210.64
706.027	1103.14
706.471	546.04
706.915	406.54
707.359	357.54
707.803	328.54
708.246	318.54
708.69	324.84
709.134	322.04
709.577	314.14
710.021	322.54
710.465	321.84
710.908	303.54
711.352	305.94
711.795	320.74
712.239	366.34
712.682	392.94
713.126	422.14
713.569	474.14
714.012	369.04
714.456	309.84
714.899	292.24
715.342	276.54
715.786	269.04
716.229	257.04
716.672	261.74
717.115	255.74
717.558	253.74
718.002	255.84
718.445	267.24
718.888	293.14
719.331	301.14
719.774	312.74
720.217	304.94
720.66	282.44
721.103	275.54
721.546	263.84
721.989	252.14
722.432	234.64
722.874	246.94
723.317	236.04
723.76	240.14
724.203	267.14
724.645	328.04
725.088	458.24
725.531	586.64
725.974	664.04
726.416	569.94
726.859	314.44
727.301	252.44
727.744	240.14
728.187	229.84
728.629	245.84
729.071	244.04
729.514	272.04
729.956	276.74
730.399	298.04
730.841	301.24
731.283	280.34
731.726	275.34
732.168	266.74
732.61	278.34
733.053	287.64
733.495	326.94
733.937	371.54
734.379	409.24
734.821	451.64
735.263	568.14
735.705	873.44
736.148	1660.04
736.59	2713.94
737.032	3197.04
737.474	2586.84
737.916	851.44
738.357	451.14
738.799	338.24
739.241	306.44
739.683	293.74
740.125	307.74
740.567	304.74
741.008	328.74
741.45	328.54
741.892	329.94
742.334	363.24
742.775	371.24
743.217	359.84
743.658	275.64
744.1	260.54
744.542	282.04
744.983	339.54
745.425	368.14
745.866	363.64
746.307	287.84
746.749	290.24
747.19	336.94
747.632	475.84
748.073	935.14
748.514	1948.64
748.956	2965.54
749.397	3744.74
749.838	3105.14
750.279	3078.64
750.72	1581.04
751.162	576.14
751.603	335.74
752.044	267.34
752.485	221.04
752.926	212.84
753.367	208.54
753.808	201.94
754.249	195.84
754.69	186.84
755.131	190.74
755.572	179.14
756.013	184.34
756.453	190.34
756.894	199.54
757.335	198.64
757.776	206.94
758.216	203.64
758.657	198.84
759.098	207.54
759.538	226.84
759.979	275.74
760.42	388.14
760.86	750.74
761.301	1934.64
761.741	4675.14
762.182	6696.14
762.622	4734.94
763.063	1373.74
