Data from 20171114-ORNL-Ar_H_NY_Subt18_08-07-11-235.txt Node
Date: Tue Nov 14 08:07:11 EST 2017
User: Ender
Spectrometer: HR+D1039
Trigger mode: 0
Integration Time (sec): 2.730000E-2
Scans to average: 10
Electric dark correction enabled: true
Nonlinearity correction enabled: false
Boxcar width: 0
XAxis mode: Wavelengths
Number of Pixels in Spectrum: 2048
>>>>>Begin Spectral Data<<<<<
187.836	-7.05
188.309	-7.05
188.782	-7.05
189.255	2.15
189.728	1.35
190.201	5.75
190.674	-1.85
191.147	2.75
191.619	-10.85
192.092	5.15
192.565	3.05
193.038	3.75
193.511	0.15
193.984	0.95
194.456	-0.85
194.929	0.45
195.402	-2.85
195.874	-2.05
196.347	0.15
196.82	-7.55
197.292	2.45
197.765	-7.45
198.237	-6.15
198.71	2.15
199.182	-0.25
199.655	1.75
200.127	3.75
200.6	-5.35
201.072	-0.35
201.544	-3.75
202.017	-1.65
202.489	7.95
202.961	3.05
203.433	2.05
203.906	-3.75
204.378	-5.45
204.85	-6.15
205.322	-11.75
205.794	-5.55
206.266	-4.95
206.739	-9.45
207.211	-2.65
207.683	-1.95
208.155	-8.65
208.627	-1.35
209.099	-6.95
209.57	-5.55
210.042	-7.65
210.514	-6.25
210.986	-5.65
211.458	-9.55
211.93	-1.45
212.402	5.25
212.873	-5.15
213.345	-13.05
213.817	-9.55
214.288	-7.15
214.76	-13.75
215.232	-1.45
215.703	-5.25
216.175	-7.85
216.646	-4.75
217.118	-5.15
217.589	-1.45
218.061	3.65
218.532	-5.15
219.004	-2.25
219.475	-3.75
219.946	-3.75
220.418	-7.05
220.889	2.95
221.36	-5.55
221.832	-8.75
222.303	-8.35
222.774	0.15
223.245	-9.95
223.717	-10.95
224.188	-3.25
224.659	-8.35
225.13	-4.45
225.601	-4.35
226.072	-0.65
226.543	4.45
227.014	-0.65
227.485	-4.95
227.956	-4.95
228.427	-1.15
228.898	-0.25
229.369	-0.75
229.839	-6.95
230.31	-4.65
230.781	2.25
231.252	-0.05
231.722	-0.35
232.193	-2.05
232.664	-3.55
233.135	-4.25
233.605	-1.55
234.076	-5.45
234.546	2.65
235.017	1.65
235.487	4.25
235.958	-4.05
236.428	-7.45
236.899	0.75
237.369	2.35
237.84	-6.45
238.31	1.15
238.78	-2.95
239.251	-10.85
239.721	-9.85
240.191	-4.05
240.662	-6.05
241.132	-3.15
241.602	-4.65
242.072	-3.95
242.542	1.95
243.013	-5.95
243.483	-3.95
243.953	0.95
244.423	-4.05
244.893	-8.15
245.363	-0.95
245.833	-0.65
246.303	-3.45
246.773	6.65
247.243	1.75
247.712	-7.15
248.182	3.85
248.652	-2.25
249.122	-8.65
249.592	0.55
250.061	1.05
250.531	6.55
251.001	-4.45
251.471	3.45
251.94	7.55
252.41	-4.05
252.879	-1.35
253.349	3.05
253.818	1.85
254.288	-0.15
254.757	-0.35
255.227	-4.55
255.696	-4.75
256.166	-0.45
256.635	1.35
257.105	-1.45
257.574	-7.35
258.043	1.05
258.513	-1.85
258.982	6.55
259.451	-5.05
259.92	-2.65
260.389	-4.85
260.859	10.85
261.328	1.15
261.797	1.95
262.266	-2.35
262.735	3.55
263.204	1.95
263.673	-7.05
264.142	5.35
264.611	-1.35
265.08	-7.95
265.549	-3.95
266.018	3.85
266.487	-6.25
266.955	-6.55
267.424	-1.95
267.893	2.15
268.362	-2.95
268.83	2.05
269.299	2.75
269.768	-1.05
270.236	3.45
270.705	-2.75
271.174	-1.35
271.642	2.05
272.111	5.85
272.579	4.55
273.048	-2.15
273.516	2.95
273.985	-3.25
274.453	10.15
274.922	6.25
275.39	3.95
275.858	-2.25
276.327	3.65
276.795	11.15
277.263	2.55
277.731	8.25
278.2	3.05
278.668	3.55
279.136	3.85
279.604	1.65
280.072	5.85
280.54	7.25
281.008	6.75
281.477	8.95
281.945	8.85
282.413	5.05
282.881	15.75
283.348	7.15
283.816	12.35
284.284	5.15
284.752	12.95
285.22	5.75
285.688	9.85
286.156	4.15
286.623	11.95
287.091	7.35
287.559	10.55
288.026	11.15
288.494	10.95
288.962	0.35
289.429	7.05
289.897	15.65
290.364	12.35
290.832	10.95
291.3	7.85
291.767	10.85
292.234	10.95
292.702	9.65
293.169	10.55
293.637	13.65
294.104	13.05
294.571	7.35
295.039	5.85
295.506	9.35
295.973	12.55
296.44	10.65
296.908	9.85
297.375	1.85
297.842	9.65
298.309	10.95
298.776	7.45
299.243	14.05
299.71	10.05
300.177	13.75
300.644	13.95
301.111	12.15
301.578	19.55
302.045	11.65
302.512	15.85
302.979	17.55
303.446	17.15
303.913	13.15
304.379	15.25
304.846	19.75
305.313	21.75
305.78	10.95
306.246	16.75
306.713	19.25
307.18	15.25
307.646	19.55
308.113	19.05
308.579	9.85
309.046	18.05
309.512	20.35
309.979	10.85
310.445	20.75
310.912	25.85
311.378	28.75
311.845	28.95
312.311	17.85
312.777	22.65
313.244	20.95
313.71	35.25
314.176	26.15
314.642	21.95
315.109	17.95
315.575	23.95
316.041	25.25
316.507	20.25
316.973	26.45
317.439	27.25
317.905	22.05
318.371	27.35
318.837	26.95
319.303	25.25
319.769	26.05
320.235	27.65
320.701	28.15
321.167	28.25
321.633	24.15
322.099	27.65
322.564	28.75
323.03	28.55
323.496	33.35
323.962	26.55
324.427	29.45
324.893	34.55
325.359	33.75
325.824	31.25
326.29	30.75
326.755	31.05
327.221	23.45
327.686	33.65
328.152	40.65
328.617	35.75
329.083	41.45
329.548	37.25
330.014	35.65
330.479	33.45
330.944	29.45
331.41	35.75
331.875	41.75
332.34	33.75
332.805	33.95
333.271	33.25
333.736	26.45
334.201	43.45
334.666	41.65
335.131	41.25
335.596	42.45
336.061	37.25
336.526	35.85
336.991	39.75
337.456	45.45
337.921	41.45
338.386	33.45
338.851	34.95
339.316	37.85
339.781	31.35
340.246	46.55
340.711	44.95
341.175	42.15
341.64	38.45
342.105	37.95
342.569	42.95
343.034	48.45
343.499	48.45
343.963	41.85
344.428	53.35
344.893	53.45
345.357	51.15
345.822	54.25
346.286	57.35
346.751	66.65
347.215	61.25
347.679	59.15
348.144	75.75
348.608	68.05
349.073	55.45
349.537	64.55
350.001	59.55
350.465	72.05
350.93	67.45
351.394	65.15
351.858	60.65
352.322	78.55
352.786	66.05
353.25	76.85
353.715	88.05
354.179	80.25
354.643	96.75
355.107	93.75
355.571	82.65
356.035	81.55
356.498	91.85
356.962	98.05
357.426	99.15
357.89	95.45
358.354	77.45
358.818	75.15
359.281	68.55
359.745	66.75
360.209	69.25
360.673	67.05
361.136	71.65
361.6	73.65
362.064	81.35
362.527	80.05
362.991	78.65
363.454	73.85
363.918	65.25
364.381	72.55
364.845	75.75
365.308	78.95
365.772	77.05
366.235	83.75
366.698	71.95
367.162	69.95
367.625	73.85
368.088	81.85
368.552	79.55
369.015	74.65
369.478	86.15
369.941	84.75
370.404	86.15
370.867	85.75
371.331	88.45
371.794	98.45
372.257	85.55
372.72	99.25
373.183	92.15
373.646	85.15
374.109	86.45
374.572	95.85
375.035	94.25
375.497	95.25
375.96	92.65
376.423	88.85
376.886	99.25
377.349	90.85
377.811	90.55
378.274	90.05
378.737	96.45
379.199	93.25
379.662	95.45
380.125	101.45
380.587	96.95
381.05	100.35
381.512	105.05
381.975	113.15
382.437	109.65
382.9	111.05
383.362	114.25
383.825	122.05
384.287	118.65
384.75	106.35
385.212	114.35
385.674	122.25
386.136	119.75
386.599	115.15
387.061	118.85
387.523	116.65
387.985	125.45
388.447	119.55
388.91	112.65
389.372	124.05
389.834	125.25
390.296	117.35
390.758	118.05
391.22	124.15
391.682	133.65
392.144	137.25
392.606	133.75
393.068	133.55
393.529	140.15
393.991	136.75
394.453	125.55
394.915	122.15
395.377	125.15
395.838	126.65
396.3	133.85
396.762	135.45
397.224	128.65
397.685	128.25
398.147	131.45
398.608	129.65
399.07	127.65
399.531	129.15
399.993	137.65
400.454	153.95
400.916	142.95
401.377	142.85
401.839	147.15
402.3	147.25
402.762	156.15
403.223	173.75
403.684	158.45
404.145	153.45
404.607	149.05
405.068	156.25
405.529	164.25
405.99	174.45
406.451	167.05
406.913	162.55
407.374	157.65
407.835	159.45
408.296	154.35
408.757	159.55
409.218	172.75
409.679	168.45
410.14	174.25
410.601	170.25
411.062	175.45
411.522	178.65
411.983	169.35
412.444	170.05
412.905	180.35
413.366	181.55
413.826	190.45
414.287	218.75
414.748	271.35
415.208	251.05
415.669	221.65
416.13	208.25
416.59	203.85
417.051	214.05
417.511	222.75
417.972	242.15
418.432	255.35
418.893	290.45
419.353	255.45
419.814	200.55
420.274	185.95
420.734	178.55
421.195	193.45
421.655	185.05
422.115	190.65
422.576	193.15
423.036	201.65
423.496	210.65
423.956	222.45
424.416	236.25
424.876	266.25
425.336	262.15
425.797	260.75
426.257	252.15
426.717	241.05
427.177	228.35
427.637	220.85
428.097	232.75
428.556	240.75
429.016	264.35
429.476	256.35
429.936	264.35
430.396	263.85
430.856	291.95
431.315	309.05
431.775	341.65
432.235	364.35
432.694	346.75
433.154	350.85
433.614	375.45
434.073	322.55
434.533	276.15
434.993	263.75
435.452	273.35
435.912	288.95
436.371	281.55
436.83	273.85
437.29	261.95
437.749	254.75
438.209	246.65
438.668	269.05
439.127	282.55
439.587	267.05
440.046	245.45
440.505	266.65
440.964	279.05
441.424	325.45
441.883	306.85
442.342	263.65
442.801	228.65
443.26	225.75
443.719	226.55
444.178	217.95
444.637	215.65
445.096	233.65
445.555	234.85
446.014	237.55
446.473	232.65
446.932	245.05
447.391	234.65
447.849	238.35
448.308	226.95
448.767	232.85
449.226	243.35
449.685	246.05
450.143	258.55
450.602	250.85
451.061	238.25
451.519	242.95
451.978	238.95
452.436	240.05
452.895	249.25
453.353	255.35
453.812	249.95
454.27	249.75
454.729	248.25
455.187	248.35
455.646	249.55
456.104	254.25
456.562	265.95
457.021	275.75
457.479	271.95
457.937	279.95
458.395	269.45
458.854	250.95
459.312	258.25
459.77	278.05
460.228	258.65
460.686	253.95
461.144	257.55
461.602	257.15
462.06	256.35
462.518	272.65
462.976	269.55
463.434	268.95
463.892	273.15
464.35	284.55
464.808	293.85
465.266	284.55
465.724	282.45
466.181	279.85
466.639	283.15
467.097	301.55
467.555	310.05
468.012	314.75
468.47	317.15
468.928	344.45
469.385	354.55
469.843	362.95
470.3	368.05
470.758	368.05
471.215	388.55
471.673	419.35
472.13	417.65
472.588	431.15
473.045	384.55
473.503	398.55
473.96	409.45
474.417	418.65
474.875	436.65
475.332	476.45
475.789	476.35
476.246	483.55
476.704	498.15
477.161	512.95
477.618	527.05
478.075	566.05
478.532	627.65
478.989	695.75
479.446	799.75
479.903	766.95
480.36	801.25
480.817	860.35
481.274	949.95
481.731	1034.55
482.188	1113.55
482.645	1230.05
483.102	1325.35
483.558	1448.75
484.015	1468.75
484.472	1447.65
484.929	1410.35
485.385	1367.15
485.842	1345.75
486.299	1298.05
486.755	1240.15
487.212	1061.65
487.668	914.15
488.125	865.65
488.582	787.25
489.038	758.55
489.494	725.15
489.951	696.45
490.407	683.75
490.864	664.65
491.32	658.25
491.776	661.85
492.233	678.65
492.689	633.95
493.145	637.35
493.602	628.15
494.058	634.75
494.514	632.25
494.97	660.95
495.426	674.75
495.882	649.85
496.338	643.45
496.794	651.25
497.251	638.25
497.707	660.95
498.163	653.95
498.618	664.65
499.074	668.55
499.53	696.45
499.986	696.95
500.442	664.65
500.898	645.25
501.354	632.65
501.809	650.55
502.265	645.55
502.721	660.75
503.177	664.45
503.632	662.15
504.088	670.45
504.543	694.75
504.999	708.05
505.455	682.85
505.91	663.35
506.366	664.95
506.821	655.35
507.277	662.45
507.732	667.35
508.187	669.75
508.643	675.95
509.098	662.35
509.553	700.75
510.009	697.55
510.464	708.25
510.919	718.85
511.375	724.95
511.83	735.55
512.285	757.35
512.74	788.85
513.195	810.65
513.65	811.25
514.105	802.75
514.56	799.85
515.015	820.75
515.47	835.85
515.925	829.25
516.38	833.55
516.835	820.95
517.29	822.45
517.745	813.15
518.2	799.25
518.655	774.85
519.109	774.25
519.564	777.35
520.019	767.75
520.474	768.15
520.928	759.65
521.383	757.85
521.838	740.05
522.292	744.25
522.747	744.05
523.201	731.15
523.656	729.15
524.11	722.95
524.565	727.65
525.019	728.95
525.474	726.25
525.928	731.55
526.382	728.45
526.837	733.85
527.291	735.55
527.745	737.25
528.2	730.65
528.654	726.45
529.108	733.05
529.562	717.55
530.016	715.55
530.47	719.85
530.925	719.85
531.379	730.45
531.833	735.05
532.287	731.65
532.741	727.25
533.195	735.35
533.649	743.55
534.103	752.15
534.556	749.05
535.01	740.45
535.464	731.75
535.918	756.15
536.372	753.55
536.826	745.75
537.279	735.15
537.733	735.45
538.187	751.15
538.64	753.25
539.094	747.55
539.548	761.75
540.001	757.05
540.455	763.35
540.908	771.05
541.362	785.15
541.815	787.95
542.269	789.95
542.722	793.25
543.175	808.15
543.629	805.15
544.082	834.55
544.536	833.05
544.989	817.85
545.442	832.65
545.895	825.75
546.349	828.55
546.802	831.55
547.255	838.85
547.708	844.15
548.161	853.05
548.614	868.05
549.067	872.45
549.52	862.75
549.973	846.75
550.426	855.65
550.879	838.25
551.332	841.95
551.785	847.85
552.238	843.85
552.691	858.45
553.144	870.05
553.596	895.15
554.049	913.05
554.502	935.25
554.955	958.05
555.407	954.85
555.86	942.65
556.313	942.55
556.765	929.05
557.218	928.65
557.67	926.15
558.123	924.45
558.576	922.15
559.028	922.05
559.48	926.95
559.933	921.45
560.385	885.95
560.838	859.15
561.29	820.15
561.742	828.15
562.195	812.45
562.647	802.85
563.099	808.45
563.551	811.65
564.004	830.55
564.456	816.25
564.908	799.65
565.36	778.75
565.812	761.15
566.264	760.85
566.716	758.05
567.168	744.55
567.62	745.85
568.072	736.35
568.524	726.45
568.976	716.85
569.428	711.05
569.88	708.25
570.332	725.15
570.784	717.85
571.235	723.95
571.687	734.05
572.139	740.85
572.59	755.75
573.042	744.05
573.494	760.15
573.945	737.35
574.397	722.85
574.849	731.35
575.3	730.15
575.752	724.45
576.203	715.85
576.655	724.25
577.106	715.15
577.557	700.15
578.009	700.75
578.46	696.55
578.912	688.45
579.363	698.45
579.814	711.85
580.265	700.55
580.717	704.15
581.168	700.45
581.619	713.05
582.07	719.95
582.521	714.55
582.972	712.75
583.423	713.95
583.875	712.55
584.326	720.95
584.777	729.05
585.227	740.25
585.678	753.75
586.129	769.35
586.58	794.15
587.031	807.55
587.482	823.55
587.933	848.75
588.384	835.75
588.834	818.15
589.285	803.85
589.736	814.85
590.186	801.55
590.637	794.95
591.088	774.05
591.538	769.95
591.989	766.05
592.439	762.05
592.89	760.75
593.34	732.45
593.791	736.45
594.241	729.95
594.692	736.35
595.142	725.55
595.593	722.65
596.043	730.15
596.493	742.95
596.943	740.15
597.394	752.35
597.844	757.45
598.294	758.55
598.744	790.05
599.195	812.45
599.645	862.35
600.095	899.25
600.545	972.55
600.995	1014.45
601.445	1074.55
601.895	1148.55
602.345	1183.25
602.795	1170.65
603.245	1118.35
603.695	1070.45
604.145	995.85
604.594	963.25
605.044	896.45
605.494	839.15
605.944	795.15
606.393	776.55
606.843	766.95
607.293	757.25
607.743	756.85
608.192	771.05
608.642	777.45
609.091	789.45
609.541	799.05
609.99	795.85
610.44	794.35
610.889	735.55
611.339	722.15
611.788	707.95
612.238	724.85
612.687	733.75
613.136	733.95
613.586	736.55
614.035	731.85
614.484	744.15
614.933	733.45
615.383	729.35
615.832	726.85
616.281	715.95
616.73	698.25
617.179	684.65
617.628	676.05
618.077	655.15
618.526	643.45
618.975	638.45
619.424	643.25
619.873	644.65
620.322	631.75
620.771	629.95
621.22	627.25
621.669	614.55
622.118	611.15
622.567	598.35
623.015	588.95
623.464	596.95
623.913	580.35
624.361	567.35
624.81	566.05
625.259	571.55
625.707	571.85
626.156	572.25
626.604	592.25
627.053	585.35
627.501	588.65
627.95	591.85
628.398	604.15
628.847	588.35
629.295	598.15
629.744	597.25
630.192	586.05
630.64	587.35
631.089	559.95
631.537	552.55
631.985	553.05
632.433	548.25
632.881	544.75
633.33	552.25
633.778	538.75
634.226	546.35
634.674	567.65
635.122	561.65
635.57	576.15
636.018	581.35
636.466	582.35
636.914	580.15
637.362	589.75
637.81	596.55
638.258	597.85
638.705	607.15
639.153	631.15
639.601	648.95
640.049	677.25
640.497	700.15
640.944	719.65
641.392	677.05
641.84	628.15
642.287	601.95
642.735	583.15
643.182	579.05
643.63	578.35
644.078	582.55
644.525	593.85
644.973	601.15
645.42	616.85
645.867	637.35
646.315	654.25
646.762	676.05
647.21	709.65
647.657	726.05
648.104	750.95
648.551	774.25
648.999	822.95
649.446	907.75
649.893	991.55
650.34	1130.25
650.787	1354.15
651.234	1651.85
651.682	2121.55
652.129	2885.75
652.576	4099.65
653.023	5997.15
653.47	8066.55
653.917	10050.95
654.363	11544.95
654.81	12757.45
655.257	12058.55
655.704	7970.55
656.151	4815.95
656.598	3180.55
657.044	2271.85
657.491	1762.65
657.938	1432.25
658.385	1214.35
658.831	1058.05
659.278	951.85
659.724	841.05
660.171	772.45
660.618	717.45
661.064	698.85
661.511	665.75
661.957	658.45
662.404	654.25
662.85	649.65
663.296	628.85
663.743	571.95
664.189	551.55
664.635	546.45
665.082	542.15
665.528	536.05
665.974	534.55
666.42	522.95
666.867	520.95
667.313	491.65
667.759	481.65
668.205	467.45
668.651	467.65
669.097	463.95
669.543	447.15
669.989	467.25
670.435	470.55
670.881	464.15
671.327	470.45
671.773	487.85
672.219	509.45
672.665	561.25
673.11	609.85
673.556	653.35
674.002	695.85
674.448	683.25
674.893	575.15
675.339	501.55
675.785	464.25
676.23	437.55
676.676	412.35
677.122	403.75
677.567	392.85
678.013	392.35
678.458	383.55
678.904	376.25
679.349	366.05
679.794	376.95
680.24	364.85
680.685	363.05
681.131	365.95
681.576	359.55
682.021	365.45
682.466	359.35
682.912	366.15
683.357	372.45
683.802	396.15
684.247	431.65
684.692	478.85
685.137	527.15
685.583	562.05
686.028	589.75
686.473	535.85
686.918	471.15
687.363	428.45
687.807	405.95
688.252	390.75
688.697	368.15
689.142	362.85
689.587	349.35
690.032	331.45
690.477	354.85
690.921	358.65
691.366	399.75
691.811	421.45
692.255	453.85
692.7	477.25
693.145	526.05
693.589	724.35
694.034	1192.65
694.478	1619.55
694.923	1824.95
695.367	2381.25
695.812	1260.65
696.256	518.75
696.701	392.35
697.145	363.05
697.59	340.25
698.034	328.25
698.478	334.75
698.922	336.95
699.367	337.05
699.811	348.95
700.255	368.05
700.699	391.95
701.143	442.75
701.588	488.55
702.032	534.65
702.476	528.35
702.92	514.15
703.364	516.25
703.808	671.95
704.252	1077.05
704.696	1527.35
705.14	1749.55
705.584	2242.05
706.027	1123.35
706.471	557.65
706.915	413.85
707.359	368.35
707.803	340.45
708.246	329.15
708.69	322.95
709.134	334.35
709.577	325.45
710.021	325.55
710.465	319.45
710.908	314.85
711.352	315.15
711.795	329.05
712.239	369.55
712.682	406.55
713.126	433.25
713.569	471.15
714.012	369.95
714.456	317.55
714.899	302.75
715.342	284.05
715.786	271.65
716.229	269.75
716.672	257.85
717.115	257.75
717.558	263.85
718.002	258.75
718.445	268.45
718.888	290.95
719.331	299.95
719.774	321.35
720.217	310.85
720.66	302.65
721.103	275.15
721.546	262.35
721.989	254.75
722.432	243.35
722.874	248.95
723.317	241.15
723.76	243.95
724.203	261.25
724.645	332.35
725.088	466.55
725.531	599.25
725.974	671.45
726.416	573.65
726.859	316.45
727.301	259.85
727.744	244.35
728.187	231.65
728.629	242.25
729.071	255.55
729.514	266.95
729.956	283.55
730.399	295.55
730.841	300.05
731.283	281.35
731.726	281.15
732.168	268.25
732.61	280.25
733.053	298.05
733.495	334.95
733.937	366.45
734.379	410.35
734.821	460.55
735.263	582.25
735.705	885.15
736.148	1686.45
736.59	2733.45
737.032	3224.45
737.474	2628.55
737.916	856.95
738.357	456.05
738.799	340.65
739.241	314.45
739.683	299.75
740.125	303.95
740.567	310.55
741.008	330.75
741.45	335.05
741.892	328.95
742.334	365.25
742.775	389.15
743.217	367.75
743.658	279.85
744.1	266.25
744.542	284.75
744.983	330.95
745.425	362.15
745.866	362.55
746.307	297.05
746.749	290.35
747.19	338.45
747.632	474.85
748.073	946.25
748.514	1988.85
748.956	3010.95
749.397	3757.35
749.838	3142.65
750.279	3104.65
750.72	1572.35
751.162	577.85
751.603	339.95
752.044	264.85
752.485	228.75
752.926	214.95
753.367	209.25
753.808	203.85
754.249	200.45
754.69	192.05
755.131	184.15
755.572	192.25
756.013	190.35
756.453	194.05
756.894	193.45
757.335	195.55
757.776	199.95
758.216	200.65
758.657	207.45
759.098	205.55
759.538	237.45
759.979	287.55
760.42	401.35
760.86	754.75
761.301	1958.35
761.741	4709.45
762.182	6770.55
762.622	4771.85
763.063	1385.75
763.503	567.45
