Data from 20171114-ORNL-Ar_H_NY_Subt18_08-05-56-166.txt Node
Date: Tue Nov 14 08:05:56 EST 2017
User: Ender
Spectrometer: HR+D1039
Trigger mode: 0
Integration Time (sec): 2.730000E-2
Scans to average: 10
Electric dark correction enabled: true
Nonlinearity correction enabled: false
Boxcar width: 0
XAxis mode: Wavelengths
Number of Pixels in Spectrum: 2048
>>>>>Begin Spectral Data<<<<<
187.836	-3.45
188.309	-3.45
188.782	-3.45
189.255	0.15
189.728	-3.35
190.201	8.15
190.674	2.65
191.147	0.75
191.619	-11.55
192.092	-1.65
192.565	0.35
193.038	2.05
193.511	3.25
193.984	-0.45
194.456	-4.65
194.929	4.55
195.402	3.45
195.874	-0.25
196.347	-6.55
196.82	-5.35
197.292	4.55
197.765	-0.65
198.237	-5.85
198.71	-1.45
199.182	-1.95
199.655	5.25
200.127	3.45
200.6	-3.25
201.072	-2.35
201.544	-7.05
202.017	0.35
202.489	0.85
202.961	-4.85
203.433	-6.95
203.906	-5.35
204.378	-3.95
204.85	-5.75
205.322	-8.45
205.794	-7.15
206.266	-8.05
206.739	-19.75
207.211	1.25
207.683	-5.65
208.155	-4.55
208.627	-10.25
209.099	-4.85
209.57	-11.05
210.042	-9.25
210.514	-5.65
210.986	-1.95
211.458	-10.65
211.93	-7.75
212.402	1.45
212.873	-10.55
213.345	-10.35
213.817	-12.35
214.288	-4.75
214.76	-7.25
215.232	-4.15
215.703	-8.05
216.175	-0.65
216.646	-3.15
217.118	-4.15
217.589	-6.15
218.061	-1.25
218.532	-9.35
219.004	-5.25
219.475	-3.85
219.946	-9.95
220.418	-10.55
220.889	1.95
221.36	2.45
221.832	-3.85
222.303	-2.55
222.774	-0.95
223.245	-11.15
223.717	-8.35
224.188	-3.35
224.659	-9.25
225.13	-9.45
225.601	-3.25
226.072	1.45
226.543	2.05
227.014	-3.55
227.485	-3.75
227.956	-3.85
228.427	0.65
228.898	-3.45
229.369	6.45
229.839	-4.05
230.31	-6.95
230.781	0.15
231.252	-6.45
231.722	-6.75
232.193	-3.15
232.664	-1.55
233.135	-0.05
233.605	5.75
234.076	-10.25
234.546	1.35
235.017	-0.25
235.487	-0.85
235.958	-2.35
236.428	1.45
236.899	8.05
237.369	1.15
237.84	-5.55
238.31	3.45
238.78	-0.55
239.251	-0.35
239.721	2.95
240.191	-3.45
240.662	-2.55
241.132	2.45
241.602	-2.35
242.072	0.75
242.542	9.85
243.013	4.95
243.483	2.55
243.953	-1.25
244.423	3.35
244.893	-0.05
245.363	4.05
245.833	-4.65
246.303	-3.05
246.773	7.15
247.243	2.25
247.712	1.65
248.182	7.85
248.652	10.05
249.122	-0.95
249.592	7.55
250.061	21.35
250.531	31.25
251.001	21.45
251.471	20.45
251.94	21.95
252.41	5.55
252.879	1.95
253.349	10.85
253.818	11.95
254.288	5.25
254.757	5.75
255.227	6.85
255.696	6.95
256.166	8.55
256.635	0.75
257.105	10.85
257.574	3.15
258.043	12.75
258.513	10.85
258.982	18.85
259.451	3.65
259.92	14.05
260.389	9.35
260.859	13.05
261.328	8.95
261.797	19.45
262.266	10.35
262.735	9.45
263.204	8.15
263.673	-4.15
264.142	1.05
264.611	-6.05
265.08	-2.35
265.549	0.55
266.018	4.65
266.487	2.35
266.955	-0.65
267.424	-0.65
267.893	8.45
268.362	6.05
268.83	5.25
269.299	7.35
269.768	7.95
270.236	5.05
270.705	2.55
271.174	4.55
271.642	6.05
272.111	13.95
272.579	15.85
273.048	24.85
273.516	29.05
273.985	27.05
274.453	17.55
274.922	22.75
275.39	13.55
275.858	-0.05
276.327	9.95
276.795	17.95
277.263	8.65
277.731	33.85
278.2	60.25
278.668	61.55
279.136	50.85
279.604	16.15
280.072	16.75
280.54	9.05
281.008	11.35
281.477	18.65
281.945	14.45
282.413	16.25
282.881	14.45
283.348	11.45
283.816	13.25
284.284	20.65
284.752	23.05
285.22	13.15
285.688	17.35
286.156	16.75
286.623	44.25
287.091	54.85
287.559	28.35
288.026	22.75
288.494	13.95
288.962	6.05
289.429	17.55
289.897	16.15
290.364	11.15
290.832	14.15
291.3	20.65
291.767	19.05
292.234	21.35
292.702	15.75
293.169	16.95
293.637	26.95
294.104	22.45
294.571	7.55
295.039	11.45
295.506	10.85
295.973	15.65
296.44	18.75
296.908	16.65
297.375	14.85
297.842	19.15
298.309	11.15
298.776	10.85
299.243	16.75
299.71	10.25
300.177	18.35
300.644	19.05
301.111	23.45
301.578	24.75
302.045	21.05
302.512	24.95
302.979	22.45
303.446	19.05
303.913	20.75
304.379	18.85
304.846	26.85
305.313	25.95
305.78	23.75
306.246	23.65
306.713	30.95
307.18	23.25
307.646	28.05
308.113	33.65
308.579	28.65
309.046	18.15
309.512	30.05
309.979	19.15
310.445	26.25
310.912	30.85
311.378	32.75
311.845	28.45
312.311	27.45
312.777	29.55
313.244	31.95
313.71	43.15
314.176	34.25
314.642	29.95
315.109	32.35
315.575	39.05
316.041	34.25
316.507	28.25
316.973	40.15
317.439	32.05
317.905	37.95
318.371	33.25
318.837	35.15
319.303	30.55
319.769	34.35
320.235	34.45
320.701	32.05
321.167	37.75
321.633	31.45
322.099	41.15
322.564	49.05
323.03	38.75
323.496	41.25
323.962	41.25
324.427	37.75
324.893	40.95
325.359	42.75
325.824	35.55
326.29	39.55
326.755	34.85
327.221	36.35
327.686	38.55
328.152	43.85
328.617	38.35
329.083	44.75
329.548	48.55
330.014	46.55
330.479	40.05
330.944	38.25
331.41	42.25
331.875	41.95
332.34	43.75
332.805	42.05
333.271	47.75
333.736	41.35
334.201	53.05
334.666	56.05
335.131	51.55
335.596	47.15
336.061	47.95
336.526	42.65
336.991	47.25
337.456	55.55
337.921	52.85
338.386	43.45
338.851	45.35
339.316	41.35
339.781	45.95
340.246	51.15
340.711	47.95
341.175	49.25
341.64	44.85
342.105	47.55
342.569	53.15
343.034	54.55
343.499	54.65
343.963	56.85
344.428	62.55
344.893	62.45
345.357	63.45
345.822	61.05
346.286	67.05
346.751	72.75
347.215	69.95
347.679	76.05
348.144	96.15
348.608	84.95
349.073	70.65
349.537	73.75
350.001	82.25
350.465	90.45
350.93	84.35
351.394	81.75
351.858	69.45
352.322	90.85
352.786	80.65
353.25	97.15
353.715	106.35
354.179	90.55
354.643	121.25
355.107	123.15
355.571	109.55
356.035	108.35
356.498	122.05
356.962	120.45
357.426	137.25
357.89	117.65
358.354	85.65
358.818	85.05
359.281	77.25
359.745	76.05
360.209	80.15
360.673	75.15
361.136	83.75
361.6	85.05
362.064	82.55
362.527	81.75
362.991	84.15
363.454	80.65
363.918	72.35
364.381	81.55
364.845	83.35
365.308	85.95
365.772	82.65
366.235	86.35
366.698	79.65
367.162	85.05
367.625	87.65
368.088	85.15
368.552	82.55
369.015	84.15
369.478	91.15
369.941	97.05
370.404	91.75
370.867	103.55
371.331	106.45
371.794	113.35
372.257	112.55
372.72	116.65
373.183	110.05
373.646	107.55
374.109	103.15
374.572	101.55
375.035	103.25
375.497	103.85
375.96	107.75
376.423	104.05
376.886	119.55
377.349	107.35
377.811	100.65
378.274	108.35
378.737	101.65
379.199	108.25
379.662	106.95
380.125	111.05
380.587	114.65
381.05	121.15
381.512	129.05
381.975	132.85
382.437	125.35
382.9	129.55
383.362	125.15
383.825	140.15
384.287	137.55
384.75	131.15
385.212	139.35
385.674	139.75
386.136	134.35
386.599	126.65
387.061	123.05
387.523	132.95
387.985	136.45
388.447	148.25
388.91	136.95
389.372	153.85
389.834	147.25
390.296	147.55
390.758	163.75
391.22	162.35
391.682	205.75
392.144	294.15
392.606	227.75
393.068	169.75
393.529	162.65
393.991	156.45
394.453	144.65
394.915	146.75
395.377	190.95
395.838	214.35
396.3	149.95
396.762	140.15
397.224	124.05
397.685	127.65
398.147	126.55
398.608	129.45
399.07	128.25
399.531	135.05
399.993	140.55
400.454	151.65
400.916	140.25
401.377	141.65
401.839	149.75
402.3	152.65
402.762	162.55
403.223	176.15
403.684	169.15
404.145	162.75
404.607	156.65
405.068	159.85
405.529	166.65
405.99	184.75
406.451	168.65
406.913	167.35
407.374	159.75
407.835	161.55
408.296	162.85
408.757	168.75
409.218	183.85
409.679	175.15
410.14	173.85
410.601	179.05
411.062	182.35
411.522	189.85
411.983	184.35
412.444	177.45
412.905	175.95
413.366	184.55
413.826	193.05
414.287	218.35
414.748	259.45
415.208	238.95
415.669	208.25
416.13	203.75
416.59	198.85
417.051	205.75
417.511	212.85
417.972	228.45
418.432	242.65
418.893	278.25
419.353	241.25
419.814	191.85
420.274	183.75
420.734	182.75
421.195	194.45
421.655	191.55
422.115	185.05
422.576	185.45
423.036	192.35
423.496	204.65
423.956	215.55
424.416	226.65
424.876	265.85
425.336	260.15
425.797	262.15
426.257	249.05
426.717	235.95
427.177	230.15
427.637	220.45
428.097	227.85
428.556	245.95
429.016	272.75
429.476	249.95
429.936	263.95
430.396	276.75
430.856	287.15
431.315	311.95
431.775	345.55
432.235	378.75
432.694	346.05
433.154	358.45
433.614	387.65
434.073	335.25
434.533	281.55
434.993	270.25
435.452	285.25
435.912	290.65
436.371	287.75
436.83	283.95
437.29	273.55
437.749	246.75
438.209	239.95
438.668	271.45
439.127	291.25
439.587	262.85
440.046	245.45
440.505	262.25
440.964	273.65
441.424	325.25
441.883	316.45
442.342	259.55
442.801	216.45
443.26	219.55
443.719	217.25
444.178	210.75
444.637	206.75
445.096	221.35
445.555	220.65
446.014	218.75
446.473	217.05
446.932	230.25
447.391	223.15
447.849	221.45
448.308	216.05
448.767	214.35
449.226	230.75
449.685	226.15
450.143	245.65
450.602	230.25
451.061	217.95
451.519	223.55
451.978	228.15
452.436	229.25
452.895	238.65
453.353	252.65
453.812	239.55
454.27	234.75
454.729	249.85
455.187	242.65
455.646	237.05
456.104	242.65
456.562	255.25
457.021	264.15
457.479	255.55
457.937	271.35
458.395	261.75
458.854	242.55
459.312	246.35
459.77	269.25
460.228	249.35
460.686	234.05
461.144	240.45
461.602	238.15
462.06	238.85
462.518	252.05
462.976	247.55
463.434	262.35
463.892	258.55
464.35	264.35
464.808	283.65
465.266	266.55
465.724	272.15
466.181	271.75
466.639	266.05
467.097	294.45
467.555	292.65
468.012	297.85
468.47	302.35
468.928	328.45
469.385	331.85
469.843	340.25
470.3	351.45
470.758	367.65
471.215	384.65
471.673	408.85
472.13	404.95
472.588	417.15
473.045	379.95
473.503	366.15
473.96	389.15
474.417	398.45
474.875	438.85
475.332	471.15
475.789	456.45
476.246	463.35
476.704	485.25
477.161	500.65
477.618	521.95
478.075	552.65
478.532	611.75
478.989	689.45
479.446	805.75
479.903	777.05
480.36	801.35
480.817	855.85
481.274	968.25
481.731	1070.55
482.188	1172.95
482.645	1295.35
483.102	1407.55
483.558	1549.45
484.015	1595.75
484.472	1569.55
484.929	1518.65
485.385	1477.15
485.842	1434.05
486.299	1375.45
486.755	1304.45
487.212	1097.15
487.668	921.15
488.125	841.35
488.582	780.45
489.038	740.85
489.494	718.55
489.951	681.55
490.407	670.45
490.864	647.35
491.32	648.15
491.776	639.35
492.233	643.45
492.689	605.95
493.145	597.65
493.602	599.45
494.058	608.95
494.514	618.45
494.97	629.65
495.426	640.45
495.882	626.65
496.338	612.05
496.794	627.85
497.251	621.35
497.707	623.95
498.163	629.05
498.618	637.25
499.074	648.05
499.53	678.45
499.986	671.55
500.442	649.05
500.898	622.55
501.354	619.35
501.809	630.45
502.265	626.15
502.721	660.95
503.177	665.25
503.632	657.95
504.088	673.75
504.543	711.45
504.999	711.25
505.455	663.95
505.91	637.65
506.366	621.95
506.821	614.35
507.277	615.35
507.732	623.45
508.187	621.25
508.643	626.05
509.098	617.65
509.553	652.75
510.009	661.35
510.464	665.85
510.919	681.65
511.375	677.35
511.83	706.05
512.285	716.45
512.74	759.55
513.195	782.55
513.65	778.65
514.105	762.15
514.56	765.75
515.015	787.75
515.47	795.95
515.925	778.85
516.38	783.15
516.835	788.25
517.29	779.15
517.745	769.65
518.2	755.75
518.655	747.45
519.109	734.75
519.564	730.15
520.019	724.15
520.474	712.35
520.928	717.95
521.383	712.45
521.838	704.55
522.292	698.15
522.747	700.55
523.201	691.75
523.656	688.55
524.11	685.05
524.565	677.85
525.019	683.25
525.474	698.05
525.928	692.95
526.382	682.65
526.837	692.05
527.291	699.75
527.745	685.45
528.2	703.65
528.654	677.75
529.108	674.95
529.562	679.65
530.016	677.65
530.47	685.35
530.925	678.55
531.379	695.95
531.833	697.15
532.287	704.95
532.741	700.25
533.195	705.15
533.649	708.05
534.103	710.85
534.556	699.75
535.01	706.05
535.464	698.65
535.918	707.05
536.372	707.95
536.826	713.75
537.279	700.25
537.733	704.95
538.187	715.45
538.64	714.35
539.094	718.15
539.548	725.75
540.001	712.85
540.455	722.45
540.908	720.85
541.362	719.95
541.815	729.35
542.269	750.15
542.722	745.25
543.175	757.55
543.629	760.55
544.082	778.05
544.536	778.25
544.989	767.65
545.442	786.65
545.895	785.35
546.349	778.45
546.802	770.75
547.255	792.85
547.708	803.45
548.161	804.05
548.614	808.75
549.067	825.65
549.52	810.05
549.973	798.15
550.426	792.65
550.879	775.15
551.332	786.15
551.785	803.05
552.238	796.95
552.691	809.35
553.144	816.55
553.596	834.25
554.049	845.15
554.502	887.35
554.955	909.05
555.407	890.35
555.86	891.65
556.313	875.75
556.765	865.05
557.218	877.85
557.67	874.75
558.123	861.15
558.576	856.25
559.028	867.65
559.48	866.65
559.933	856.25
560.385	822.45
560.838	802.95
561.29	768.35
561.742	768.65
562.195	759.45
562.647	755.55
563.099	761.95
563.551	759.05
564.004	774.25
564.456	770.95
564.908	745.15
565.36	731.85
565.812	730.45
566.264	710.15
566.716	712.95
567.168	702.15
567.62	720.35
568.072	699.05
568.524	693.15
568.976	676.65
569.428	664.55
569.88	663.35
570.332	665.05
570.784	677.55
571.235	663.75
571.687	683.25
572.139	688.45
572.59	698.65
573.042	703.35
573.494	697.85
573.945	685.85
574.397	670.65
574.849	682.05
575.3	690.75
575.752	670.15
576.203	668.75
576.655	669.85
577.106	655.45
577.557	646.45
578.009	658.65
578.46	659.05
578.912	650.45
579.363	653.65
579.814	659.55
580.265	656.65
580.717	660.85
581.168	653.25
581.619	670.75
582.07	681.05
582.521	660.75
582.972	657.35
583.423	660.85
583.875	668.25
584.326	684.55
584.777	734.45
585.227	817.95
585.678	899.55
586.129	988.65
586.58	1062.25
587.031	1148.55
587.482	1307.45
587.933	1481.65
588.384	1297.35
588.834	961.15
589.285	789.25
589.736	763.55
590.186	761.15
590.637	748.65
591.088	730.65
591.538	719.65
591.989	717.15
592.439	706.65
592.89	701.15
593.34	692.55
593.791	693.05
594.241	696.15
594.692	689.65
595.142	691.65
595.593	686.05
596.043	683.35
596.493	693.35
596.943	699.65
597.394	703.35
597.844	701.35
598.294	712.45
598.744	728.95
599.195	752.25
599.645	789.85
600.095	842.65
600.545	888.35
600.995	933.55
601.445	1003.85
601.895	1071.05
602.345	1104.15
602.795	1096.65
603.245	1041.95
603.695	986.95
604.145	934.15
604.594	893.15
605.044	837.15
605.494	785.75
605.944	727.85
606.393	730.25
606.843	713.15
607.293	722.55
607.743	717.85
608.192	730.05
608.642	737.75
609.091	751.15
609.541	755.35
609.99	746.65
610.44	740.65
610.889	711.05
611.339	687.15
611.788	675.85
612.238	682.05
612.687	715.05
613.136	701.05
613.586	727.15
614.035	730.75
614.484	741.85
614.933	738.65
615.383	735.95
615.832	721.35
616.281	706.95
616.73	674.05
617.179	653.45
617.628	633.55
618.077	616.35
618.526	601.15
618.975	601.95
619.424	599.75
619.873	604.25
620.322	605.35
620.771	592.35
621.22	596.75
621.669	584.85
622.118	581.75
622.567	564.65
623.015	549.65
623.464	559.45
623.913	551.55
624.361	535.45
624.81	537.85
625.259	546.45
625.707	533.75
626.156	542.25
626.604	550.25
627.053	552.45
627.501	550.65
627.95	546.35
628.398	564.95
628.847	565.15
629.295	554.05
629.744	557.45
630.192	549.45
630.64	554.65
631.089	555.25
631.537	565.95
631.985	575.95
632.433	589.15
632.881	588.95
633.33	635.95
633.778	621.55
634.226	553.05
634.674	556.05
635.122	567.85
635.57	581.65
636.018	617.35
636.466	576.65
636.914	538.85
637.362	552.25
637.81	555.15
638.258	562.75
638.705	554.25
639.153	595.85
639.601	601.45
640.049	631.95
640.497	647.35
640.944	677.75
641.392	625.25
641.84	583.45
642.287	566.75
642.735	558.05
643.182	552.45
643.63	558.05
644.078	553.45
644.525	573.05
644.973	584.85
645.42	585.75
645.867	606.45
646.315	620.25
646.762	648.75
647.21	675.35
647.657	693.15
648.104	730.15
648.551	752.35
648.999	810.35
649.446	896.05
649.893	976.85
650.34	1126.75
650.787	1357.35
651.234	1678.55
651.682	2195.45
652.129	3003.65
652.576	4338.95
653.023	6384.75
653.47	8772.85
653.917	11029.75
654.363	12800.05
654.81	14190.55
655.257	13526.75
655.704	8836.65
656.151	5209.45
656.598	3369.75
657.044	2365.95
657.491	1829.35
657.938	1461.65
658.385	1215.75
658.831	1059.15
659.278	945.55
659.724	838.35
660.171	772.45
660.618	700.75
661.064	663.45
661.511	639.95
661.957	636.25
662.404	628.35
662.85	636.75
663.296	612.05
663.743	542.85
664.189	525.15
664.635	518.95
665.082	510.05
665.528	511.25
665.974	502.05
666.42	497.55
666.867	491.45
667.313	475.85
667.759	464.25
668.205	466.85
668.651	476.05
669.097	470.85
669.543	485.45
669.989	451.35
670.435	441.35
670.881	426.75
671.327	433.35
671.773	457.45
672.219	475.15
672.665	515.05
673.11	557.45
673.556	610.25
674.002	636.15
674.448	630.35
674.893	524.75
675.339	464.15
675.785	417.25
676.23	400.85
676.676	382.55
677.122	361.25
677.567	357.45
678.013	344.35
678.458	345.75
678.904	346.65
679.349	325.25
679.794	332.95
680.24	341.05
680.685	331.85
681.131	328.05
681.576	339.35
682.021	336.65
682.466	332.25
682.912	331.25
683.357	339.85
683.802	365.85
684.247	396.05
684.692	444.95
685.137	476.45
685.583	516.45
686.028	540.95
686.473	495.15
686.918	433.55
687.363	402.15
687.807	374.95
688.252	341.05
688.697	346.95
689.142	322.85
689.587	317.35
690.032	304.45
690.477	332.45
690.921	325.95
691.366	370.65
691.811	383.45
692.255	412.15
692.7	435.55
693.145	476.65
693.589	655.95
694.034	1063.75
694.478	1463.35
694.923	1664.25
695.367	2176.25
695.812	1136.65
696.256	476.65
696.701	356.75
697.145	328.65
697.59	311.25
698.034	304.55
698.478	312.95
698.922	310.55
699.367	310.35
699.811	321.25
700.255	339.95
700.699	363.55
701.143	411.35
701.588	460.65
702.032	485.55
702.476	498.35
702.92	463.15
703.364	469.15
703.808	601.65
704.252	979.35
704.696	1380.45
705.14	1604.15
705.584	2052.15
706.027	1014.45
706.471	503.15
706.915	378.95
707.359	336.95
707.803	310.25
708.246	295.65
708.69	293.55
709.134	301.45
709.577	299.05
710.021	303.15
710.465	295.85
710.908	292.05
711.352	289.35
711.795	299.45
712.239	334.55
712.682	368.05
713.126	397.35
713.569	442.45
714.012	347.35
714.456	306.65
714.899	275.95
715.342	262.65
715.786	243.25
716.229	251.75
716.672	240.15
717.115	234.25
717.558	238.95
718.002	232.55
718.445	251.25
718.888	273.25
719.331	283.55
719.774	297.05
720.217	296.25
720.66	266.55
721.103	256.65
721.546	239.75
721.989	244.75
722.432	225.75
722.874	223.45
723.317	224.75
723.76	221.75
724.203	239.15
724.645	296.55
725.088	410.75
725.531	546.15
725.974	617.25
726.416	519.95
726.859	289.65
727.301	229.55
727.744	229.75
728.187	226.65
728.629	228.55
729.071	231.65
729.514	248.25
729.956	256.25
730.399	265.45
730.841	267.55
731.283	263.45
731.726	251.15
732.168	249.55
732.61	249.45
733.053	271.45
733.495	298.05
733.937	332.75
734.379	380.45
734.821	421.05
735.263	507.65
735.705	779.95
736.148	1491.65
736.59	2446.65
737.032	2910.05
737.474	2371.95
737.916	767.65
738.357	407.05
738.799	313.95
739.241	289.35
739.683	267.45
740.125	277.45
740.567	285.55
741.008	301.15
741.45	301.05
741.892	301.15
742.334	328.45
742.775	337.05
743.217	326.85
743.658	263.05
744.1	241.45
744.542	246.25
744.983	290.35
745.425	332.25
745.866	327.65
746.307	266.85
746.749	276.85
747.19	311.25
747.632	432.05
748.073	815.05
748.514	1750.15
748.956	2694.05
749.397	3379.65
749.838	2808.35
750.279	2837.45
750.72	1431.95
751.162	520.55
751.603	299.65
752.044	240.75
752.485	206.75
752.926	204.75
753.367	191.55
753.808	178.25
754.249	175.55
754.69	177.15
755.131	175.65
755.572	179.65
756.013	163.05
756.453	173.25
756.894	179.25
757.335	180.25
757.776	185.15
758.216	185.65
758.657	189.15
759.098	196.85
759.538	209.25
759.979	253.05
760.42	351.05
760.86	650.85
761.301	1680.85
761.741	4165.05
762.182	6139.65
