Data from 20171114-ORNL-Ar_H_NY_Subt18_08-05-26-421.txt Node
Date: Tue Nov 14 08:05:26 EST 2017
User: Ender
Spectrometer: HR+D1039
Trigger mode: 0
Integration Time (sec): 2.730000E-2
Scans to average: 10
Electric dark correction enabled: true
Nonlinearity correction enabled: false
Boxcar width: 0
XAxis mode: Wavelengths
Number of Pixels in Spectrum: 2048
>>>>>Begin Spectral Data<<<<<
187.836	-1.3
188.309	-1.3
188.782	-1.3
189.255	-2.8
189.728	-1.1
190.201	2.2
190.674	0.3
191.147	4.3
191.619	-13.4
192.092	2.9
192.565	6.5
193.038	2.2
193.511	2.2
193.984	1.2
194.456	-1.5
194.929	0.6
195.402	-0.4
195.874	-1.9
196.347	1.2
196.82	-6.2
197.292	5.4
197.765	-3.2
198.237	-7.5
198.71	-0
199.182	-2.6
199.655	7.6
200.127	5.3
200.6	-4
201.072	2.1
201.544	-3.5
202.017	-7.8
202.489	7.5
202.961	-5.8
203.433	-4.7
203.906	-8.8
204.378	-3.1
204.85	0.6
205.322	-7
205.794	-3.6
206.266	-6
206.739	-8.7
207.211	-0.8
207.683	-7.3
208.155	-1.5
208.627	-7.6
209.099	-7
209.57	-10.4
210.042	-1.9
210.514	-3.4
210.986	2.7
211.458	-7.8
211.93	-5.2
212.402	0.4
212.873	-5.3
213.345	-7.4
213.817	-8.9
214.288	0.3
214.76	-7.5
215.232	-3.5
215.703	-3.8
216.175	-2.8
216.646	-4.2
217.118	-6.2
217.589	-3.8
218.061	-5.9
218.532	-1
219.004	2.8
219.475	-0.5
219.946	-6
220.418	-9.7
220.889	-1.2
221.36	1.9
221.832	-5.3
222.303	-7.2
222.774	1.7
223.245	-9.5
223.717	-8.1
224.188	-2.9
224.659	-5.9
225.13	-3.9
225.601	-4.9
226.072	4.8
226.543	-0.7
227.014	-0.6
227.485	-5.1
227.956	-7.4
228.427	2.7
228.898	1.2
229.369	0.7
229.839	-2.2
230.31	-5.3
230.781	1.8
231.252	-2.6
231.722	-6.7
232.193	-5.8
232.664	-3.4
233.135	3.3
233.605	-1.9
234.076	-6.3
234.546	3.1
235.017	1.7
235.487	2.6
235.958	-6.1
236.428	-3.6
236.899	3.7
237.369	2.2
237.84	-1.9
238.31	2.1
238.78	3.2
239.251	-1.8
239.721	2.7
240.191	2.7
240.662	0.5
241.132	4.2
241.602	-0.1
242.072	0.8
242.542	3.8
243.013	1.6
243.483	3.5
243.953	0.4
244.423	0.2
244.893	2
245.363	9.1
245.833	2.4
246.303	-3.7
246.773	3.8
247.243	9.7
247.712	1.5
248.182	8.2
248.652	9
249.122	4.3
249.592	16.9
250.061	29.3
250.531	30.1
251.001	17
251.471	18.2
251.94	20.3
252.41	10.8
252.879	3.9
253.349	11.1
253.818	12
254.288	3.5
254.757	8.1
255.227	5.6
255.696	4.7
256.166	6.2
256.635	10.6
257.105	8.6
257.574	10.7
258.043	6.4
258.513	14.9
258.982	15.7
259.451	7.5
259.92	8.5
260.389	8.4
260.859	13
261.328	13
261.797	24.2
262.266	7
262.735	10.1
263.204	5
263.673	4.4
264.142	3.1
264.611	-0.9
265.08	3.3
265.549	6.7
266.018	5.4
266.487	2.4
266.955	1.9
267.424	3.5
267.893	4.9
268.362	3.8
268.83	4
269.299	10.3
269.768	5.4
270.236	5.5
270.705	6.1
271.174	11.6
271.642	4.1
272.111	12.7
272.579	18.5
273.048	25.7
273.516	31
273.985	24.2
274.453	27.2
274.922	23.2
275.39	16.2
275.858	7.5
276.327	10.7
276.795	16.5
277.263	14.5
277.731	33.3
278.2	56
278.668	71
279.136	55.4
279.604	22.9
280.072	19.1
280.54	13
281.008	10.1
281.477	18.4
281.945	13.8
282.413	13.8
282.881	15.4
283.348	12.6
283.816	17.2
284.284	17.5
284.752	21.7
285.22	17.2
285.688	13.9
286.156	20.6
286.623	48.6
287.091	52.1
287.559	31.8
288.026	23.6
288.494	19.8
288.962	8.6
289.429	15.1
289.897	15.9
290.364	17.2
290.832	17.7
291.3	23.1
291.767	16.8
292.234	16.4
292.702	9.3
293.169	18.2
293.637	23.8
294.104	21.9
294.571	8.2
295.039	15
295.506	14.6
295.973	18.5
296.44	18.3
296.908	28.6
297.375	18
297.842	17.4
298.309	17.6
298.776	15.7
299.243	22.6
299.71	17.4
300.177	22.7
300.644	24.5
301.111	22.1
301.578	23.9
302.045	20.7
302.512	26.1
302.979	26.8
303.446	24.2
303.913	21.6
304.379	17.4
304.846	26.3
305.313	30.8
305.78	28
306.246	29.6
306.713	32.7
307.18	25.4
307.646	27.1
308.113	32.1
308.579	23.2
309.046	24.8
309.512	27.2
309.979	23.5
310.445	30.3
310.912	27.8
311.378	25.9
311.845	34.2
312.311	27.4
312.777	34.9
313.244	30.7
313.71	44.1
314.176	35.8
314.642	35.1
315.109	30.3
315.575	38.7
316.041	44.3
316.507	34.2
316.973	44.8
317.439	35.2
317.905	32.5
318.371	41.8
318.837	32.6
319.303	33.3
319.769	33.7
320.235	38.3
320.701	34.3
321.167	38.2
321.633	38.6
322.099	42.4
322.564	42.7
323.03	38.4
323.496	36.8
323.962	42.6
324.427	49.7
324.893	45.3
325.359	43.4
325.824	40.7
326.29	34.4
326.755	45.4
327.221	42.1
327.686	40.6
328.152	47.3
328.617	43.5
329.083	49.9
329.548	54.4
330.014	56.6
330.479	39.4
330.944	43.2
331.41	47.9
331.875	52.8
332.34	42.9
332.805	48.2
333.271	51.8
333.736	42.3
334.201	53.3
334.666	57.4
335.131	59.1
335.596	53.9
336.061	53.9
336.526	44.9
336.991	53.8
337.456	55.9
337.921	47.4
338.386	46.6
338.851	43.4
339.316	46.5
339.781	51.2
340.246	48.6
340.711	45.2
341.175	46.5
341.64	49.3
342.105	59.9
342.569	60.9
343.034	62.7
343.499	56.4
343.963	55.7
344.428	62.9
344.893	61.4
345.357	61.6
345.822	61.5
346.286	70.5
346.751	75.7
347.215	71.7
347.679	79.7
348.144	99.3
348.608	89.9
349.073	61.2
349.537	76.2
350.001	79.2
350.465	88
350.93	85.8
351.394	78.6
351.858	80.2
352.322	90.6
352.786	83.3
353.25	108.1
353.715	109.3
354.179	102.3
354.643	129
355.107	123.3
355.571	111.9
356.035	98.4
356.498	117.3
356.962	125.3
357.426	133.6
357.89	117
358.354	94
358.818	80.9
359.281	82.5
359.745	80.9
360.209	74
360.673	76.5
361.136	82.2
361.6	86
362.064	83.6
362.527	84.1
362.991	89.5
363.454	89.7
363.918	79.8
364.381	78.2
364.845	80.8
365.308	88.3
365.772	91.2
366.235	88.5
366.698	86
367.162	85
367.625	84.1
368.088	86.6
368.552	86.7
369.015	92.1
369.478	98.9
369.941	97
370.404	97.2
370.867	104.5
371.331	109.1
371.794	113
372.257	109.6
372.72	119.5
373.183	110.2
373.646	107.1
374.109	101.5
374.572	108.6
375.035	110.1
375.497	109.4
375.96	102.3
376.423	103.5
376.886	114.5
377.349	105.7
377.811	101.1
378.274	102
378.737	105.8
379.199	112.5
379.662	106.7
380.125	113
380.587	113.4
381.05	119.6
381.512	132.6
381.975	134.5
382.437	125.7
382.9	125.8
383.362	134.8
383.825	139.2
384.287	145.9
384.75	141.4
385.212	139
385.674	137.1
386.136	138.7
386.599	125.5
387.061	125.2
387.523	124.9
387.985	134
388.447	148.5
388.91	140.6
389.372	154.3
389.834	158.7
390.296	148.4
390.758	150.3
391.22	161.3
391.682	198.8
392.144	290.6
392.606	228
393.068	168.2
393.529	166.6
393.991	152.8
394.453	148
394.915	154.9
395.377	185
395.838	207.1
396.3	149.5
396.762	141
397.224	132.6
397.685	125.9
398.147	125.7
398.608	126.2
399.07	129
399.531	128
399.993	140.8
400.454	158.4
400.916	147.7
401.377	144.5
401.839	148
402.3	151.5
402.762	161.5
403.223	176.1
403.684	167.3
404.145	158.5
404.607	160.3
405.068	161
405.529	172.1
405.99	184.8
406.451	175.2
406.913	169.1
407.374	163
407.835	160.9
408.296	164.4
408.757	173.7
409.218	184.7
409.679	176.6
410.14	170.9
410.601	178.5
411.062	186.8
411.522	184.6
411.983	183.3
412.444	172.5
412.905	177.2
413.366	176.4
413.826	192.1
414.287	214.8
414.748	261.6
415.208	240.3
415.669	215.9
416.13	204.4
416.59	194.1
417.051	210.1
417.511	216.7
417.972	238.7
418.432	238.2
418.893	284.9
419.353	244.6
419.814	194
420.274	174.3
420.734	174
421.195	197.8
421.655	195.1
422.115	194.9
422.576	190.7
423.036	198.7
423.496	206.1
423.956	212.3
424.416	227.4
424.876	265
425.336	257
425.797	261.1
426.257	252.3
426.717	240.3
427.177	233.6
427.637	221.2
428.097	235.9
428.556	244
429.016	266.9
429.476	265.9
429.936	271.4
430.396	273.6
430.856	291.1
431.315	302.9
431.775	352.5
432.235	374.2
432.694	349.5
433.154	357.8
433.614	387.4
434.073	340.9
434.533	284.7
434.993	264.7
435.452	281.1
435.912	289.5
436.371	283.4
436.83	283.7
437.29	262.3
437.749	249.5
438.209	241.7
438.668	267.5
439.127	293
439.587	265.5
440.046	243.1
440.505	262.9
440.964	278.7
441.424	322.9
441.883	306.2
442.342	255.1
442.801	226.2
443.26	218.9
443.719	214.6
444.178	212.3
444.637	204.5
445.096	217.3
445.555	212.5
446.014	214.9
446.473	221.9
446.932	229.4
447.391	228.6
447.849	229.2
448.308	220.6
448.767	215.8
449.226	231.7
449.685	228.4
450.143	250.7
450.602	239.9
451.061	226.4
451.519	233.7
451.978	223
452.436	226.1
452.895	236.2
453.353	248.4
453.812	240.2
454.27	235.2
454.729	235.7
455.187	239.3
455.646	246.3
456.104	244
456.562	252.4
457.021	262
457.479	253.6
457.937	272.8
458.395	253.6
458.854	237.7
459.312	256
459.77	265.2
460.228	261.1
460.686	238.4
461.144	243.4
461.602	247.2
462.06	240.9
462.518	251.4
462.976	251.4
463.434	254.7
463.892	266.8
464.35	279.5
464.808	292.8
465.266	264.8
465.724	262.7
466.181	271
466.639	267.7
467.097	288.9
467.555	299
468.012	294.8
468.47	302.3
468.928	330.1
469.385	338.8
469.843	343.3
470.3	345.6
470.758	362.2
471.215	382.4
471.673	407.4
472.13	409.2
472.588	417.3
473.045	376.5
473.503	375
473.96	394
474.417	394.5
474.875	427.9
475.332	462.7
475.789	456.7
476.246	461.6
476.704	480.7
477.161	501.8
477.618	526.6
478.075	556.5
478.532	611.9
478.989	689.8
479.446	807.5
479.903	766.3
480.36	802.8
480.817	860.3
481.274	968.4
481.731	1068.8
482.188	1166
482.645	1296.3
483.102	1419.4
483.558	1544.1
484.015	1611.1
484.472	1579.8
484.929	1523.8
485.385	1480.1
485.842	1435.2
486.299	1367.6
486.755	1309.6
487.212	1080.3
487.668	924.9
488.125	853.4
488.582	777.9
489.038	752.3
489.494	715.8
489.951	690.7
490.407	651
490.864	645.6
491.32	640.7
491.776	636.6
492.233	649.1
492.689	613.3
493.145	599
493.602	589.8
494.058	604.4
494.514	607.2
494.97	637
495.426	648.7
495.882	616.7
496.338	609.2
496.794	631.2
497.251	624.7
497.707	634.9
498.163	645.7
498.618	657.3
499.074	644.5
499.53	673.9
499.986	678.8
500.442	654.8
500.898	632.5
501.354	627.4
501.809	633.2
502.265	634.5
502.721	664.8
503.177	670.7
503.632	661.7
504.088	673.1
504.543	705.4
504.999	711.8
505.455	645.1
505.91	632.8
506.366	630.8
506.821	632.9
507.277	618.5
507.732	620.9
508.187	617.1
508.643	623
509.098	629.1
509.553	654.4
510.009	664.8
510.464	670.1
510.919	682.5
511.375	693.8
511.83	705
512.285	728.3
512.74	753.6
513.195	783.9
513.65	773.9
514.105	769.1
514.56	771.5
515.015	793.1
515.47	816.4
515.925	791.3
516.38	787.8
516.835	795.8
517.29	776.6
517.745	767.8
518.2	764.2
518.655	750.4
519.109	744.5
519.564	742.3
520.019	726.7
520.474	726.2
520.928	726.7
521.383	713.5
521.838	718.7
522.292	712.8
522.747	708.1
523.201	703.2
523.656	687.4
524.11	697.8
524.565	693.8
525.019	679.9
525.474	695.2
525.928	693.9
526.382	683.8
526.837	698.3
527.291	701.1
527.745	691.4
528.2	690.1
528.654	689.4
529.108	684.7
529.562	686.5
530.016	687.6
530.47	683.8
530.925	686.5
531.379	694.5
531.833	703.9
532.287	701
532.741	699.1
533.195	698
533.649	702.5
534.103	711.2
534.556	716.9
535.01	704.3
535.464	705.5
535.918	723
536.372	720.4
536.826	716.5
537.279	707.3
537.733	720.6
538.187	703.6
538.64	718.2
539.094	719.2
539.548	729
540.001	718.2
540.455	720.1
540.908	721.4
541.362	739.6
541.815	740.9
542.269	752.1
542.722	751.2
543.175	756.6
543.629	761.2
544.082	782.4
544.536	780.1
544.989	782.6
545.442	790
545.895	782.8
546.349	778.3
546.802	787.5
547.255	791.1
547.708	794.1
548.161	803.5
548.614	807.4
549.067	823.9
549.52	817.3
549.973	804.3
550.426	797.7
550.879	794.4
551.332	783
551.785	791.2
552.238	803.5
552.691	813.6
553.144	822.4
553.596	843.1
554.049	869.5
554.502	885
554.955	912.5
555.407	903
555.86	894.9
556.313	895.6
556.765	872.7
557.218	870.5
557.67	869.3
558.123	870.2
558.576	862.8
559.028	870.2
559.48	876.3
559.933	864.4
560.385	831.1
560.838	796.6
561.29	772.9
561.742	766.4
562.195	749.7
562.647	753.5
563.099	764.6
563.551	767.9
564.004	768.9
564.456	754.6
564.908	757.2
565.36	744.6
565.812	727.2
566.264	716
566.716	708.6
567.168	707.2
567.62	710.5
568.072	692.3
568.524	686.4
568.976	680.7
569.428	676.2
569.88	658.9
570.332	666.6
570.784	666.2
571.235	660.9
571.687	684.7
572.139	694.6
572.59	699.8
573.042	699.2
573.494	700.9
573.945	687.7
574.397	667.8
574.849	666.2
575.3	681.2
575.752	677.9
576.203	672.4
576.655	671.7
577.106	657.1
577.557	654.6
578.009	655.7
578.46	650
578.912	653
579.363	648.3
579.814	662.5
580.265	647.2
580.717	651.2
581.168	666.5
581.619	668.8
582.07	672
582.521	679.5
582.972	661.4
583.423	665.3
583.875	662.6
584.326	697.4
584.777	740.1
585.227	814.9
585.678	895
586.129	975.4
586.58	1053.4
587.031	1137.8
587.482	1285.1
587.933	1470.8
588.384	1286.3
588.834	958
589.285	785.3
589.736	760.5
590.186	758.5
590.637	748.8
591.088	721
591.538	721.5
591.989	709.5
592.439	714.6
592.89	706.3
593.34	702.1
593.791	696.2
594.241	688.1
594.692	685.9
595.142	685.5
595.593	683.7
596.043	690.8
596.493	691.7
596.943	697.5
597.394	710
597.844	697.9
598.294	711.5
598.744	741.1
599.195	759.2
599.645	794.2
600.095	829.4
600.545	885.3
600.995	936.6
601.445	993.9
601.895	1054.7
602.345	1102.2
602.795	1088.4
603.245	1036.7
603.695	986.1
604.145	925.1
604.594	882.1
605.044	836.7
605.494	783.8
605.944	731
606.393	732.3
606.843	715.7
607.293	710.2
607.743	711.7
608.192	726.1
608.642	742.3
609.091	743.4
609.541	759.9
609.99	743
610.44	747.3
610.889	698.2
611.339	682.3
611.788	665.2
612.238	672.5
612.687	699.3
613.136	698.1
613.586	712.4
614.035	709.9
614.484	738.6
614.933	734.8
615.383	736.5
615.832	726.4
616.281	693.1
616.73	673.4
617.179	648.4
617.628	629.5
618.077	617.5
618.526	609.6
618.975	597.7
619.424	594.4
619.873	590.8
620.322	587.7
620.771	584.4
621.22	574.8
621.669	573.5
622.118	573.6
622.567	564
623.015	560.5
623.464	558.1
623.913	541
624.361	527.2
624.81	534.9
625.259	530
625.707	544.3
626.156	533.5
626.604	550.5
627.053	549
627.501	537.7
627.95	547.8
628.398	559.6
628.847	543.6
629.295	547.1
629.744	555.5
630.192	546.3
630.64	552.3
631.089	543
631.537	551.1
631.985	562.1
632.433	573.6
632.881	575.6
633.33	619.1
633.778	607.8
634.226	552.1
634.674	543.2
635.122	550.5
635.57	569.2
636.018	605.6
636.466	558
636.914	542.9
637.362	539.2
637.81	557.2
638.258	564.2
638.705	560
639.153	586.9
639.601	586.4
640.049	617.3
640.497	654.3
640.944	659.9
641.392	619.2
641.84	583.5
642.287	555.6
642.735	542.3
643.182	558.5
643.63	556.7
644.078	552.7
644.525	568.6
644.973	581
645.42	584.3
645.867	604
646.315	617.5
646.762	631.5
647.21	663.7
647.657	696.5
648.104	727.5
648.551	743
648.999	801.7
649.446	875
649.893	971.9
650.34	1123.1
650.787	1325
651.234	1645
651.682	2142.1
652.129	2939.8
652.576	4208.5
653.023	6258
653.47	8616
653.917	10853.1
654.363	12559.6
654.81	13992.4
655.257	13310.4
655.704	8661.8
656.151	5135.4
656.598	3323.1
657.044	2341.3
657.491	1795.1
657.938	1432.2
658.385	1204
658.831	1042.6
659.278	924.2
659.724	818
660.171	757.8
660.618	691.2
661.064	664.4
661.511	633.6
661.957	631.1
662.404	612.4
662.85	617
663.296	594.2
663.743	536.8
664.189	513.5
664.635	505
665.082	498
665.528	503.2
665.974	495.6
666.42	487.5
666.867	487.1
667.313	466.5
667.759	453.1
668.205	450.5
668.651	468.4
669.097	467.2
669.543	484.2
669.989	445.6
670.435	424.3
670.881	423.9
671.327	429.8
671.773	449.9
672.219	465.9
672.665	520.6
673.11	549.3
673.556	589.1
674.002	625
674.448	612.3
674.893	529.8
675.339	453.7
675.785	422.8
676.23	399.2
676.676	375.6
677.122	360.7
677.567	357.6
678.013	347.1
678.458	346.7
678.904	347.6
679.349	334.7
679.794	333.8
680.24	329.1
680.685	332.6
681.131	330.7
681.576	326.5
682.021	341.2
682.466	330.1
682.912	327.4
683.357	332.8
683.802	360.4
684.247	384.1
684.692	435
685.137	470.4
685.583	506.1
686.028	528.1
686.473	495.9
686.918	418.6
687.363	397.3
687.807	363.7
688.252	343.5
688.697	340.5
689.142	321.4
689.587	314.7
690.032	306.3
690.477	322.9
690.921	332.9
691.366	355.2
691.811	387.7
692.255	401.8
692.7	436.1
693.145	463.9
693.589	644.2
694.034	1050.7
694.478	1440.4
694.923	1651.1
695.367	2158.1
695.812	1121.7
696.256	474.7
696.701	348.1
697.145	325.6
697.59	313.6
698.034	299.3
698.478	311.9
698.922	307.9
699.367	311.6
699.811	309.6
700.255	331.6
700.699	357.5
701.143	407
701.588	450.3
702.032	481.5
702.476	487.7
702.92	464.2
703.364	453.9
703.808	592.8
704.252	955
704.696	1353
705.14	1579
705.584	2021.3
706.027	1003.7
706.471	497.5
706.915	373.9
707.359	327.2
707.803	300.9
708.246	294.1
708.69	297.4
709.134	292
709.577	294.6
710.021	290.1
710.465	287.4
710.908	280.3
711.352	281.3
711.795	293
712.239	327.9
712.682	359.7
713.126	386.7
713.569	441.9
714.012	343
714.456	304.8
714.899	286.6
715.342	263.7
715.786	241.9
716.229	242.1
716.672	228.7
717.115	236.9
717.558	241.6
718.002	234.3
718.445	237.4
718.888	271.5
719.331	279.1
719.774	290
720.217	285
720.66	269.3
721.103	254.2
721.546	241
721.989	231.6
722.432	220.5
722.874	218.6
723.317	214.3
723.76	221.7
724.203	245
724.645	298.8
725.088	417.2
725.531	537.1
725.974	618.3
726.416	515.7
726.859	283.3
727.301	237.1
727.744	221.1
728.187	217.1
728.629	223.9
729.071	228.4
729.514	246
729.956	258.6
730.399	266.4
730.841	269.7
731.283	256.1
731.726	252.1
732.168	245.4
732.61	243.2
733.053	265.4
733.495	294.2
733.937	329.7
734.379	374.4
734.821	407.3
735.263	499.7
735.705	758.1
736.148	1453.1
736.59	2400.4
737.032	2874.5
737.474	2356.1
737.916	757.4
738.357	411.2
738.799	309.4
739.241	282.5
739.683	268.5
740.125	273.2
740.567	282.3
741.008	284.6
741.45	301.2
741.892	292.7
742.334	327.6
742.775	336.5
743.217	321.4
743.658	257
744.1	249.8
744.542	244.1
744.983	292.5
745.425	324.5
745.866	326.5
746.307	269.5
746.749	265.1
747.19	298.9
747.632	413.9
748.073	805.4
748.514	1705.4
748.956	2689.5
749.397	3337.4
749.838	2778.2
750.279	2810
750.72	1415.8
751.162	512.9
751.603	297.5
752.044	234.9
752.485	205.9
752.926	196.3
753.367	188.7
753.808	177.6
754.249	183.2
754.69	178.8
755.131	172.8
755.572	167.4
756.013	161.6
756.453	170.9
756.894	173.3
757.335	184.4
757.776	179.2
758.216	185.3
758.657	179.9
759.098	186.7
759.538	220.5
759.979	247.6
760.42	344.4
760.86	639.3
761.301	1653.3
761.741	4065.3
762.182	6110.1
762.622	4286.3
763.063	1226
763.503	513.8
763.943	320.5
764.384	317.8
764.824	380.6
765.264	419.6
765.705	291.6
766.145	197.5
766.585	178.3
767.025	169.4
767.465	171.5
767.906	224.8
768.346	306.4
768.786	325.8
769.226	247.3
769.666	291
770.106	555.9
770.546	1417.5
770.986	2488.1
771.426	2241.1
771.866	740.2
772.306	307.8
772.745	203.2
773.185	162.6
773.625	158.8
774.065	149.4
774.505	185.9
774.944	289.4
775.384	626.8
775.824	1163.9
776.263	1142.2
776.703	478.4
777.142	206.1
777.582	146.7
778.021	134.8
778.461	130.2
778.9	131.5
779.34	128
779.779	109
780.219	104.4
780.658	98.3
781.097	105.9
781.537	106.4
781.976	105.4
782.415	98.3
782.855	97
783.294	99.9
783.733	104
784.172	98.6
784.611	100.7
785.05	97.7
785.489	106.9
785.928	117.1
786.367	111.8
786.806	110.7
787.245	126.1
787.684	126.6
788.123	137
788.562	127.2
789.001	117.9
789.44	102.5
789.879	113.7
790.317	114.7
790.756	122.6
791.195	122.8
791.634	136.6
792.072	188.1
792.511	329.9
792.95	905
793.388	1999.4
793.827	1843.8
794.265	634.8
794.704	265.4
795.142	173.7
795.581	145.8
796.019	128.1
796.458	116.4
796.896	114.7
797.334	126.6
797.773	141.5
798.211	198.4
798.649	402.7
799.087	941.9
799.526	1486.1
799.964	1873.7
800.402	1902.3
800.84	712
801.278	281.9
801.716	175.2
802.154	141.9
802.592	132.7
803.03	121
803.468	129.3
803.906	133.7
804.344	139.5
804.782	131.6
805.22	127.6
805.658	121.8
806.096	132.6
806.533	150.3
806.971	165.3
807.409	200.4
