Data from 20171114-ORNL-Ar_H_NY_Subt18_08-06-03-536.txt Node
Date: Tue Nov 14 08:06:03 EST 2017
User: Ender
Spectrometer: HR+D1039
Trigger mode: 0
Integration Time (sec): 2.730000E-2
Scans to average: 10
Electric dark correction enabled: true
Nonlinearity correction enabled: false
Boxcar width: 0
XAxis mode: Wavelengths
Number of Pixels in Spectrum: 2048
>>>>>Begin Spectral Data<<<<<
187.836	1.54
188.309	1.54
188.782	1.54
189.255	2.84
189.728	-2.36
190.201	1.84
190.674	-0.86
191.147	7.54
191.619	-8.66
192.092	-2.16
192.565	5.84
193.038	2.64
193.511	-3.86
193.984	-0.26
194.456	-2.76
194.929	3.94
195.402	-6.76
195.874	1.54
196.347	1.74
196.82	-6.96
197.292	5.34
197.765	2.74
198.237	-4.86
198.71	2.74
199.182	-0.76
199.655	-2.06
200.127	-0.76
200.6	-4.66
201.072	-2.16
201.544	-9.56
202.017	-1.96
202.489	2.44
202.961	0.44
203.433	-3.86
203.906	-7.86
204.378	-8.86
204.85	-0.06
205.322	-8.96
205.794	-2.36
206.266	-6.26
206.739	-5.06
207.211	-1.26
207.683	-10.16
208.155	-5.16
208.627	-9.56
209.099	-9.96
209.57	-7.76
210.042	0.64
210.514	-3.26
210.986	-3.56
211.458	-8.26
211.93	-1.06
212.402	2.04
212.873	-11.56
213.345	-6.86
213.817	-14.16
214.288	3.24
214.76	-13.26
215.232	0.34
215.703	-7.86
216.175	-0.56
216.646	-3.76
217.118	-7.76
217.589	0.04
218.061	-7.16
218.532	-6.06
219.004	1.94
219.475	-2.76
219.946	-4.06
220.418	-6.46
220.889	2.74
221.36	-0.26
221.832	-1.36
222.303	-3.86
222.774	-0.76
223.245	-7.96
223.717	-2.86
224.188	-3.56
224.659	-4.56
225.13	-11.86
225.601	-6.16
226.072	-1.66
226.543	-6.16
227.014	-1.56
227.485	-2.06
227.956	-2.66
228.427	-4.56
228.898	-3.56
229.369	1.94
229.839	-8.76
230.31	-9.66
230.781	3.04
231.252	-0.16
231.722	-3.46
232.193	-1.66
232.664	-0.46
233.135	6.64
233.605	2.14
234.076	-2.56
234.546	0.14
235.017	6.64
235.487	-1.76
235.958	-7.26
236.428	-1.16
236.899	1.84
237.369	3.44
237.84	3.74
238.31	11.14
238.78	1.34
239.251	2.24
239.721	2.84
240.191	0.24
240.662	0.44
241.132	2.64
241.602	-3.66
242.072	-1.36
242.542	7.24
243.013	4.84
243.483	-0.56
243.953	3.74
244.423	-6.56
244.893	-4.26
245.363	0.14
245.833	9.94
246.303	-3.26
246.773	9.94
247.243	-1.26
247.712	-2.56
248.182	11.44
248.652	8.34
249.122	2.74
249.592	12.74
250.061	24.94
250.531	29.24
251.001	13.84
251.471	22.84
251.94	15.84
252.41	1.64
252.879	3.34
253.349	10.74
253.818	5.94
254.288	3.54
254.757	6.64
255.227	5.04
255.696	4.34
256.166	11.34
256.635	5.64
257.105	4.54
257.574	5.64
258.043	7.94
258.513	8.14
258.982	14.64
259.451	5.34
259.92	5.74
260.389	13.34
260.859	17.34
261.328	12.94
261.797	19.44
262.266	2.04
262.735	8.04
263.204	7.04
263.673	5.54
264.142	12.14
264.611	2.24
265.08	3.24
265.549	1.74
266.018	9.44
266.487	-4.76
266.955	-9.36
267.424	5.34
267.893	7.84
268.362	6.64
268.83	4.64
269.299	13.84
269.768	2.84
270.236	9.14
270.705	-3.66
271.174	5.94
271.642	9.14
272.111	10.94
272.579	15.14
273.048	21.64
273.516	30.64
273.985	27.94
274.453	22.84
274.922	14.74
275.39	17.74
275.858	2.64
276.327	11.14
276.795	16.04
277.263	9.64
277.731	30.74
278.2	60.14
278.668	56.14
279.136	49.44
279.604	19.54
280.072	12.64
280.54	16.14
281.008	10.94
281.477	15.14
281.945	14.74
282.413	20.04
282.881	19.44
283.348	5.04
283.816	16.74
284.284	12.64
284.752	22.64
285.22	14.54
285.688	20.94
286.156	15.64
286.623	42.04
287.091	53.84
287.559	24.74
288.026	19.34
288.494	17.64
288.962	11.84
289.429	13.44
289.897	21.34
290.364	14.74
290.832	16.24
291.3	14.24
291.767	16.34
292.234	16.54
292.702	13.24
293.169	23.64
293.637	18.54
294.104	22.04
294.571	9.54
295.039	13.84
295.506	15.04
295.973	18.04
296.44	19.74
296.908	18.04
297.375	23.34
297.842	12.74
298.309	18.34
298.776	17.34
299.243	26.14
299.71	14.34
300.177	25.34
300.644	20.64
301.111	24.34
301.578	27.64
302.045	22.24
302.512	22.84
302.979	26.54
303.446	28.54
303.913	20.64
304.379	23.84
304.846	27.14
305.313	27.44
305.78	19.34
306.246	26.54
306.713	25.84
307.18	25.64
307.646	30.84
308.113	26.64
308.579	26.44
309.046	24.94
309.512	31.74
309.979	26.24
310.445	24.44
310.912	30.54
311.378	35.34
311.845	30.74
312.311	31.04
312.777	31.24
313.244	30.24
313.71	37.14
314.176	37.24
314.642	33.84
315.109	34.44
315.575	37.54
316.041	37.34
316.507	35.54
316.973	39.44
317.439	34.84
317.905	34.94
318.371	34.64
318.837	37.74
319.303	31.94
319.769	35.34
320.235	38.54
320.701	39.54
321.167	36.44
321.633	36.74
322.099	49.54
322.564	47.94
323.03	42.74
323.496	45.44
323.962	40.44
324.427	40.44
324.893	39.14
325.359	34.04
325.824	40.64
326.29	41.04
326.755	40.74
327.221	44.24
327.686	40.14
328.152	49.74
328.617	47.54
329.083	49.44
329.548	59.24
330.014	50.84
330.479	37.34
330.944	44.84
331.41	38.84
331.875	50.84
332.34	37.44
332.805	47.84
333.271	50.54
333.736	53.54
334.201	56.24
334.666	52.74
335.131	55.64
335.596	54.64
336.061	54.34
336.526	46.84
336.991	48.34
337.456	56.04
337.921	50.14
338.386	43.74
338.851	52.44
339.316	44.54
339.781	48.64
340.246	53.14
340.711	52.74
341.175	55.84
341.64	50.94
342.105	54.34
342.569	59.94
343.034	68.34
343.499	60.54
343.963	56.24
344.428	64.44
344.893	61.24
345.357	62.74
345.822	62.74
346.286	70.74
346.751	78.74
347.215	74.94
347.679	84.24
348.144	102.94
348.608	89.44
349.073	67.54
349.537	78.74
350.001	87.04
350.465	87.14
350.93	84.44
351.394	91.44
351.858	74.74
352.322	95.84
352.786	93.34
353.25	107.34
353.715	115.34
354.179	104.54
354.643	127.04
355.107	129.64
355.571	108.94
356.035	103.24
356.498	120.74
356.962	127.94
357.426	136.74
357.89	121.84
358.354	93.54
358.818	86.04
359.281	84.84
359.745	84.54
360.209	73.54
360.673	80.34
361.136	81.84
361.6	91.34
362.064	94.54
362.527	89.94
362.991	96.24
363.454	88.44
363.918	81.34
364.381	85.24
364.845	87.74
365.308	88.14
365.772	90.64
366.235	91.14
366.698	83.74
367.162	93.34
367.625	96.74
368.088	92.64
368.552	96.04
369.015	91.44
369.478	105.94
369.941	104.84
370.404	102.74
370.867	110.54
371.331	105.04
371.794	119.24
372.257	115.34
372.72	122.44
373.183	112.54
373.646	110.54
374.109	104.04
374.572	110.54
375.035	117.64
375.497	109.04
375.96	108.54
376.423	106.24
376.886	118.04
377.349	116.14
377.811	102.34
378.274	109.54
378.737	111.04
379.199	113.24
379.662	116.84
380.125	121.94
380.587	117.64
381.05	129.24
381.512	126.84
381.975	135.54
382.437	137.44
382.9	136.64
383.362	135.94
383.825	149.44
384.287	156.64
384.75	152.64
385.212	144.24
385.674	147.64
386.136	145.14
386.599	127.34
387.061	137.74
387.523	135.84
387.985	144.34
388.447	155.74
388.91	154.74
389.372	165.64
389.834	155.94
390.296	147.74
390.758	161.14
391.22	176.14
391.682	212.84
392.144	302.64
392.606	233.34
393.068	174.34
393.529	180.04
393.991	164.14
394.453	155.34
394.915	162.44
395.377	193.34
395.838	218.14
396.3	162.74
396.762	147.14
397.224	141.34
397.685	132.64
398.147	141.24
398.608	140.34
399.07	132.24
399.531	142.64
399.993	154.94
400.454	154.54
400.916	160.44
401.377	157.74
401.839	158.94
402.3	161.24
402.762	177.64
403.223	185.74
403.684	169.44
404.145	170.04
404.607	170.34
405.068	172.24
405.529	184.94
405.99	197.04
406.451	185.54
406.913	182.74
407.374	175.04
407.835	176.04
408.296	179.64
408.757	179.54
409.218	199.44
409.679	189.54
410.14	188.14
410.601	186.04
411.062	190.54
411.522	199.54
411.983	198.94
412.444	183.74
412.905	187.04
413.366	189.84
413.826	199.14
414.287	231.24
414.748	283.24
415.208	256.84
415.669	221.94
416.13	214.94
416.59	214.34
417.051	228.74
417.511	237.94
417.972	244.94
418.432	252.44
418.893	301.54
419.353	256.34
419.814	204.84
420.274	188.14
420.734	189.04
421.195	206.44
421.655	202.64
422.115	204.14
422.576	198.64
423.036	208.84
423.496	213.44
423.956	224.94
424.416	245.44
424.876	278.74
425.336	265.14
425.797	272.74
426.257	266.54
426.717	251.74
427.177	245.64
427.637	235.14
428.097	242.94
428.556	252.24
429.016	277.84
429.476	274.94
429.936	281.54
430.396	297.04
430.856	313.94
431.315	330.04
431.775	367.64
432.235	401.84
432.694	367.54
433.154	380.84
433.614	412.04
434.073	355.34
434.533	294.14
434.993	276.64
435.452	296.24
435.912	299.64
436.371	296.84
436.83	295.54
437.29	280.84
437.749	260.54
438.209	260.94
438.668	288.74
439.127	303.94
439.587	277.24
440.046	257.74
440.505	276.44
440.964	294.24
441.424	345.44
441.883	329.34
442.342	273.94
442.801	235.24
443.26	229.24
443.719	230.04
444.178	229.64
444.637	220.94
445.096	230.74
445.555	234.74
446.014	230.24
446.473	238.44
446.932	241.74
447.391	239.34
447.849	237.34
448.308	225.64
448.767	231.44
449.226	243.44
449.685	250.04
450.143	254.34
450.602	256.74
451.061	234.14
451.519	241.74
451.978	244.24
452.436	248.94
452.895	248.94
453.353	265.44
453.812	255.84
454.27	252.84
454.729	251.74
455.187	245.94
455.646	248.64
456.104	263.44
456.562	272.34
457.021	276.64
457.479	270.74
457.937	288.64
458.395	273.34
458.854	259.54
459.312	265.44
459.77	291.24
460.228	265.44
460.686	252.64
461.144	260.84
461.602	252.94
462.06	249.84
462.518	262.34
462.976	265.64
463.434	267.64
463.892	270.14
464.35	286.34
464.808	295.14
465.266	276.54
465.724	278.84
466.181	284.04
466.639	280.84
467.097	307.54
467.555	318.74
468.012	323.94
468.47	321.64
468.928	344.44
469.385	357.44
469.843	358.24
470.3	371.04
470.758	380.74
471.215	397.04
471.673	425.04
472.13	427.84
472.588	433.84
473.045	385.24
473.503	396.24
473.96	414.04
474.417	421.74
474.875	454.04
475.332	489.54
475.789	485.84
476.246	483.04
476.704	504.74
477.161	532.94
477.618	549.14
478.075	579.64
478.532	647.44
478.989	721.34
479.446	843.54
479.903	800.84
480.36	847.24
480.817	891.04
481.274	1010.14
481.731	1119.04
482.188	1206.74
482.645	1356.74
483.102	1449.44
483.558	1609.04
484.015	1657.34
484.472	1635.04
484.929	1576.44
485.385	1527.04
485.842	1490.84
486.299	1430.74
486.755	1351.64
487.212	1139.54
487.668	962.04
488.125	882.54
488.582	810.94
489.038	776.24
489.494	746.54
489.951	708.64
490.407	695.34
490.864	665.24
491.32	661.54
491.776	661.84
492.233	677.04
492.689	642.54
493.145	620.74
493.602	620.74
494.058	637.14
494.514	646.54
494.97	653.64
495.426	675.54
495.882	646.64
496.338	644.64
496.794	645.44
497.251	645.74
497.707	657.74
498.163	658.14
498.618	669.94
499.074	670.54
499.53	693.74
499.986	700.24
500.442	677.54
500.898	652.84
501.354	651.84
501.809	662.44
502.265	666.64
502.721	681.44
503.177	696.24
503.632	687.04
504.088	706.14
504.543	736.94
504.999	747.34
505.455	694.34
505.91	663.34
506.366	656.74
506.821	659.94
507.277	643.74
507.732	652.04
508.187	649.64
508.643	654.24
509.098	654.14
509.553	679.14
510.009	686.74
510.464	697.74
510.919	717.44
511.375	724.24
511.83	742.94
512.285	749.04
512.74	792.34
513.195	806.24
513.65	802.74
514.105	797.24
514.56	797.64
515.015	823.44
515.47	829.44
515.925	824.24
516.38	818.34
516.835	820.14
517.29	808.74
517.745	794.64
518.2	783.04
518.655	776.24
519.109	768.34
519.564	767.44
520.019	763.84
520.474	755.14
520.928	749.74
521.383	746.34
521.838	731.84
522.292	733.84
522.747	729.04
523.201	729.34
523.656	720.04
524.11	724.64
524.565	718.64
525.019	716.84
525.474	720.44
525.928	722.14
526.382	718.74
526.837	712.74
527.291	728.74
527.745	711.14
528.2	717.04
528.654	710.94
529.108	705.24
529.562	710.84
530.016	710.74
530.47	708.64
530.925	718.24
531.379	723.14
531.833	730.24
532.287	727.94
532.741	726.24
533.195	718.64
533.649	737.64
534.103	734.44
534.556	734.14
535.01	732.54
535.464	733.44
535.918	743.14
536.372	737.54
536.826	730.64
537.279	724.34
537.733	736.04
538.187	743.34
538.64	730.84
539.094	751.44
539.548	754.44
540.001	742.74
540.455	745.74
540.908	747.04
541.362	768.34
541.815	760.54
542.269	771.14
542.722	778.74
543.175	788.34
543.629	795.54
544.082	813.14
544.536	814.24
544.989	816.84
545.442	817.44
545.895	808.64
546.349	811.54
546.802	810.04
547.255	823.54
547.708	832.64
548.161	840.54
548.614	842.74
549.067	844.94
549.52	831.64
549.973	824.54
550.426	828.24
550.879	815.74
551.332	814.24
551.785	835.44
552.238	821.04
552.691	834.64
553.144	859.84
553.596	879.84
554.049	886.44
554.502	918.44
554.955	927.14
555.407	926.54
555.86	933.94
556.313	917.74
556.765	902.24
557.218	907.14
557.67	905.44
558.123	896.74
558.576	887.84
559.028	899.74
559.48	901.24
559.933	896.54
560.385	849.94
560.838	831.34
561.29	797.94
561.742	802.24
562.195	801.84
562.647	781.34
563.099	795.54
563.551	780.84
564.004	800.64
564.456	793.04
564.908	787.34
565.36	762.64
565.812	749.34
566.264	747.24
566.716	749.14
567.168	729.44
567.62	737.84
568.072	723.04
568.524	710.34
568.976	709.84
569.428	681.84
569.88	683.14
570.332	700.84
570.784	697.54
571.235	695.14
571.687	706.54
572.139	718.04
572.59	729.14
573.042	727.34
573.494	729.54
573.945	720.14
574.397	696.24
574.849	712.84
575.3	710.94
575.752	699.84
576.203	693.14
576.655	700.84
577.106	697.64
577.557	679.64
578.009	684.74
578.46	678.04
578.912	674.04
579.363	687.34
579.814	679.44
580.265	678.74
580.717	673.24
581.168	689.04
581.619	692.94
582.07	692.74
582.521	692.84
582.972	683.94
583.423	696.44
583.875	686.04
584.326	700.14
584.777	755.74
585.227	832.44
585.678	922.74
586.129	1003.94
586.58	1076.94
587.031	1154.94
587.482	1301.04
587.933	1482.44
588.384	1299.74
588.834	978.54
589.285	823.84
589.736	797.64
590.186	795.24
590.637	783.24
591.088	754.74
591.538	757.04
591.989	743.04
592.439	737.64
592.89	737.74
593.34	727.94
593.791	722.54
594.241	708.84
594.692	719.44
595.142	716.34
595.593	715.34
596.043	711.64
596.493	736.04
596.943	721.44
597.394	730.24
597.844	718.64
598.294	736.04
598.744	758.44
599.195	782.14
599.645	827.34
600.095	875.04
600.545	925.94
600.995	975.24
601.445	1049.94
601.895	1093.94
602.345	1166.44
602.795	1122.94
603.245	1082.64
603.695	1021.84
604.145	968.24
604.594	926.14
605.044	869.54
605.494	814.64
605.944	762.34
606.393	753.24
606.843	732.84
607.293	744.54
607.743	744.34
608.192	758.24
608.642	762.24
609.091	786.64
609.541	776.84
609.99	777.94
610.44	771.84
610.889	732.24
611.339	712.64
611.788	698.74
612.238	710.44
612.687	736.04
613.136	720.14
613.586	747.14
614.035	747.04
614.484	763.14
614.933	760.14
615.383	758.94
615.832	740.04
616.281	731.04
616.73	697.64
617.179	674.94
617.628	659.14
618.077	635.34
618.526	632.04
618.975	626.54
619.424	628.74
619.873	614.94
620.322	618.14
620.771	610.04
621.22	597.74
621.669	602.04
622.118	597.14
622.567	590.44
623.015	584.74
623.464	578.54
623.913	575.54
624.361	568.74
624.81	552.24
625.259	551.44
625.707	563.44
626.156	561.34
626.604	565.44
627.053	558.34
627.501	566.44
627.95	576.44
628.398	580.24
628.847	567.74
629.295	573.44
629.744	584.74
630.192	577.04
630.64	576.44
631.089	564.74
631.537	576.54
631.985	577.84
632.433	602.84
632.881	603.54
633.33	660.04
633.778	643.04
634.226	570.24
634.674	576.34
635.122	589.44
635.57	604.34
636.018	623.34
636.466	581.74
636.914	558.74
637.362	579.34
637.81	575.14
638.258	580.14
638.705	585.94
639.153	605.74
639.601	626.54
640.049	655.74
640.497	680.54
640.944	700.44
641.392	645.14
641.84	620.14
642.287	595.04
642.735	570.14
643.182	573.44
643.63	575.54
644.078	583.54
644.525	589.04
644.973	589.54
645.42	615.54
645.867	628.34
646.315	650.24
646.762	672.64
647.21	691.64
647.657	719.74
648.104	750.14
648.551	765.64
648.999	839.94
649.446	920.64
649.893	1010.74
650.34	1173.74
650.787	1398.34
651.234	1730.94
651.682	2251.94
652.129	3090.64
652.576	4449.44
653.023	6561.14
653.47	9008.64
653.917	11277.84
654.363	13003.64
654.81	14417.84
655.257	13715.24
655.704	8979.84
656.151	5316.04
656.598	3442.64
657.044	2449.54
657.491	1863.54
657.938	1499.84
658.385	1251.84
658.831	1080.54
659.278	964.54
659.724	855.34
660.171	788.64
660.618	730.84
661.064	688.84
661.511	677.54
661.957	662.64
662.404	646.54
662.85	645.84
663.296	632.14
663.743	553.74
664.189	536.64
664.635	530.94
665.082	523.74
665.528	532.64
665.974	521.24
666.42	512.24
666.867	501.44
667.313	483.64
667.759	477.84
668.205	480.64
668.651	487.44
669.097	483.94
669.543	489.34
669.989	462.54
670.435	454.84
670.881	446.34
671.327	447.04
671.773	472.04
672.219	481.74
672.665	536.24
673.11	574.74
673.556	631.34
674.002	660.44
674.448	651.74
674.893	548.64
675.339	467.04
675.785	446.14
676.23	417.44
676.676	391.24
677.122	378.64
677.567	369.14
678.013	369.34
678.458	358.04
678.904	355.84
679.349	347.84
679.794	359.34
680.24	350.04
680.685	347.14
681.131	344.54
681.576	351.64
682.021	359.04
682.466	352.84
682.912	352.74
683.357	351.64
683.802	376.84
684.247	410.74
684.692	445.24
685.137	491.14
685.583	532.04
686.028	554.04
686.473	509.84
686.918	445.64
687.363	407.84
687.807	388.84
688.252	367.54
688.697	353.84
689.142	333.54
689.587	331.74
690.032	325.94
690.477	337.84
690.921	342.84
691.366	380.64
691.811	401.24
692.255	427.84
692.7	456.74
693.145	499.64
693.589	684.34
694.034	1113.44
694.478	1516.34
694.923	1726.74
695.367	2260.24
695.812	1183.64
696.256	490.04
696.701	367.54
697.145	337.74
697.59	321.14
698.034	318.74
698.478	326.64
698.922	324.34
699.367	324.04
699.811	333.54
700.255	356.94
700.699	383.34
701.143	414.64
701.588	471.14
702.032	505.04
702.476	513.64
702.92	485.34
703.364	479.04
703.808	630.54
704.252	1011.64
704.696	1431.44
705.14	1654.54
705.584	2120.64
706.027	1057.94
706.471	511.54
706.915	392.44
707.359	354.34
707.803	315.54
708.246	306.74
708.69	313.14
709.134	317.84
709.577	310.14
710.021	316.74
710.465	299.54
710.908	297.04
711.352	291.94
711.795	301.64
712.239	350.84
712.682	377.74
713.126	421.54
713.569	463.94
714.012	369.64
714.456	321.54
714.899	293.24
715.342	278.04
715.786	259.54
716.229	253.94
716.672	252.24
717.115	250.14
717.558	244.54
718.002	251.04
718.445	261.14
718.888	282.94
719.331	292.04
719.774	310.34
720.217	298.44
720.66	286.14
721.103	263.24
721.546	250.44
721.989	250.64
722.432	232.14
722.874	232.34
723.317	227.44
723.76	229.84
724.203	251.54
724.645	311.04
725.088	439.74
725.531	567.84
725.974	633.04
726.416	552.14
726.859	305.24
727.301	248.24
727.744	241.64
728.187	235.34
728.629	235.34
729.071	237.64
729.514	258.84
729.956	270.54
730.399	283.14
730.841	283.94
731.283	268.54
731.726	267.04
732.168	257.54
732.61	260.44
733.053	285.94
733.495	314.54
733.937	344.44
734.379	403.34
734.821	424.24
735.263	532.44
735.705	814.94
736.148	1523.04
736.59	2541.64
737.032	3042.14
737.474	2471.34
737.916	795.84
738.357	419.84
738.799	317.34
739.241	296.34
739.683	275.54
740.125	291.64
740.567	290.14
741.008	302.44
741.45	308.64
741.892	307.34
742.334	341.54
742.775	353.14
743.217	334.24
743.658	266.04
744.1	253.84
744.542	252.54
744.983	308.54
745.425	336.44
745.866	342.94
746.307	273.14
746.749	279.14
747.19	320.04
747.632	448.84
748.073	856.44
748.514	1804.44
748.956	2806.74
749.397	3521.74
749.838	2922.84
750.279	2938.44
750.72	1488.94
751.162	542.84
751.603	314.44
752.044	241.44
752.485	217.04
752.926	208.64
753.367	198.94
753.808	191.14
754.249	188.14
754.69	185.24
755.131	186.64
755.572	186.74
756.013	183.24
756.453	176.44
756.894	185.54
757.335	186.64
757.776	194.14
758.216	188.94
758.657	194.24
759.098	199.94
759.538	223.64
759.979	264.74
760.42	370.04
760.86	686.84
761.301	1750.64
761.741	4327.04
762.182	6382.84
