Data from 20171114-ORNL-Ar_H_NY_Subt18_08-05-00-206.txt Node
Date: Tue Nov 14 08:05:00 EST 2017
User: Ender
Spectrometer: HR+D1039
Trigger mode: 0
Integration Time (sec): 2.730000E-2
Scans to average: 10
Electric dark correction enabled: true
Nonlinearity correction enabled: false
Boxcar width: 0
XAxis mode: Wavelengths
Number of Pixels in Spectrum: 2048
>>>>>Begin Spectral Data<<<<<
187.836	-5.76
188.309	-5.76
188.782	-5.76
189.255	0.64
189.728	1.74
190.201	0.64
190.674	-4.36
191.147	1.04
191.619	-5.56
192.092	-4.56
192.565	5.14
193.038	0.64
193.511	-1.16
193.984	7.44
194.456	0.04
194.929	3.04
195.402	0.14
195.874	0.84
196.347	-1.46
196.82	-10.06
197.292	6.84
197.765	-4.96
198.237	-9.36
198.71	4.14
199.182	-2.06
199.655	1.64
200.127	0.44
200.6	1.94
201.072	-0.16
201.544	-3.26
202.017	2.54
202.489	5.54
202.961	2.44
203.433	-4.76
203.906	-5.46
204.378	-5.96
204.85	-7.76
205.322	-9.46
205.794	0.14
206.266	-7.16
206.739	-8.36
207.211	4.54
207.683	-6.96
208.155	-2.16
208.627	-2.46
209.099	-2.76
209.57	-2.26
210.042	-3.56
210.514	-3.26
210.986	3.24
211.458	-6.26
211.93	0.84
212.402	5.14
212.873	-7.26
213.345	-4.96
213.817	-9.86
214.288	0.54
214.76	-7.26
215.232	0.84
215.703	-3.36
216.175	-3.46
216.646	-3.76
217.118	-6.06
217.589	0.34
218.061	-0.06
218.532	-2.96
219.004	1.64
219.475	-3.36
219.946	-2.76
220.418	-1.76
220.889	8.34
221.36	2.34
221.832	-0.56
222.303	-2.46
222.774	-0.66
223.245	-4.16
223.717	-2.96
224.188	-1.96
224.659	-8.56
225.13	2.04
225.601	0.04
226.072	2.74
226.543	0.24
227.014	-0.16
227.485	-3.56
227.956	-7.66
228.427	-2.96
228.898	-1.16
229.369	4.84
229.839	-0.26
230.31	-4.76
230.781	2.14
231.252	-1.96
231.722	2.24
232.193	-0.06
232.664	7.14
233.135	3.54
233.605	-2.66
234.076	-2.96
234.546	-1.16
235.017	2.14
235.487	5.14
235.958	4.54
236.428	1.44
236.899	4.94
237.369	5.74
237.84	-10.16
238.31	9.94
238.78	5.74
239.251	5.54
239.721	10.74
240.191	2.74
240.662	-2.36
241.132	3.04
241.602	2.44
242.072	7.34
242.542	10.94
243.013	-0.06
243.483	4.24
243.953	7.04
244.423	6.34
244.893	-1.16
245.363	7.14
245.833	6.64
246.303	-1.66
246.773	9.44
247.243	2.84
247.712	8.04
248.182	7.84
248.652	7.14
249.122	4.04
249.592	18.94
250.061	17.94
250.531	42.14
251.001	22.74
251.471	21.24
251.94	20.24
252.41	14.54
252.879	4.34
253.349	8.74
253.818	16.64
254.288	8.54
254.757	5.84
255.227	0.94
255.696	4.84
256.166	5.04
256.635	9.04
257.105	13.44
257.574	7.34
258.043	12.74
258.513	14.34
258.982	22.54
259.451	10.44
259.92	14.24
260.389	15.14
260.859	14.74
261.328	11.24
261.797	17.04
262.266	12.04
262.735	10.64
263.204	7.74
263.673	6.54
264.142	9.74
264.611	1.14
265.08	5.54
265.549	1.94
266.018	14.34
266.487	7.04
266.955	9.34
267.424	5.14
267.893	11.64
268.362	6.04
268.83	6.94
269.299	7.44
269.768	8.94
270.236	15.44
270.705	7.94
271.174	8.04
271.642	10.94
272.111	13.74
272.579	15.74
273.048	30.64
273.516	31.54
273.985	34.64
274.453	30.44
274.922	22.14
275.39	13.54
275.858	3.24
276.327	10.04
276.795	18.04
277.263	15.24
277.731	33.84
278.2	60.04
278.668	61.04
279.136	53.14
279.604	26.64
280.072	18.54
280.54	17.94
281.008	12.34
281.477	13.74
281.945	17.34
282.413	21.24
282.881	22.04
283.348	14.34
283.816	20.14
284.284	21.64
284.752	26.84
285.22	12.54
285.688	22.74
286.156	26.04
286.623	49.24
287.091	51.04
287.559	32.44
288.026	19.34
288.494	19.84
288.962	12.74
289.429	16.34
289.897	23.34
290.364	20.04
290.832	21.84
291.3	20.14
291.767	15.64
292.234	27.14
292.702	16.34
293.169	27.94
293.637	25.04
294.104	23.54
294.571	21.54
295.039	17.84
295.506	21.64
295.973	21.34
296.44	17.34
296.908	23.04
297.375	22.54
297.842	21.14
298.309	22.34
298.776	15.14
299.243	31.24
299.71	19.74
300.177	27.04
300.644	27.14
301.111	24.74
301.578	33.64
302.045	17.44
302.512	31.64
302.979	29.64
303.446	26.54
303.913	18.84
304.379	25.14
304.846	30.84
305.313	28.94
305.78	28.94
306.246	31.64
306.713	35.04
307.18	34.54
307.646	34.04
308.113	37.64
308.579	26.64
309.046	27.84
309.512	25.84
309.979	22.34
310.445	29.84
310.912	30.04
311.378	39.54
311.845	33.44
312.311	31.64
312.777	36.84
313.244	31.24
313.71	41.14
314.176	34.94
314.642	37.74
315.109	35.04
315.575	40.04
316.041	45.34
316.507	36.14
316.973	42.94
317.439	34.34
317.905	40.04
318.371	37.34
318.837	38.84
319.303	37.94
319.769	40.74
320.235	35.24
320.701	40.34
321.167	41.04
321.633	33.84
322.099	45.94
322.564	56.14
323.03	47.44
323.496	41.54
323.962	38.74
324.427	36.54
324.893	45.34
325.359	39.34
325.824	38.84
326.29	42.94
326.755	39.34
327.221	45.04
327.686	43.84
328.152	54.14
328.617	52.04
329.083	51.54
329.548	57.54
330.014	55.04
330.479	48.84
330.944	50.74
331.41	44.74
331.875	47.74
332.34	43.14
332.805	48.64
333.271	54.14
333.736	45.94
334.201	64.94
334.666	57.74
335.131	62.94
335.596	52.54
336.061	57.94
336.526	47.54
336.991	52.34
337.456	64.94
337.921	55.14
338.386	50.34
338.851	48.94
339.316	49.24
339.781	52.94
340.246	61.84
340.711	48.04
341.175	58.14
341.64	45.54
342.105	57.84
342.569	57.64
343.034	60.44
343.499	58.44
343.963	56.84
344.428	73.04
344.893	65.24
345.357	62.64
345.822	57.74
346.286	71.14
346.751	77.64
347.215	77.14
347.679	77.04
348.144	105.64
348.608	83.84
349.073	68.74
349.537	79.14
350.001	80.54
350.465	89.24
350.93	85.34
351.394	87.94
351.858	74.04
352.322	94.64
352.786	87.44
353.25	107.84
353.715	117.04
354.179	100.84
354.643	121.04
355.107	128.24
355.571	106.24
356.035	109.44
356.498	124.24
356.962	127.14
357.426	132.14
357.89	119.74
358.354	91.64
358.818	88.64
359.281	92.94
359.745	86.24
360.209	78.14
360.673	83.24
361.136	84.04
361.6	91.74
362.064	87.54
362.527	89.04
362.991	99.84
363.454	78.74
363.918	79.04
364.381	84.64
364.845	85.74
365.308	86.54
365.772	90.64
366.235	86.94
366.698	85.24
367.162	83.34
367.625	85.54
368.088	94.54
368.552	94.64
369.015	85.74
369.478	94.94
369.941	102.04
370.404	99.34
370.867	104.94
371.331	110.74
371.794	110.84
372.257	110.84
372.72	110.04
373.183	104.94
373.646	106.84
374.109	104.94
374.572	114.84
375.035	109.04
375.497	111.44
375.96	107.84
376.423	107.14
376.886	114.44
377.349	112.54
377.811	110.34
378.274	105.84
378.737	109.94
379.199	116.54
379.662	113.54
380.125	119.64
380.587	121.84
381.05	124.04
381.512	126.94
381.975	139.34
382.437	129.34
382.9	128.14
383.362	131.64
383.825	140.74
384.287	154.14
384.75	136.94
385.212	139.04
385.674	138.74
386.136	141.64
386.599	127.74
387.061	133.54
387.523	131.04
387.985	136.14
388.447	147.94
388.91	140.64
389.372	154.24
389.834	152.54
390.296	151.44
390.758	159.14
391.22	168.54
391.682	208.94
392.144	293.04
392.606	224.84
393.068	164.94
393.529	169.94
393.991	156.24
394.453	147.84
394.915	157.04
395.377	195.34
395.838	203.74
396.3	162.94
396.762	142.24
397.224	135.84
397.685	130.04
398.147	135.04
398.608	130.74
399.07	130.54
399.531	132.84
399.993	138.54
400.454	154.34
400.916	149.04
401.377	150.44
401.839	157.04
402.3	152.54
402.762	162.04
403.223	176.64
403.684	169.64
404.145	158.74
404.607	162.54
405.068	162.74
405.529	172.04
405.99	188.84
406.451	169.54
406.913	175.54
407.374	164.44
407.835	163.84
408.296	166.74
408.757	171.64
409.218	182.14
409.679	180.64
410.14	173.54
410.601	181.24
411.062	180.14
411.522	183.54
411.983	185.44
412.444	180.34
412.905	175.44
413.366	187.14
413.826	190.14
414.287	216.14
414.748	264.64
415.208	246.24
415.669	217.74
416.13	207.94
416.59	198.74
417.051	215.84
417.511	218.64
417.972	233.74
418.432	244.74
418.893	284.24
419.353	256.24
419.814	201.84
420.274	175.24
420.734	174.74
421.195	195.74
421.655	195.24
422.115	189.64
422.576	191.94
423.036	200.24
423.496	206.04
423.956	215.64
424.416	227.64
424.876	267.04
425.336	264.94
425.797	259.64
426.257	257.84
426.717	234.74
427.177	231.24
427.637	225.44
428.097	232.04
428.556	245.54
429.016	268.44
429.476	263.54
429.936	274.84
430.396	278.24
430.856	285.44
431.315	314.14
431.775	341.54
432.235	378.64
432.694	351.24
433.154	358.44
433.614	381.94
434.073	330.74
434.533	275.04
434.993	260.44
435.452	273.74
435.912	289.64
436.371	287.94
436.83	284.54
437.29	268.04
437.749	250.84
438.209	239.14
438.668	267.64
439.127	286.44
439.587	257.74
440.046	247.54
440.505	265.04
440.964	279.44
441.424	316.44
441.883	306.04
442.342	259.44
442.801	227.24
443.26	218.34
443.719	215.04
444.178	218.44
444.637	209.74
445.096	221.14
445.555	227.74
446.014	226.84
446.473	223.54
446.932	225.34
447.391	220.34
447.849	235.44
448.308	211.64
448.767	223.24
449.226	232.64
449.685	233.64
450.143	247.54
450.602	237.84
451.061	230.24
451.519	235.84
451.978	235.04
452.436	229.04
452.895	245.94
453.353	252.34
453.812	234.14
454.27	232.24
454.729	242.74
455.187	237.74
455.646	242.44
456.104	245.34
456.562	257.54
457.021	269.04
457.479	255.74
457.937	263.44
458.395	261.94
458.854	250.74
459.312	249.04
459.77	271.94
460.228	252.54
460.686	241.64
461.144	243.94
461.602	245.54
462.06	245.14
462.518	252.94
462.976	253.04
463.434	253.74
463.892	263.44
464.35	271.54
464.808	289.34
465.266	270.34
465.724	267.74
466.181	273.44
466.639	270.14
467.097	288.24
467.555	297.44
468.012	295.44
468.47	310.14
468.928	328.44
469.385	336.24
469.843	343.84
470.3	350.84
470.758	356.74
471.215	386.94
471.673	397.94
472.13	394.54
472.588	408.24
473.045	374.94
473.503	363.94
473.96	387.34
474.417	396.04
474.875	426.44
475.332	469.94
475.789	458.04
476.246	464.14
476.704	478.44
477.161	500.04
477.618	520.64
478.075	555.54
478.532	611.54
478.989	693.04
479.446	796.84
479.903	758.94
480.36	798.34
480.817	854.84
481.274	961.44
481.731	1067.64
482.188	1165.54
482.645	1288.64
483.102	1398.54
483.558	1529.74
484.015	1582.34
484.472	1550.64
484.929	1515.74
485.385	1458.04
485.842	1422.14
486.299	1349.04
486.755	1288.14
487.212	1081.84
487.668	923.54
488.125	847.34
488.582	767.04
489.038	747.34
489.494	709.44
489.951	682.74
490.407	659.94
490.864	639.14
491.32	646.64
491.776	632.74
492.233	641.64
492.689	607.24
493.145	605.14
493.602	589.64
494.058	607.94
494.514	610.34
494.97	634.14
495.426	636.14
495.882	618.74
496.338	604.14
496.794	623.04
497.251	624.24
497.707	633.34
498.163	641.14
498.618	641.04
499.074	644.14
499.53	676.84
499.986	684.24
500.442	645.14
500.898	628.64
501.354	625.04
501.809	633.94
502.265	644.34
502.721	665.34
503.177	674.14
503.632	666.84
504.088	674.84
504.543	709.04
504.999	706.74
505.455	652.34
505.91	630.94
506.366	626.94
506.821	627.14
507.277	626.64
507.732	620.84
508.187	612.64
508.643	624.24
509.098	619.14
509.553	656.54
510.009	661.44
510.464	667.04
510.919	689.64
511.375	689.24
511.83	707.34
512.285	723.44
512.74	756.14
513.195	777.64
513.65	768.54
514.105	772.74
514.56	771.94
515.015	791.04
515.47	801.84
515.925	794.14
516.38	791.54
516.835	792.64
517.29	786.34
517.745	769.54
518.2	766.04
518.655	749.64
519.109	740.24
519.564	732.74
520.019	730.34
520.474	722.24
520.928	733.04
521.383	730.24
521.838	706.24
522.292	708.24
522.747	707.44
523.201	696.04
523.656	689.84
524.11	688.84
524.565	689.74
525.019	686.94
525.474	698.04
525.928	703.74
526.382	691.34
526.837	689.54
527.291	696.84
527.745	684.54
528.2	685.54
528.654	680.14
529.108	674.84
529.562	682.24
530.016	681.74
530.47	680.84
530.925	689.54
531.379	684.44
531.833	695.74
532.287	696.94
532.741	703.34
533.195	692.04
533.649	708.34
534.103	718.74
534.556	693.24
535.01	712.54
535.464	709.34
535.918	719.64
536.372	712.44
536.826	716.64
537.279	703.54
537.733	714.34
538.187	711.04
538.64	718.54
539.094	714.04
539.548	730.74
540.001	714.44
540.455	709.64
540.908	720.94
541.362	730.04
541.815	741.84
542.269	754.44
542.722	751.74
543.175	760.04
543.629	751.74
544.082	770.54
544.536	774.34
544.989	771.94
545.442	773.94
545.895	773.74
546.349	774.64
546.802	777.14
547.255	776.04
547.708	794.14
548.161	802.24
548.614	811.84
549.067	820.84
549.52	801.74
549.973	806.74
550.426	787.04
550.879	786.74
551.332	791.54
551.785	787.94
552.238	791.24
552.691	808.94
553.144	820.04
553.596	832.84
554.049	853.84
554.502	884.04
554.955	905.44
555.407	887.04
555.86	876.34
556.313	869.44
556.765	867.74
557.218	883.44
557.67	871.74
558.123	858.54
558.576	860.24
559.028	865.04
559.48	864.54
559.933	860.04
560.385	819.64
560.838	793.14
561.29	765.94
561.742	767.44
562.195	745.34
562.647	752.94
563.099	755.54
563.551	757.94
564.004	770.74
564.456	756.94
564.908	749.54
565.36	726.44
565.812	713.34
566.264	703.94
566.716	705.44
567.168	685.14
567.62	704.64
568.072	688.44
568.524	682.54
568.976	670.64
569.428	664.94
569.88	653.84
570.332	668.14
570.784	668.54
571.235	662.34
571.687	672.14
572.139	687.74
572.59	696.44
573.042	702.94
573.494	693.54
573.945	687.04
574.397	659.74
574.849	683.64
575.3	672.24
575.752	662.24
576.203	666.94
576.655	670.94
577.106	646.24
577.557	644.94
578.009	652.14
578.46	652.84
578.912	649.34
579.363	645.44
579.814	645.74
580.265	641.64
580.717	648.94
581.168	658.14
581.619	666.44
582.07	657.14
582.521	651.54
582.972	641.54
583.423	658.34
583.875	656.24
584.326	671.04
584.777	718.94
585.227	791.44
585.678	878.64
586.129	951.64
586.58	1023.74
587.031	1091.04
587.482	1252.14
587.933	1434.34
588.384	1235.84
588.834	928.44
589.285	779.44
589.736	755.24
590.186	752.04
590.637	738.94
591.088	708.34
591.538	714.24
591.989	703.04
592.439	698.14
592.89	695.34
593.34	689.74
593.791	679.84
594.241	684.34
594.692	682.94
595.142	670.14
595.593	674.74
596.043	679.74
596.493	689.34
596.943	687.64
597.394	696.14
597.844	683.34
598.294	706.24
598.744	723.14
599.195	737.14
599.645	786.94
600.095	824.84
600.545	868.74
600.995	922.44
601.445	981.04
601.895	1035.24
602.345	1077.84
602.795	1071.34
603.245	1018.34
603.695	976.34
604.145	912.84
604.594	873.34
605.044	815.74
605.494	766.84
605.944	715.44
606.393	713.54
606.843	697.54
607.293	697.34
607.743	694.94
608.192	707.14
608.642	721.04
609.091	720.04
609.541	726.84
609.99	727.84
610.44	734.84
610.889	679.44
611.339	660.44
611.788	652.24
612.238	667.74
612.687	674.94
613.136	679.84
613.586	697.24
614.035	694.24
614.484	712.14
614.933	713.24
615.383	705.34
615.832	703.64
616.281	688.84
616.73	657.64
617.179	637.64
617.628	621.94
618.077	598.84
618.526	596.74
618.975	586.14
619.424	581.94
619.873	576.44
620.322	585.54
620.771	583.04
621.22	570.24
621.669	567.14
622.118	554.74
622.567	545.24
623.015	542.24
623.464	552.14
623.913	532.54
624.361	514.54
624.81	519.14
625.259	523.84
625.707	525.14
626.156	523.74
626.604	537.44
627.053	532.44
627.501	528.54
627.95	543.84
628.398	547.44
628.847	536.24
629.295	533.34
629.744	541.24
630.192	526.94
630.64	531.64
631.089	532.14
631.537	538.64
631.985	546.34
632.433	566.34
632.881	568.74
633.33	620.04
633.778	601.64
634.226	532.04
634.674	538.44
635.122	548.84
635.57	558.94
636.018	576.94
636.466	543.64
636.914	531.24
637.362	543.04
637.81	545.94
638.258	536.54
638.705	544.44
639.153	577.74
639.601	575.14
640.049	612.64
640.497	641.74
640.944	655.44
641.392	606.24
641.84	576.94
642.287	549.24
642.735	524.64
643.182	531.54
643.63	537.34
644.078	530.54
644.525	556.64
644.973	565.94
645.42	570.14
645.867	575.74
646.315	594.34
646.762	614.44
647.21	643.14
647.657	666.44
648.104	699.54
648.551	718.84
648.999	776.84
649.446	847.94
649.893	944.24
650.34	1074.04
650.787	1282.44
651.234	1579.04
651.682	2061.74
652.129	2815.94
652.576	4026.14
653.023	5960.54
653.47	8202.84
653.917	10351.64
654.363	12047.24
654.81	13460.84
655.257	12788.24
655.704	8362.34
656.151	4944.74
656.598	3189.44
657.044	2262.54
657.491	1739.24
657.938	1399.14
658.385	1164.94
658.831	1007.84
659.278	909.64
659.724	785.34
660.171	743.34
660.618	675.94
661.064	639.24
661.511	626.54
661.957	598.74
662.404	594.24
662.85	603.44
663.296	576.44
663.743	528.74
664.189	497.64
664.635	491.74
665.082	486.34
665.528	489.34
665.974	487.04
666.42	476.34
666.867	469.44
667.313	458.34
667.759	443.64
668.205	443.94
668.651	451.74
669.097	453.24
669.543	460.54
669.989	440.24
670.435	414.94
670.881	414.64
671.327	410.24
671.773	434.94
672.219	462.84
672.665	507.04
673.11	536.64
673.556	582.64
674.002	624.14
674.448	605.64
674.893	507.54
675.339	434.94
675.785	409.64
676.23	389.64
676.676	361.94
677.122	351.84
677.567	342.64
678.013	335.54
678.458	327.24
678.904	322.44
679.349	323.94
679.794	330.64
680.24	325.24
680.685	316.14
681.131	319.54
681.576	324.24
682.021	330.84
682.466	316.94
682.912	320.44
683.357	316.14
683.802	354.14
684.247	381.74
684.692	423.44
685.137	454.74
685.583	495.04
686.028	518.74
686.473	485.14
686.918	416.84
687.363	381.24
687.807	370.14
688.252	340.74
688.697	328.94
689.142	316.14
689.587	311.34
690.032	303.94
690.477	323.44
690.921	319.04
691.366	349.74
691.811	370.04
692.255	394.24
692.7	431.04
693.145	449.84
693.589	630.44
694.034	1013.94
694.478	1399.14
694.923	1612.44
695.367	2129.14
695.812	1113.44
696.256	460.14
696.701	342.14
697.145	313.14
697.59	300.24
698.034	301.54
698.478	303.54
698.922	294.74
699.367	300.54
699.811	296.24
700.255	318.84
700.699	347.64
701.143	387.14
701.588	442.14
702.032	473.84
702.476	479.44
702.92	456.54
703.364	448.14
703.808	578.54
704.252	934.24
704.696	1323.94
705.14	1538.34
705.584	2001.64
706.027	990.64
706.471	479.54
706.915	367.94
707.359	318.34
707.803	291.84
708.246	291.44
708.69	283.34
709.134	286.54
709.577	284.94
710.021	297.54
710.465	282.44
710.908	272.54
711.352	283.94
711.795	288.04
712.239	316.74
712.682	356.04
713.126	383.94
713.569	427.54
714.012	334.54
714.456	290.64
714.899	272.44
715.342	251.04
715.786	244.94
716.229	233.64
716.672	230.64
717.115	228.84
717.558	233.64
718.002	229.14
718.445	237.64
718.888	260.64
719.331	271.94
719.774	272.74
720.217	278.34
720.66	265.54
721.103	245.14
721.546	232.34
721.989	221.34
722.432	212.04
722.874	220.64
723.317	214.94
723.76	213.84
724.203	238.64
724.645	280.74
725.088	394.84
725.531	511.84
725.974	602.04
726.416	503.04
726.859	275.64
727.301	230.24
727.744	221.34
728.187	218.24
728.629	221.74
729.071	217.34
729.514	238.84
729.956	247.64
730.399	252.34
730.841	262.04
731.283	250.14
731.726	241.34
732.168	244.84
732.61	248.64
733.053	260.34
733.495	289.44
733.937	313.54
734.379	370.34
734.821	392.64
735.263	483.94
735.705	742.74
736.148	1401.54
736.59	2328.24
737.032	2841.24
737.474	2318.04
737.916	749.04
738.357	396.54
738.799	304.04
739.241	276.94
739.683	258.44
740.125	266.44
740.567	274.94
741.008	294.74
741.45	292.04
741.892	289.54
742.334	315.54
742.775	326.94
743.217	317.64
743.658	246.94
744.1	232.94
744.542	242.34
744.983	282.54
745.425	316.74
745.866	322.24
746.307	261.34
746.749	256.24
747.19	302.14
747.632	397.94
748.073	775.24
748.514	1642.04
748.956	2600.44
749.397	3237.54
749.838	2696.44
750.279	2747.04
750.72	1392.04
751.162	500.34
751.603	283.64
752.044	234.04
752.485	196.24
752.926	194.14
753.367	183.44
753.808	174.44
754.249	169.84
754.69	171.64
755.131	167.34
755.572	170.24
756.013	164.04
756.453	165.34
756.894	170.14
757.335	167.44
757.776	179.24
758.216	182.94
758.657	180.94
759.098	187.54
759.538	202.74
759.979	239.84
760.42	334.24
760.86	612.04
761.301	1600.64
761.741	3957.64
762.182	6034.54
762.622	4228.84
