Data from 20171114-ORNL-Ar_H_NY_Subt18_08-09-15-771.txt Node
Date: Tue Nov 14 08:09:15 EST 2017
User: Ender
Spectrometer: HR+D1039
Trigger mode: 0
Integration Time (sec): 2.730000E-2
Scans to average: 10
Electric dark correction enabled: true
Nonlinearity correction enabled: false
Boxcar width: 0
XAxis mode: Wavelengths
Number of Pixels in Spectrum: 2048
>>>>>Begin Spectral Data<<<<<
187.836	-4.45
188.309	-4.45
188.782	-4.45
189.255	3.05
189.728	-3.45
190.201	-0.05
190.674	5.65
191.147	5.15
191.619	-7.85
192.092	-0.25
192.565	7.55
193.038	2.25
193.511	0.25
193.984	-3.85
194.456	-3.65
194.929	0.65
195.402	-3.05
195.874	2.05
196.347	-4.35
196.82	-10.75
197.292	5.65
197.765	-5.55
198.237	-8.55
198.71	2.05
199.182	0.55
199.655	5.75
200.127	2.25
200.6	-3.65
201.072	-4.75
201.544	-8.75
202.017	-2.85
202.489	-0.65
202.961	-8.45
203.433	-8.05
203.906	-3.75
204.378	-6.95
204.85	-3.35
205.322	-9.85
205.794	-2.25
206.266	-2.55
206.739	-8.55
207.211	-5.05
207.683	-7.35
208.155	-8.55
208.627	-9.05
209.099	-9.35
209.57	-11.25
210.042	-9.55
210.514	-8.65
210.986	-9.85
211.458	-7.05
211.93	-5.25
212.402	-1.45
212.873	-7.15
213.345	-11.45
213.817	-18.85
214.288	-6.35
214.76	-13.05
215.232	-1.95
215.703	-8.65
216.175	-8.45
216.646	-10.35
217.118	-9.15
217.589	-7.85
218.061	-5.65
218.532	-9.65
219.004	-3.25
219.475	-7.75
219.946	-5.35
220.418	-6.55
220.889	-7.25
221.36	-2.55
221.832	-9.05
222.303	-10.55
222.774	-3.75
223.245	-10.05
223.717	-6.25
224.188	-2.75
224.659	-8.95
225.13	-4.55
225.601	-10.15
226.072	-2.45
226.543	-1.65
227.014	-7.35
227.485	-0.65
227.956	-11.55
228.427	-5.65
228.898	1.05
229.369	1.05
229.839	-7.85
230.31	-9.55
230.781	-2.65
231.252	-4.75
231.722	-6.05
232.193	-3.95
232.664	-3.35
233.135	-1.25
233.605	-5.65
234.076	-14.95
234.546	-0.45
235.017	0.45
235.487	-4.45
235.958	-4.85
236.428	-9.95
236.899	-9.85
237.369	-3.35
237.84	-7.75
238.31	-4.85
238.78	-0.85
239.251	-11.85
239.721	-7.45
240.191	-10.85
240.662	-3.25
241.132	-8.35
241.602	-1.95
242.072	-4.45
242.542	3.05
243.013	-7.65
243.483	0.45
243.953	-2.15
244.423	-4.65
244.893	-9.75
245.363	-3.35
245.833	-2.55
246.303	-6.75
246.773	2.55
247.243	-5.85
247.712	-5.15
248.182	-6.65
248.652	-2.95
249.122	-8.45
249.592	-3.75
250.061	-1.35
250.531	10.45
251.001	-1.95
251.471	2.45
251.94	2.35
252.41	-2.85
252.879	-9.05
253.349	7.85
253.818	-0.05
254.288	-7.95
254.757	2.15
255.227	-7.35
255.696	-1.75
256.166	-3.15
256.635	-0.55
257.105	2.45
257.574	-4.35
258.043	-7.95
258.513	0.35
258.982	-1.85
259.451	-4.05
259.92	-2.15
260.389	-0.25
260.859	8.45
261.328	-4.05
261.797	-3.55
262.266	-3.65
262.735	3.35
263.204	-9.45
263.673	-2.25
264.142	-4.65
264.611	-8.15
265.08	-8.55
265.549	-7.45
266.018	-4.95
266.487	-8.05
266.955	-9.95
267.424	-6.85
267.893	1.85
268.362	-9.15
268.83	-5.45
269.299	0.75
269.768	0.65
270.236	2.75
270.705	-6.45
271.174	-4.15
271.642	1.15
272.111	-2.35
272.579	-1.55
273.048	-0.35
273.516	-0.05
273.985	-0.95
274.453	4.85
274.922	3.75
275.39	2.55
275.858	-1.45
276.327	4.65
276.795	5.85
277.263	1.45
277.731	6.95
278.2	7.45
278.668	8.05
279.136	11.15
279.604	-2.35
280.072	9.95
280.54	4.05
281.008	5.55
281.477	3.45
281.945	5.35
282.413	6.35
282.881	5.25
283.348	0.05
283.816	-0.75
284.284	3.95
284.752	5.35
285.22	0.25
285.688	6.75
286.156	6.55
286.623	12.95
287.091	5.05
287.559	2.15
288.026	3.55
288.494	5.05
288.962	-4.45
289.429	-0.15
289.897	13.25
290.364	3.45
290.832	3.35
291.3	9.45
291.767	4.35
292.234	6.45
292.702	8.25
293.169	8.55
293.637	9.05
294.104	9.75
294.571	-2.35
295.039	4.25
295.506	0.45
295.973	9.65
296.44	3.15
296.908	10.65
297.375	8.15
297.842	9.05
298.309	6.45
298.776	5.05
299.243	5.05
299.71	2.35
300.177	10.85
300.644	11.35
301.111	9.05
301.578	14.25
302.045	2.35
302.512	11.85
302.979	11.25
303.446	16.25
303.913	11.15
304.379	5.55
304.846	19.15
305.313	11.95
305.78	6.65
306.246	8.15
306.713	17.65
307.18	6.85
307.646	9.55
308.113	12.35
308.579	11.05
309.046	15.25
309.512	16.65
309.979	14.95
310.445	17.45
310.912	17.95
311.378	15.15
311.845	16.75
312.311	13.95
312.777	17.85
313.244	20.05
313.71	23.45
314.176	19.35
314.642	20.05
315.109	13.85
315.575	14.85
316.041	25.95
316.507	19.95
316.973	21.65
317.439	19.15
317.905	25.05
318.371	19.35
318.837	18.45
319.303	18.25
319.769	25.65
320.235	20.55
320.701	19.75
321.167	23.55
321.633	17.75
322.099	24.35
322.564	22.75
323.03	23.85
323.496	21.05
323.962	22.55
324.427	27.15
324.893	19.85
325.359	23.05
325.824	26.25
326.29	22.35
326.755	26.75
327.221	25.45
327.686	27.65
328.152	32.15
328.617	26.25
329.083	32.05
329.548	33.55
330.014	36.85
330.479	25.05
330.944	26.55
331.41	26.95
331.875	32.95
332.34	27.85
332.805	25.65
333.271	27.85
333.736	29.75
334.201	35.65
334.666	35.05
335.131	34.45
335.596	35.75
336.061	38.75
336.526	27.55
336.991	34.95
337.456	46.55
337.921	31.75
338.386	34.15
338.851	34.15
339.316	33.85
339.781	32.75
340.246	33.65
340.711	30.05
341.175	35.25
341.64	26.65
342.105	39.65
342.569	40.65
343.034	38.55
343.499	41.35
343.963	41.05
344.428	46.75
344.893	44.75
345.357	43.45
345.822	43.65
346.286	53.65
346.751	51.95
347.215	42.85
347.679	46.95
348.144	62.55
348.608	60.35
349.073	46.85
349.537	56.05
350.001	58.35
350.465	62.95
350.93	61.65
351.394	62.05
351.858	55.35
352.322	66.15
352.786	64.65
353.25	70.55
353.715	87.15
354.179	73.25
354.643	94.25
355.107	88.75
355.571	79.45
356.035	78.15
356.498	82.25
356.962	91.25
357.426	93.25
357.89	86.95
358.354	63.15
358.818	59.45
359.281	57.75
359.745	61.05
360.209	56.65
360.673	56.95
361.136	62.25
361.6	64.65
362.064	63.85
362.527	63.75
362.991	77.35
363.454	67.05
363.918	61.45
364.381	66.05
364.845	62.75
365.308	68.95
365.772	70.25
366.235	75.25
366.698	67.35
367.162	61.35
367.625	67.75
368.088	71.85
368.552	70.85
369.015	61.25
369.478	74.95
369.941	78.25
370.404	69.35
370.867	83.25
371.331	86.75
371.794	93.35
372.257	84.05
372.72	83.05
373.183	84.45
373.646	82.05
374.109	75.25
374.572	83.35
375.035	85.25
375.497	85.85
375.96	87.35
376.423	88.05
376.886	88.05
377.349	96.25
377.811	87.85
378.274	88.35
378.737	93.85
379.199	90.95
379.662	96.35
380.125	88.85
380.587	94.05
381.05	98.55
381.512	105.35
381.975	112.85
382.437	98.75
382.9	103.85
383.362	103.15
383.825	111.85
384.287	104.45
384.75	101.25
385.212	109.95
385.674	114.95
386.136	118.05
386.599	108.15
387.061	113.35
387.523	110.85
387.985	116.65
388.447	116.25
388.91	112.55
389.372	114.05
389.834	106.65
390.296	117.05
390.758	115.85
391.22	126.75
391.682	135.45
392.144	157.65
392.606	138.15
393.068	126.35
393.529	128.45
393.991	123.75
394.453	116.85
394.915	118.05
395.377	130.65
395.838	132.75
396.3	122.05
396.762	121.25
397.224	116.35
397.685	118.55
398.147	117.75
398.608	115.35
399.07	119.05
399.531	122.45
399.993	123.15
400.454	136.85
400.916	129.15
401.377	137.85
401.839	143.05
402.3	140.25
402.762	150.55
403.223	161.35
403.684	147.95
404.145	141.55
404.607	145.25
405.068	142.25
405.529	148.85
405.99	165.45
406.451	162.65
406.913	157.15
407.374	152.75
407.835	149.75
408.296	154.75
408.757	154.45
409.218	167.75
409.679	163.45
410.14	160.25
410.601	163.75
411.062	163.75
411.522	168.65
411.983	162.05
412.444	162.85
412.905	173.55
413.366	168.45
413.826	182.65
414.287	210.15
414.748	253.55
415.208	235.35
415.669	201.75
416.13	195.75
416.59	192.25
417.051	208.65
417.511	213.45
417.972	226.65
418.432	232.55
418.893	272.55
419.353	240.75
419.814	189.45
420.274	173.75
420.734	170.15
421.195	193.25
421.655	180.65
422.115	175.45
422.576	181.75
423.036	191.45
423.496	196.95
423.956	207.25
424.416	225.15
424.876	255.05
425.336	249.75
425.797	242.95
426.257	244.05
426.717	227.45
427.177	222.65
427.637	209.85
428.097	222.55
428.556	235.05
429.016	248.95
429.476	249.45
429.936	256.95
430.396	257.75
430.856	272.65
431.315	298.05
431.775	327.15
432.235	354.45
432.694	325.05
433.154	343.25
433.614	359.95
434.073	311.35
434.533	269.15
434.993	253.25
435.452	265.45
435.912	268.65
436.371	266.45
436.83	264.85
437.29	247.65
437.749	237.75
438.209	231.85
438.668	258.65
439.127	265.55
439.587	251.95
440.046	242.25
440.505	245.45
440.964	266.55
441.424	302.95
441.883	286.25
442.342	249.95
442.801	217.15
443.26	220.75
443.719	222.45
444.178	211.85
444.637	207.25
445.096	213.25
445.555	205.75
446.014	214.85
446.473	223.25
446.932	231.75
447.391	217.65
447.849	231.65
448.308	215.95
448.767	217.85
449.226	234.35
449.685	234.75
450.143	248.75
450.602	232.55
451.061	225.15
451.519	233.25
451.978	230.45
452.436	234.95
452.895	228.45
453.353	239.95
453.812	235.05
454.27	237.95
454.729	234.45
455.187	233.15
455.646	235.65
456.104	245.55
456.562	257.65
457.021	263.75
457.479	253.95
457.937	255.55
458.395	250.75
458.854	246.75
459.312	252.15
459.77	271.45
460.228	253.75
460.686	242.75
461.144	246.85
461.602	241.85
462.06	240.55
462.518	258.55
462.976	252.65
463.434	249.95
463.892	254.65
464.35	274.35
464.808	282.25
465.266	264.95
465.724	264.55
466.181	266.75
466.639	271.55
467.097	280.85
467.555	296.35
468.012	295.15
468.47	298.15
468.928	324.75
469.385	332.15
469.843	337.75
470.3	336.35
470.758	343.85
471.215	378.25
471.673	395.75
472.13	392.65
472.588	411.15
473.045	370.65
473.503	368.65
473.96	391.25
474.417	397.95
474.875	419.15
475.332	463.35
475.789	453.45
476.246	456.05
476.704	475.25
477.161	502.75
477.618	507.25
478.075	538.85
478.532	586.25
478.989	654.15
479.446	774.85
479.903	739.65
480.36	764.45
480.817	803.35
481.274	900.65
481.731	985.55
482.188	1075.25
482.645	1173.55
483.102	1258.35
483.558	1374.25
484.015	1422.75
484.472	1406.05
484.929	1359.55
485.385	1304.55
485.842	1291.15
486.299	1240.25
486.755	1190.35
487.212	1014.65
487.668	874.55
488.125	818.75
488.582	738.35
489.038	712.95
489.494	684.05
489.951	664.75
490.407	651.95
490.864	624.75
491.32	620.95
491.776	627.35
492.233	633.65
492.689	603.05
493.145	588.45
493.602	581.55
494.058	598.15
494.514	599.45
494.97	623.75
495.426	628.85
495.882	604.65
496.338	599.55
496.794	611.35
497.251	598.75
497.707	617.65
498.163	610.75
498.618	617.75
499.074	627.35
499.53	650.55
499.986	651.95
500.442	631.05
500.898	609.95
501.354	600.05
501.809	616.25
502.265	621.25
502.721	634.45
503.177	634.85
503.632	640.75
504.088	628.85
504.543	666.25
504.999	678.75
505.455	646.15
505.91	629.15
506.366	633.35
506.821	627.75
507.277	610.25
507.732	622.25
508.187	624.95
508.643	632.35
509.098	637.05
509.553	654.15
510.009	662.75
510.464	660.55
510.919	683.65
511.375	694.15
511.83	709.05
512.285	716.25
512.74	752.45
513.195	768.75
513.65	754.15
514.105	750.45
514.56	767.75
515.015	782.35
515.47	794.05
515.925	766.95
516.38	774.25
516.835	776.75
517.29	773.95
517.745	768.05
518.2	751.05
518.655	734.05
519.109	741.25
519.564	736.25
520.019	719.15
520.474	711.55
520.928	718.15
521.383	717.55
521.838	701.65
522.292	702.95
522.747	701.15
523.201	706.95
523.656	695.45
524.11	695.55
524.565	696.35
525.019	689.95
525.474	687.25
525.928	696.75
526.382	687.45
526.837	702.15
527.291	700.45
527.745	692.55
528.2	697.75
528.654	691.05
529.108	689.65
529.562	683.55
530.016	674.55
530.47	675.35
530.925	688.75
531.379	683.55
531.833	689.65
532.287	703.35
532.741	696.35
533.195	693.85
533.649	699.25
534.103	711.55
534.556	695.65
535.01	699.05
535.464	684.65
535.918	703.85
536.372	707.65
536.826	708.35
537.279	705.65
537.733	690.75
538.187	705.75
538.64	696.55
539.094	721.35
539.548	725.15
540.001	719.65
540.455	715.45
540.908	723.35
541.362	735.35
541.815	753.05
542.269	750.65
542.722	757.55
543.175	771.85
543.629	763.85
544.082	787.45
544.536	787.05
544.989	785.75
545.442	800.75
545.895	798.45
546.349	787.35
546.802	793.25
547.255	802.25
547.708	802.15
548.161	814.45
548.614	818.05
549.067	825.05
549.52	824.85
549.973	814.95
550.426	804.15
550.879	796.45
551.332	793.25
551.785	800.85
552.238	796.35
552.691	813.45
553.144	832.55
553.596	846.75
554.049	857.65
554.502	884.05
554.955	914.85
555.407	904.65
555.86	885.05
556.313	886.05
556.765	880.95
557.218	883.35
557.67	882.55
558.123	871.25
558.576	871.45
559.028	873.85
559.48	889.95
559.933	882.55
560.385	844.35
560.838	807.25
561.29	791.75
561.742	793.55
562.195	774.05
562.647	771.25
563.099	781.15
563.551	781.75
564.004	786.35
564.456	768.15
564.908	754.15
565.36	740.55
565.812	728.45
566.264	725.05
566.716	725.05
567.168	704.05
567.62	708.75
568.072	699.15
568.524	695.95
568.976	685.35
569.428	669.35
569.88	672.15
570.332	676.65
570.784	690.65
571.235	686.05
571.687	695.85
572.139	702.35
572.59	711.95
573.042	707.55
573.494	713.65
573.945	709.65
574.397	682.35
574.849	697.95
575.3	691.15
575.752	692.75
576.203	687.15
576.655	682.45
577.106	665.45
577.557	660.15
578.009	672.25
578.46	668.55
578.912	671.35
579.363	664.05
579.814	658.45
580.265	660.25
580.717	660.55
581.168	666.15
581.619	691.15
582.07	686.55
582.521	681.45
582.972	673.35
583.423	676.35
583.875	681.55
584.326	686.55
584.777	707.95
585.227	731.35
585.678	753.05
586.129	792.45
586.58	810.05
587.031	841.95
587.482	891.55
587.933	940.05
588.384	885.55
588.834	806.35
589.285	772.45
589.736	775.55
590.186	770.15
590.637	769.45
591.088	756.55
591.538	740.45
591.989	727.05
592.439	731.95
592.89	726.75
593.34	701.85
593.791	710.15
594.241	696.05
594.692	698.45
595.142	704.25
595.593	698.55
596.043	704.75
596.493	704.35
596.943	713.35
597.394	727.85
597.844	718.25
598.294	739.95
598.744	763.65
599.195	790.95
599.645	831.55
600.095	862.65
600.545	926.25
600.995	975.25
601.445	1031.25
601.895	1091.55
602.345	1138.85
602.795	1125.95
603.245	1067.85
603.695	1018.15
604.145	970.75
604.594	916.75
605.044	863.25
605.494	802.85
605.944	759.65
606.393	754.65
606.843	728.85
607.293	729.65
607.743	726.75
608.192	742.05
608.642	760.55
609.091	762.95
609.541	772.85
609.99	760.95
610.44	770.45
610.889	724.35
611.339	695.45
611.788	688.65
612.238	699.65
612.687	699.55
613.136	710.65
613.586	709.35
614.035	709.45
614.484	715.25
614.933	717.05
615.383	709.65
615.832	715.65
616.281	711.05
616.73	677.05
617.179	659.55
617.628	651.45
618.077	637.65
618.526	628.25
618.975	614.55
619.424	612.15
619.873	611.55
620.322	626.55
620.771	614.05
621.22	595.55
621.669	585.85
622.118	584.45
622.567	580.75
623.015	568.05
623.464	570.85
623.913	560.25
624.361	552.05
624.81	549.15
625.259	551.75
625.707	557.75
626.156	561.55
626.604	567.55
627.053	559.35
627.501	561.75
627.95	573.15
628.398	585.35
628.847	571.95
629.295	569.65
629.744	568.75
630.192	570.75
630.64	571.05
631.089	550.25
631.537	553.35
631.985	542.05
632.433	540.95
632.881	535.95
633.33	551.05
633.778	547.05
634.226	537.75
634.674	550.25
635.122	550.15
635.57	563.75
636.018	574.35
636.466	567.95
636.914	560.65
637.362	569.95
637.81	585.75
638.258	590.45
638.705	587.45
639.153	617.75
639.601	624.65
640.049	639.65
640.497	680.55
640.944	702.25
641.392	653.65
641.84	618.05
642.287	591.25
642.735	562.35
643.182	573.05
643.63	561.55
644.078	572.65
644.525	581.65
644.973	589.25
645.42	600.25
645.867	625.25
646.315	629.75
646.762	661.05
647.21	679.15
647.657	710.35
648.104	739.05
648.551	765.85
648.999	817.35
649.446	885.15
649.893	971.45
650.34	1118.15
650.787	1331.25
651.234	1650.45
651.682	2135.85
652.129	2916.55
652.576	4150.15
653.023	6044.65
653.47	8176.65
653.917	10055.15
654.363	11495.05
654.81	12630.75
655.257	11979.05
655.704	7924.45
656.151	4747.35
656.598	3120.75
657.044	2228.45
657.491	1747.25
657.938	1404.15
658.385	1174.45
658.831	1032.65
659.278	923.55
659.724	832.95
660.171	762.65
660.618	707.45
661.064	677.15
661.511	658.85
661.957	647.55
662.404	636.25
662.85	650.65
663.296	618.85
663.743	565.15
664.189	525.75
664.635	537.85
665.082	535.55
665.528	533.95
665.974	529.85
666.42	510.65
666.867	505.45
667.313	488.15
667.759	472.05
668.205	458.55
668.651	459.45
669.097	451.95
669.543	447.35
669.989	447.45
670.435	451.15
670.881	443.95
671.327	457.95
671.773	476.85
672.219	498.85
672.665	558.55
673.11	591.95
673.556	646.35
674.002	678.55
674.448	673.25
674.893	565.75
675.339	482.15
675.785	456.25
676.23	425.55
676.676	397.85
677.122	393.15
677.567	383.15
678.013	378.05
678.458	365.85
678.904	364.55
679.349	347.55
679.794	365.05
680.24	354.85
680.685	355.95
681.131	351.05
681.576	347.55
682.021	358.75
682.466	361.05
682.912	355.75
683.357	357.55
683.802	394.85
684.247	428.45
684.692	463.15
685.137	512.95
685.583	547.75
686.028	570.45
686.473	530.15
686.918	449.25
687.363	425.25
687.807	403.65
688.252	366.25
688.697	358.95
689.142	345.55
689.587	337.95
690.032	327.15
690.477	349.55
690.921	355.85
691.366	393.95
691.811	411.85
692.255	444.15
692.7	467.25
693.145	527.25
693.589	737.85
694.034	1210.35
694.478	1620.55
694.923	1777.75
695.367	2295.15
695.812	1230.75
696.256	510.95
696.701	380.35
697.145	353.65
697.59	334.25
698.034	323.25
698.478	331.75
698.922	325.65
699.367	327.55
699.811	345.45
700.255	362.95
700.699	392.65
701.143	433.95
701.588	487.25
702.032	524.35
702.476	522.85
702.92	506.85
703.364	509.85
703.808	685.45
704.252	1131.15
704.696	1532.85
705.14	1725.95
705.584	2173.85
706.027	1109.35
706.471	540.25
706.915	409.15
707.359	359.65
707.803	328.95
708.246	316.35
708.69	315.85
709.134	326.55
709.577	322.45
710.021	327.85
710.465	314.55
710.908	305.25
711.352	297.05
711.795	319.25
712.239	367.45
712.682	401.45
713.126	417.45
713.569	464.85
714.012	361.85
714.456	310.95
714.899	294.65
715.342	278.65
715.786	264.15
716.229	263.75
716.672	256.95
717.115	245.65
717.558	249.15
718.002	259.15
718.445	271.05
718.888	286.65
719.331	302.95
719.774	324.65
720.217	306.05
720.66	291.35
721.103	269.35
721.546	258.65
721.989	257.15
722.432	236.95
722.874	244.55
723.317	235.85
723.76	242.95
724.203	264.55
724.645	329.85
725.088	466.35
725.531	590.25
725.974	655.15
726.416	569.75
726.859	312.95
727.301	252.45
727.744	240.15
728.187	239.45
728.629	245.45
729.071	247.15
729.514	269.65
729.956	283.55
730.399	292.35
730.841	299.35
731.283	285.55
731.726	273.75
732.168	267.85
732.61	271.85
733.053	298.75
733.495	331.35
733.937	367.85
734.379	411.95
734.821	451.55
735.263	581.95
735.705	911.55
736.148	1742.85
736.59	2742.55
737.032	3106.45
737.474	2545.05
737.916	845.55
738.357	455.55
738.799	338.35
739.241	307.55
739.683	297.75
740.125	302.95
740.567	312.95
741.008	324.35
741.45	322.95
741.892	331.95
742.334	365.55
742.775	368.05
743.217	357.75
743.658	280.35
744.1	261.95
744.542	271.85
744.983	322.45
745.425	358.25
745.866	347.45
746.307	289.85
746.749	287.35
747.19	339.05
747.632	490.45
748.073	970.85
748.514	2025.45
748.956	2980.15
749.397	3760.35
749.838	3120.95
750.279	3033.55
750.72	1550.95
751.162	572.95
751.603	342.65
752.044	258.75
752.485	224.75
752.926	211.75
753.367	209.05
753.808	193.65
754.249	191.55
754.69	193.85
755.131	187.25
755.572	182.95
756.013	189.25
756.453	193.25
756.894	191.25
757.335	194.35
757.776	204.75
758.216	199.15
758.657	204.45
759.098	213.95
759.538	228.35
759.979	282.95
760.42	394.35
760.86	796.05
761.301	2063.55
761.741	4785.95
762.182	6591.95
762.622	4651.05
763.063	1379.55
763.503	555.75
