Data from 20171114-ORNL-Ar_H_NY_Subt18_08-08-15-657.txt Node
Date: Tue Nov 14 08:08:15 EST 2017
User: Ender
Spectrometer: HR+D1039
Trigger mode: 0
Integration Time (sec): 2.730000E-2
Scans to average: 10
Electric dark correction enabled: true
Nonlinearity correction enabled: false
Boxcar width: 0
XAxis mode: Wavelengths
Number of Pixels in Spectrum: 2048
>>>>>Begin Spectral Data<<<<<
187.836	-8.96
188.309	-8.96
188.782	-8.96
189.255	-0.86
189.728	-3.66
190.201	9.14
190.674	0.34
191.147	1.64
191.619	-13.16
192.092	2.54
192.565	11.04
193.038	2.44
193.511	5.54
193.984	-2.56
194.456	-0.66
194.929	0.04
195.402	0.14
195.874	-3.06
196.347	-1.36
196.82	-5.96
197.292	3.74
197.765	-0.76
198.237	-5.26
198.71	2.74
199.182	-0.16
199.655	4.54
200.127	1.74
200.6	1.34
201.072	-1.46
201.544	0.64
202.017	-0.46
202.489	3.64
202.961	-0.66
203.433	-2.16
203.906	-2.06
204.378	-8.46
204.85	-1.96
205.322	-11.86
205.794	-5.26
206.266	-4.26
206.739	-6.36
207.211	-0.16
207.683	-9.16
208.155	-4.16
208.627	0.14
209.099	5.04
209.57	-3.46
210.042	-1.16
210.514	0.04
210.986	0.04
211.458	-10.26
211.93	-0.46
212.402	2.14
212.873	-8.36
213.345	-9.36
213.817	-16.36
214.288	-2.96
214.76	-1.86
215.232	-3.86
215.703	-1.46
216.175	3.04
216.646	2.54
217.118	-4.26
217.589	3.54
218.061	-4.36
218.532	-1.36
219.004	-1.76
219.475	-5.36
219.946	3.64
220.418	-1.56
220.889	4.84
221.36	-0.46
221.832	2.34
222.303	-6.76
222.774	2.04
223.245	-3.06
223.717	-11.96
224.188	-1.56
224.659	-7.76
225.13	-4.36
225.601	-0.46
226.072	5.74
226.543	1.04
227.014	-3.56
227.485	-3.46
227.956	0.74
228.427	2.04
228.898	2.54
229.369	1.34
229.839	-6.66
230.31	-6.36
230.781	2.04
231.252	-4.96
231.722	-6.86
232.193	-3.96
232.664	-0.26
233.135	-1.16
233.605	4.74
234.076	-10.36
234.546	-0.76
235.017	5.04
235.487	1.24
235.958	3.34
236.428	0.14
236.899	9.34
237.369	-0.66
237.84	-0.76
238.31	-2.06
238.78	2.24
239.251	-1.66
239.721	9.44
240.191	-3.76
240.662	0.44
241.132	6.94
241.602	-2.26
242.072	4.94
242.542	4.74
243.013	2.94
243.483	0.64
243.953	-0.96
244.423	-2.56
244.893	-3.96
245.363	6.54
245.833	0.84
246.303	0.94
246.773	9.64
247.243	4.14
247.712	1.44
248.182	2.24
248.652	9.14
249.122	1.24
249.592	11.04
250.061	15.44
250.531	28.34
251.001	13.14
251.471	19.64
251.94	19.64
252.41	7.34
252.879	5.04
253.349	15.44
253.818	9.64
254.288	-1.56
254.757	8.24
255.227	-1.26
255.696	4.24
256.166	11.04
256.635	10.14
257.105	7.14
257.574	3.64
258.043	11.34
258.513	11.84
258.982	18.34
259.451	2.24
259.92	8.94
260.389	8.84
260.859	16.04
261.328	15.64
261.797	22.34
262.266	5.14
262.735	8.34
263.204	9.24
263.673	-0.56
264.142	6.74
264.611	-1.86
265.08	2.54
265.549	5.54
266.018	6.84
266.487	1.84
266.955	0.54
267.424	2.24
267.893	10.94
268.362	6.54
268.83	8.44
269.299	9.84
269.768	8.04
270.236	9.54
270.705	4.24
271.174	7.44
271.642	7.74
272.111	7.14
272.579	19.44
273.048	21.44
273.516	25.14
273.985	24.84
274.453	21.24
274.922	18.04
275.39	13.64
275.858	0.54
276.327	9.24
276.795	19.24
277.263	12.34
277.731	28.54
278.2	42.74
278.668	57.64
279.136	42.34
279.604	18.24
280.072	14.84
280.54	15.54
281.008	12.14
281.477	18.34
281.945	13.14
282.413	9.44
282.881	15.74
283.348	5.74
283.816	15.84
284.284	17.14
284.752	23.54
285.22	13.24
285.688	14.24
286.156	22.34
286.623	40.64
287.091	40.14
287.559	22.94
288.026	16.14
288.494	16.24
288.962	13.14
289.429	12.24
289.897	20.44
290.364	12.64
290.832	18.84
291.3	21.44
291.767	16.94
292.234	14.14
292.702	16.04
293.169	16.34
293.637	23.64
294.104	18.04
294.571	10.34
295.039	14.54
295.506	15.94
295.973	20.54
296.44	12.84
296.908	14.84
297.375	15.74
297.842	17.94
298.309	14.74
298.776	15.04
299.243	20.34
299.71	14.84
300.177	20.14
300.644	18.04
301.111	26.24
301.578	18.84
302.045	12.64
302.512	18.34
302.979	25.64
303.446	17.94
303.913	16.74
304.379	20.74
304.846	26.44
305.313	27.04
305.78	17.44
306.246	29.04
306.713	25.44
307.18	20.34
307.646	23.04
308.113	26.34
308.579	21.94
309.046	25.94
309.512	33.04
309.979	14.64
310.445	31.54
310.912	22.84
311.378	35.44
311.845	29.04
312.311	34.44
312.777	31.04
313.244	29.64
313.71	32.14
314.176	24.04
314.642	35.14
315.109	35.34
315.575	35.04
316.041	37.54
316.507	34.54
316.973	42.24
317.439	36.44
317.905	34.54
318.371	30.64
318.837	36.64
319.303	35.94
319.769	34.04
320.235	33.54
320.701	37.34
321.167	33.74
321.633	32.34
322.099	43.84
322.564	42.14
323.03	41.94
323.496	44.64
323.962	40.74
324.427	33.54
324.893	47.94
325.359	33.64
325.824	40.64
326.29	36.54
326.755	39.04
327.221	44.14
327.686	33.54
328.152	47.44
328.617	45.54
329.083	44.24
329.548	43.04
330.014	47.04
330.479	39.64
330.944	44.24
331.41	45.04
331.875	42.64
332.34	41.64
332.805	35.64
333.271	47.24
333.736	47.94
334.201	55.04
334.666	45.64
335.131	53.84
335.596	47.94
336.061	51.44
336.526	44.64
336.991	48.74
337.456	57.14
337.921	51.44
338.386	48.24
338.851	42.84
339.316	46.04
339.781	54.44
340.246	53.74
340.711	50.34
341.175	51.34
341.64	51.44
342.105	53.34
342.569	56.94
343.034	51.04
343.499	54.14
343.963	52.94
344.428	61.84
344.893	62.54
345.357	57.74
345.822	62.14
346.286	59.64
346.751	78.64
347.215	63.24
347.679	77.14
348.144	97.74
348.608	79.44
349.073	74.44
349.537	71.24
350.001	79.74
350.465	89.24
350.93	81.74
351.394	80.84
351.858	69.84
352.322	89.64
352.786	83.94
353.25	105.44
353.715	114.74
354.179	101.64
354.643	123.64
355.107	128.24
355.571	106.44
356.035	105.64
356.498	124.94
356.962	123.34
357.426	132.54
357.89	118.54
358.354	94.34
358.818	76.84
359.281	78.24
359.745	83.74
360.209	78.34
360.673	74.94
361.136	79.84
361.6	85.94
362.064	80.64
362.527	88.64
362.991	93.44
363.454	81.24
363.918	76.14
364.381	79.24
364.845	86.54
365.308	79.94
365.772	85.04
366.235	84.84
366.698	90.34
367.162	84.44
367.625	87.04
368.088	91.94
368.552	90.54
369.015	90.94
369.478	100.84
369.941	108.64
370.404	99.94
370.867	105.24
371.331	106.54
371.794	119.14
372.257	101.94
372.72	116.84
373.183	111.14
373.646	106.34
374.109	107.14
374.572	101.04
375.035	112.84
375.497	109.24
375.96	106.64
376.423	106.94
376.886	116.94
377.349	112.64
377.811	101.74
378.274	107.04
378.737	112.54
379.199	111.14
379.662	108.34
380.125	118.04
380.587	114.24
381.05	118.24
381.512	125.94
381.975	133.64
382.437	128.94
382.9	132.14
383.362	141.84
383.825	138.44
384.287	155.64
384.75	142.94
385.212	145.04
385.674	146.44
386.136	134.74
386.599	126.64
387.061	128.84
387.523	126.14
387.985	130.54
388.447	144.74
388.91	148.24
389.372	163.34
389.834	150.24
390.296	144.94
390.758	162.04
391.22	169.24
391.682	216.64
392.144	302.34
392.606	235.44
393.068	169.04
393.529	170.34
393.991	155.84
394.453	152.74
394.915	164.74
395.377	197.14
395.838	223.04
396.3	152.74
396.762	141.94
397.224	136.74
397.685	137.04
398.147	135.34
398.608	133.04
399.07	125.24
399.531	136.64
399.993	145.34
400.454	155.94
400.916	150.74
401.377	144.64
401.839	150.14
402.3	155.34
402.762	169.14
403.223	183.64
403.684	172.94
404.145	161.34
404.607	164.54
405.068	166.64
405.529	167.04
405.99	193.04
406.451	176.84
406.913	172.54
407.374	163.54
407.835	161.94
408.296	170.04
408.757	177.14
409.218	192.74
409.679	183.04
410.14	173.44
410.601	187.64
411.062	190.14
411.522	199.34
411.983	202.44
412.444	181.04
412.905	178.74
413.366	190.74
413.826	192.44
414.287	225.74
414.748	266.64
415.208	244.14
415.669	212.04
416.13	206.84
416.59	199.54
417.051	211.94
417.511	222.74
417.972	231.34
418.432	243.44
418.893	290.74
419.353	257.64
419.814	200.64
420.274	183.64
420.734	187.64
421.195	206.14
421.655	209.54
422.115	204.14
422.576	200.24
423.036	202.24
423.496	213.24
423.956	223.24
424.416	237.14
424.876	271.34
425.336	252.64
425.797	268.74
426.257	250.34
426.717	244.04
427.177	234.14
427.637	228.54
428.097	235.74
428.556	251.14
429.016	278.34
429.476	270.04
429.936	278.34
430.396	283.34
430.856	303.14
431.315	319.44
431.775	362.74
432.235	387.54
432.694	363.64
433.154	369.64
433.614	397.04
434.073	344.84
434.533	296.34
434.993	270.84
435.452	283.74
435.912	303.24
436.371	292.14
436.83	288.14
437.29	276.24
437.749	247.74
438.209	244.74
438.668	287.74
439.127	289.44
439.587	267.64
440.046	253.94
440.505	264.74
440.964	287.74
441.424	329.44
441.883	317.54
442.342	263.14
442.801	228.74
443.26	225.44
443.719	225.04
444.178	225.54
444.637	218.74
445.096	230.24
445.555	225.64
446.014	225.64
446.473	232.24
446.932	241.84
447.391	231.44
447.849	233.64
448.308	223.44
448.767	227.04
449.226	243.94
449.685	243.84
450.143	254.34
450.602	239.44
451.061	227.34
451.519	229.64
451.978	228.84
452.436	244.24
452.895	245.24
453.353	252.94
453.812	246.24
454.27	246.34
454.729	240.14
455.187	244.44
455.646	248.24
456.104	248.34
456.562	266.04
457.021	273.64
457.479	267.94
457.937	276.64
458.395	274.24
458.854	250.74
459.312	257.94
459.77	285.34
460.228	258.14
460.686	246.24
461.144	248.24
461.602	245.84
462.06	245.04
462.518	261.04
462.976	254.84
463.434	259.64
463.892	268.14
464.35	277.24
464.808	291.64
465.266	269.14
465.724	278.74
466.181	280.24
466.639	271.24
467.097	298.14
467.555	299.54
468.012	308.34
468.47	312.54
468.928	323.14
469.385	343.14
469.843	347.64
470.3	351.44
470.758	362.94
471.215	384.34
471.673	415.74
472.13	406.24
472.588	423.44
473.045	380.54
473.503	380.04
473.96	389.84
474.417	406.64
474.875	435.34
475.332	478.24
475.789	467.14
476.246	468.84
476.704	486.44
477.161	512.84
477.618	523.64
478.075	563.54
478.532	615.14
478.989	699.74
479.446	821.34
479.903	778.24
480.36	811.74
480.817	873.44
481.274	970.94
481.731	1075.94
482.188	1164.44
482.645	1294.04
483.102	1399.14
483.558	1545.64
484.015	1587.84
484.472	1570.24
484.929	1510.34
485.385	1463.34
485.842	1422.94
486.299	1361.44
486.755	1294.14
487.212	1094.84
487.668	922.54
488.125	847.84
488.582	776.94
489.038	745.84
489.494	704.74
489.951	679.84
490.407	663.14
490.864	648.14
491.32	655.44
491.776	644.14
492.233	636.74
492.689	614.24
493.145	609.84
493.602	607.94
494.058	613.24
494.514	610.14
494.97	641.04
495.426	651.24
495.882	625.44
496.338	622.94
496.794	633.24
497.251	613.44
497.707	633.04
498.163	631.44
498.618	648.84
499.074	643.84
499.53	685.94
499.986	674.74
500.442	653.54
500.898	626.94
501.354	635.74
501.809	655.14
502.265	650.24
502.721	666.34
503.177	682.64
503.632	672.14
504.088	680.74
504.543	715.94
504.999	714.44
505.455	652.34
505.91	634.54
506.366	631.14
506.821	633.14
507.277	628.04
507.732	633.94
508.187	623.34
508.643	630.84
509.098	646.14
509.553	662.44
510.009	668.34
510.464	668.74
510.919	681.34
511.375	699.44
511.83	707.24
512.285	725.24
512.74	754.54
513.195	780.94
513.65	763.14
514.105	758.54
514.56	771.74
515.015	786.44
515.47	796.54
515.925	783.14
516.38	793.54
516.835	790.04
517.29	787.04
517.745	777.64
518.2	763.74
518.655	746.54
519.109	735.84
519.564	733.54
520.019	732.24
520.474	723.24
520.928	724.04
521.383	723.24
521.838	717.34
522.292	715.44
522.747	713.34
523.201	709.94
523.656	696.54
524.11	688.74
524.565	689.64
525.019	695.14
525.474	698.24
525.928	705.94
526.382	705.44
526.837	702.04
527.291	711.54
527.745	696.44
528.2	689.54
528.654	691.04
529.108	688.34
529.562	689.64
530.016	684.24
530.47	684.54
530.925	692.54
531.379	691.94
531.833	706.34
532.287	701.84
532.741	693.34
533.195	699.44
533.649	710.04
534.103	715.54
534.556	708.94
535.01	709.44
535.464	702.14
535.918	712.34
536.372	720.44
536.826	723.24
537.279	701.84
537.733	711.64
538.187	711.14
538.64	721.94
539.094	717.14
539.548	736.04
540.001	721.64
540.455	723.04
540.908	731.64
541.362	740.64
541.815	747.04
542.269	753.14
542.722	751.54
543.175	762.34
543.629	776.64
544.082	785.24
544.536	788.54
544.989	786.34
545.442	791.64
545.895	788.44
546.349	778.04
546.802	793.64
547.255	795.04
547.708	808.54
548.161	798.84
548.614	818.64
549.067	823.84
549.52	829.24
549.973	806.84
550.426	807.34
550.879	796.14
551.332	802.04
551.785	812.34
552.238	804.24
552.691	815.54
553.144	837.84
553.596	856.14
554.049	860.84
554.502	895.04
554.955	913.44
555.407	897.54
555.86	894.24
556.313	887.94
556.765	884.74
557.218	880.74
557.67	890.54
558.123	871.34
558.576	865.34
559.028	882.54
559.48	882.64
559.933	876.14
560.385	841.94
560.838	812.64
561.29	787.44
561.742	781.04
562.195	768.24
562.647	775.24
563.099	778.74
563.551	765.14
564.004	790.14
564.456	773.94
564.908	764.54
565.36	742.24
565.812	744.94
566.264	725.74
566.716	727.84
567.168	713.44
567.62	726.74
568.072	701.34
568.524	692.04
568.976	704.84
569.428	672.74
569.88	679.34
570.332	683.64
570.784	684.34
571.235	682.84
571.687	695.14
572.139	701.24
572.59	713.64
573.042	715.44
573.494	715.54
573.945	704.24
574.397	691.84
574.849	694.74
575.3	697.14
575.752	677.64
576.203	681.14
576.655	688.84
577.106	673.14
577.557	666.84
578.009	667.44
578.46	673.64
578.912	659.34
579.363	665.04
579.814	665.54
580.265	666.04
580.717	684.74
581.168	673.94
581.619	677.34
582.07	677.64
582.521	671.14
582.972	675.54
583.423	682.24
583.875	682.84
584.326	712.84
584.777	757.94
585.227	832.24
585.678	919.24
586.129	1002.24
586.58	1071.84
587.031	1145.14
587.482	1292.24
587.933	1462.84
588.384	1294.24
588.834	975.54
589.285	808.34
589.736	788.54
590.186	782.94
590.637	780.84
591.088	749.64
591.538	734.54
591.989	733.14
592.439	735.64
592.89	724.34
593.34	711.94
593.791	716.74
594.241	710.54
594.692	724.24
595.142	714.24
595.593	709.14
596.043	709.84
596.493	713.74
596.943	721.64
597.394	732.34
597.844	720.74
598.294	738.34
598.744	749.24
599.195	790.34
599.645	823.44
600.095	866.34
600.545	924.74
600.995	964.94
601.445	1024.24
601.895	1089.14
602.345	1134.34
602.795	1119.54
603.245	1070.24
603.695	1010.34
604.145	953.74
604.594	913.84
605.044	861.74
605.494	812.04
605.944	771.64
606.393	747.54
606.843	725.74
607.293	744.14
607.743	734.44
608.192	752.54
608.642	767.64
609.091	768.44
609.541	778.74
609.99	781.04
610.44	768.84
610.889	731.24
611.339	701.74
611.788	692.74
612.238	703.44
612.687	720.04
613.136	725.84
613.586	740.14
614.035	748.24
614.484	764.64
614.933	774.44
615.383	757.74
615.832	745.34
616.281	731.34
616.73	693.24
617.179	661.84
617.628	655.54
618.077	641.74
618.526	623.14
618.975	626.54
619.424	621.24
619.873	615.44
620.322	622.24
620.771	608.14
621.22	607.84
621.669	587.04
622.118	590.14
622.567	578.04
623.015	577.84
623.464	569.84
623.913	565.34
624.361	557.54
624.81	561.54
625.259	551.34
625.707	549.14
626.156	557.64
626.604	570.64
627.053	571.44
627.501	561.34
627.95	578.94
628.398	593.34
628.847	580.74
629.295	577.84
629.744	588.44
630.192	565.44
630.64	561.44
631.089	580.24
631.537	591.34
631.985	586.14
632.433	604.54
632.881	603.64
633.33	676.94
633.778	659.84
634.226	578.34
634.674	584.54
635.122	589.84
635.57	600.24
636.018	634.24
636.466	585.54
636.914	563.84
637.362	573.04
637.81	577.44
638.258	587.24
638.705	594.74
639.153	612.24
639.601	631.44
640.049	648.64
640.497	684.94
640.944	701.64
641.392	654.04
641.84	615.94
642.287	585.24
642.735	577.34
643.182	582.34
643.63	586.34
644.078	579.64
644.525	602.24
644.973	608.14
645.42	611.14
645.867	628.44
646.315	653.24
646.762	666.74
647.21	704.84
647.657	731.44
648.104	753.14
648.551	788.84
648.999	844.74
649.446	931.34
649.893	1019.54
650.34	1187.64
650.787	1423.74
651.234	1772.64
651.682	2306.94
652.129	3145.04
652.576	4580.94
653.023	6741.04
653.47	9181.34
653.917	11395.34
654.363	13047.64
654.81	14290.34
655.257	13605.44
655.704	8910.24
656.151	5272.14
656.598	3434.14
657.044	2421.24
657.491	1868.04
657.938	1498.54
658.385	1252.14
658.831	1089.54
659.278	969.74
659.724	863.04
660.171	794.84
660.618	736.94
661.064	697.74
661.511	674.74
661.957	669.84
662.404	659.74
662.85	661.94
663.296	626.34
663.743	570.74
664.189	549.34
664.635	545.84
665.082	527.34
665.528	537.84
665.974	526.84
666.42	512.94
666.867	518.04
667.313	500.44
667.759	486.84
668.205	484.44
668.651	497.84
669.097	488.34
669.543	509.24
669.989	481.24
670.435	458.64
670.881	453.84
671.327	459.94
671.773	472.84
672.219	497.54
672.665	542.94
673.11	580.14
673.556	632.74
674.002	674.74
674.448	665.24
674.893	556.04
675.339	481.54
675.785	451.14
676.23	415.14
676.676	392.54
677.122	386.74
677.567	377.24
678.013	370.84
678.458	363.24
678.904	368.04
679.349	349.64
679.794	357.44
680.24	359.84
680.685	352.54
681.131	357.74
681.576	355.24
682.021	358.64
682.466	350.84
682.912	352.64
683.357	362.94
683.802	398.74
684.247	410.84
684.692	460.14
685.137	505.04
685.583	543.44
686.028	567.44
686.473	523.54
686.918	444.24
687.363	411.94
687.807	403.74
688.252	373.94
688.697	360.14
689.142	341.04
689.587	334.84
690.032	330.34
690.477	353.44
690.921	364.34
691.366	385.44
691.811	411.34
692.255	441.14
692.7	465.84
693.145	515.74
693.589	720.54
694.034	1174.54
694.478	1574.54
694.923	1740.14
695.367	2250.54
695.812	1204.74
696.256	501.64
696.701	376.74
697.145	354.14
697.59	335.84
698.034	324.04
698.478	334.94
698.922	333.04
699.367	330.44
699.811	343.14
700.255	365.44
700.699	387.84
701.143	432.24
701.588	483.44
702.032	519.74
702.476	520.64
702.92	513.34
703.364	500.64
703.808	657.04
704.252	1061.44
704.696	1480.84
705.14	1670.64
705.584	2131.04
706.027	1067.54
706.471	524.24
706.915	400.74
707.359	349.94
707.803	325.94
708.246	310.24
708.69	319.94
709.134	320.54
709.577	327.04
710.021	319.54
710.465	317.04
710.908	306.14
711.352	308.64
711.795	326.14
712.239	359.04
712.682	394.24
713.126	415.94
713.569	467.44
714.012	379.74
714.456	330.74
714.899	303.24
715.342	282.24
715.786	263.74
716.229	265.44
716.672	269.84
717.115	251.34
717.558	251.14
718.002	253.14
718.445	267.34
718.888	288.94
719.331	294.84
719.774	313.24
720.217	312.54
720.66	288.54
721.103	260.84
721.546	256.14
721.989	252.84
722.432	237.44
722.874	244.04
723.317	235.94
723.76	243.94
724.203	257.04
724.645	335.44
725.088	457.54
725.531	581.94
725.974	642.14
726.416	552.74
726.859	309.94
727.301	247.44
727.744	244.34
728.187	241.04
728.629	239.34
729.071	243.24
729.514	262.74
729.956	279.94
730.399	294.44
730.841	291.94
731.283	272.94
731.726	272.74
732.168	268.44
732.61	272.94
733.053	290.54
733.495	324.04
733.937	362.74
734.379	403.94
734.821	443.34
735.263	553.84
735.705	870.14
736.148	1641.04
736.59	2622.94
737.032	3022.94
737.474	2470.74
737.916	812.44
738.357	427.44
738.799	333.84
739.241	303.14
739.683	293.04
740.125	303.04
740.567	304.64
741.008	317.94
741.45	320.34
741.892	325.64
742.334	352.14
742.775	367.44
743.217	346.34
743.658	275.34
744.1	264.14
744.542	263.34
744.983	317.04
745.425	351.94
745.866	345.64
746.307	296.74
746.749	288.84
747.19	340.74
747.632	472.74
748.073	936.64
748.514	1929.14
748.956	2884.94
749.397	3633.74
749.838	2986.34
750.279	2946.74
750.72	1492.24
751.162	559.54
751.603	322.94
752.044	253.14
752.485	219.64
752.926	214.74
753.367	203.64
753.808	204.94
754.249	193.74
754.69	187.04
755.131	187.54
755.572	179.74
756.013	179.44
756.453	184.74
756.894	193.44
757.335	198.54
757.776	196.14
758.216	201.64
758.657	199.14
759.098	209.04
759.538	233.84
759.979	273.04
760.42	386.84
760.86	734.14
761.301	1923.54
761.741	4541.94
762.182	6378.24
762.622	4461.54
