Data from 20171114-ORNL-Ar_H_NY_Subt18_08-05-33-236.txt Node
Date: Tue Nov 14 08:05:33 EST 2017
User: Ender
Spectrometer: HR+D1039
Trigger mode: 0
Integration Time (sec): 2.730000E-2
Scans to average: 10
Electric dark correction enabled: true
Nonlinearity correction enabled: false
Boxcar width: 0
XAxis mode: Wavelengths
Number of Pixels in Spectrum: 2048
>>>>>Begin Spectral Data<<<<<
187.836	-4.25
188.309	-4.25
188.782	-4.25
189.255	0.35
189.728	-1.65
190.201	2.25
190.674	4.05
191.147	4.35
191.619	-8.65
192.092	5.65
192.565	-1.15
193.038	4.05
193.511	2.05
193.984	-1.15
194.456	-2.75
194.929	1.25
195.402	0.15
195.874	-4.55
196.347	-5.75
196.82	-5.45
197.292	3.85
197.765	-1.15
198.237	-4.25
198.71	5.55
199.182	-3.15
199.655	3.55
200.127	3.15
200.6	-2.15
201.072	-2.85
201.544	0.75
202.017	-3.05
202.489	0.15
202.961	-0.25
203.433	-2.45
203.906	-3.35
204.378	-6.15
204.85	2.25
205.322	-1.65
205.794	-1.25
206.266	-2.95
206.739	-8.65
207.211	2.95
207.683	-7.05
208.155	-7.45
208.627	-3.35
209.099	-1.15
209.57	-4.25
210.042	-6.45
210.514	-2.45
210.986	-2.65
211.458	-8.15
211.93	-0.95
212.402	-0.35
212.873	-5.45
213.345	-2.55
213.817	-10.35
214.288	-0.95
214.76	-7.25
215.232	-1.55
215.703	-1.35
216.175	-3.95
216.646	-7.25
217.118	-5.95
217.589	-8.45
218.061	-1.45
218.532	-2.75
219.004	-0.65
219.475	-2.55
219.946	-2.15
220.418	-0.65
220.889	0.65
221.36	-0.95
221.832	-3.05
222.303	-6.45
222.774	1.75
223.245	-6.65
223.717	-4.95
224.188	4.05
224.659	-3.05
225.13	-6.85
225.601	1.35
226.072	5.35
226.543	1.45
227.014	1.25
227.485	-0.45
227.956	-6.25
228.427	-0.45
228.898	1.35
229.369	2.45
229.839	-0.55
230.31	-2.55
230.781	2.85
231.252	2.85
231.722	-4.35
232.193	0.35
232.664	2.05
233.135	5.45
233.605	6.55
234.076	-2.35
234.546	-1.45
235.017	4.75
235.487	1.35
235.958	0.35
236.428	1.15
236.899	13.55
237.369	1.15
237.84	0.95
238.31	6.65
238.78	1.35
239.251	0.35
239.721	3.15
240.191	1.35
240.662	1.65
241.132	2.15
241.602	-2.95
242.072	1.75
242.542	10.85
243.013	0.45
243.483	7.85
243.953	0.35
244.423	4.65
244.893	5.95
245.363	12.95
245.833	-0.15
246.303	0.25
246.773	9.15
247.243	1.65
247.712	9.65
248.182	8.25
248.652	14.95
249.122	-2.35
249.592	16.35
250.061	24.55
250.531	33.25
251.001	16.05
251.471	25.05
251.94	19.95
252.41	7.55
252.879	0.95
253.349	10.25
253.818	9.25
254.288	5.65
254.757	3.85
255.227	0.45
255.696	6.75
256.166	13.55
256.635	12.75
257.105	6.75
257.574	10.65
258.043	9.25
258.513	16.75
258.982	18.75
259.451	14.85
259.92	21.55
260.389	8.85
260.859	15.95
261.328	21.05
261.797	20.15
262.266	9.65
262.735	15.45
263.204	6.95
263.673	0.05
264.142	11.75
264.611	-1.55
265.08	-1.85
265.549	0.65
266.018	3.55
266.487	3.75
266.955	-3.05
267.424	1.45
267.893	14.45
268.362	5.95
268.83	4.75
269.299	15.45
269.768	5.55
270.236	8.15
270.705	4.55
271.174	8.95
271.642	11.15
272.111	11.25
272.579	25.95
273.048	26.25
273.516	31.95
273.985	30.05
274.453	31.85
274.922	20.65
275.39	17.25
275.858	5.75
276.327	6.65
276.795	15.95
277.263	8.75
277.731	33.25
278.2	57.45
278.668	68.25
279.136	53.65
279.604	20.25
280.072	16.25
280.54	13.35
281.008	20.35
281.477	15.35
281.945	16.65
282.413	10.55
282.881	14.25
283.348	6.75
283.816	11.45
284.284	20.85
284.752	20.35
285.22	11.95
285.688	18.65
286.156	23.45
286.623	42.55
287.091	64.75
287.559	31.35
288.026	19.95
288.494	17.15
288.962	5.45
289.429	16.35
289.897	18.65
290.364	15.95
290.832	20.55
291.3	21.25
291.767	26.55
292.234	15.45
292.702	21.05
293.169	19.15
293.637	25.35
294.104	21.35
294.571	11.25
295.039	14.15
295.506	15.85
295.973	22.85
296.44	16.95
296.908	20.05
297.375	17.15
297.842	26.15
298.309	20.05
298.776	13.45
299.243	24.25
299.71	16.95
300.177	20.95
300.644	24.95
301.111	25.05
301.578	29.05
302.045	17.25
302.512	21.95
302.979	24.65
303.446	27.85
303.913	25.95
304.379	24.65
304.846	30.55
305.313	32.45
305.78	24.25
306.246	27.25
306.713	31.35
307.18	29.75
307.646	31.25
308.113	27.45
308.579	28.95
309.046	27.85
309.512	32.05
309.979	19.35
310.445	32.25
310.912	28.85
311.378	36.05
311.845	26.65
312.311	29.75
312.777	30.85
313.244	35.55
313.71	33.65
314.176	28.95
314.642	35.35
315.109	31.45
315.575	38.55
316.041	41.25
316.507	38.75
316.973	37.05
317.439	42.35
317.905	39.95
318.371	45.25
318.837	38.05
319.303	34.05
319.769	41.15
320.235	39.95
320.701	42.65
321.167	42.55
321.633	41.75
322.099	44.45
322.564	49.75
323.03	42.75
323.496	40.95
323.962	42.75
324.427	41.85
324.893	45.55
325.359	36.25
325.824	41.35
326.29	41.15
326.755	41.45
327.221	39.35
327.686	44.25
328.152	47.85
328.617	38.95
329.083	51.35
329.548	56.15
330.014	44.85
330.479	42.75
330.944	47.35
331.41	52.45
331.875	52.75
332.34	49.15
332.805	43.45
333.271	48.35
333.736	46.35
334.201	53.25
334.666	47.75
335.131	57.05
335.596	50.75
336.061	53.85
336.526	46.75
336.991	48.15
337.456	57.55
337.921	48.75
338.386	48.95
338.851	47.35
339.316	50.05
339.781	54.65
340.246	53.05
340.711	48.35
341.175	48.85
341.64	41.35
342.105	53.15
342.569	57.25
343.034	56.85
343.499	58.65
343.963	56.25
344.428	63.15
344.893	67.15
345.357	68.05
345.822	62.85
346.286	74.45
346.751	71.85
347.215	64.05
347.679	79.25
348.144	96.45
348.608	74.35
349.073	69.45
349.537	81.05
350.001	80.25
350.465	94.75
350.93	86.15
351.394	85.75
351.858	75.25
352.322	92.95
352.786	81.15
353.25	104.25
353.715	113.95
354.179	105.65
354.643	120.75
355.107	125.85
355.571	110.25
356.035	104.85
356.498	120.25
356.962	130.15
357.426	139.75
357.89	118.05
358.354	89.85
358.818	87.45
359.281	82.15
359.745	81.35
360.209	80.85
360.673	76.45
361.136	76.15
361.6	84.15
362.064	86.25
362.527	76.85
362.991	87.35
363.454	85.05
363.918	79.05
364.381	82.05
364.845	85.95
365.308	94.75
365.772	84.25
366.235	80.15
366.698	89.05
367.162	84.55
367.625	86.35
368.088	87.85
368.552	93.25
369.015	89.35
369.478	99.85
369.941	100.75
370.404	95.65
370.867	107.15
371.331	108.25
371.794	113.25
372.257	110.55
372.72	113.65
373.183	106.15
373.646	106.25
374.109	100.05
374.572	107.95
375.035	110.45
375.497	117.95
375.96	108.25
376.423	110.15
376.886	117.05
377.349	113.75
377.811	109.75
378.274	105.45
378.737	107.75
379.199	105.75
379.662	112.45
380.125	117.65
380.587	119.65
381.05	124.65
381.512	127.25
381.975	134.15
382.437	133.65
382.9	130.95
383.362	139.35
383.825	143.15
384.287	148.75
384.75	140.15
385.212	140.35
385.674	135.55
386.136	138.55
386.599	127.45
387.061	124.85
387.523	130.35
387.985	133.85
388.447	145.65
388.91	145.45
389.372	157.35
389.834	151.85
390.296	150.15
390.758	159.35
391.22	165.05
391.682	217.25
392.144	304.25
392.606	234.55
393.068	166.95
393.529	166.75
393.991	156.45
394.453	147.65
394.915	159.45
395.377	195.05
395.838	221.65
396.3	157.55
396.762	141.35
397.224	131.85
397.685	127.65
398.147	127.65
398.608	129.15
399.07	128.65
399.531	128.45
399.993	137.55
400.454	149.55
400.916	140.15
401.377	143.35
401.839	146.35
402.3	150.15
402.762	164.35
403.223	179.55
403.684	169.95
404.145	153.55
404.607	156.15
405.068	162.65
405.529	178.05
405.99	194.25
406.451	171.35
406.913	170.95
407.374	167.15
407.835	159.65
408.296	169.55
408.757	164.25
409.218	184.55
409.679	176.45
410.14	174.35
410.601	170.95
411.062	182.75
411.522	185.85
411.983	182.95
412.444	172.95
412.905	176.85
413.366	178.55
413.826	190.95
414.287	212.95
414.748	248.55
415.208	242.25
415.669	213.65
416.13	199.65
416.59	199.25
417.051	213.15
417.511	211.05
417.972	230.45
418.432	249.05
418.893	273.85
419.353	248.35
419.814	196.15
420.274	188.25
420.734	176.35
421.195	193.15
421.655	196.35
422.115	189.25
422.576	185.85
423.036	199.65
423.496	204.45
423.956	212.55
424.416	230.25
424.876	259.15
425.336	262.05
425.797	255.95
426.257	252.35
426.717	236.45
427.177	234.95
427.637	226.35
428.097	230.85
428.556	239.35
429.016	265.55
429.476	260.05
429.936	274.75
430.396	278.65
430.856	284.65
431.315	312.35
431.775	359.15
432.235	374.15
432.694	348.95
433.154	358.55
433.614	391.25
434.073	338.25
434.533	287.05
434.993	267.95
435.452	279.65
435.912	297.05
436.371	289.75
436.83	279.75
437.29	266.55
437.749	243.35
438.209	253.85
438.668	277.25
439.127	283.95
439.587	264.65
440.046	248.65
440.505	258.85
440.964	277.05
441.424	322.85
441.883	310.85
442.342	254.15
442.801	220.35
443.26	212.65
443.719	214.75
444.178	207.05
444.637	208.45
445.096	220.65
445.555	213.75
446.014	214.05
446.473	218.65
446.932	229.05
447.391	225.85
447.849	218.65
448.308	217.05
448.767	215.35
449.226	239.75
449.685	233.05
450.143	248.95
450.602	234.15
451.061	231.25
451.519	230.85
451.978	229.85
452.436	229.15
452.895	229.85
453.353	256.65
453.812	243.55
454.27	240.05
454.729	235.45
455.187	235.95
455.646	242.35
456.104	244.35
456.562	262.15
457.021	267.95
457.479	257.15
457.937	269.05
458.395	260.85
458.854	243.85
459.312	245.15
459.77	277.55
460.228	259.85
460.686	245.35
461.144	242.15
461.602	243.85
462.06	230.15
462.518	244.65
462.976	258.15
463.434	261.65
463.892	256.25
464.35	268.85
464.808	278.95
465.266	273.65
465.724	250.35
466.181	265.55
466.639	268.35
467.097	288.05
467.555	295.75
468.012	299.85
468.47	306.85
468.928	325.85
469.385	340.75
469.843	344.25
470.3	348.05
470.758	362.55
471.215	385.85
471.673	406.95
472.13	403.95
472.588	411.25
473.045	362.65
473.503	370.95
473.96	387.75
474.417	397.25
474.875	425.45
475.332	467.95
475.789	467.45
476.246	466.35
476.704	477.65
477.161	497.75
477.618	519.65
478.075	563.45
478.532	615.35
478.989	687.95
479.446	801.25
479.903	766.85
480.36	799.55
480.817	866.75
481.274	967.45
481.731	1084.55
482.188	1152.05
482.645	1312.75
483.102	1420.75
483.558	1555.15
484.015	1607.05
484.472	1583.75
484.929	1542.05
485.385	1480.75
485.842	1442.05
486.299	1375.95
486.755	1313.85
487.212	1106.85
487.668	928.85
488.125	848.65
488.582	777.75
489.038	742.75
489.494	705.55
489.951	680.65
490.407	671.25
490.864	647.85
491.32	638.95
491.776	625.85
492.233	647.35
492.689	592.55
493.145	597.55
493.602	587.05
494.058	602.75
494.514	605.95
494.97	631.75
495.426	642.35
495.882	616.05
496.338	615.75
496.794	625.95
497.251	612.75
497.707	627.95
498.163	638.95
498.618	640.75
499.074	642.75
499.53	685.25
499.986	683.65
500.442	643.15
500.898	631.45
501.354	622.85
501.809	633.25
502.265	631.65
502.721	655.25
503.177	672.65
503.632	646.55
504.088	668.25
504.543	706.05
504.999	703.75
505.455	646.85
505.91	623.45
506.366	634.35
506.821	612.05
507.277	615.45
507.732	619.85
508.187	613.85
508.643	626.95
509.098	629.25
509.553	651.15
510.009	654.35
510.464	657.15
510.919	673.25
511.375	684.15
511.83	699.75
512.285	723.05
512.74	748.65
513.195	781.15
513.65	759.65
514.105	768.75
514.56	768.55
515.015	787.35
515.47	806.55
515.925	785.85
516.38	783.15
516.835	798.15
517.29	771.15
517.745	771.45
518.2	746.55
518.655	741.85
519.109	743.75
519.564	740.85
520.019	722.45
520.474	713.35
520.928	720.15
521.383	711.45
521.838	702.45
522.292	702.55
522.747	715.15
523.201	696.65
523.656	687.15
524.11	683.75
524.565	689.35
525.019	683.95
525.474	680.55
525.928	681.65
526.382	693.85
526.837	693.55
527.291	696.45
527.745	686.05
528.2	691.55
528.654	680.15
529.108	688.45
529.562	682.45
530.016	680.75
530.47	686.75
530.925	688.75
531.379	693.45
531.833	692.55
532.287	696.15
532.741	698.35
533.195	703.05
533.649	714.25
534.103	727.35
534.556	704.15
535.01	700.85
535.464	702.55
535.918	712.15
536.372	713.65
536.826	706.65
537.279	704.15
537.733	701.95
538.187	700.25
538.64	701.85
539.094	715.45
539.548	718.35
540.001	718.15
540.455	713.25
540.908	722.05
541.362	725.25
541.815	736.15
542.269	747.05
542.722	749.55
543.175	764.35
543.629	761.45
544.082	777.15
544.536	780.35
544.989	779.55
545.442	775.85
545.895	770.25
546.349	777.25
546.802	773.15
547.255	782.85
547.708	788.25
548.161	794.75
548.614	796.15
549.067	813.95
549.52	792.95
549.973	789.95
550.426	790.05
550.879	787.35
551.332	792.45
551.785	799.65
552.238	803.05
552.691	809.25
553.144	822.35
553.596	840.75
554.049	849.65
554.502	889.25
554.955	893.85
555.407	900.55
555.86	889.05
556.313	881.85
556.765	872.25
557.218	870.15
557.67	870.25
558.123	864.45
558.576	867.35
559.028	868.35
559.48	873.85
559.933	856.05
560.385	819.35
560.838	791.35
561.29	774.55
561.742	766.15
562.195	740.55
562.647	754.45
563.099	759.75
563.551	757.85
564.004	767.35
564.456	755.35
564.908	734.15
565.36	736.65
565.812	714.95
566.264	708.35
566.716	712.95
567.168	710.05
567.62	711.75
568.072	694.65
568.524	686.75
568.976	667.35
569.428	659.95
569.88	653.85
570.332	661.75
570.784	667.65
571.235	669.75
571.687	679.85
572.139	684.05
572.59	703.35
573.042	695.05
573.494	697.25
573.945	684.85
574.397	674.05
574.849	673.95
575.3	677.95
575.752	668.45
576.203	668.15
576.655	671.95
577.106	658.45
577.557	646.45
578.009	641.85
578.46	648.65
578.912	648.25
579.363	654.75
579.814	644.45
580.265	642.85
580.717	646.05
581.168	653.35
581.619	663.75
582.07	667.85
582.521	662.55
582.972	644.45
583.423	664.75
583.875	668.45
584.326	681.55
584.777	724.65
585.227	812.95
585.678	906.45
586.129	995.25
586.58	1075.95
587.031	1162.45
587.482	1313.05
587.933	1506.25
588.384	1325.75
588.834	969.05
589.285	778.65
589.736	755.25
590.186	751.75
590.637	740.65
591.088	728.65
591.538	710.85
591.989	701.95
592.439	699.55
592.89	702.85
593.34	692.95
593.791	695.55
594.241	686.85
594.692	679.35
595.142	681.95
595.593	684.75
596.043	686.85
596.493	696.85
596.943	695.25
597.394	696.05
597.844	691.35
598.294	708.55
598.744	725.05
599.195	759.05
599.645	786.05
600.095	817.85
600.545	889.25
600.995	930.25
601.445	992.05
601.895	1051.65
602.345	1096.55
602.795	1075.75
603.245	1025.95
603.695	986.75
604.145	934.45
604.594	884.75
605.044	833.25
605.494	772.85
605.944	728.05
606.393	724.25
606.843	707.05
607.293	698.15
607.743	702.55
608.192	720.55
608.642	737.05
609.091	742.55
609.541	744.15
609.99	750.15
610.44	735.85
610.889	702.55
611.339	681.35
611.788	669.45
612.238	681.95
612.687	691.35
613.136	696.85
613.586	714.65
614.035	718.65
614.484	727.15
614.933	744.55
615.383	728.45
615.832	715.45
616.281	707.25
616.73	668.95
617.179	640.55
617.628	622.05
618.077	608.75
618.526	605.35
618.975	588.15
619.424	583.85
619.873	599.35
620.322	599.65
620.771	583.45
621.22	587.15
621.669	568.45
622.118	565.45
622.567	556.45
623.015	551.75
623.464	539.35
623.913	537.05
624.361	530.65
624.81	534.65
625.259	533.85
625.707	535.15
626.156	538.95
626.604	540.35
627.053	537.85
627.501	545.35
627.95	546.15
628.398	551.15
628.847	548.75
629.295	538.25
629.744	548.25
630.192	552.15
630.64	548.75
631.089	547.55
631.537	562.35
631.985	560.25
632.433	578.65
632.881	580.95
633.33	633.25
633.778	610.95
634.226	535.65
634.674	554.15
635.122	553.95
635.57	572.55
636.018	608.55
636.466	564.55
636.914	538.75
637.362	546.75
637.81	553.15
638.258	558.55
638.705	555.95
639.153	574.15
639.601	584.25
640.049	616.85
640.497	638.35
640.944	652.05
641.392	611.85
641.84	577.75
642.287	557.65
642.735	543.25
643.182	551.65
643.63	551.65
644.078	556.15
644.525	566.55
644.973	573.55
645.42	577.55
645.867	595.65
646.315	607.35
646.762	638.95
647.21	664.95
647.657	688.75
648.104	718.65
648.551	746.05
648.999	809.65
649.446	882.15
649.893	974.25
650.34	1125.45
650.787	1337.65
651.234	1650.65
651.682	2171.75
652.129	2987.75
652.576	4301.75
653.023	6368.45
653.47	8766.25
653.917	11007.65
654.363	12805.05
654.81	14205.85
655.257	13533.55
655.704	8806.45
656.151	5188.35
656.598	3346.25
657.044	2373.05
657.491	1824.15
657.938	1443.55
658.385	1210.35
658.831	1035.75
659.278	938.15
659.724	823.05
660.171	755.15
660.618	694.45
661.064	654.55
661.511	641.45
661.957	619.25
662.404	621.05
662.85	621.15
663.296	600.15
663.743	534.35
664.189	511.15
664.635	499.35
665.082	493.35
665.528	505.35
665.974	499.65
666.42	486.05
666.867	486.85
667.313	471.05
667.759	465.65
668.205	459.25
668.651	462.45
669.097	465.85
669.543	475.75
669.989	446.35
670.435	427.05
670.881	413.25
671.327	434.85
671.773	446.75
672.219	462.45
672.665	515.65
673.11	555.35
673.556	589.95
674.002	635.75
674.448	623.05
674.893	519.65
675.339	458.95
675.785	415.85
676.23	394.45
676.676	367.15
677.122	360.55
677.567	352.55
678.013	344.55
678.458	342.35
678.904	347.75
679.349	325.25
679.794	328.05
680.24	326.95
680.685	320.05
681.131	332.35
681.576	322.85
682.021	335.45
682.466	330.05
682.912	327.25
683.357	325.65
683.802	356.15
684.247	389.55
684.692	427.05
685.137	464.15
685.583	509.85
686.028	533.45
686.473	487.35
686.918	417.45
687.363	396.85
687.807	370.95
688.252	340.15
688.697	326.35
689.142	319.35
689.587	325.85
690.032	311.25
690.477	325.95
690.921	331.85
691.366	357.45
691.811	381.35
692.255	410.35
692.7	431.15
693.145	471.15
693.589	636.95
694.034	1032.85
694.478	1428.95
694.923	1633.65
695.367	2158.65
695.812	1117.75
696.256	470.25
696.701	344.35
697.145	331.35
697.59	305.55
698.034	296.65
698.478	314.15
698.922	308.35
699.367	307.65
699.811	327.15
700.255	332.55
700.699	367.75
701.143	396.85
701.588	452.45
702.032	489.85
702.476	479.55
702.92	457.65
703.364	449.25
703.808	588.45
704.252	950.15
704.696	1354.65
705.14	1571.75
705.584	2022.25
706.027	1011.25
706.471	493.25
706.915	377.55
707.359	335.25
707.803	301.45
708.246	293.55
708.69	295.25
709.134	298.55
709.577	293.45
710.021	291.45
710.465	286.25
710.908	279.35
711.352	276.95
711.795	298.05
712.239	322.15
712.682	355.75
713.126	392.15
713.569	445.85
714.012	355.55
714.456	298.75
714.899	287.25
715.342	261.65
715.786	245.35
716.229	238.05
716.672	241.15
717.115	238.35
717.558	235.25
718.002	233.05
718.445	247.05
718.888	266.25
719.331	276.05
719.774	290.05
720.217	285.05
720.66	272.35
721.103	248.75
721.546	239.55
721.989	233.15
722.432	217.85
722.874	234.25
723.317	217.95
723.76	217.55
724.203	240.65
724.645	296.95
725.088	409.05
725.531	527.55
725.974	606.45
726.416	516.25
726.859	295.95
727.301	221.85
727.744	221.35
728.187	227.35
728.629	222.15
729.071	227.95
729.514	242.05
729.956	258.05
730.399	257.85
730.841	269.65
731.283	255.75
731.726	247.35
732.168	239.55
732.61	245.85
733.053	267.95
733.495	291.45
733.937	334.05
734.379	371.95
734.821	400.25
735.263	499.95
735.705	761.55
736.148	1439.25
736.59	2379.15
737.032	2866.35
737.474	2332.65
737.916	761.15
738.357	396.25
738.799	308.35
739.241	275.45
739.683	262.95
740.125	269.95
740.567	268.25
741.008	297.75
741.45	294.85
741.892	289.75
742.334	322.05
742.775	340.75
743.217	312.65
743.658	248.15
744.1	238.55
744.542	239.05
744.983	287.15
745.425	319.35
745.866	324.75
746.307	266.85
746.749	271.55
747.19	303.45
747.632	417.15
748.073	798.55
748.514	1705.35
748.956	2652.55
749.397	3307.25
749.838	2752.55
750.279	2779.15
750.72	1409.55
751.162	502.35
751.603	303.35
752.044	238.25
752.485	203.15
752.926	192.55
753.367	198.05
753.808	183.95
754.249	181.25
754.69	177.15
755.131	167.65
755.572	169.45
756.013	168.95
756.453	176.85
756.894	170.05
757.335	176.65
757.776	180.15
758.216	177.95
758.657	187.45
759.098	184.25
759.538	210.15
759.979	253.15
760.42	346.25
760.86	630.95
761.301	1651.25
761.741	4047.45
762.182	6068.35
762.622	4263.25
