Data from 20171114-ORNL-Ar_H_NY_Subt18_08-06-29-469.txt Node
Date: Tue Nov 14 08:06:29 EST 2017
User: Ender
Spectrometer: HR+D1039
Trigger mode: 0
Integration Time (sec): 2.730000E-2
Scans to average: 10
Electric dark correction enabled: true
Nonlinearity correction enabled: false
Boxcar width: 0
XAxis mode: Wavelengths
Number of Pixels in Spectrum: 2048
>>>>>Begin Spectral Data<<<<<
187.836	-2.26
188.309	-2.26
188.782	-2.26
189.255	1.14
189.728	-0.96
190.201	10.04
190.674	7.34
191.147	2.04
191.619	-7.86
192.092	2.84
192.565	3.24
193.038	-0.26
193.511	0.24
193.984	-1.66
194.456	-5.46
194.929	-2.76
195.402	-5.66
195.874	-0.06
196.347	-5.16
196.82	-11.06
197.292	3.84
197.765	-0.86
198.237	-6.26
198.71	0.34
199.182	0.44
199.655	3.34
200.127	5.64
200.6	-6.76
201.072	-2.66
201.544	-7.36
202.017	1.84
202.489	3.64
202.961	1.54
203.433	1.44
203.906	-2.36
204.378	-3.26
204.85	-4.66
205.322	-4.66
205.794	-3.16
206.266	-2.26
206.739	-8.56
207.211	0.44
207.683	-5.56
208.155	-10.66
208.627	-4.26
209.099	-3.16
209.57	-5.16
210.042	-1.06
210.514	-5.16
210.986	-3.66
211.458	-9.16
211.93	-1.66
212.402	1.84
212.873	0.04
213.345	-9.26
213.817	-7.86
214.288	-0.56
214.76	-5.96
215.232	-2.46
215.703	-3.86
216.175	-0.26
216.646	-2.46
217.118	-5.56
217.589	-5.86
218.061	-1.26
218.532	-4.06
219.004	2.14
219.475	-2.76
219.946	-5.66
220.418	-3.86
220.889	0.74
221.36	-4.46
221.832	-3.66
222.303	-10.46
222.774	0.14
223.245	-8.46
223.717	-8.46
224.188	-3.16
224.659	-6.06
225.13	-4.16
225.601	-2.76
226.072	2.94
226.543	-0.76
227.014	-1.16
227.485	-3.96
227.956	-4.46
228.427	-2.16
228.898	-1.96
229.369	1.24
229.839	-0.66
230.31	-1.46
230.781	4.54
231.252	-6.16
231.722	-2.96
232.193	-1.86
232.664	5.24
233.135	4.24
233.605	-0.26
234.076	-4.16
234.546	-2.66
235.017	2.74
235.487	-0.56
235.958	2.74
236.428	1.34
236.899	0.84
237.369	7.04
237.84	-1.06
238.31	3.44
238.78	5.74
239.251	-0.26
239.721	6.34
240.191	1.14
240.662	0.94
241.132	5.14
241.602	-3.36
242.072	3.64
242.542	10.04
243.013	7.74
243.483	0.44
243.953	5.24
244.423	6.24
244.893	-1.26
245.363	3.24
245.833	0.44
246.303	-1.46
246.773	12.84
247.243	-1.46
247.712	2.44
248.182	8.54
248.652	12.84
249.122	-4.66
249.592	8.64
250.061	24.74
250.531	28.64
251.001	12.44
251.471	18.34
251.94	18.14
252.41	4.04
252.879	2.24
253.349	13.24
253.818	11.24
254.288	7.74
254.757	6.14
255.227	-3.16
255.696	3.24
256.166	7.04
256.635	6.44
257.105	13.64
257.574	6.74
258.043	1.64
258.513	7.64
258.982	13.74
259.451	11.24
259.92	8.74
260.389	12.24
260.859	14.24
261.328	15.24
261.797	22.54
262.266	11.34
262.735	10.14
263.204	7.74
263.673	5.74
264.142	8.04
264.611	2.34
265.08	4.04
265.549	4.44
266.018	10.94
266.487	-0.16
266.955	-4.56
267.424	2.34
267.893	3.94
268.362	7.84
268.83	1.84
269.299	14.94
269.768	9.74
270.236	7.54
270.705	0.04
271.174	5.94
271.642	9.84
272.111	13.24
272.579	22.94
273.048	26.04
273.516	28.64
273.985	36.44
274.453	25.64
274.922	18.64
275.39	10.74
275.858	6.84
276.327	15.14
276.795	18.44
277.263	9.14
277.731	33.04
278.2	60.74
278.668	56.04
279.136	52.94
279.604	17.34
280.072	17.94
280.54	13.14
281.008	11.24
281.477	16.74
281.945	12.44
282.413	13.54
282.881	11.64
283.348	11.64
283.816	17.44
284.284	9.74
284.752	25.84
285.22	16.24
285.688	14.64
286.156	21.74
286.623	40.04
287.091	59.24
287.559	26.54
288.026	16.04
288.494	13.44
288.962	8.04
289.429	8.74
289.897	22.54
290.364	13.74
290.832	17.84
291.3	15.04
291.767	16.34
292.234	17.74
292.702	14.54
293.169	21.54
293.637	25.34
294.104	20.34
294.571	13.24
295.039	15.34
295.506	19.64
295.973	17.74
296.44	13.74
296.908	24.54
297.375	19.44
297.842	15.44
298.309	14.84
298.776	13.04
299.243	23.14
299.71	10.24
300.177	19.74
300.644	24.34
301.111	23.34
301.578	22.84
302.045	12.34
302.512	24.44
302.979	24.34
303.446	25.74
303.913	18.44
304.379	21.24
304.846	27.74
305.313	25.64
305.78	21.74
306.246	28.14
306.713	28.84
307.18	27.44
307.646	30.74
308.113	32.54
308.579	24.14
309.046	29.44
309.512	30.64
309.979	21.74
310.445	30.94
310.912	30.64
311.378	33.54
311.845	33.74
312.311	33.14
312.777	39.24
313.244	28.54
313.71	35.74
314.176	29.94
314.642	28.84
315.109	30.14
315.575	37.84
316.041	37.04
316.507	31.24
316.973	36.84
317.439	36.14
317.905	40.54
318.371	33.24
318.837	36.34
319.303	35.44
319.769	35.74
320.235	38.54
320.701	29.94
321.167	41.64
321.633	34.44
322.099	36.54
322.564	44.54
323.03	42.34
323.496	45.64
323.962	40.84
324.427	44.14
324.893	39.34
325.359	40.04
325.824	40.54
326.29	39.14
326.755	34.14
327.221	49.04
327.686	41.14
328.152	49.14
328.617	44.04
329.083	51.54
329.548	53.74
330.014	50.34
330.479	45.34
330.944	42.74
331.41	46.64
331.875	46.34
332.34	46.14
332.805	43.54
333.271	50.44
333.736	43.64
334.201	48.74
334.666	55.84
335.131	62.14
335.596	52.44
336.061	50.04
336.526	44.14
336.991	48.64
337.456	60.64
337.921	51.34
338.386	43.64
338.851	43.24
339.316	46.34
339.781	48.54
340.246	47.84
340.711	49.44
341.175	57.04
341.64	50.74
342.105	59.44
342.569	48.84
343.034	60.44
343.499	56.14
343.963	51.04
344.428	63.44
344.893	64.24
345.357	63.34
345.822	66.94
346.286	70.64
346.751	79.64
347.215	66.04
347.679	71.44
348.144	102.54
348.608	90.04
349.073	72.54
349.537	73.74
350.001	85.24
350.465	95.44
350.93	87.64
351.394	81.14
351.858	70.24
352.322	87.54
352.786	89.04
353.25	102.14
353.715	109.14
354.179	99.54
354.643	124.94
355.107	134.94
355.571	113.44
356.035	106.04
356.498	120.64
356.962	132.14
357.426	133.34
357.89	114.44
358.354	96.44
358.818	90.24
359.281	85.64
359.745	78.24
360.209	80.64
360.673	79.64
361.136	87.04
361.6	90.64
362.064	85.84
362.527	86.04
362.991	92.04
363.454	85.94
363.918	85.84
364.381	83.64
364.845	87.74
365.308	87.74
365.772	92.64
366.235	84.34
366.698	93.54
367.162	89.04
367.625	90.64
368.088	91.84
368.552	89.94
369.015	94.64
369.478	109.04
369.941	106.94
370.404	99.84
370.867	106.44
371.331	110.74
371.794	123.54
372.257	119.54
372.72	125.44
373.183	111.14
373.646	110.14
374.109	111.24
374.572	110.04
375.035	110.74
375.497	115.04
375.96	110.64
376.423	105.94
376.886	119.44
377.349	111.04
377.811	104.74
378.274	109.54
378.737	112.34
379.199	117.64
379.662	115.14
380.125	121.34
380.587	124.14
381.05	130.74
381.512	129.44
381.975	140.64
382.437	132.64
382.9	136.04
383.362	136.54
383.825	146.74
384.287	159.44
384.75	141.44
385.212	146.14
385.674	141.24
386.136	144.24
386.599	127.74
387.061	126.24
387.523	130.74
387.985	131.14
388.447	150.74
388.91	154.44
389.372	163.44
389.834	155.24
390.296	152.54
390.758	164.14
391.22	176.94
391.682	218.14
392.144	314.44
392.606	238.54
393.068	172.84
393.529	175.54
393.991	158.44
394.453	152.94
394.915	162.84
395.377	197.44
395.838	226.84
396.3	162.14
396.762	148.14
397.224	141.74
397.685	134.34
398.147	131.54
398.608	132.64
399.07	129.24
399.531	146.44
399.993	156.54
400.454	160.14
400.916	150.74
401.377	158.74
401.839	159.04
402.3	161.24
402.762	172.14
403.223	185.04
403.684	180.24
404.145	163.24
404.607	164.54
405.068	173.74
405.529	174.84
405.99	194.24
406.451	180.94
406.913	178.24
407.374	168.74
407.835	161.14
408.296	178.54
408.757	174.14
409.218	195.34
409.679	187.94
410.14	182.14
410.601	180.94
411.062	192.64
411.522	198.64
411.983	195.04
412.444	190.24
412.905	186.54
413.366	188.04
413.826	204.04
414.287	225.44
414.748	269.24
415.208	255.34
415.669	217.34
416.13	216.64
416.59	208.74
417.051	218.04
417.511	228.84
417.972	253.24
418.432	258.84
418.893	302.74
419.353	263.54
419.814	196.94
420.274	192.54
420.734	192.74
421.195	207.64
421.655	205.84
422.115	202.74
422.576	200.34
423.036	208.24
423.496	221.44
423.956	220.04
424.416	240.24
424.876	280.54
425.336	267.14
425.797	281.24
426.257	268.74
426.717	255.94
427.177	243.24
427.637	233.84
428.097	242.64
428.556	260.04
429.016	284.64
429.476	273.34
429.936	276.14
430.396	288.04
430.856	301.24
431.315	325.84
431.775	364.14
432.235	392.34
432.694	371.24
433.154	379.14
433.614	415.34
434.073	353.44
434.533	292.14
434.993	281.44
435.452	290.84
435.912	300.04
436.371	305.34
436.83	300.24
437.29	282.24
437.749	251.94
438.209	255.94
438.668	287.64
439.127	301.84
439.587	279.04
440.046	256.14
440.505	278.94
440.964	292.34
441.424	333.84
441.883	324.54
442.342	275.84
442.801	232.44
443.26	236.64
443.719	230.44
444.178	232.04
444.637	220.24
445.096	228.04
445.555	227.04
446.014	231.44
446.473	239.54
446.932	244.04
447.391	235.44
447.849	234.44
448.308	232.04
448.767	227.04
449.226	247.74
449.685	249.54
450.143	260.84
450.602	249.64
451.061	243.34
451.519	236.94
451.978	242.24
452.436	250.84
452.895	256.64
453.353	266.54
453.812	247.84
454.27	244.64
454.729	250.04
455.187	246.34
455.646	261.04
456.104	255.74
456.562	274.84
457.021	281.04
457.479	272.74
457.937	281.24
458.395	275.64
458.854	267.44
459.312	266.24
459.77	285.14
460.228	261.04
460.686	254.74
461.144	257.04
461.602	252.14
462.06	252.04
462.518	261.14
462.976	259.84
463.434	261.54
463.892	284.24
464.35	290.14
464.808	312.64
465.266	276.44
465.724	282.44
466.181	282.44
466.639	290.24
467.097	298.04
467.555	305.44
468.012	316.54
468.47	332.54
468.928	347.54
469.385	355.84
469.843	364.24
470.3	368.54
470.758	381.34
471.215	401.04
471.673	433.84
472.13	422.94
472.588	443.24
473.045	394.44
473.503	391.94
473.96	409.74
474.417	425.54
474.875	454.24
475.332	496.04
475.789	486.74
476.246	488.84
476.704	508.64
477.161	533.74
477.618	555.74
478.075	588.94
478.532	639.74
478.989	716.54
479.446	832.34
479.903	802.74
480.36	838.64
480.817	903.04
481.274	1004.84
481.731	1102.84
482.188	1198.44
482.645	1349.64
483.102	1450.24
483.558	1583.34
484.015	1654.74
484.472	1622.64
484.929	1574.34
485.385	1529.24
485.842	1477.14
486.299	1421.84
486.755	1362.04
487.212	1143.24
487.668	963.74
488.125	882.34
488.582	814.74
489.038	774.44
489.494	740.64
489.951	714.44
490.407	691.64
490.864	672.24
491.32	664.64
491.776	666.44
492.233	670.74
492.689	635.84
493.145	635.44
493.602	633.24
494.058	639.94
494.514	643.14
494.97	665.84
495.426	682.94
495.882	653.84
496.338	642.54
496.794	654.84
497.251	642.14
497.707	662.14
498.163	652.64
498.618	665.94
499.074	679.64
499.53	697.94
499.986	706.44
500.442	682.34
500.898	661.24
501.354	653.24
501.809	662.34
502.265	661.44
502.721	689.14
503.177	691.34
503.632	695.24
504.088	703.34
504.543	744.34
504.999	732.54
505.455	680.64
505.91	653.54
506.366	668.04
506.821	659.04
507.277	646.94
507.732	650.74
508.187	647.54
508.643	654.34
509.098	660.14
509.553	686.64
510.009	690.24
510.464	696.24
510.919	708.64
511.375	721.24
511.83	736.64
512.285	747.54
512.74	791.34
513.195	817.84
513.65	802.74
514.105	804.14
514.56	799.24
515.015	826.04
515.47	845.24
515.925	821.74
516.38	814.24
516.835	823.34
517.29	829.24
517.745	813.44
518.2	795.04
518.655	765.24
519.109	761.84
519.564	766.74
520.019	767.54
520.474	754.94
520.928	760.64
521.383	750.14
521.838	742.84
522.292	740.04
522.747	739.54
523.201	731.84
523.656	724.64
524.11	721.64
524.565	720.94
525.019	722.94
525.474	736.74
525.928	717.74
526.382	718.24
526.837	717.34
527.291	726.44
527.745	721.44
528.2	725.24
528.654	714.94
529.108	724.64
529.562	711.74
530.016	714.54
530.47	727.34
530.925	725.04
531.379	727.54
531.833	730.74
532.287	724.24
532.741	726.74
533.195	733.34
533.649	740.24
534.103	749.34
534.556	734.54
535.01	751.84
535.464	740.44
535.918	738.64
536.372	754.94
536.826	747.84
537.279	735.24
537.733	741.84
538.187	736.94
538.64	738.14
539.094	757.94
539.548	757.94
540.001	751.24
540.455	755.24
540.908	767.24
541.362	764.04
541.815	776.04
542.269	788.34
542.722	788.84
543.175	794.54
543.629	797.64
544.082	820.44
544.536	820.54
544.989	817.84
545.442	828.64
545.895	817.44
546.349	821.44
546.802	823.24
547.255	842.24
547.708	831.54
548.161	846.74
548.614	837.34
549.067	861.24
549.52	866.54
549.973	848.34
550.426	839.84
550.879	828.34
551.332	833.64
551.785	841.14
552.238	841.04
552.691	841.54
553.144	876.44
553.596	869.14
554.049	894.24
554.502	930.84
554.955	953.74
555.407	944.94
555.86	924.94
556.313	920.54
556.765	913.14
557.218	922.34
557.67	918.94
558.123	904.04
558.576	909.44
559.028	917.44
559.48	915.94
559.933	892.84
560.385	870.84
560.838	838.84
561.29	807.44
561.742	817.34
562.195	797.14
562.647	790.94
563.099	800.54
563.551	809.34
564.004	806.64
564.456	789.74
564.908	792.14
565.36	769.84
565.812	770.64
566.264	757.44
566.716	749.44
567.168	737.94
567.62	751.34
568.072	731.54
568.524	725.94
568.976	721.64
569.428	700.54
569.88	705.14
570.332	714.14
570.784	714.54
571.235	702.94
571.687	718.94
572.139	728.74
572.59	746.24
573.042	732.04
573.494	737.04
573.945	734.94
574.397	715.04
574.849	713.64
575.3	718.24
575.752	724.34
576.203	708.04
576.655	709.94
577.106	700.54
577.557	693.64
578.009	675.94
578.46	694.34
578.912	681.44
579.363	690.64
579.814	689.14
580.265	688.04
580.717	694.24
581.168	693.24
581.619	705.24
582.07	705.24
582.521	700.34
582.972	701.84
583.423	701.54
583.875	700.54
584.326	729.44
584.777	778.64
585.227	850.74
585.678	949.74
586.129	1021.54
586.58	1106.64
587.031	1188.04
587.482	1334.74
587.933	1506.44
588.384	1327.04
588.834	998.04
589.285	834.34
589.736	812.24
590.186	804.24
590.637	793.54
591.088	777.24
591.538	756.44
591.989	758.14
592.439	760.94
592.89	759.44
593.34	739.44
593.791	737.84
594.241	727.84
594.692	736.74
595.142	723.84
595.593	718.64
596.043	725.44
596.493	740.34
596.943	741.54
597.394	749.44
597.844	735.54
598.294	757.54
598.744	776.64
599.195	807.04
599.645	846.44
600.095	887.84
600.545	947.44
600.995	993.64
601.445	1059.54
601.895	1127.34
602.345	1170.34
602.795	1149.54
603.245	1102.14
603.695	1044.84
604.145	984.74
604.594	937.34
605.044	893.04
605.494	824.24
605.944	774.84
606.393	766.94
606.843	748.04
607.293	755.44
607.743	757.04
608.192	774.34
608.642	784.54
609.091	794.94
609.541	798.64
609.99	787.14
610.44	788.44
610.889	750.54
611.339	725.04
611.788	708.04
612.238	718.44
612.687	741.74
613.136	736.94
613.586	756.14
614.035	761.14
614.484	773.84
614.933	780.34
615.383	766.64
615.832	756.74
616.281	741.74
616.73	721.54
617.179	686.14
617.628	667.44
618.077	650.84
618.526	645.34
618.975	639.54
619.424	639.74
619.873	632.34
620.322	636.04
620.771	620.84
621.22	627.84
621.669	616.24
622.118	606.44
622.567	604.74
623.015	589.74
623.464	583.14
623.913	590.14
624.361	575.74
624.81	578.14
625.259	576.94
625.707	576.04
626.156	573.64
626.604	583.84
627.053	581.64
627.501	583.34
627.95	575.44
628.398	599.84
628.847	598.84
629.295	583.44
629.744	603.94
630.192	585.94
630.64	590.94
631.089	579.14
631.537	592.14
631.985	601.64
632.433	625.34
632.881	614.64
633.33	673.14
633.778	652.44
634.226	586.34
634.674	588.84
635.122	590.54
635.57	613.84
636.018	636.94
636.466	595.04
636.914	574.24
637.362	578.04
637.81	592.64
638.258	591.84
638.705	586.44
639.153	627.64
639.601	635.64
640.049	666.64
640.497	696.94
640.944	714.74
641.392	659.14
641.84	627.14
642.287	601.34
642.735	582.14
643.182	597.34
643.63	586.24
644.078	599.74
644.525	609.84
644.973	614.34
645.42	620.04
645.867	639.84
646.315	665.24
646.762	678.54
647.21	715.84
647.657	728.44
648.104	759.14
648.551	799.94
648.999	850.14
649.446	935.34
649.893	1034.24
650.34	1184.24
650.787	1426.14
651.234	1762.94
651.682	2311.14
652.129	3180.24
652.576	4559.84
653.023	6692.84
653.47	9210.74
653.917	11496.64
654.363	13254.54
654.81	14622.74
655.257	13913.04
655.704	9135.24
656.151	5399.74
656.598	3487.04
657.044	2498.04
657.491	1915.34
657.938	1524.44
658.385	1271.64
658.831	1111.74
659.278	978.94
659.724	884.14
660.171	809.64
660.618	748.24
661.064	709.44
661.511	691.24
661.957	675.54
662.404	659.74
662.85	667.64
663.296	645.04
663.743	579.34
664.189	555.84
664.635	555.14
665.082	546.84
665.528	543.64
665.974	533.44
666.42	532.84
666.867	518.64
667.313	507.54
667.759	495.94
668.205	496.14
668.651	492.14
669.097	501.84
669.543	508.14
669.989	484.14
670.435	461.04
670.881	450.84
671.327	463.94
671.773	490.84
672.219	493.74
672.665	559.64
673.11	614.34
673.556	644.64
674.002	678.24
674.448	677.74
674.893	560.94
675.339	489.74
675.785	448.74
676.23	422.54
676.676	409.14
677.122	391.34
677.567	383.54
678.013	384.04
678.458	379.14
678.904	368.94
679.349	356.44
679.794	357.54
680.24	358.24
680.685	356.54
681.131	362.24
681.576	364.54
682.021	368.84
682.466	365.44
682.912	360.54
683.357	368.44
683.802	389.54
684.247	421.94
684.692	474.34
685.137	505.64
685.583	553.34
686.028	586.44
686.473	521.44
686.918	459.94
687.363	430.64
687.807	400.04
688.252	373.84
688.697	366.64
689.142	349.94
689.587	338.64
690.032	334.34
690.477	348.94
690.921	362.74
691.366	392.34
691.811	414.54
692.255	437.44
692.7	471.54
693.145	516.64
693.589	717.04
694.034	1154.74
694.478	1581.94
694.923	1768.34
695.367	2296.14
695.812	1216.34
696.256	516.24
696.701	380.14
697.145	353.24
697.59	336.54
698.034	326.24
698.478	338.54
698.922	328.94
699.367	337.14
699.811	348.24
700.255	367.64
700.699	389.64
701.143	430.04
701.588	489.54
702.032	517.54
702.476	521.54
702.92	507.74
703.364	502.54
703.808	645.54
704.252	1050.54
704.696	1488.14
705.14	1705.04
705.584	2179.54
706.027	1082.64
706.471	535.14
706.915	410.64
707.359	358.44
707.803	324.94
708.246	315.04
708.69	321.34
709.134	318.24
709.577	325.24
710.021	335.44
710.465	306.14
710.908	309.24
711.352	310.04
711.795	316.04
712.239	356.14
712.682	394.44
713.126	423.04
713.569	478.44
714.012	377.54
714.456	326.14
714.899	306.54
715.342	280.64
715.786	269.54
716.229	265.24
716.672	270.54
717.115	256.54
717.558	256.84
718.002	258.04
718.445	268.34
718.888	296.94
719.331	298.44
719.774	323.34
720.217	311.24
720.66	287.74
721.103	274.94
721.546	264.04
721.989	261.44
722.432	236.74
722.874	243.94
723.317	242.04
723.76	242.44
724.203	258.84
724.645	335.04
725.088	457.14
725.531	584.24
725.974	659.24
726.416	569.54
726.859	321.44
727.301	254.04
727.744	247.74
728.187	239.54
728.629	244.74
729.071	245.64
729.514	270.84
729.956	274.84
730.399	284.44
730.841	296.14
731.283	282.84
731.726	276.64
732.168	266.44
732.61	271.24
733.053	296.94
733.495	328.84
733.937	366.04
734.379	406.14
734.821	443.04
735.263	547.34
735.705	842.24
736.148	1600.64
736.59	2630.74
737.032	3120.74
737.474	2522.14
737.916	816.64
738.357	431.14
738.799	342.74
739.241	307.54
739.683	281.94
740.125	301.44
740.567	305.24
741.008	323.04
741.45	328.14
741.892	327.44
742.334	354.94
742.775	369.74
743.217	350.94
743.658	278.94
744.1	266.84
744.542	269.34
744.983	312.54
745.425	354.64
745.866	350.64
746.307	291.74
746.749	291.44
747.19	323.44
747.632	463.74
748.073	890.84
748.514	1897.44
748.956	2887.64
749.397	3628.04
749.838	3021.44
750.279	3020.84
750.72	1515.34
751.162	557.44
751.603	323.94
752.044	260.84
752.485	222.14
752.926	218.14
753.367	205.34
753.808	199.04
754.249	197.64
754.69	191.54
755.131	195.14
755.572	188.54
756.013	186.94
756.453	184.94
756.894	195.04
757.335	197.04
757.776	196.34
758.216	200.94
758.657	198.74
759.098	205.24
759.538	231.14
759.979	278.74
760.42	378.44
760.86	708.04
761.301	1842.14
761.741	4504.44
762.182	6554.04
