Data from 20171114-ORNL-Ar_H_NY_Subt18_08-05-48-523.txt Node
Date: Tue Nov 14 08:05:48 EST 2017
User: Ender
Spectrometer: HR+D1039
Trigger mode: 0
Integration Time (sec): 2.730000E-2
Scans to average: 10
Electric dark correction enabled: true
Nonlinearity correction enabled: false
Boxcar width: 0
XAxis mode: Wavelengths
Number of Pixels in Spectrum: 2048
>>>>>Begin Spectral Data<<<<<
187.836	-5.26
188.309	-5.26
188.782	-5.26
189.255	-0.06
189.728	1.44
190.201	2.74
190.674	0.44
191.147	2.04
191.619	-10.46
192.092	4.44
192.565	6.64
193.038	-1.76
193.511	5.04
193.984	3.34
194.456	-5.16
194.929	1.14
195.402	-7.36
195.874	2.84
196.347	-2.16
196.82	-5.26
197.292	2.74
197.765	-0.26
198.237	-1.36
198.71	3.14
199.182	-4.26
199.655	2.54
200.127	1.04
200.6	-3.46
201.072	-7.46
201.544	-7.86
202.017	-4.76
202.489	5.04
202.961	-4.36
203.433	-2.66
203.906	-7.86
204.378	-5.36
204.85	-6.16
205.322	-11.06
205.794	-5.36
206.266	-2.76
206.739	-4.66
207.211	6.64
207.683	-8.66
208.155	-5.46
208.627	-7.26
209.099	-4.56
209.57	-11.36
210.042	-6.56
210.514	-1.16
210.986	3.04
211.458	-13.86
211.93	-3.76
212.402	2.74
212.873	-11.86
213.345	-9.56
213.817	-12.66
214.288	2.94
214.76	-8.46
215.232	-2.96
215.703	-1.46
216.175	-1.56
216.646	-5.96
217.118	-4.86
217.589	-6.56
218.061	-4.06
218.532	-1.86
219.004	-0.26
219.475	-6.16
219.946	-3.66
220.418	-3.86
220.889	0.54
221.36	3.84
221.832	-4.16
222.303	-8.06
222.774	-0.66
223.245	-10.76
223.717	3.64
224.188	-3.46
224.659	-8.76
225.13	-8.36
225.601	-2.46
226.072	1.24
226.543	4.64
227.014	0.44
227.485	-3.36
227.956	-6.16
228.427	-0.26
228.898	2.04
229.369	3.34
229.839	-3.56
230.31	-2.46
230.781	7.74
231.252	-4.86
231.722	-0.56
232.193	-5.56
232.664	5.54
233.135	-0.86
233.605	0.74
234.076	-7.56
234.546	1.74
235.017	0.14
235.487	2.74
235.958	2.24
236.428	-0.16
236.899	7.74
237.369	3.44
237.84	-2.46
238.31	10.74
238.78	3.74
239.251	1.14
239.721	-1.56
240.191	0.34
240.662	2.14
241.132	-3.16
241.602	-3.06
242.072	4.84
242.542	3.34
243.013	1.24
243.483	10.44
243.953	0.14
244.423	-3.36
244.893	-2.86
245.363	4.44
245.833	-1.06
246.303	-3.86
246.773	5.64
247.243	7.14
247.712	4.64
248.182	3.04
248.652	7.44
249.122	-0.86
249.592	13.64
250.061	18.54
250.531	30.54
251.001	13.34
251.471	23.94
251.94	17.24
252.41	4.54
252.879	4.64
253.349	15.24
253.818	7.04
254.288	5.14
254.757	7.34
255.227	4.74
255.696	7.44
256.166	6.14
256.635	5.54
257.105	7.54
257.574	10.54
258.043	9.34
258.513	15.74
258.982	17.24
259.451	7.74
259.92	9.64
260.389	15.34
260.859	15.34
261.328	14.04
261.797	21.34
262.266	6.14
262.735	10.34
263.204	5.34
263.673	4.54
264.142	12.44
264.611	-6.36
265.08	2.04
265.549	1.84
266.018	4.74
266.487	0.24
266.955	5.14
267.424	2.34
267.893	5.84
268.362	-2.26
268.83	4.64
269.299	11.94
269.768	1.44
270.236	11.44
270.705	6.64
271.174	7.84
271.642	9.74
272.111	9.74
272.579	18.94
273.048	23.84
273.516	29.64
273.985	30.54
274.453	25.34
274.922	23.04
275.39	13.84
275.858	8.04
276.327	16.14
276.795	19.64
277.263	11.94
277.731	26.84
278.2	55.74
278.668	60.74
279.136	53.04
279.604	22.54
280.072	14.84
280.54	11.24
281.008	7.04
281.477	22.84
281.945	18.44
282.413	17.74
282.881	16.54
283.348	4.84
283.816	18.74
284.284	15.64
284.752	25.24
285.22	16.64
285.688	16.84
286.156	21.54
286.623	41.74
287.091	51.44
287.559	26.74
288.026	19.64
288.494	19.04
288.962	6.74
289.429	10.54
289.897	20.74
290.364	19.14
290.832	16.14
291.3	14.64
291.767	20.64
292.234	18.24
292.702	9.74
293.169	19.34
293.637	24.04
294.104	18.84
294.571	10.94
295.039	17.64
295.506	18.34
295.973	15.14
296.44	21.84
296.908	16.14
297.375	15.74
297.842	22.14
298.309	22.94
298.776	17.24
299.243	24.14
299.71	19.24
300.177	24.84
300.644	19.74
301.111	21.24
301.578	32.14
302.045	25.14
302.512	28.84
302.979	26.04
303.446	28.64
303.913	20.54
304.379	24.94
304.846	26.44
305.313	25.54
305.78	31.94
306.246	27.84
306.713	22.44
307.18	24.54
307.646	26.24
308.113	30.54
308.579	22.74
309.046	25.64
309.512	25.94
309.979	21.44
310.445	33.44
310.912	32.14
311.378	31.04
311.845	34.74
312.311	38.74
312.777	33.54
313.244	30.04
313.71	39.84
314.176	31.14
314.642	28.94
315.109	27.64
315.575	38.94
316.041	37.14
316.507	34.04
316.973	39.04
317.439	29.64
317.905	35.84
318.371	45.44
318.837	36.44
319.303	32.34
319.769	36.44
320.235	39.94
320.701	32.94
321.167	40.34
321.633	35.94
322.099	41.94
322.564	44.24
323.03	35.84
323.496	42.24
323.962	41.94
324.427	37.64
324.893	47.84
325.359	37.54
325.824	38.74
326.29	41.24
326.755	42.74
327.221	37.44
327.686	41.94
328.152	54.74
328.617	42.14
329.083	46.84
329.548	51.44
330.014	45.04
330.479	40.64
330.944	44.74
331.41	44.34
331.875	51.54
332.34	42.34
332.805	42.14
333.271	49.34
333.736	45.94
334.201	61.74
334.666	54.44
335.131	60.04
335.596	54.14
336.061	55.24
336.526	46.84
336.991	49.74
337.456	50.84
337.921	50.24
338.386	42.74
338.851	51.64
339.316	47.94
339.781	48.54
340.246	50.94
340.711	45.44
341.175	49.44
341.64	37.34
342.105	49.84
342.569	51.94
343.034	62.74
343.499	55.14
343.963	52.04
344.428	65.54
344.893	60.34
345.357	52.34
345.822	64.54
346.286	65.34
346.751	77.74
347.215	69.84
347.679	72.34
348.144	93.14
348.608	85.64
349.073	73.84
349.537	75.84
350.001	79.74
350.465	86.84
350.93	81.34
351.394	87.24
351.858	76.04
352.322	87.04
352.786	93.14
353.25	104.34
353.715	110.74
354.179	104.54
354.643	117.24
355.107	132.44
355.571	111.84
356.035	103.04
356.498	124.74
356.962	119.54
357.426	128.84
357.89	119.14
358.354	95.54
358.818	79.94
359.281	80.74
359.745	77.14
360.209	82.24
360.673	71.64
361.136	85.44
361.6	86.34
362.064	89.64
362.527	87.24
362.991	88.74
363.454	82.24
363.918	75.54
364.381	79.34
364.845	83.24
365.308	87.54
365.772	89.54
366.235	89.84
366.698	80.44
367.162	82.74
367.625	89.24
368.088	83.54
368.552	92.04
369.015	93.84
369.478	100.44
369.941	98.34
370.404	92.04
370.867	104.94
371.331	101.64
371.794	112.54
372.257	111.94
372.72	117.44
373.183	111.84
373.646	100.84
374.109	92.54
374.572	110.04
375.035	106.44
375.497	105.84
375.96	105.44
376.423	103.84
376.886	115.54
377.349	109.14
377.811	102.04
378.274	107.14
378.737	104.64
379.199	107.44
379.662	114.34
380.125	116.34
380.587	121.64
381.05	128.04
381.512	127.84
381.975	128.94
382.437	125.64
382.9	125.84
383.362	134.64
383.825	140.24
384.287	147.74
384.75	140.74
385.212	142.64
385.674	143.24
386.136	130.44
386.599	127.64
387.061	138.24
387.523	129.44
387.985	133.74
388.447	143.84
388.91	139.94
389.372	152.14
389.834	148.34
390.296	146.54
390.758	153.24
391.22	171.44
391.682	206.74
392.144	298.84
392.606	230.54
393.068	172.34
393.529	170.54
393.991	149.44
394.453	144.94
394.915	155.24
395.377	197.74
395.838	207.34
396.3	155.14
396.762	149.84
397.224	131.84
397.685	132.34
398.147	133.94
398.608	132.04
399.07	126.84
399.531	134.54
399.993	141.84
400.454	152.04
400.916	146.94
401.377	144.44
401.839	157.44
402.3	153.74
402.762	170.94
403.223	178.44
403.684	174.14
404.145	161.24
404.607	161.64
405.068	166.44
405.529	177.34
405.99	195.34
406.451	178.84
406.913	175.14
407.374	163.94
407.835	166.14
408.296	166.24
408.757	176.44
409.218	188.24
409.679	182.54
410.14	172.14
410.601	174.94
411.062	183.64
411.522	182.34
411.983	187.84
412.444	178.44
412.905	183.44
413.366	181.54
413.826	190.24
414.287	223.24
414.748	263.24
415.208	245.64
415.669	208.74
416.13	207.64
416.59	200.54
417.051	200.94
417.511	214.84
417.972	235.74
418.432	236.04
418.893	282.04
419.353	239.14
419.814	201.54
420.274	177.94
420.734	179.44
421.195	195.64
421.655	199.24
422.115	201.14
422.576	193.84
423.036	195.74
423.496	210.94
423.956	220.74
424.416	223.84
424.876	263.44
425.336	258.44
425.797	260.44
426.257	252.34
426.717	240.44
427.177	239.94
427.637	226.34
428.097	241.44
428.556	245.54
429.016	270.44
429.476	270.64
429.936	274.24
430.396	269.04
430.856	286.34
431.315	316.44
431.775	348.34
432.235	382.54
432.694	352.84
433.154	369.14
433.614	395.14
434.073	337.44
434.533	284.14
434.993	270.64
435.452	286.64
435.912	300.04
436.371	285.54
436.83	287.54
437.29	272.74
437.749	251.54
438.209	249.54
438.668	275.54
439.127	286.14
439.587	269.44
440.046	243.44
440.505	260.64
440.964	278.74
441.424	325.14
441.883	312.74
442.342	259.24
442.801	228.54
443.26	217.84
443.719	217.84
444.178	218.44
444.637	214.44
445.096	218.64
445.555	222.54
446.014	216.84
446.473	226.74
446.932	231.64
447.391	226.04
447.849	221.44
448.308	219.74
448.767	221.24
449.226	238.14
449.685	238.24
450.143	254.64
450.602	239.54
451.061	224.04
451.519	228.24
451.978	231.64
452.436	231.04
452.895	231.34
453.353	254.04
453.812	244.54
454.27	239.44
454.729	240.34
455.187	241.04
455.646	239.84
456.104	247.64
456.562	260.54
457.021	266.54
457.479	266.24
457.937	274.44
458.395	266.94
458.854	248.54
459.312	252.14
459.77	272.04
460.228	253.34
460.686	247.94
461.144	245.74
461.602	245.74
462.06	240.14
462.518	249.64
462.976	254.44
463.434	256.44
463.892	256.74
464.35	271.94
464.808	282.84
465.266	267.74
465.724	273.94
466.181	275.54
466.639	276.24
467.097	289.14
467.555	297.94
468.012	304.14
468.47	307.64
468.928	326.64
469.385	338.44
469.843	345.24
470.3	355.24
470.758	358.14
471.215	393.44
471.673	409.84
472.13	414.44
472.588	417.54
473.045	372.24
473.503	381.04
473.96	394.44
474.417	412.74
474.875	427.94
475.332	488.54
475.789	466.44
476.246	464.94
476.704	487.24
477.161	512.74
477.618	538.64
478.075	567.54
478.532	628.54
478.989	695.84
479.446	807.94
479.903	782.54
480.36	817.14
480.817	870.54
481.274	979.94
481.731	1077.94
482.188	1177.54
482.645	1317.64
483.102	1438.24
483.558	1560.64
484.015	1632.44
484.472	1588.84
484.929	1534.04
485.385	1487.64
485.842	1445.24
486.299	1385.44
486.755	1311.94
487.212	1097.04
487.668	944.94
488.125	863.44
488.582	785.74
489.038	754.84
489.494	720.14
489.951	695.54
490.407	658.94
490.864	651.54
491.32	651.84
491.776	639.34
492.233	649.04
492.689	610.14
493.145	600.54
493.602	605.14
494.058	609.54
494.514	616.04
494.97	645.14
495.426	654.64
495.882	628.84
496.338	629.24
496.794	630.14
497.251	618.84
497.707	634.94
498.163	644.94
498.618	653.44
499.074	662.14
499.53	690.54
499.986	685.34
500.442	661.24
500.898	636.64
501.354	632.04
501.809	640.24
502.265	654.14
502.721	657.04
503.177	672.14
503.632	672.94
504.088	684.64
504.543	718.74
504.999	711.04
505.455	654.54
505.91	635.24
506.366	632.44
506.821	635.14
507.277	626.44
507.732	626.84
508.187	632.54
508.643	632.94
509.098	633.34
509.553	657.94
510.009	662.64
510.464	681.74
510.919	686.14
511.375	695.04
511.83	710.04
512.285	721.64
512.74	764.14
513.195	787.34
513.65	788.44
514.105	780.14
514.56	774.04
515.015	803.34
515.47	824.44
515.925	798.04
516.38	795.64
516.835	787.24
517.29	794.94
517.745	781.64
518.2	762.24
518.655	763.14
519.109	752.74
519.564	742.64
520.019	737.54
520.474	739.44
520.928	737.54
521.383	727.94
521.838	719.84
522.292	715.44
522.747	720.34
523.201	710.24
523.656	694.74
524.11	697.54
524.565	692.94
525.019	700.44
525.474	702.54
525.928	705.44
526.382	689.24
526.837	709.14
527.291	703.94
527.745	705.14
528.2	694.64
528.654	698.14
529.108	699.24
529.562	696.44
530.016	692.34
530.47	696.14
530.925	683.14
531.379	703.84
531.833	718.64
532.287	702.84
532.741	712.64
533.195	711.44
533.649	730.44
534.103	722.64
534.556	719.44
535.01	716.14
535.464	713.84
535.918	725.14
536.372	728.84
536.826	721.04
537.279	705.64
537.733	716.14
538.187	716.34
538.64	721.04
539.094	726.54
539.548	734.64
540.001	721.14
540.455	727.94
540.908	740.64
541.362	738.54
541.815	738.94
542.269	761.04
542.722	752.14
543.175	768.94
543.629	769.14
544.082	792.14
544.536	790.84
544.989	781.34
545.442	791.84
545.895	794.24
546.349	801.04
546.802	794.44
547.255	795.94
547.708	802.24
548.161	810.24
548.614	819.44
549.067	840.94
549.52	827.14
549.973	809.74
550.426	803.94
550.879	810.84
551.332	799.14
551.785	794.04
552.238	807.74
552.691	820.24
553.144	831.24
553.596	840.04
554.049	867.84
554.502	895.74
554.955	915.74
555.407	912.94
555.86	907.04
556.313	899.84
556.765	888.84
557.218	888.14
557.67	877.54
558.123	878.14
558.576	873.44
559.028	889.04
559.48	899.34
559.933	873.34
560.385	842.44
560.838	812.74
561.29	787.74
561.742	780.44
562.195	775.84
562.647	767.04
563.099	776.44
563.551	763.74
564.004	773.94
564.456	770.84
564.908	758.74
565.36	746.34
565.812	725.54
566.264	716.64
566.716	723.04
567.168	721.44
567.62	730.14
568.072	707.44
568.524	697.54
568.976	689.44
569.428	683.74
569.88	669.24
570.332	689.54
570.784	681.94
571.235	686.84
571.687	690.44
572.139	702.04
572.59	714.44
573.042	714.74
573.494	714.74
573.945	703.04
574.397	692.34
574.849	688.44
575.3	688.44
575.752	683.44
576.203	671.74
576.655	682.14
577.106	665.34
577.557	666.34
578.009	674.74
578.46	663.54
578.912	661.54
579.363	662.34
579.814	674.74
580.265	666.04
580.717	675.74
581.168	666.64
581.619	674.54
582.07	686.44
582.521	670.84
582.972	671.94
583.423	673.04
583.875	676.74
584.326	700.14
584.777	738.94
585.227	825.34
585.678	898.84
586.129	987.94
586.58	1049.94
587.031	1138.24
587.482	1290.44
587.933	1462.94
588.384	1267.64
588.834	965.44
589.285	805.24
589.736	775.14
590.186	772.44
590.637	749.24
591.088	731.14
591.538	723.74
591.989	724.84
592.439	723.94
592.89	710.84
593.34	718.04
593.791	701.64
594.241	695.54
594.692	705.34
595.142	689.04
595.593	696.64
596.043	698.24
596.493	709.34
596.943	706.04
597.394	715.24
597.844	714.84
598.294	729.54
598.744	740.34
599.195	774.04
599.645	823.44
600.095	849.24
600.545	901.54
600.995	962.24
601.445	1012.54
601.895	1075.74
602.345	1121.84
602.795	1107.64
603.245	1058.04
603.695	999.44
604.145	952.44
604.594	916.74
605.044	844.54
605.494	791.04
605.944	746.94
606.393	733.94
606.843	717.34
607.293	731.44
607.743	724.84
608.192	738.04
608.642	753.04
609.091	750.34
609.541	765.34
609.99	760.44
610.44	757.24
610.889	720.04
611.339	695.24
611.788	687.24
612.238	695.74
612.687	706.74
613.136	713.24
613.586	732.54
614.035	730.34
614.484	758.74
614.933	746.24
615.383	729.24
615.832	727.14
616.281	721.04
616.73	684.14
617.179	659.64
617.628	648.34
618.077	628.04
618.526	613.34
618.975	613.04
619.424	607.34
619.873	609.84
620.322	617.64
620.771	604.94
621.22	590.94
621.669	581.74
622.118	583.54
622.567	570.34
623.015	563.24
623.464	562.84
623.913	547.54
624.361	550.44
624.81	546.64
625.259	548.24
625.707	548.24
626.156	548.14
626.604	559.94
627.053	549.14
627.501	556.54
627.95	566.24
628.398	582.74
628.847	561.84
629.295	556.94
629.744	560.04
630.192	560.54
630.64	551.74
631.089	545.64
631.537	565.54
631.985	582.04
632.433	584.54
632.881	595.44
633.33	636.34
633.778	622.74
634.226	558.74
634.674	563.54
635.122	560.84
635.57	578.74
636.018	621.34
636.466	572.14
636.914	544.34
637.362	569.34
637.81	567.94
638.258	567.34
638.705	561.64
639.153	589.54
639.601	605.04
640.049	633.04
640.497	661.14
640.944	679.54
641.392	634.14
641.84	604.14
642.287	577.64
642.735	566.34
643.182	564.24
643.63	564.54
644.078	568.24
644.525	587.24
644.973	584.64
645.42	592.04
645.867	608.74
646.315	630.04
646.762	659.54
647.21	684.54
647.657	705.44
648.104	738.14
648.551	760.44
648.999	823.44
649.446	893.24
649.893	995.34
650.34	1149.94
650.787	1368.14
651.234	1698.84
651.682	2217.14
652.129	3014.14
652.576	4362.44
653.023	6424.74
653.47	8873.04
653.917	11086.94
654.363	12881.84
654.81	14276.64
655.257	13593.84
655.704	8891.14
656.151	5230.84
656.598	3409.84
657.044	2383.24
657.491	1831.24
657.938	1481.74
658.385	1235.04
658.831	1057.04
659.278	944.94
659.724	836.84
660.171	779.94
660.618	716.94
661.064	674.94
661.511	651.64
661.957	635.64
662.404	636.34
662.85	641.94
663.296	615.24
663.743	552.24
664.189	529.94
664.635	526.84
665.082	511.24
665.528	520.54
665.974	507.84
666.42	496.04
666.867	494.14
667.313	475.74
667.759	468.84
668.205	465.34
668.651	468.74
669.097	469.64
669.543	481.34
669.989	455.14
670.435	446.24
670.881	428.94
671.327	444.34
671.773	452.04
672.219	480.94
672.665	533.34
673.11	571.34
673.556	611.34
674.002	646.54
674.448	646.54
674.893	531.24
675.339	463.84
675.785	427.84
676.23	411.44
676.676	380.14
677.122	376.54
677.567	368.94
678.013	355.94
678.458	355.84
678.904	350.44
679.349	337.84
679.794	341.44
680.24	340.84
680.685	339.94
681.131	339.14
681.576	345.34
682.021	344.14
682.466	337.64
682.912	336.04
683.357	337.24
683.802	370.44
684.247	396.54
684.692	435.54
685.137	479.34
685.583	518.14
686.028	544.24
686.473	506.14
686.918	438.54
687.363	407.44
687.807	388.34
688.252	356.44
688.697	342.14
689.142	329.34
689.587	318.14
690.032	314.94
690.477	333.04
690.921	341.14
691.366	367.34
691.811	387.54
692.255	420.24
692.7	444.94
693.145	480.84
693.589	662.34
694.034	1075.84
694.478	1480.84
694.923	1688.14
695.367	2201.14
695.812	1171.74
696.256	486.74
696.701	367.64
697.145	333.74
697.59	320.94
698.034	310.54
698.478	317.24
698.922	315.44
699.367	318.84
699.811	322.44
700.255	339.84
700.699	374.14
701.143	410.04
701.588	461.94
702.032	498.74
702.476	494.04
702.92	478.84
703.364	472.34
703.808	607.44
704.252	980.64
704.696	1389.74
705.14	1609.74
705.584	2077.64
706.027	1027.84
706.471	501.64
706.915	379.24
707.359	339.14
707.803	314.24
708.246	301.04
708.69	298.14
709.134	300.04
709.577	299.44
710.021	309.24
710.465	294.54
710.908	282.94
711.352	286.24
711.795	304.44
712.239	331.14
712.682	368.64
713.126	404.74
713.569	457.34
714.012	357.04
714.456	310.24
714.899	290.14
715.342	259.94
715.786	250.94
716.229	246.04
716.672	248.04
717.115	243.44
717.558	244.74
718.002	244.74
718.445	256.84
718.888	268.94
719.331	285.74
719.774	298.84
720.217	291.04
720.66	277.44
721.103	254.54
721.546	243.94
721.989	239.94
722.432	224.04
722.874	229.44
723.317	220.94
723.76	230.64
724.203	246.24
724.645	297.44
725.088	429.54
725.531	547.94
725.974	612.44
726.416	522.64
726.859	292.14
727.301	236.54
727.744	231.84
728.187	225.54
728.629	227.64
729.071	230.64
729.514	252.54
729.956	262.04
730.399	263.84
730.841	279.14
731.283	267.44
731.726	259.54
732.168	251.74
732.61	250.24
733.053	275.24
733.495	288.44
733.937	335.24
734.379	385.74
734.821	414.74
735.263	511.84
735.705	788.34
736.148	1493.84
736.59	2471.34
737.032	2953.74
737.474	2406.84
737.916	779.34
738.357	412.24
738.799	316.14
739.241	286.24
739.683	278.74
740.125	282.64
740.567	284.04
741.008	302.64
741.45	305.44
741.892	305.84
742.334	328.74
742.775	349.94
743.217	329.84
743.658	258.34
744.1	244.94
744.542	252.44
744.983	302.54
745.425	328.84
745.866	328.74
746.307	265.04
746.749	271.44
747.19	305.74
747.632	426.54
748.073	816.34
748.514	1760.24
748.956	2745.74
749.397	3410.34
749.838	2847.74
750.279	2867.24
750.72	1442.94
751.162	529.64
751.603	313.04
752.044	244.94
752.485	208.64
752.926	203.74
753.367	192.24
753.808	187.94
754.249	179.54
754.69	180.74
755.131	175.94
755.572	178.54
756.013	172.24
756.453	177.54
756.894	185.24
757.335	187.04
757.776	192.94
758.216	186.84
758.657	192.04
759.098	195.74
759.538	217.64
759.979	248.24
760.42	352.94
760.86	663.04
761.301	1701.24
761.741	4174.14
762.182	6215.74
762.622	4402.34
