Data from 20171114-ORNL-Ar_H_NY_Subt18_08-05-01-571.txt Node
Date: Tue Nov 14 08:05:01 EST 2017
User: Ender
Spectrometer: HR+D1039
Trigger mode: 0
Integration Time (sec): 2.730000E-2
Scans to average: 10
Electric dark correction enabled: true
Nonlinearity correction enabled: false
Boxcar width: 0
XAxis mode: Wavelengths
Number of Pixels in Spectrum: 2048
>>>>>Begin Spectral Data<<<<<
187.836	-7.55
188.309	-7.55
188.782	-7.55
189.255	4.55
189.728	-0.85
190.201	6.05
190.674	2.55
191.147	-0.05
191.619	-13.85
192.092	-1.35
192.565	4.65
193.038	0.75
193.511	1.55
193.984	1.55
194.456	-1.05
194.929	0.85
195.402	3.45
195.874	-1.25
196.347	-7.25
196.82	-2.45
197.292	-0.15
197.765	0.05
198.237	-11.15
198.71	4.15
199.182	-6.65
199.655	2.65
200.127	-0.15
200.6	-2.35
201.072	-10.05
201.544	-5.15
202.017	0.65
202.489	4.15
202.961	-1.85
203.433	-2.45
203.906	-4.85
204.378	-6.85
204.85	-3.75
205.322	-8.95
205.794	-6.65
206.266	1.05
206.739	-8.65
207.211	3.05
207.683	-12.75
208.155	-4.55
208.627	-2.65
209.099	1.25
209.57	-4.55
210.042	-3.45
210.514	-1.65
210.986	-3.95
211.458	-4.95
211.93	-6.05
212.402	0.45
212.873	-7.15
213.345	-10.85
213.817	-7.75
214.288	-5.85
214.76	-9.65
215.232	-1.05
215.703	0.05
216.175	-9.45
216.646	-1.45
217.118	-4.35
217.589	-4.35
218.061	-0.75
218.532	-3.65
219.004	-0.55
219.475	-3.15
219.946	-5.45
220.418	-12.55
220.889	3.95
221.36	0.05
221.832	-5.75
222.303	-9.55
222.774	0.75
223.245	-5.05
223.717	-8.55
224.188	-1.05
224.659	-7.75
225.13	-4.05
225.601	-1.25
226.072	-0.55
226.543	-3.95
227.014	-4.05
227.485	0.25
227.956	-9.05
228.427	-1.25
228.898	-0.85
229.369	6.15
229.839	-1.75
230.31	-6.65
230.781	1.75
231.252	-1.95
231.722	-0.35
232.193	-5.85
232.664	-2.05
233.135	-3.05
233.605	8.45
234.076	0.75
234.546	5.25
235.017	2.95
235.487	0.65
235.958	-1.75
236.428	0.55
236.899	1.55
237.369	3.95
237.84	-0.95
238.31	4.15
238.78	2.45
239.251	2.75
239.721	-4.15
240.191	-0.75
240.662	1.85
241.132	2.95
241.602	-5.05
242.072	4.35
242.542	4.55
243.013	7.85
243.483	7.45
243.953	3.45
244.423	-0.25
244.893	0.15
245.363	7.25
245.833	0.95
246.303	2.45
246.773	3.55
247.243	1.85
247.712	2.65
248.182	4.95
248.652	12.95
249.122	-1.85
249.592	17.25
250.061	21.35
250.531	39.65
251.001	18.65
251.471	25.95
251.94	22.95
252.41	9.75
252.879	2.55
253.349	14.65
253.818	17.35
254.288	7.95
254.757	9.95
255.227	-1.35
255.696	6.45
256.166	9.25
256.635	10.55
257.105	7.85
257.574	8.95
258.043	11.35
258.513	13.45
258.982	20.55
259.451	10.55
259.92	15.15
260.389	10.85
260.859	17.85
261.328	11.75
261.797	20.75
262.266	10.55
262.735	19.85
263.204	3.65
263.673	-0.05
264.142	12.05
264.611	-0.05
265.08	6.55
265.549	-1.55
266.018	6.55
266.487	-0.25
266.955	0.65
267.424	3.35
267.893	8.55
268.362	6.15
268.83	1.25
269.299	12.15
269.768	8.75
270.236	8.55
270.705	5.95
271.174	10.85
271.642	13.75
272.111	9.85
272.579	22.75
273.048	29.65
273.516	32.75
273.985	33.65
274.453	27.25
274.922	16.75
275.39	15.85
275.858	14.95
276.327	12.05
276.795	20.15
277.263	12.55
277.731	35.05
278.2	55.35
278.668	59.15
279.136	46.05
279.604	16.95
280.072	24.15
280.54	16.15
281.008	13.45
281.477	12.85
281.945	15.45
282.413	14.75
282.881	17.85
283.348	10.55
283.816	18.35
284.284	11.95
284.752	15.95
285.22	16.25
285.688	17.45
286.156	21.05
286.623	53.85
287.091	55.75
287.559	27.55
288.026	21.15
288.494	22.05
288.962	10.05
289.429	12.65
289.897	20.65
290.364	16.85
290.832	23.15
291.3	18.55
291.767	16.95
292.234	21.75
292.702	18.05
293.169	23.15
293.637	24.25
294.104	19.35
294.571	8.35
295.039	17.55
295.506	21.85
295.973	23.45
296.44	16.15
296.908	23.05
297.375	18.25
297.842	24.15
298.309	21.35
298.776	16.75
299.243	22.25
299.71	14.75
300.177	23.45
300.644	23.55
301.111	24.25
301.578	28.05
302.045	19.75
302.512	26.55
302.979	33.05
303.446	29.45
303.913	17.55
304.379	18.95
304.846	25.45
305.313	27.85
305.78	24.45
306.246	20.35
306.713	23.25
307.18	23.35
307.646	28.15
308.113	35.05
308.579	23.35
309.046	31.95
309.512	26.95
309.979	21.95
310.445	30.15
310.912	30.35
311.378	36.55
311.845	32.25
312.311	41.75
312.777	39.05
313.244	35.15
313.71	37.25
314.176	38.05
314.642	30.65
315.109	34.35
315.575	34.15
316.041	37.65
316.507	38.15
316.973	37.15
317.439	38.25
317.905	34.35
318.371	39.95
318.837	40.95
319.303	37.15
319.769	33.85
320.235	37.55
320.701	38.05
321.167	32.25
321.633	31.45
322.099	37.15
322.564	50.35
323.03	43.35
323.496	42.45
323.962	52.55
324.427	38.25
324.893	41.45
325.359	37.05
325.824	41.45
326.29	39.15
326.755	45.65
327.221	39.95
327.686	44.35
328.152	53.55
328.617	48.15
329.083	56.55
329.548	51.55
330.014	46.05
330.479	38.05
330.944	45.35
331.41	45.95
331.875	52.55
332.34	47.65
332.805	40.35
333.271	47.85
333.736	46.35
334.201	55.25
334.666	49.15
335.131	57.05
335.596	48.25
336.061	53.75
336.526	48.95
336.991	48.15
337.456	59.25
337.921	55.15
338.386	47.45
338.851	47.95
339.316	54.15
339.781	40.65
340.246	57.65
340.711	46.75
341.175	55.45
341.64	45.35
342.105	54.85
342.569	59.35
343.034	58.45
343.499	58.55
343.963	54.05
344.428	61.75
344.893	63.45
345.357	58.65
345.822	62.65
346.286	72.15
346.751	74.75
347.215	69.05
347.679	82.35
348.144	97.85
348.608	86.75
349.073	69.65
349.537	74.15
350.001	80.45
350.465	89.05
350.93	88.75
351.394	82.45
351.858	80.25
352.322	85.95
352.786	87.05
353.25	102.95
353.715	111.35
354.179	102.85
354.643	120.85
355.107	130.85
355.571	110.45
356.035	99.75
356.498	116.55
356.962	133.75
357.426	131.25
357.89	119.25
358.354	92.85
358.818	86.05
359.281	85.55
359.745	85.75
360.209	78.65
360.673	67.85
361.136	72.75
361.6	84.15
362.064	80.85
362.527	88.35
362.991	86.25
363.454	80.55
363.918	75.35
364.381	80.75
364.845	79.15
365.308	89.75
365.772	84.15
366.235	87.55
366.698	83.25
367.162	88.45
367.625	85.55
368.088	86.45
368.552	91.75
369.015	86.25
369.478	98.75
369.941	97.65
370.404	94.95
370.867	110.25
371.331	104.75
371.794	111.85
372.257	109.95
372.72	121.65
373.183	108.65
373.646	100.85
374.109	103.65
374.572	106.35
375.035	105.05
375.497	110.35
375.96	100.65
376.423	95.65
376.886	111.05
377.349	109.25
377.811	103.25
378.274	105.25
378.737	109.45
379.199	111.05
379.662	110.65
380.125	120.35
380.587	119.55
381.05	119.35
381.512	128.95
381.975	132.25
382.437	126.65
382.9	128.65
383.362	132.15
383.825	138.15
384.287	143.15
384.75	137.25
385.212	135.55
385.674	137.65
386.136	134.15
386.599	119.35
387.061	126.15
387.523	122.65
387.985	125.85
388.447	136.25
388.91	144.05
389.372	156.95
389.834	147.65
390.296	140.35
390.758	150.55
391.22	168.35
391.682	197.15
392.144	297.65
392.606	227.35
393.068	164.75
393.529	169.75
393.991	148.35
394.453	151.75
394.915	152.35
395.377	187.35
395.838	207.85
396.3	156.75
396.762	136.25
397.224	124.85
397.685	129.75
398.147	126.55
398.608	129.45
399.07	126.15
399.531	132.55
399.993	144.85
400.454	147.05
400.916	140.25
401.377	140.85
401.839	150.35
402.3	148.15
402.762	162.65
403.223	175.25
403.684	166.55
404.145	151.65
404.607	154.35
405.068	157.45
405.529	171.35
405.99	183.95
406.451	167.85
406.913	163.85
407.374	157.95
407.835	159.05
408.296	160.85
408.757	162.85
409.218	175.85
409.679	170.45
410.14	173.35
410.601	172.65
411.062	178.05
411.522	189.65
411.983	182.75
412.444	171.95
412.905	177.75
413.366	180.15
413.826	190.45
414.287	210.05
414.748	256.85
415.208	242.65
415.669	205.45
416.13	201.75
416.59	192.15
417.051	209.65
417.511	214.05
417.972	227.45
418.432	242.35
418.893	277.75
419.353	247.35
419.814	188.55
420.274	182.55
420.734	174.55
421.195	192.95
421.655	195.25
422.115	192.05
422.576	184.65
423.036	190.75
423.496	201.05
423.956	209.65
424.416	220.25
424.876	256.15
425.336	253.45
425.797	247.15
426.257	241.95
426.717	232.55
427.177	225.05
427.637	221.75
428.097	229.65
428.556	238.85
429.016	259.95
429.476	254.25
429.936	275.65
430.396	273.05
430.856	280.65
431.315	304.95
431.775	347.35
432.235	358.55
432.694	341.15
433.154	349.05
433.614	379.25
434.073	329.05
434.533	275.25
434.993	261.75
435.452	278.25
435.912	287.05
436.371	275.75
436.83	272.95
437.29	260.55
437.749	240.55
438.209	230.65
438.668	264.35
439.127	280.25
439.587	260.05
440.046	249.15
440.505	257.95
440.964	276.05
441.424	320.55
441.883	299.75
442.342	251.85
442.801	212.65
443.26	216.55
443.719	217.95
444.178	214.75
444.637	203.55
445.096	212.95
445.555	209.65
446.014	220.75
446.473	215.95
446.932	221.95
447.391	219.55
447.849	219.35
448.308	212.05
448.767	217.75
449.226	232.35
449.685	234.85
450.143	243.45
450.602	234.75
451.061	213.65
451.519	221.15
451.978	222.75
452.436	226.75
452.895	231.15
453.353	247.25
453.812	234.65
454.27	230.75
454.729	231.05
455.187	233.35
455.646	242.35
456.104	237.15
456.562	249.15
457.021	262.25
457.479	251.05
457.937	259.85
458.395	263.25
458.854	235.75
459.312	244.65
459.77	264.95
460.228	248.15
460.686	231.45
461.144	243.25
461.602	240.65
462.06	232.95
462.518	246.75
462.976	250.35
463.434	245.75
463.892	259.85
464.35	266.25
464.808	286.85
465.266	261.15
465.724	263.75
466.181	263.75
466.639	270.15
467.097	274.25
467.555	300.65
468.012	291.95
468.47	295.35
468.928	320.25
469.385	335.55
469.843	336.95
470.3	336.05
470.758	355.05
471.215	378.55
471.673	408.05
472.13	387.35
472.588	404.95
473.045	354.25
473.503	365.55
473.96	385.35
474.417	392.85
474.875	419.55
475.332	459.85
475.789	448.75
476.246	449.75
476.704	477.65
477.161	488.95
477.618	510.05
478.075	542.25
478.532	604.05
478.989	681.75
479.446	784.65
479.903	758.95
480.36	783.65
480.817	847.35
481.274	939.45
481.731	1053.35
482.188	1142.55
482.645	1287.25
483.102	1376.25
483.558	1511.95
484.015	1571.85
484.472	1542.15
484.929	1507.45
485.385	1455.15
485.842	1406.05
486.299	1350.95
486.755	1272.75
487.212	1063.55
487.668	900.95
488.125	830.55
488.582	762.65
489.038	727.95
489.494	707.15
489.951	669.55
490.407	655.05
490.864	634.45
491.32	631.45
491.776	625.95
492.233	636.75
492.689	587.95
493.145	587.65
493.602	590.45
494.058	596.85
494.514	592.65
494.97	623.25
495.426	628.75
495.882	615.15
496.338	604.15
496.794	606.05
497.251	611.55
497.707	621.05
498.163	627.45
498.618	627.85
499.074	635.15
499.53	663.45
499.986	660.45
500.442	636.25
500.898	615.85
501.354	617.55
501.809	614.75
502.265	623.65
502.721	643.85
503.177	655.05
503.632	645.35
504.088	657.45
504.543	691.45
504.999	699.45
505.455	639.55
505.91	612.45
506.366	611.65
506.821	617.35
507.277	611.45
507.732	605.55
508.187	611.85
508.643	614.15
509.098	614.25
509.553	644.65
510.009	642.95
510.464	659.95
510.919	667.95
511.375	677.25
511.83	690.85
512.285	719.05
512.74	746.65
513.195	763.95
513.65	748.25
514.105	752.25
514.56	757.25
515.015	771.55
515.47	801.15
515.925	771.65
516.38	777.75
516.835	776.95
517.29	763.75
517.745	765.75
518.2	743.15
518.655	735.25
519.109	724.95
519.564	732.25
520.019	717.85
520.474	707.05
520.928	706.55
521.383	701.75
521.838	696.85
522.292	692.15
522.747	680.95
523.201	680.05
523.656	676.45
524.11	667.35
524.565	666.25
525.019	668.85
525.474	685.65
525.928	687.45
526.382	686.65
526.837	673.55
527.291	688.25
527.745	681.55
528.2	672.95
528.654	675.95
529.108	671.85
529.562	668.35
530.016	671.85
530.47	672.45
530.925	673.15
531.379	688.15
531.833	686.15
532.287	692.35
532.741	688.45
533.195	678.85
533.649	697.85
534.103	706.25
534.556	688.15
535.01	703.85
535.464	690.65
535.918	709.55
536.372	700.95
536.826	698.15
537.279	680.45
537.733	689.25
538.187	696.95
538.64	683.95
539.094	701.55
539.548	710.85
540.001	696.75
540.455	691.15
540.908	711.15
541.362	710.15
541.815	726.45
542.269	725.95
542.722	740.25
543.175	752.45
543.629	748.05
544.082	762.25
544.536	767.55
544.989	746.05
545.442	770.65
545.895	758.05
546.349	764.95
546.802	759.55
547.255	763.35
547.708	773.95
548.161	785.05
548.614	793.85
549.067	806.35
549.52	790.65
549.973	783.25
550.426	777.55
550.879	762.05
551.332	765.65
551.785	766.85
552.238	766.05
552.691	786.95
553.144	803.65
553.596	813.55
554.049	820.85
554.502	857.85
554.955	873.05
555.407	875.95
555.86	861.45
556.313	857.15
556.765	852.95
557.218	847.25
557.67	855.05
558.123	851.15
558.576	844.55
559.028	850.45
559.48	849.25
559.933	835.55
560.385	824.25
560.838	772.55
561.29	745.35
561.742	753.25
562.195	734.65
562.647	734.25
563.099	751.55
563.551	743.55
564.004	759.25
564.456	741.95
564.908	737.75
565.36	721.85
565.812	707.05
566.264	694.35
566.716	699.85
567.168	693.25
567.62	700.15
568.072	671.45
568.524	669.75
568.976	656.35
569.428	636.95
569.88	641.75
570.332	642.15
570.784	651.95
571.235	650.15
571.687	661.55
572.139	673.55
572.59	676.35
573.042	690.65
573.494	678.05
573.945	670.95
574.397	662.25
574.849	669.95
575.3	654.65
575.752	655.65
576.203	644.95
576.655	650.25
577.106	631.55
577.557	633.35
578.009	638.95
578.46	640.25
578.912	633.55
579.363	645.35
579.814	630.35
580.265	626.75
580.717	635.55
581.168	637.15
581.619	649.85
582.07	648.65
582.521	640.45
582.972	634.65
583.423	650.15
583.875	653.85
584.326	668.55
584.777	706.75
585.227	779.75
585.678	864.95
586.129	950.45
586.58	1027.25
587.031	1118.65
587.482	1263.35
587.933	1451.35
588.384	1251.05
588.834	927.75
589.285	766.45
589.736	736.75
590.186	734.85
590.637	720.35
591.088	700.65
591.538	701.85
591.989	685.75
592.439	693.05
592.89	685.55
593.34	666.85
593.791	670.25
594.241	662.65
594.692	669.65
595.142	663.65
595.593	659.25
596.043	664.95
596.493	670.85
596.943	667.25
597.394	670.75
597.844	669.85
598.294	688.45
598.744	713.05
599.195	735.55
599.645	762.55
600.095	804.05
600.545	852.25
600.995	905.05
601.445	960.55
601.895	1013.75
602.345	1073.75
602.795	1047.35
603.245	1004.65
603.695	960.05
604.145	905.45
604.594	861.35
605.044	805.85
605.494	746.75
605.944	707.95
606.393	692.65
606.843	688.25
607.293	688.25
607.743	686.35
608.192	707.75
608.642	717.05
609.091	723.55
609.541	726.65
609.99	718.65
610.44	731.85
610.889	679.75
611.339	664.85
611.788	650.25
612.238	652.95
612.687	679.75
613.136	671.75
613.586	693.15
614.035	690.55
614.484	709.15
614.933	705.75
615.383	707.55
615.832	694.45
616.281	684.85
616.73	646.75
617.179	618.85
617.628	600.55
618.077	595.05
618.526	574.65
618.975	562.15
619.424	567.45
619.873	580.15
620.322	578.85
620.771	567.35
621.22	559.35
621.669	553.65
622.118	551.25
622.567	537.05
623.015	525.65
623.464	525.75
623.913	520.95
624.361	514.45
624.81	516.35
625.259	515.55
625.707	523.15
626.156	512.05
626.604	524.25
627.053	522.45
627.501	518.55
627.95	532.15
628.398	539.65
628.847	525.05
629.295	533.05
629.744	536.65
630.192	525.75
630.64	529.15
631.089	525.05
631.537	534.35
631.985	544.45
632.433	557.85
632.881	554.85
633.33	600.45
633.778	591.65
634.226	524.15
634.674	524.95
635.122	541.05
635.57	547.75
636.018	586.05
636.466	536.45
636.914	522.75
637.362	524.15
637.81	538.55
638.258	529.25
638.705	528.45
639.153	563.65
639.601	570.45
640.049	581.55
640.497	616.85
640.944	642.55
641.392	589.85
641.84	572.15
642.287	536.05
642.735	524.05
643.182	530.85
643.63	538.85
644.078	535.65
644.525	542.25
644.973	551.95
645.42	553.35
645.867	575.55
646.315	590.35
646.762	611.55
647.21	640.45
647.657	671.45
648.104	703.95
648.551	718.15
648.999	773.05
649.446	835.45
649.893	925.55
650.34	1059.65
650.787	1272.25
651.234	1581.35
651.682	2051.75
652.129	2813.25
652.576	4037.05
653.023	5974.65
653.47	8270.45
653.917	10415.45
654.363	12119.65
654.81	13504.35
655.257	12891.85
655.704	8390.85
656.151	4929.85
656.598	3202.35
657.044	2258.05
657.491	1732.15
657.938	1379.35
658.385	1155.75
658.831	999.05
659.278	897.95
659.724	800.85
660.171	734.45
660.618	668.55
661.064	629.05
661.511	610.45
661.957	596.25
662.404	592.65
662.85	608.05
663.296	570.05
663.743	514.05
664.189	490.85
664.635	491.95
665.082	477.65
665.528	482.35
665.974	471.35
666.42	458.55
666.867	468.95
667.313	446.85
667.759	442.65
668.205	436.45
668.651	447.55
669.097	453.05
669.543	462.55
669.989	425.65
670.435	409.55
670.881	404.95
671.327	411.45
671.773	427.45
672.219	451.75
672.665	488.65
673.11	527.25
673.556	570.25
674.002	617.25
674.448	594.95
674.893	503.85
675.339	435.95
675.785	401.35
676.23	396.15
676.676	355.65
677.122	346.15
677.567	331.05
678.013	346.95
678.458	324.85
678.904	333.45
679.349	320.55
679.794	322.15
680.24	315.05
680.685	309.75
681.131	312.25
681.576	316.85
682.021	321.95
682.466	308.65
682.912	316.65
683.357	318.55
683.802	349.55
684.247	377.35
684.692	410.45
685.137	444.15
685.583	483.95
686.028	512.15
686.473	474.55
686.918	413.95
687.363	381.45
687.807	360.25
688.252	331.05
688.697	322.35
689.142	304.95
689.587	298.85
690.032	292.05
690.477	314.55
690.921	318.55
691.366	347.35
691.811	359.05
692.255	389.05
692.7	418.25
693.145	449.55
693.589	614.45
694.034	989.75
694.478	1372.15
694.923	1584.85
695.367	2085.15
695.812	1087.25
696.256	448.35
696.701	342.55
697.145	315.45
697.59	298.25
698.034	295.05
698.478	305.55
698.922	295.45
699.367	291.35
699.811	305.85
700.255	316.45
700.699	352.65
701.143	387.55
701.588	435.75
702.032	465.45
702.476	459.15
702.92	442.85
703.364	439.05
703.808	559.05
704.252	902.55
704.696	1287.25
705.14	1523.15
705.584	1955.85
706.027	975.25
706.471	477.85
706.915	356.45
707.359	318.55
707.803	288.95
708.246	282.35
708.69	279.65
709.134	281.25
709.577	282.25
710.021	288.85
710.465	276.15
710.908	275.05
711.352	261.95
711.795	282.55
712.239	310.15
712.682	350.95
713.126	377.95
713.569	424.65
714.012	331.75
714.456	286.45
714.899	270.25
715.342	245.65
715.786	239.75
716.229	227.55
716.672	232.25
717.115	217.25
717.558	226.35
718.002	221.05
718.445	233.25
718.888	258.25
719.331	260.05
719.774	278.65
720.217	272.65
720.66	258.15
721.103	241.05
721.546	227.95
721.989	221.05
722.432	213.85
722.874	210.25
723.317	207.35
723.76	209.15
724.203	225.95
724.645	280.65
725.088	398.85
725.531	518.35
725.974	585.35
726.416	492.55
726.859	282.35
727.301	219.65
727.744	204.25
728.187	213.25
728.629	209.65
729.071	213.05
729.514	233.95
729.956	238.15
730.399	245.65
730.841	256.65
731.283	244.45
731.726	235.65
732.168	237.35
732.61	239.75
733.053	259.05
733.495	278.85
733.937	308.25
734.379	356.05
734.821	380.35
735.263	474.35
735.705	731.85
736.148	1379.85
736.59	2294.65
737.032	2785.05
737.474	2278.75
737.916	727.55
738.357	380.45
738.799	288.05
739.241	267.45
739.683	251.85
740.125	256.95
740.567	260.05
741.008	285.45
741.45	280.65
741.892	290.85
742.334	315.05
742.775	320.85
743.217	306.75
743.658	241.55
744.1	226.45
744.542	229.65
744.983	277.25
745.425	312.05
745.866	314.75
746.307	257.25
746.749	251.65
747.19	293.05
747.632	391.75
748.073	770.45
748.514	1612.15
748.956	2557.25
749.397	3193.85
749.838	2667.35
750.279	2706.75
750.72	1350.15
751.162	492.05
751.603	282.95
752.044	222.85
752.485	196.45
752.926	193.85
753.367	189.85
753.808	172.45
754.249	173.45
754.69	167.95
755.131	156.95
755.572	161.45
756.013	157.15
756.453	162.85
756.894	167.35
757.335	174.15
757.776	176.05
758.216	176.75
758.657	178.25
759.098	181.15
759.538	204.05
759.979	238.45
760.42	334.95
760.86	607.55
761.301	1568.35
761.741	3900.25
762.182	5896.35
