Data from 20171114-ORNL-Ar_H_NY_Subt18_08-04-18-168.txt Node
Date: Tue Nov 14 08:04:18 EST 2017
User: Ender
Spectrometer: HR+D1039
Trigger mode: 0
Integration Time (sec): 2.730000E-2
Scans to average: 10
Electric dark correction enabled: true
Nonlinearity correction enabled: false
Boxcar width: 0
XAxis mode: Wavelengths
Number of Pixels in Spectrum: 2048
>>>>>Begin Spectral Data<<<<<
187.836	-3.65
188.309	-3.65
188.782	-3.65
189.255	1.85
189.728	-0.35
190.201	-0.25
190.674	4.55
191.147	6.15
191.619	-6.65
192.092	4.25
192.565	0.75
193.038	-2.55
193.511	-0.75
193.984	2.25
194.456	-6.25
194.929	5.75
195.402	-2.05
195.874	-3.05
196.347	1.25
196.82	-6.15
197.292	7.55
197.765	2.25
198.237	-7.95
198.71	2.65
199.182	-2.95
199.655	0.45
200.127	1.15
200.6	-2.35
201.072	-0.75
201.544	-4.45
202.017	-3.25
202.489	8.85
202.961	-5.65
203.433	-3.35
203.906	-5.25
204.378	-6.85
204.85	-3.45
205.322	-5.15
205.794	-6.55
206.266	-4.75
206.739	-10.65
207.211	5.35
207.683	-2.75
208.155	-6.25
208.627	-8.25
209.099	-0.75
209.57	-7.15
210.042	-3.85
210.514	-3.85
210.986	-0.75
211.458	-10.05
211.93	-1.95
212.402	-2.45
212.873	-1.55
213.345	-7.35
213.817	-11.55
214.288	0.55
214.76	-6.75
215.232	-1.25
215.703	-4.25
216.175	-0.85
216.646	-2.65
217.118	-7.55
217.589	-2.05
218.061	4.25
218.532	-3.35
219.004	0.65
219.475	-1.55
219.946	-0.55
220.418	-6.35
220.889	0.05
221.36	0.65
221.832	-0.15
222.303	-7.55
222.774	0.55
223.245	-9.35
223.717	-4.25
224.188	-10.45
224.659	-5.65
225.13	-6.95
225.601	-3.75
226.072	1.85
226.543	3.35
227.014	3.65
227.485	-2.95
227.956	-8.25
228.427	-1.55
228.898	1.95
229.369	3.95
229.839	-0.25
230.31	1.95
230.781	1.25
231.252	-2.15
231.722	-3.65
232.193	-0.75
232.664	3.15
233.135	1.35
233.605	4.05
234.076	-2.65
234.546	-0.15
235.017	7.95
235.487	-5.75
235.958	-6.45
236.428	-5.95
236.899	-1.15
237.369	11.15
237.84	-3.05
238.31	7.15
238.78	4.75
239.251	2.55
239.721	5.75
240.191	4.65
240.662	5.55
241.132	6.95
241.602	1.25
242.072	-0.75
242.542	8.85
243.013	4.05
243.483	8.85
243.953	5.75
244.423	2.15
244.893	-0.85
245.363	4.55
245.833	5.45
246.303	0.35
246.773	6.75
247.243	1.25
247.712	7.45
248.182	9.55
248.652	1.05
249.122	-2.95
249.592	10.55
250.061	22.95
250.531	32.15
251.001	26.85
251.471	17.45
251.94	17.45
252.41	9.85
252.879	8.15
253.349	8.75
253.818	11.15
254.288	7.95
254.757	8.25
255.227	2.35
255.696	3.75
256.166	4.05
256.635	9.75
257.105	7.65
257.574	6.35
258.043	8.65
258.513	16.25
258.982	17.35
259.451	10.45
259.92	9.25
260.389	12.85
260.859	18.55
261.328	11.25
261.797	12.25
262.266	10.15
262.735	14.75
263.204	3.35
263.673	3.35
264.142	10.35
264.611	2.45
265.08	1.05
265.549	1.75
266.018	7.75
266.487	1.25
266.955	1.95
267.424	-1.55
267.893	12.55
268.362	4.75
268.83	1.85
269.299	11.15
269.768	7.45
270.236	13.85
270.705	3.65
271.174	10.35
271.642	14.25
272.111	7.15
272.579	19.45
273.048	22.65
273.516	27.45
273.985	31.75
274.453	22.25
274.922	24.55
275.39	12.95
275.858	6.15
276.327	16.55
276.795	18.55
277.263	7.95
277.731	23.65
278.2	47.45
278.668	56.95
279.136	47.25
279.604	21.05
280.072	22.05
280.54	17.55
281.008	7.25
281.477	16.85
281.945	17.75
282.413	15.45
282.881	7.55
283.348	2.85
283.816	12.65
284.284	12.85
284.752	22.85
285.22	14.75
285.688	17.95
286.156	19.45
286.623	44.85
287.091	46.25
287.559	26.15
288.026	19.05
288.494	18.85
288.962	6.95
289.429	7.05
289.897	14.05
290.364	12.75
290.832	19.65
291.3	16.35
291.767	22.05
292.234	22.55
292.702	13.25
293.169	20.55
293.637	21.45
294.104	24.15
294.571	14.55
295.039	12.25
295.506	12.75
295.973	16.25
296.44	16.05
296.908	16.45
297.375	9.95
297.842	14.25
298.309	13.45
298.776	14.65
299.243	21.25
299.71	13.75
300.177	21.25
300.644	24.25
301.111	22.15
301.578	15.85
302.045	15.55
302.512	23.05
302.979	22.45
303.446	19.15
303.913	21.65
304.379	21.05
304.846	23.85
305.313	24.15
305.78	21.55
306.246	21.75
306.713	26.55
307.18	25.85
307.646	31.25
308.113	26.45
308.579	31.55
309.046	22.95
309.512	31.25
309.979	17.75
310.445	28.75
310.912	32.25
311.378	30.55
311.845	29.45
312.311	30.85
312.777	30.35
313.244	35.95
313.71	44.55
314.176	30.15
314.642	22.95
315.109	28.35
315.575	35.45
316.041	39.55
316.507	33.05
316.973	40.85
317.439	29.95
317.905	37.15
318.371	32.75
318.837	34.25
319.303	26.65
319.769	31.55
320.235	36.95
320.701	32.15
321.167	37.75
321.633	36.85
322.099	33.25
322.564	40.95
323.03	35.95
323.496	37.25
323.962	38.55
324.427	33.15
324.893	40.05
325.359	37.55
325.824	29.95
326.29	34.35
326.755	35.95
327.221	41.35
327.686	38.65
328.152	44.05
328.617	33.95
329.083	41.85
329.548	47.35
330.014	42.95
330.479	41.65
330.944	41.95
331.41	40.55
331.875	39.75
332.34	41.15
332.805	39.35
333.271	42.85
333.736	42.95
334.201	52.85
334.666	52.05
335.131	49.45
335.596	45.85
336.061	52.65
336.526	43.45
336.991	44.55
337.456	54.15
337.921	45.05
338.386	39.25
338.851	37.65
339.316	44.95
339.781	45.95
340.246	45.65
340.711	43.95
341.175	49.25
341.64	43.35
342.105	47.85
342.569	48.85
343.034	52.35
343.499	50.35
343.963	53.15
344.428	60.05
344.893	53.35
345.357	55.75
345.822	51.05
346.286	63.95
346.751	62.15
347.215	63.65
347.679	68.35
348.144	89.05
348.608	72.95
349.073	62.85
349.537	70.85
350.001	72.95
350.465	84.75
350.93	73.25
351.394	83.65
351.858	71.55
352.322	82.25
352.786	82.15
353.25	87.65
353.715	97.55
354.179	91.05
354.643	110.35
355.107	116.95
355.571	95.65
356.035	97.05
356.498	104.35
356.962	108.45
357.426	118.35
357.89	104.75
358.354	85.45
358.818	77.05
359.281	77.35
359.745	73.55
360.209	72.25
360.673	74.45
361.136	71.55
361.6	75.75
362.064	82.95
362.527	76.75
362.991	83.95
363.454	68.25
363.918	69.75
364.381	71.95
364.845	78.95
365.308	81.35
365.772	85.05
366.235	75.35
366.698	77.95
367.162	77.05
367.625	79.45
368.088	83.35
368.552	82.35
369.015	79.55
369.478	88.15
369.941	96.35
370.404	86.85
370.867	93.55
371.331	97.05
371.794	100.45
372.257	109.15
372.72	107.95
373.183	97.95
373.646	95.55
374.109	93.85
374.572	100.95
375.035	100.65
375.497	95.05
375.96	99.75
376.423	90.15
376.886	98.95
377.349	99.05
377.811	97.55
378.274	93.35
378.737	95.85
379.199	102.55
379.662	99.95
380.125	105.15
380.587	110.25
381.05	111.75
381.512	121.95
381.975	122.45
382.437	118.95
382.9	115.25
383.362	121.15
383.825	125.85
384.287	134.35
384.75	129.65
385.212	128.35
385.674	128.35
386.136	123.75
386.599	115.95
387.061	116.65
387.523	123.35
387.985	122.95
388.447	129.25
388.91	127.15
389.372	143.05
389.834	142.95
390.296	130.35
390.758	141.35
391.22	154.05
391.682	187.05
392.144	263.55
392.606	205.75
393.068	148.25
393.529	156.35
393.991	142.25
394.453	138.65
394.915	140.85
395.377	172.15
395.838	191.75
396.3	145.15
396.762	128.15
397.224	122.95
397.685	121.35
398.147	118.95
398.608	115.35
399.07	126.95
399.531	124.75
399.993	132.35
400.454	132.25
400.916	134.75
401.377	131.55
401.839	140.85
402.3	137.95
402.762	154.85
403.223	162.35
403.684	155.35
404.145	144.25
404.607	142.55
405.068	148.55
405.529	152.75
405.99	168.85
406.451	155.95
406.913	152.35
407.374	147.35
407.835	152.45
408.296	153.25
408.757	158.15
409.218	162.95
409.679	163.95
410.14	164.25
410.601	160.85
411.062	166.25
411.522	180.65
411.983	167.85
412.444	164.95
412.905	166.65
413.366	161.65
413.826	180.05
414.287	194.35
414.748	236.05
415.208	225.65
415.669	202.35
416.13	188.25
416.59	189.95
417.051	191.95
417.511	198.15
417.972	223.25
418.432	232.35
418.893	265.85
419.353	228.75
419.814	181.45
420.274	166.65
420.734	166.35
421.195	175.45
421.655	179.55
422.115	177.45
422.576	177.15
423.036	172.35
423.496	193.55
423.956	189.95
424.416	208.95
424.876	238.75
425.336	246.65
425.797	242.45
426.257	225.85
426.717	219.75
427.177	216.45
427.637	201.45
428.097	212.45
428.556	215.95
429.016	247.25
429.476	243.75
429.936	253.25
430.396	249.95
430.856	263.55
431.315	283.15
431.775	309.55
432.235	342.95
432.694	307.05
433.154	325.75
433.614	341.15
434.073	301.55
434.533	254.35
434.993	241.55
435.452	252.75
435.912	257.85
436.371	255.65
436.83	253.65
437.29	242.25
437.749	223.25
438.209	224.75
438.668	245.05
439.127	259.45
439.587	238.05
440.046	228.05
440.505	233.15
440.964	246.95
441.424	280.95
441.883	274.95
442.342	238.85
442.801	204.05
443.26	201.15
443.719	202.55
444.178	194.55
444.637	187.45
445.096	202.55
445.555	202.95
446.014	204.65
446.473	207.05
446.932	204.65
447.391	204.95
447.849	208.65
448.308	199.45
448.767	202.05
449.226	217.35
449.685	222.05
450.143	226.65
450.602	218.05
451.061	201.15
451.519	215.55
451.978	210.95
452.436	211.25
452.895	220.45
453.353	221.65
453.812	218.25
454.27	220.45
454.729	221.95
455.187	214.25
455.646	220.75
456.104	225.25
456.562	234.75
457.021	232.55
457.479	234.65
457.937	237.25
458.395	236.75
458.854	224.25
459.312	231.55
459.77	240.75
460.228	229.95
460.686	229.15
461.144	229.95
461.602	226.25
462.06	224.45
462.518	227.25
462.976	236.45
463.434	239.15
463.892	239.45
464.35	246.85
464.808	260.35
465.266	239.65
465.724	242.65
466.181	250.25
466.639	249.25
467.097	269.55
467.555	274.25
468.012	275.55
468.47	282.65
468.928	303.05
469.385	306.15
469.843	316.65
470.3	314.95
470.758	318.55
471.215	340.95
471.673	358.05
472.13	354.95
472.588	366.05
473.045	330.15
473.503	350.85
473.96	355.75
474.417	367.95
474.875	389.45
475.332	422.25
475.789	413.85
476.246	423.15
476.704	437.15
477.161	460.15
477.618	471.65
478.075	512.75
478.532	550.45
478.989	615.05
479.446	701.15
479.903	698.45
480.36	726.35
480.817	788.55
481.274	870.75
481.731	973.45
482.188	1055.85
482.645	1185.45
483.102	1271.15
483.558	1396.75
484.015	1447.65
484.472	1435.55
484.929	1389.85
485.385	1345.65
485.842	1299.85
486.299	1249.05
486.755	1161.15
487.212	992.85
487.668	840.55
488.125	774.15
488.582	707.05
489.038	680.35
489.494	654.65
489.951	629.85
490.407	614.75
490.864	591.95
491.32	591.05
491.776	576.15
492.233	576.95
492.689	561.05
493.145	552.25
493.602	546.85
494.058	553.15
494.514	551.65
494.97	573.05
495.426	573.15
495.882	558.45
496.338	560.55
496.794	573.25
497.251	575.65
497.707	574.15
498.163	579.95
498.618	586.25
499.074	582.25
499.53	618.75
499.986	607.85
500.442	581.65
500.898	575.25
501.354	559.65
501.809	576.25
502.265	586.55
502.721	597.05
503.177	604.05
503.632	603.65
504.088	611.85
504.543	641.55
504.999	640.65
505.455	596.85
505.91	573.15
506.366	577.45
506.821	567.55
507.277	568.65
507.732	566.95
508.187	569.45
508.643	568.95
509.098	578.95
509.553	596.35
510.009	607.85
510.464	608.35
510.919	620.85
511.375	628.25
511.83	643.05
512.285	655.25
512.74	680.25
513.195	701.95
513.65	694.45
514.105	702.75
514.56	695.65
515.015	726.05
515.47	733.55
515.925	715.55
516.38	712.55
516.835	730.85
517.29	717.25
517.745	708.05
518.2	691.45
518.655	685.55
519.109	673.85
519.564	678.05
520.019	662.85
520.474	649.55
520.928	657.35
521.383	653.75
521.838	644.45
522.292	648.35
522.747	639.85
523.201	645.45
523.656	633.35
524.11	625.95
524.565	624.25
525.019	626.25
525.474	636.55
525.928	635.25
526.382	633.35
526.837	629.75
527.291	637.25
527.745	624.25
528.2	633.15
528.654	622.45
529.108	620.45
529.562	620.55
530.016	615.45
530.47	628.95
530.925	623.65
531.379	639.15
531.833	627.55
532.287	635.45
532.741	634.65
533.195	635.45
533.649	639.65
534.103	649.05
534.556	630.65
535.01	638.25
535.464	632.55
535.918	651.75
536.372	642.25
536.826	642.15
537.279	632.35
537.733	635.95
538.187	640.35
538.64	647.55
539.094	655.15
539.548	654.45
540.001	636.15
540.455	645.35
540.908	654.15
541.362	661.05
541.815	665.15
542.269	679.45
542.722	669.95
543.175	679.85
543.629	679.75
544.082	696.95
544.536	696.35
544.989	698.75
545.442	709.25
545.895	704.85
546.349	699.15
546.802	704.75
547.255	703.05
547.708	714.45
548.161	727.15
548.614	731.25
549.067	741.05
549.52	728.95
549.973	722.45
550.426	714.55
550.879	700.35
551.332	704.55
551.785	723.95
552.238	718.95
552.691	718.15
553.144	735.35
553.596	748.15
554.049	758.75
554.502	782.85
554.955	800.25
555.407	811.55
555.86	789.95
556.313	792.55
556.765	777.35
557.218	784.45
557.67	791.95
558.123	780.15
558.576	781.55
559.028	780.65
559.48	782.85
559.933	773.25
560.385	741.35
560.838	717.35
561.29	687.35
561.742	693.15
562.195	677.35
562.647	669.55
563.099	681.95
563.551	687.95
564.004	692.65
564.456	678.25
564.908	679.05
565.36	648.15
565.812	637.25
566.264	640.85
566.716	627.35
567.168	626.45
567.62	637.25
568.072	616.05
568.524	606.15
568.976	604.15
569.428	584.05
569.88	585.05
570.332	592.65
570.784	595.85
571.235	591.75
571.687	606.15
572.139	612.95
572.59	619.45
573.042	622.85
573.494	624.05
573.945	620.15
574.397	599.85
574.849	596.95
575.3	606.85
575.752	596.55
576.203	584.45
576.655	590.25
577.106	575.25
577.557	579.15
578.009	581.65
578.46	576.25
578.912	575.25
579.363	575.25
579.814	576.45
580.265	574.55
580.717	576.25
581.168	581.25
581.619	591.05
582.07	593.05
582.521	577.85
582.972	581.95
583.423	583.65
583.875	585.25
584.326	600.35
584.777	643.75
585.227	708.05
585.678	783.95
586.129	856.85
586.58	913.05
587.031	990.35
587.482	1136.85
587.933	1293.25
588.384	1122.35
588.834	830.45
589.285	689.05
589.736	679.45
590.186	660.85
590.637	654.85
591.088	639.85
591.538	636.05
591.989	634.35
592.439	629.95
592.89	614.05
593.34	602.95
593.791	610.15
594.241	596.75
594.692	607.35
595.142	603.35
595.593	593.05
596.043	602.15
596.493	608.45
596.943	611.75
597.394	613.35
597.844	607.05
598.294	616.75
598.744	638.05
599.195	662.65
599.645	693.65
600.095	737.85
600.545	777.95
600.995	818.15
601.445	867.65
601.895	933.45
602.345	967.35
602.795	952.15
603.245	916.65
603.695	864.15
604.145	822.25
604.594	780.85
605.044	731.25
605.494	689.25
605.944	635.65
606.393	624.85
606.843	619.05
607.293	624.55
607.743	608.85
608.192	637.85
608.642	639.85
609.091	636.75
609.541	644.55
609.99	641.95
610.44	650.25
610.889	607.15
611.339	596.65
611.788	573.75
612.238	590.55
612.687	610.45
613.136	606.15
613.586	621.35
614.035	623.65
614.484	635.75
614.933	639.55
615.383	617.35
615.832	611.35
616.281	607.05
616.73	584.15
617.179	560.55
617.628	548.95
618.077	537.35
618.526	523.55
618.975	518.75
619.424	513.85
619.873	514.95
620.322	514.25
620.771	505.35
621.22	510.95
621.669	506.75
622.118	493.65
622.567	484.15
623.015	474.85
623.464	479.05
623.913	471.05
624.361	460.85
624.81	464.45
625.259	465.85
625.707	473.85
626.156	460.35
626.604	477.55
627.053	476.65
627.501	472.35
627.95	473.75
628.398	479.85
628.847	485.65
629.295	472.15
629.744	473.45
630.192	480.95
630.64	475.25
631.089	466.35
631.537	472.65
631.985	475.05
632.433	485.25
632.881	498.75
633.33	542.25
633.778	525.55
634.226	465.65
634.674	471.95
635.122	473.55
635.57	491.05
636.018	518.55
636.466	480.25
636.914	457.45
637.362	478.15
637.81	473.45
638.258	484.85
638.705	476.65
639.153	495.15
639.601	502.25
640.049	529.95
640.497	559.25
640.944	575.65
641.392	531.35
641.84	504.15
642.287	481.75
642.735	467.85
643.182	478.75
643.63	477.85
644.078	479.05
644.525	483.75
644.973	485.95
645.42	494.85
645.867	514.35
646.315	523.85
646.762	544.45
647.21	567.35
647.657	582.65
648.104	627.35
648.551	635.45
648.999	678.55
649.446	750.55
649.893	812.75
650.34	934.65
650.787	1119.25
651.234	1379.35
651.682	1782.85
652.129	2444.95
652.576	3509.85
653.023	5191.45
653.47	7198.35
653.917	9106.85
654.363	10706.35
654.81	12080.55
655.257	11475.55
655.704	7457.75
656.151	4373.05
656.598	2822.95
657.044	1993.15
657.491	1527.95
657.938	1226.45
658.385	1019.95
658.831	892.85
659.278	788.45
659.724	703.85
660.171	643.65
660.618	588.75
661.064	558.45
661.511	538.75
661.957	519.85
662.404	509.05
662.85	525.65
663.296	494.15
663.743	452.55
664.189	439.15
664.635	439.05
665.082	427.95
665.528	432.85
665.974	420.45
666.42	417.35
666.867	408.85
667.313	398.25
667.759	394.65
668.205	387.35
668.651	398.95
669.097	392.65
669.543	408.55
669.989	386.75
670.435	372.95
670.881	364.65
671.327	363.85
671.773	386.15
672.219	403.75
672.665	443.95
673.11	470.45
673.556	516.45
674.002	549.25
674.448	532.35
674.893	452.25
675.339	388.55
675.785	361.25
676.23	344.15
676.676	316.55
677.122	307.85
677.567	296.25
678.013	297.55
678.458	301.05
678.904	286.65
679.349	282.05
679.794	282.85
680.24	290.05
680.685	283.35
681.131	282.75
681.576	279.55
682.021	287.75
682.466	283.85
682.912	283.45
683.357	279.75
683.802	305.05
684.247	325.15
684.692	365.05
685.137	403.05
685.583	438.95
686.028	457.75
686.473	426.95
686.918	356.55
687.363	330.45
687.807	318.15
688.252	296.95
688.697	285.95
689.142	275.45
689.587	275.45
690.032	263.05
690.477	272.45
690.921	273.85
691.366	301.15
691.811	319.35
692.255	355.25
692.7	375.05
693.145	402.55
693.589	545.45
694.034	886.65
694.478	1239.15
694.923	1438.55
695.367	1890.25
695.812	984.15
696.256	409.85
696.701	301.35
697.145	273.65
697.59	263.65
698.034	257.45
698.478	269.15
698.922	257.25
699.367	274.35
699.811	272.05
700.255	286.65
700.699	309.25
701.143	343.55
701.588	386.05
702.032	421.35
702.476	418.25
702.92	405.55
703.364	401.25
703.808	503.05
704.252	804.45
704.696	1162.25
705.14	1380.15
705.584	1777.05
706.027	873.85
706.471	426.95
706.915	324.35
707.359	282.85
707.803	253.75
708.246	241.75
708.69	252.15
709.134	253.95
709.577	246.15
710.021	252.25
710.465	245.85
710.908	240.65
711.352	232.75
711.795	249.55
712.239	278.65
712.682	298.95
713.126	334.55
713.569	378.25
714.012	302.75
714.456	258.25
714.899	241.95
715.342	217.65
715.786	207.75
716.229	212.15
716.672	208.55
717.115	199.05
717.558	204.05
718.002	203.95
718.445	216.05
718.888	229.85
719.331	232.45
719.774	246.75
720.217	243.45
720.66	224.85
721.103	211.15
721.546	204.95
721.989	198.25
722.432	179.95
722.874	194.35
723.317	182.75
723.76	190.75
724.203	209.25
724.645	247.75
725.088	354.15
725.531	457.95
725.974	529.95
726.416	447.85
726.859	245.95
727.301	191.95
727.744	191.65
728.187	182.25
728.629	189.95
729.071	200.45
729.514	203.25
729.956	219.35
730.399	225.65
730.841	237.25
731.283	222.95
731.726	209.45
732.168	202.35
732.61	208.35
733.053	227.75
733.495	245.35
733.937	272.25
734.379	317.55
734.821	350.05
735.263	427.25
735.705	645.55
736.148	1224.05
736.59	2074.65
737.032	2547.75
737.474	2067.85
737.916	653.25
738.357	340.45
738.799	260.35
739.241	240.75
739.683	223.55
740.125	228.75
740.567	232.65
741.008	261.75
741.45	259.25
741.892	259.55
742.334	285.05
742.775	291.75
743.217	279.65
743.658	221.25
744.1	205.75
744.542	201.75
744.983	257.05
745.425	280.55
745.866	285.05
746.307	227.05
746.749	224.25
747.19	248.85
747.632	351.45
748.073	679.65
748.514	1454.05
748.956	2310.45
749.397	2892.45
749.838	2410.35
750.279	2479.85
750.72	1239.95
751.162	440.85
751.603	259.05
752.044	203.25
752.485	178.45
752.926	167.15
753.367	162.35
753.808	153.85
754.249	156.25
754.69	151.05
755.131	138.65
755.572	146.35
756.013	143.75
756.453	142.75
756.894	145.65
757.335	147.25
757.776	160.15
758.216	164.05
758.657	167.35
759.098	163.25
759.538	186.45
759.979	209.65
760.42	290.85
760.86	541.05
761.301	1405.45
761.741	3506.45
762.182	5431.25
762.622	3853.05
763.063	1086.35
763.503	441.25
