Data from 20171114-ORNL-Ar_H_NY_Subt18_08-04-40-825.txt Node
Date: Tue Nov 14 08:04:40 EST 2017
User: Ender
Spectrometer: HR+D1039
Trigger mode: 0
Integration Time (sec): 2.730000E-2
Scans to average: 10
Electric dark correction enabled: true
Nonlinearity correction enabled: false
Boxcar width: 0
XAxis mode: Wavelengths
Number of Pixels in Spectrum: 2048
>>>>>Begin Spectral Data<<<<<
187.836	-2.26
188.309	-2.26
188.782	-2.26
189.255	-3.16
189.728	-3.66
190.201	4.44
190.674	-0.36
191.147	4.94
191.619	-4.66
192.092	-2.66
192.565	4.44
193.038	2.14
193.511	0.34
193.984	-1.06
194.456	-1.46
194.929	1.84
195.402	3.24
195.874	-2.16
196.347	2.04
196.82	-6.16
197.292	8.84
197.765	-3.16
198.237	-4.16
198.71	5.04
199.182	-5.06
199.655	3.44
200.127	-4.36
200.6	-8.46
201.072	-10.26
201.544	-0.26
202.017	-1.46
202.489	4.14
202.961	-5.56
203.433	-9.16
203.906	-7.66
204.378	-3.36
204.85	-2.16
205.322	-9.16
205.794	-4.76
206.266	-6.16
206.739	-4.86
207.211	-1.56
207.683	-6.56
208.155	-4.76
208.627	-8.16
209.099	-1.16
209.57	-9.16
210.042	-4.46
210.514	-6.46
210.986	-4.46
211.458	-9.06
211.93	1.34
212.402	3.74
212.873	-5.76
213.345	-7.56
213.817	-8.86
214.288	0.74
214.76	-7.66
215.232	2.14
215.703	-7.76
216.175	-9.76
216.646	-9.16
217.118	-6.46
217.589	-2.16
218.061	-2.56
218.532	-4.66
219.004	-2.16
219.475	0.64
219.946	-2.66
220.418	-0.26
220.889	5.84
221.36	2.04
221.832	-3.06
222.303	-4.56
222.774	1.44
223.245	-8.36
223.717	-4.76
224.188	-1.16
224.659	-3.26
225.13	0.34
225.601	-1.36
226.072	2.14
226.543	-1.66
227.014	-2.46
227.485	-0.96
227.956	-2.46
228.427	-0.36
228.898	4.34
229.369	10.24
229.839	-6.96
230.31	-3.06
230.781	-3.36
231.252	5.04
231.722	-7.56
232.193	1.14
232.664	-1.56
233.135	3.24
233.605	-1.76
234.076	-4.76
234.546	-0.16
235.017	2.74
235.487	0.34
235.958	3.54
236.428	-2.96
236.899	-2.06
237.369	6.44
237.84	-1.26
238.31	2.44
238.78	1.44
239.251	-3.06
239.721	5.04
240.191	1.84
240.662	-3.46
241.132	3.74
241.602	-1.66
242.072	-2.76
242.542	7.54
243.013	2.24
243.483	1.74
243.953	-3.16
244.423	-1.56
244.893	-0.56
245.363	-0.86
245.833	7.14
246.303	0.84
246.773	9.94
247.243	12.34
247.712	4.04
248.182	10.74
248.652	3.64
249.122	-0.26
249.592	9.64
250.061	18.34
250.531	37.34
251.001	14.74
251.471	18.34
251.94	18.44
252.41	13.54
252.879	7.64
253.349	18.84
253.818	8.34
254.288	3.34
254.757	12.04
255.227	1.64
255.696	1.64
256.166	8.14
256.635	9.34
257.105	10.14
257.574	5.94
258.043	14.54
258.513	21.74
258.982	19.84
259.451	6.24
259.92	11.14
260.389	9.84
260.859	19.94
261.328	17.64
261.797	18.84
262.266	9.04
262.735	13.94
263.204	0.54
263.673	0.44
264.142	7.44
264.611	-1.56
265.08	7.64
265.549	6.04
266.018	6.74
266.487	-2.66
266.955	2.54
267.424	-2.66
267.893	11.44
268.362	8.44
268.83	2.74
269.299	13.84
269.768	9.84
270.236	10.94
270.705	9.54
271.174	9.34
271.642	11.14
272.111	12.04
272.579	18.54
273.048	22.74
273.516	30.54
273.985	30.44
274.453	26.64
274.922	18.34
275.39	16.34
275.858	5.24
276.327	18.84
276.795	17.74
277.263	12.34
277.731	30.74
278.2	55.14
278.668	60.44
279.136	49.34
279.604	21.24
280.072	17.34
280.54	10.74
281.008	15.54
281.477	15.14
281.945	13.44
282.413	15.44
282.881	13.74
283.348	7.94
283.816	17.24
284.284	15.34
284.752	23.44
285.22	15.04
285.688	21.34
286.156	19.04
286.623	39.44
287.091	58.74
287.559	29.94
288.026	20.34
288.494	20.04
288.962	9.74
289.429	15.14
289.897	21.74
290.364	13.74
290.832	24.34
291.3	21.84
291.767	18.14
292.234	20.74
292.702	9.04
293.169	20.24
293.637	25.04
294.104	21.34
294.571	12.84
295.039	17.94
295.506	17.24
295.973	24.34
296.44	17.14
296.908	15.44
297.375	18.74
297.842	20.24
298.309	16.94
298.776	17.84
299.243	17.74
299.71	11.54
300.177	23.74
300.644	26.34
301.111	21.74
301.578	26.34
302.045	22.34
302.512	26.74
302.979	30.74
303.446	26.84
303.913	18.74
304.379	13.74
304.846	28.14
305.313	26.14
305.78	23.44
306.246	30.44
306.713	29.04
307.18	27.34
307.646	30.24
308.113	30.04
308.579	28.34
309.046	26.74
309.512	31.74
309.979	29.54
310.445	28.04
310.912	32.14
311.378	30.54
311.845	28.24
312.311	31.54
312.777	35.14
313.244	32.04
313.71	37.04
314.176	35.34
314.642	36.04
315.109	38.84
315.575	29.64
316.041	38.24
316.507	38.34
316.973	42.84
317.439	32.24
317.905	35.74
318.371	31.34
318.837	36.44
319.303	39.04
319.769	33.14
320.235	40.34
320.701	42.14
321.167	44.24
321.633	39.24
322.099	41.14
322.564	45.84
323.03	36.54
323.496	40.74
323.962	47.64
324.427	39.44
324.893	42.24
325.359	44.14
325.824	35.84
326.29	35.64
326.755	43.14
327.221	45.24
327.686	46.34
328.152	43.64
328.617	46.24
329.083	46.14
329.548	52.44
330.014	53.04
330.479	44.24
330.944	44.74
331.41	45.64
331.875	45.34
332.34	40.94
332.805	42.04
333.271	48.04
333.736	47.04
334.201	50.54
334.666	52.14
335.131	53.34
335.596	52.74
336.061	54.14
336.526	44.94
336.991	58.44
337.456	60.34
337.921	51.34
338.386	48.74
338.851	44.94
339.316	48.94
339.781	44.64
340.246	54.24
340.711	45.54
341.175	49.04
341.64	50.34
342.105	50.44
342.569	56.24
343.034	57.34
343.499	55.34
343.963	50.74
344.428	68.14
344.893	52.94
345.357	58.24
345.822	59.34
346.286	69.34
346.751	69.54
347.215	70.84
347.679	73.34
348.144	95.34
348.608	87.14
349.073	70.24
349.537	77.64
350.001	82.54
350.465	81.34
350.93	73.64
351.394	83.34
351.858	72.94
352.322	80.74
352.786	82.74
353.25	104.14
353.715	110.14
354.179	101.14
354.643	125.34
355.107	116.44
355.571	104.04
356.035	105.74
356.498	114.04
356.962	121.04
357.426	130.14
357.89	113.44
358.354	91.44
358.818	88.54
359.281	82.04
359.745	78.54
360.209	79.44
360.673	76.24
361.136	79.04
361.6	87.74
362.064	84.64
362.527	82.54
362.991	90.84
363.454	79.04
363.918	73.64
364.381	79.14
364.845	78.24
365.308	82.44
365.772	86.14
366.235	86.24
366.698	80.34
367.162	85.74
367.625	85.04
368.088	85.04
368.552	89.94
369.015	88.44
369.478	96.54
369.941	92.24
370.404	89.84
370.867	100.44
371.331	111.54
371.794	110.34
372.257	111.54
372.72	118.64
373.183	102.24
373.646	99.84
374.109	98.64
374.572	107.04
375.035	102.54
375.497	101.34
375.96	104.64
376.423	102.34
376.886	102.84
377.349	110.34
377.811	100.84
378.274	108.14
378.737	105.74
379.199	108.84
379.662	106.84
380.125	111.54
380.587	112.14
381.05	109.64
381.512	125.14
381.975	136.24
382.437	125.94
382.9	119.04
383.362	127.04
383.825	143.04
384.287	147.14
384.75	132.64
385.212	138.84
385.674	136.54
386.136	131.24
386.599	119.74
387.061	117.64
387.523	125.84
387.985	137.04
388.447	141.34
388.91	141.94
389.372	151.94
389.834	143.84
390.296	134.74
390.758	150.14
391.22	164.24
391.682	203.74
392.144	274.34
392.606	217.54
393.068	159.34
393.529	156.24
393.991	148.54
394.453	135.34
394.915	145.24
395.377	178.74
395.838	199.54
396.3	151.94
396.762	138.84
397.224	126.84
397.685	127.54
398.147	127.34
398.608	126.84
399.07	122.14
399.531	131.54
399.993	136.34
400.454	150.54
400.916	137.74
401.377	142.84
401.839	139.04
402.3	146.74
402.762	156.94
403.223	176.24
403.684	168.34
404.145	151.94
404.607	156.64
405.068	155.84
405.529	164.34
405.99	180.94
406.451	173.84
406.913	166.34
407.374	150.84
407.835	153.94
408.296	158.24
408.757	159.24
409.218	174.04
409.679	169.54
410.14	171.44
410.601	176.34
411.062	178.14
411.522	179.24
411.983	176.64
412.444	167.14
412.905	176.44
413.366	178.24
413.826	183.34
414.287	204.34
414.748	250.14
415.208	234.64
415.669	205.24
416.13	191.74
416.59	190.44
417.051	204.44
417.511	205.24
417.972	227.14
418.432	233.54
418.893	272.94
419.353	242.54
419.814	195.94
420.274	180.44
420.734	171.74
421.195	194.54
421.655	186.74
422.115	184.04
422.576	181.04
423.036	189.94
423.496	197.04
423.956	205.34
424.416	216.54
424.876	247.74
425.336	244.24
425.797	247.94
426.257	244.24
426.717	232.14
427.177	224.54
427.637	212.84
428.097	223.24
428.556	232.44
429.016	256.54
429.476	247.34
429.936	261.34
430.396	260.94
430.856	275.24
431.315	300.94
431.775	330.94
432.235	355.64
432.694	329.54
433.154	347.34
433.614	364.94
434.073	321.74
434.533	264.34
434.993	256.64
435.452	270.54
435.912	275.84
436.371	272.04
436.83	265.14
437.29	258.64
437.749	222.44
438.209	227.54
438.668	254.84
439.127	269.04
439.587	254.54
440.046	236.74
440.505	243.44
440.964	260.04
441.424	307.24
441.883	291.64
442.342	241.04
442.801	216.04
443.26	205.94
443.719	206.94
444.178	203.74
444.637	202.44
445.096	212.74
445.555	213.24
446.014	207.74
446.473	216.84
446.932	217.44
447.391	212.34
447.849	216.74
448.308	208.44
448.767	207.04
449.226	221.84
449.685	221.44
450.143	236.14
450.602	223.34
451.061	218.34
451.519	217.24
451.978	222.74
452.436	224.34
452.895	227.64
453.353	237.54
453.812	227.64
454.27	224.94
454.729	227.84
455.187	229.74
455.646	235.64
456.104	231.74
456.562	238.64
457.021	252.64
457.479	247.34
457.937	252.44
458.395	246.24
458.854	231.14
459.312	243.74
459.77	252.14
460.228	245.34
460.686	240.04
461.144	235.54
461.602	233.74
462.06	231.04
462.518	241.94
462.976	241.94
463.434	247.64
463.892	252.64
464.35	261.14
464.808	276.14
465.266	254.14
465.724	259.54
466.181	260.74
466.639	255.14
467.097	274.04
467.555	283.24
468.012	286.94
468.47	289.54
468.928	312.64
469.385	329.94
469.843	325.74
470.3	328.44
470.758	343.64
471.215	357.64
471.673	385.74
472.13	385.54
472.588	386.34
473.045	358.34
473.503	356.44
473.96	367.04
474.417	382.34
474.875	408.44
475.332	455.14
475.789	436.74
476.246	442.04
476.704	458.14
477.161	476.24
477.618	495.74
478.075	515.54
478.532	579.44
478.989	653.34
479.446	759.34
479.903	723.04
480.36	776.44
480.817	818.54
481.274	930.24
481.731	1013.64
482.188	1107.44
482.645	1233.84
483.102	1337.64
483.558	1464.94
484.015	1519.04
484.472	1514.04
484.929	1444.24
485.385	1405.44
485.842	1363.24
486.299	1303.94
486.755	1232.84
487.212	1032.44
487.668	875.64
488.125	815.94
488.582	744.34
489.038	717.04
489.494	676.74
489.951	649.34
490.407	640.74
490.864	612.34
491.32	615.74
491.776	607.74
492.233	615.54
492.689	579.14
493.145	566.04
493.602	573.14
494.058	579.24
494.514	582.64
494.97	600.64
495.426	607.24
495.882	592.84
496.338	578.84
496.794	591.54
497.251	597.44
497.707	600.44
498.163	610.74
498.618	614.34
499.074	606.74
499.53	644.74
499.986	641.94
500.442	622.84
500.898	608.54
501.354	585.24
501.809	608.34
502.265	606.14
502.721	621.44
503.177	639.94
503.632	626.24
504.088	639.14
504.543	665.24
504.999	672.44
505.455	622.54
505.91	605.44
506.366	598.24
506.821	601.64
507.277	590.34
507.732	603.04
508.187	599.64
508.643	600.34
509.098	597.74
509.553	609.54
510.009	642.04
510.464	636.34
510.919	651.44
511.375	657.24
511.83	669.94
512.285	679.34
512.74	721.24
513.195	747.84
513.65	725.84
514.105	725.14
514.56	724.44
515.015	752.04
515.47	766.04
515.925	750.64
516.38	756.54
516.835	753.24
517.29	752.24
517.745	737.44
518.2	721.54
518.655	702.44
519.109	708.34
519.564	711.04
520.019	704.14
520.474	690.14
520.928	696.94
521.383	688.84
521.838	671.64
522.292	666.54
522.747	661.74
523.201	658.54
523.656	654.94
524.11	645.64
524.565	646.24
525.019	651.14
525.474	665.34
525.928	663.04
526.382	652.54
526.837	662.24
527.291	662.94
527.745	657.54
528.2	662.94
528.654	647.34
529.108	652.44
529.562	648.24
530.016	648.84
530.47	663.54
530.925	640.34
531.379	663.94
531.833	659.84
532.287	667.54
532.741	666.44
533.195	674.44
533.649	671.64
534.103	686.14
534.556	674.84
535.01	672.34
535.464	665.14
535.918	680.24
536.372	683.04
536.826	671.94
537.279	665.04
537.733	658.24
538.187	672.04
538.64	678.64
539.094	690.44
539.548	687.64
540.001	666.74
540.455	679.44
540.908	688.04
541.362	693.94
541.815	692.24
542.269	703.94
542.722	711.14
543.175	723.14
543.629	727.24
544.082	732.04
544.536	735.84
544.989	735.74
545.442	733.74
545.895	738.04
546.349	740.74
546.802	741.94
547.255	740.94
547.708	756.44
548.161	759.94
548.614	761.14
549.067	772.54
549.52	761.74
549.973	760.64
550.426	753.84
550.879	741.84
551.332	730.04
551.785	746.44
552.238	750.14
552.691	760.74
553.144	766.94
553.596	784.34
554.049	801.84
554.502	827.14
554.955	853.14
555.407	841.64
555.86	819.84
556.313	835.04
556.765	810.14
557.218	811.74
557.67	823.64
558.123	823.14
558.576	816.54
559.028	815.94
559.48	814.84
559.933	808.44
560.385	776.64
560.838	748.54
561.29	732.24
561.742	719.84
562.195	701.54
562.647	715.64
563.099	722.84
563.551	712.94
564.004	718.64
564.456	710.64
564.908	697.84
565.36	688.34
565.812	688.74
566.264	680.24
566.716	674.34
567.168	659.34
567.62	667.94
568.072	652.64
568.524	632.14
568.976	637.64
569.428	612.94
569.88	611.64
570.332	624.74
570.784	629.24
571.235	634.74
571.687	645.84
572.139	641.74
572.59	659.54
573.042	652.14
573.494	655.54
573.945	644.24
574.397	633.54
574.849	633.04
575.3	639.94
575.752	626.04
576.203	631.44
576.655	622.54
577.106	619.64
577.557	603.84
578.009	604.74
578.46	623.74
578.912	609.44
579.363	610.34
579.814	614.44
580.265	606.94
580.717	600.44
581.168	614.74
581.619	614.74
582.07	627.34
582.521	619.94
582.972	615.34
583.423	620.94
583.875	619.34
584.326	640.94
584.777	681.44
585.227	741.34
585.678	824.94
586.129	907.94
586.58	977.54
587.031	1054.94
587.482	1204.14
587.933	1355.84
588.384	1199.44
588.834	881.44
589.285	735.24
589.736	708.74
590.186	701.64
590.637	696.24
591.088	667.34
591.538	672.94
591.989	669.34
592.439	660.04
592.89	654.34
593.34	641.54
593.791	644.54
594.241	632.74
594.692	636.74
595.142	632.54
595.593	625.14
596.043	639.84
596.493	655.54
596.943	645.74
597.394	646.44
597.844	645.34
598.294	665.04
598.744	670.04
599.195	698.34
599.645	736.24
600.095	766.94
600.545	817.04
600.995	867.94
601.445	922.74
601.895	976.34
602.345	1031.24
602.795	1000.64
603.245	964.74
603.695	909.14
604.145	862.74
604.594	827.34
605.044	778.04
605.494	725.64
605.944	677.84
606.393	663.54
606.843	651.14
607.293	655.54
607.743	652.14
608.192	662.04
608.642	674.04
609.091	693.64
609.541	681.64
609.99	692.54
610.44	687.14
610.889	643.14
611.339	621.24
611.788	613.54
612.238	626.24
612.687	649.14
613.136	642.94
613.586	666.54
614.035	658.94
614.484	677.24
614.933	677.24
615.383	671.64
615.832	660.44
616.281	644.34
616.73	607.04
617.179	594.34
617.628	586.84
618.077	564.94
618.526	549.14
618.975	550.44
619.424	549.94
619.873	541.24
620.322	543.04
620.771	537.84
621.22	548.54
621.669	531.14
622.118	522.54
622.567	509.74
623.015	504.44
623.464	498.74
623.913	485.34
624.361	488.94
624.81	496.44
625.259	498.74
625.707	493.14
626.156	491.84
626.604	508.34
627.053	490.84
627.501	492.94
627.95	497.34
628.398	509.64
628.847	505.04
629.295	500.94
629.744	505.14
630.192	504.84
630.64	505.04
631.089	493.14
631.537	507.44
631.985	513.24
632.433	520.44
632.881	521.34
633.33	581.74
633.778	560.84
634.226	501.24
634.674	503.54
635.122	514.84
635.57	524.64
636.018	541.14
636.466	511.54
636.914	490.34
637.362	507.04
637.81	505.74
638.258	511.44
638.705	516.84
639.153	523.24
639.601	546.14
640.049	562.64
640.497	598.24
640.944	612.44
641.392	557.14
641.84	537.54
642.287	514.54
642.735	499.94
643.182	506.74
643.63	511.54
644.078	501.74
644.525	523.84
644.973	532.14
645.42	531.34
645.867	535.54
646.315	561.24
646.762	578.34
647.21	598.54
647.657	624.64
648.104	658.34
648.551	679.74
648.999	726.04
649.446	802.24
649.893	869.94
650.34	1000.74
650.787	1203.64
651.234	1481.44
651.682	1939.24
652.129	2645.54
652.576	3781.94
653.023	5644.24
653.47	7760.34
653.917	9816.54
654.363	11460.74
654.81	12867.04
655.257	12190.94
655.704	7913.34
656.151	4648.34
656.598	3009.54
657.044	2127.44
657.491	1640.44
657.938	1306.34
658.385	1090.24
658.831	950.64
659.278	846.44
659.724	749.64
660.171	696.74
660.618	630.14
661.064	595.04
661.511	573.14
661.957	562.44
662.404	553.74
662.85	563.04
663.296	548.24
663.743	497.04
664.189	470.74
664.635	465.64
665.082	459.64
665.528	465.44
665.974	443.44
666.42	441.14
666.867	443.04
667.313	432.24
667.759	424.54
668.205	411.54
668.651	420.34
669.097	420.54
669.543	437.64
669.989	411.84
670.435	385.34
670.881	387.14
671.327	395.64
671.773	404.34
672.219	424.94
672.665	474.64
673.11	499.44
673.556	537.04
674.002	583.44
674.448	575.34
674.893	476.14
675.339	419.14
675.785	377.14
676.23	359.94
676.676	337.44
677.122	324.94
677.567	321.24
678.013	316.44
678.458	313.74
678.904	310.64
679.349	297.24
679.794	306.14
680.24	300.74
680.685	297.34
681.131	292.04
681.576	291.64
682.021	301.44
682.466	303.24
682.912	298.54
683.357	299.84
683.802	324.74
684.247	357.34
684.692	386.84
685.137	426.64
685.583	461.84
686.028	485.94
686.473	447.34
686.918	385.54
687.363	353.54
687.807	335.54
688.252	309.74
688.697	304.94
689.142	287.54
689.587	296.64
690.032	281.74
690.477	293.94
690.921	295.04
691.366	321.44
691.811	339.64
692.255	371.44
692.7	397.04
693.145	427.74
693.589	582.44
694.034	938.84
694.478	1315.44
694.923	1517.94
695.367	2006.64
695.812	1042.04
696.256	434.74
696.701	322.84
697.145	295.44
697.59	286.44
698.034	280.94
698.478	283.04
698.922	279.14
699.367	277.34
699.811	295.24
700.255	303.14
700.699	329.54
701.143	364.34
701.588	406.64
702.032	437.04
702.476	441.74
702.92	419.74
703.364	416.04
703.808	535.24
704.252	869.14
704.696	1235.74
705.14	1454.04
705.584	1877.54
706.027	921.74
706.471	444.54
706.915	332.74
707.359	298.94
707.803	274.94
708.246	259.74
708.69	273.64
709.134	271.24
709.577	270.84
710.021	266.04
710.465	257.24
710.908	247.14
711.352	257.84
711.795	263.64
712.239	301.94
712.682	322.44
713.126	357.24
713.569	398.04
714.012	320.64
714.456	278.44
714.899	257.24
715.342	239.94
715.786	221.14
716.229	224.34
716.672	223.14
717.115	212.84
717.558	213.24
718.002	218.14
718.445	224.64
718.888	242.04
719.331	249.44
719.774	260.14
720.217	265.94
720.66	242.44
721.103	233.74
721.546	219.64
721.989	203.64
722.432	196.74
722.874	197.54
723.317	195.04
723.76	198.34
724.203	215.34
724.645	262.04
725.088	376.24
725.531	486.04
725.974	552.54
726.416	479.44
726.859	266.44
727.301	208.04
727.744	199.94
728.187	198.14
728.629	198.74
729.071	206.04
729.514	221.04
729.956	226.04
730.399	243.34
730.841	250.04
731.283	231.54
731.726	223.34
732.168	222.24
732.61	224.14
733.053	242.24
733.495	259.34
733.937	299.44
734.379	347.24
734.821	366.44
735.263	458.04
735.705	687.94
736.148	1309.74
736.59	2193.34
737.032	2687.04
737.474	2166.04
737.916	694.24
738.357	368.54
738.799	283.44
739.241	253.34
739.683	237.84
740.125	250.04
740.567	250.94
741.008	271.84
741.45	271.94
741.892	273.64
742.334	295.54
742.775	308.44
743.217	292.54
743.658	235.14
744.1	217.44
744.542	213.74
744.983	265.04
745.425	302.64
745.866	290.84
746.307	245.14
746.749	240.64
747.19	274.34
747.632	376.34
748.073	711.74
748.514	1540.44
748.956	2443.54
749.397	3067.74
749.838	2537.14
750.279	2604.24
750.72	1298.44
751.162	478.44
751.603	275.94
752.044	217.14
752.485	180.04
752.926	178.94
753.367	170.44
753.808	161.74
754.249	163.74
754.69	154.64
755.131	155.64
755.572	157.74
756.013	153.84
756.453	150.14
756.894	156.64
757.335	156.64
757.776	165.34
758.216	167.44
758.657	165.24
759.098	171.94
759.538	190.44
759.979	222.04
760.42	304.64
760.86	574.64
761.301	1482.84
761.741	3726.14
762.182	5677.44
762.622	3992.34
