Data from 20171114-ORNL-Ar_H_NY_Subt18_08-09-17-955.txt Node
Date: Tue Nov 14 08:09:17 EST 2017
User: Ender
Spectrometer: HR+D1039
Trigger mode: 0
Integration Time (sec): 2.730000E-2
Scans to average: 10
Electric dark correction enabled: true
Nonlinearity correction enabled: false
Boxcar width: 0
XAxis mode: Wavelengths
Number of Pixels in Spectrum: 2048
>>>>>Begin Spectral Data<<<<<
187.836	-6.84
188.309	-6.84
188.782	-6.84
189.255	2.86
189.728	6.76
190.201	6.66
190.674	0.76
191.147	2.56
191.619	-9.64
192.092	0.96
192.565	7.16
193.038	-0.04
193.511	-0.54
193.984	-0.34
194.456	-1.04
194.929	-5.04
195.402	-1.04
195.874	-3.24
196.347	2.66
196.82	-0.14
197.292	8.46
197.765	2.56
198.237	-10.04
198.71	2.46
199.182	-2.24
199.655	1.46
200.127	0.76
200.6	-2.54
201.072	-6.54
201.544	-4.34
202.017	-3.04
202.489	0.66
202.961	0.26
203.433	-2.34
203.906	-3.14
204.378	-6.14
204.85	0.16
205.322	-10.24
205.794	-0.14
206.266	-7.54
206.739	-11.34
207.211	-2.94
207.683	-0.74
208.155	-7.04
208.627	-12.24
209.099	-10.04
209.57	-9.44
210.042	-5.64
210.514	-6.84
210.986	-2.74
211.458	-6.74
211.93	-4.24
212.402	3.96
212.873	-8.04
213.345	-9.64
213.817	-9.44
214.288	-8.84
214.76	-9.74
215.232	-2.94
215.703	0.46
216.175	-4.64
216.646	-2.84
217.118	-6.84
217.589	-3.84
218.061	2.26
218.532	-8.94
219.004	-6.74
219.475	-5.34
219.946	-12.64
220.418	-9.74
220.889	1.66
221.36	-1.24
221.832	-2.74
222.303	-6.54
222.774	6.16
223.245	-8.94
223.717	-5.94
224.188	-4.74
224.659	-8.94
225.13	-9.24
225.601	-1.24
226.072	-6.44
226.543	-3.64
227.014	-5.04
227.485	-1.94
227.956	-8.44
228.427	-6.54
228.898	-1.04
229.369	3.76
229.839	-3.14
230.31	-6.94
230.781	2.66
231.252	-4.24
231.722	-8.04
232.193	-7.74
232.664	1.86
233.135	-0.64
233.605	-4.24
234.076	-10.84
234.546	2.76
235.017	-3.94
235.487	-1.84
235.958	-3.54
236.428	-10.74
236.899	-2.84
237.369	-3.54
237.84	-5.84
238.31	1.56
238.78	-3.74
239.251	-7.54
239.721	-2.84
240.191	-7.84
240.662	-6.94
241.132	-8.64
241.602	-7.84
242.072	-3.24
242.542	5.16
243.013	-6.14
243.483	4.06
243.953	-1.54
244.423	-3.84
244.893	-3.54
245.363	-0.54
245.833	-2.54
246.303	-3.94
246.773	4.36
247.243	-4.64
247.712	-1.74
248.182	0.66
248.652	3.46
249.122	-12.04
249.592	0.46
250.061	2.66
250.531	7.76
251.001	0.96
251.471	2.56
251.94	4.26
252.41	0.16
252.879	-9.14
253.349	2.06
253.818	4.56
254.288	1.36
254.757	-2.34
255.227	-9.44
255.696	-2.84
256.166	1.86
256.635	0.16
257.105	1.36
257.574	-2.24
258.043	-2.34
258.513	-3.24
258.982	-0.04
259.451	-8.84
259.92	0.26
260.389	4.06
260.859	10.16
261.328	-4.74
261.797	-1.44
262.266	-3.34
262.735	5.46
263.204	-2.94
263.673	-0.74
264.142	-0.74
264.611	-10.54
265.08	-7.84
265.549	-1.14
266.018	2.06
266.487	-6.64
266.955	-8.44
267.424	-4.24
267.893	1.16
268.362	-6.04
268.83	-1.34
269.299	0.26
269.768	0.86
270.236	7.56
270.705	2.76
271.174	-0.54
271.642	-2.04
272.111	-4.94
272.579	1.36
273.048	-4.14
273.516	-0.34
273.985	0.86
274.453	1.16
274.922	3.16
275.39	0.86
275.858	-2.64
276.327	6.76
276.795	10.66
277.263	1.96
277.731	7.26
278.2	6.66
278.668	-3.14
279.136	2.36
279.604	-2.84
280.072	8.46
280.54	2.56
281.008	-0.54
281.477	2.86
281.945	3.86
282.413	8.26
282.881	8.16
283.348	-1.04
283.816	6.16
284.284	-0.24
284.752	12.66
285.22	4.86
285.688	10.86
286.156	6.96
286.623	9.76
287.091	-2.34
287.559	3.06
288.026	6.76
288.494	4.66
288.962	2.26
289.429	5.26
289.897	8.46
290.364	9.36
290.832	8.56
291.3	4.56
291.767	6.16
292.234	6.46
292.702	4.46
293.169	7.66
293.637	18.26
294.104	11.66
294.571	2.06
295.039	6.46
295.506	-0.14
295.973	12.26
296.44	9.46
296.908	5.56
297.375	8.86
297.842	6.26
298.309	4.26
298.776	9.96
299.243	15.46
299.71	7.26
300.177	10.26
300.644	9.76
301.111	9.16
301.578	13.66
302.045	11.86
302.512	9.76
302.979	17.26
303.446	8.66
303.913	8.16
304.379	10.56
304.846	17.16
305.313	12.96
305.78	13.36
306.246	13.76
306.713	13.66
307.18	14.76
307.646	13.06
308.113	14.66
308.579	12.76
309.046	11.56
309.512	21.56
309.979	7.76
310.445	21.86
310.912	19.96
311.378	20.56
311.845	16.96
312.311	19.46
312.777	20.06
313.244	23.86
313.71	30.56
314.176	18.66
314.642	16.26
315.109	19.36
315.575	19.26
316.041	27.96
316.507	8.76
316.973	25.76
317.439	23.16
317.905	23.66
318.371	24.56
318.837	25.16
319.303	22.46
319.769	17.86
320.235	20.76
320.701	26.16
321.167	22.66
321.633	25.56
322.099	24.36
322.564	33.56
323.03	28.26
323.496	24.76
323.962	28.76
324.427	27.46
324.893	29.16
325.359	27.86
325.824	27.16
326.29	23.16
326.755	30.86
327.221	27.76
327.686	24.06
328.152	37.76
328.617	27.66
329.083	34.56
329.548	35.36
330.014	35.66
330.479	28.06
330.944	31.96
331.41	29.66
331.875	34.26
332.34	31.66
332.805	33.46
333.271	29.86
333.736	27.96
334.201	34.86
334.666	39.66
335.131	46.16
335.596	35.66
336.061	35.76
336.526	28.66
336.991	35.96
337.456	37.06
337.921	38.26
338.386	34.16
338.851	35.76
339.316	39.16
339.781	37.36
340.246	42.36
340.711	34.06
341.175	39.16
341.64	30.36
342.105	42.36
342.569	38.16
343.034	45.06
343.499	41.76
343.963	40.16
344.428	53.56
344.893	45.86
345.357	45.16
345.822	47.36
346.286	49.46
346.751	53.06
347.215	56.46
347.679	52.16
348.144	66.06
348.608	61.26
349.073	49.26
349.537	60.76
350.001	55.16
350.465	60.86
350.93	54.36
351.394	59.56
351.858	53.76
352.322	70.56
352.786	59.36
353.25	73.36
353.715	82.46
354.179	74.06
354.643	89.66
355.107	90.16
355.571	76.16
356.035	74.56
356.498	84.76
356.962	89.46
357.426	95.56
357.89	86.76
358.354	61.96
358.818	68.36
359.281	61.16
359.745	57.56
360.209	63.36
360.673	63.76
361.136	61.06
361.6	61.66
362.064	65.56
362.527	67.06
362.991	72.96
363.454	62.56
363.918	60.16
364.381	64.26
364.845	63.56
365.308	75.16
365.772	76.86
366.235	69.26
366.698	67.46
367.162	75.36
367.625	71.16
368.088	73.36
368.552	77.76
369.015	68.46
369.478	81.36
369.941	83.36
370.404	78.46
370.867	82.16
371.331	88.16
371.794	91.16
372.257	70.96
372.72	81.96
373.183	86.86
373.646	73.96
374.109	80.76
374.572	84.06
375.035	83.96
375.497	79.26
375.96	85.16
376.423	90.86
376.886	92.66
377.349	88.66
377.811	82.66
378.274	84.06
378.737	84.76
379.199	88.46
379.662	94.46
380.125	99.06
380.587	91.06
381.05	84.16
381.512	96.36
381.975	107.26
382.437	100.06
382.9	101.66
383.362	105.06
383.825	107.46
384.287	110.26
384.75	98.76
385.212	108.36
385.674	118.26
386.136	111.76
386.599	100.76
387.061	113.96
387.523	107.96
387.985	105.36
388.447	111.86
388.91	109.96
389.372	115.96
389.834	112.26
390.296	111.46
390.758	106.36
391.22	115.36
391.682	122.56
392.144	133.06
392.606	123.16
393.068	128.86
393.529	133.06
393.991	119.16
394.453	114.16
394.915	114.86
395.377	122.36
395.838	123.06
396.3	116.06
396.762	130.16
397.224	124.76
397.685	118.66
398.147	117.56
398.608	116.56
399.07	114.96
399.531	119.26
399.993	128.76
400.454	140.36
400.916	126.26
401.377	123.26
401.839	136.56
402.3	137.76
402.762	148.56
403.223	159.46
403.684	155.76
404.145	143.26
404.607	145.26
405.068	150.46
405.529	157.16
405.99	156.06
406.451	154.06
406.913	160.66
407.374	141.76
407.835	153.26
408.296	151.06
408.757	158.06
409.218	169.46
409.679	160.56
410.14	156.66
410.601	161.26
411.062	158.26
411.522	158.76
411.983	169.96
412.444	160.86
412.905	165.66
413.366	172.36
413.826	186.36
414.287	200.86
414.748	253.26
415.208	232.76
415.669	200.46
416.13	196.96
416.59	191.26
417.051	208.16
417.511	201.16
417.972	230.26
418.432	237.26
418.893	287.26
419.353	234.76
419.814	193.06
420.274	170.56
420.734	166.96
421.195	189.66
421.655	175.66
422.115	180.46
422.576	185.76
423.036	184.06
423.496	203.86
423.956	208.46
424.416	218.16
424.876	252.96
425.336	245.16
425.797	238.06
426.257	244.56
426.717	226.06
427.177	221.66
427.637	209.26
428.097	213.96
428.556	220.46
429.016	252.26
429.476	249.36
429.936	256.66
430.396	263.56
430.856	270.66
431.315	293.06
431.775	327.46
432.235	357.76
432.694	323.96
433.154	336.26
433.614	361.66
434.073	309.36
434.533	257.96
434.993	254.56
435.452	272.16
435.912	273.76
436.371	268.16
436.83	261.36
437.29	251.26
437.749	236.26
438.209	237.16
438.668	260.46
439.127	265.96
439.587	248.06
440.046	238.36
440.505	247.16
440.964	265.36
441.424	300.56
441.883	292.06
442.342	247.56
442.801	214.76
443.26	222.66
443.719	216.46
444.178	215.06
444.637	203.96
445.096	215.66
445.555	218.26
446.014	213.86
446.473	222.56
446.932	223.36
447.391	223.86
447.849	225.96
448.308	216.96
448.767	220.36
449.226	233.66
449.685	231.96
450.143	250.26
450.602	242.36
451.061	227.26
451.519	232.06
451.978	233.46
452.436	232.06
452.895	232.76
453.353	243.36
453.812	231.86
454.27	230.66
454.729	239.36
455.187	240.06
455.646	237.66
456.104	244.36
456.562	253.96
457.021	258.86
457.479	260.26
457.937	261.26
458.395	266.76
458.854	249.56
459.312	247.96
459.77	262.46
460.228	256.56
460.686	247.46
461.144	255.36
461.602	242.16
462.06	246.76
462.518	250.96
462.976	251.36
463.434	253.96
463.892	260.56
464.35	276.06
464.808	283.96
465.266	263.86
465.724	263.86
466.181	275.66
466.639	270.36
467.097	288.76
467.555	296.76
468.012	301.06
468.47	305.86
468.928	327.46
469.385	335.16
469.843	341.66
470.3	342.16
470.758	359.76
471.215	373.16
471.673	404.56
472.13	392.36
472.588	412.06
473.045	367.36
473.503	368.26
473.96	389.66
474.417	405.86
474.875	431.46
475.332	459.96
475.789	450.86
476.246	456.16
476.704	474.26
477.161	483.56
477.618	518.16
478.075	539.06
478.532	590.96
478.989	663.66
479.446	760.76
479.903	730.36
480.36	760.86
480.817	815.56
481.274	897.36
481.731	997.96
482.188	1053.66
482.645	1172.96
483.102	1251.86
483.558	1364.96
484.015	1406.06
484.472	1392.66
484.929	1335.06
485.385	1312.86
485.842	1275.56
486.299	1223.96
486.755	1188.46
487.212	1026.16
487.668	868.56
488.125	804.06
488.582	740.36
489.038	714.26
489.494	680.16
489.951	666.86
490.407	655.56
490.864	630.46
491.32	631.76
491.776	628.46
492.233	638.96
492.689	608.66
493.145	599.26
493.602	586.46
494.058	615.46
494.514	611.76
494.97	619.56
495.426	636.86
495.882	609.56
496.338	595.66
496.794	612.16
497.251	608.46
497.707	621.66
498.163	623.76
498.618	633.06
499.074	636.06
499.53	662.46
499.986	660.86
500.442	634.26
500.898	611.96
501.354	602.96
501.809	619.56
502.265	616.66
502.721	623.26
503.177	636.16
503.632	637.86
504.088	638.16
504.543	661.96
504.999	675.76
505.455	647.46
505.91	636.36
506.366	633.56
506.821	630.76
507.277	626.06
507.732	634.66
508.187	629.76
508.643	645.36
509.098	639.26
509.553	658.06
510.009	675.76
510.464	670.86
510.919	701.56
511.375	701.46
511.83	718.46
512.285	721.26
512.74	756.76
513.195	784.76
513.65	772.06
514.105	764.06
514.56	775.06
515.015	787.26
515.47	804.96
515.925	777.46
516.38	790.06
516.835	787.96
517.29	776.36
517.745	778.96
518.2	768.26
518.655	747.76
519.109	746.36
519.564	746.46
520.019	738.26
520.474	725.86
520.928	729.06
521.383	723.16
521.838	722.26
522.292	707.06
522.747	713.56
523.201	707.26
523.656	707.96
524.11	694.06
524.565	697.16
525.019	688.96
525.474	698.66
525.928	704.06
526.382	699.66
526.837	707.36
527.291	712.26
527.745	703.06
528.2	701.96
528.654	694.36
529.108	700.86
529.562	700.86
530.016	693.06
530.47	692.56
530.925	699.56
531.379	695.46
531.833	691.76
532.287	700.86
532.741	694.26
533.195	698.66
533.649	711.56
534.103	720.96
534.556	707.66
535.01	716.26
535.464	699.76
535.918	713.76
536.372	721.96
536.826	724.06
537.279	709.56
537.733	719.56
538.187	720.36
538.64	715.16
539.094	724.06
539.548	729.46
540.001	730.86
540.455	734.66
540.908	742.56
541.362	748.56
541.815	751.26
542.269	765.36
542.722	770.36
543.175	776.36
543.629	787.86
544.082	791.86
544.536	795.56
544.989	801.86
545.442	806.16
545.895	800.06
546.349	804.76
546.802	810.06
547.255	813.46
547.708	815.46
548.161	837.46
548.614	841.46
549.067	844.26
549.52	823.46
549.973	832.06
550.426	816.66
550.879	810.86
551.332	818.26
551.785	825.16
552.238	825.96
552.691	833.96
553.144	849.96
553.596	856.36
554.049	881.76
554.502	908.46
554.955	916.36
555.407	910.06
555.86	916.86
556.313	905.46
556.765	896.96
557.218	904.76
557.67	899.96
558.123	896.76
558.576	884.66
559.028	877.46
559.48	893.76
559.933	898.06
560.385	850.46
560.838	828.36
561.29	801.96
561.742	803.86
562.195	779.16
562.647	780.86
563.099	790.06
563.551	784.46
564.004	792.46
564.456	786.66
564.908	773.96
565.36	742.96
565.812	735.76
566.264	729.26
566.716	741.16
567.168	717.66
567.62	722.36
568.072	707.66
568.524	708.76
568.976	702.36
569.428	693.86
569.88	688.26
570.332	705.36
570.784	701.66
571.235	710.96
571.687	717.76
572.139	719.66
572.59	732.96
573.042	730.36
573.494	731.96
573.945	721.76
574.397	697.06
574.849	708.06
575.3	705.76
575.752	696.56
576.203	694.06
576.655	700.36
577.106	698.56
577.557	677.36
578.009	687.46
578.46	674.06
578.912	678.36
579.363	687.56
579.814	685.96
580.265	677.46
580.717	678.26
581.168	693.66
581.619	693.66
582.07	698.16
582.521	689.06
582.972	685.96
583.423	690.26
583.875	691.46
584.326	694.96
584.777	707.86
585.227	725.76
585.678	744.56
586.129	752.26
586.58	781.06
587.031	794.46
587.482	810.76
587.933	829.36
588.384	813.46
588.834	792.56
589.285	777.36
589.736	788.06
590.186	781.76
590.637	787.16
591.088	764.26
591.538	759.06
591.989	744.26
592.439	744.46
592.89	737.26
593.34	732.56
593.791	725.86
594.241	712.46
594.692	711.46
595.142	707.16
595.593	699.06
596.043	719.66
596.493	719.06
596.943	718.66
597.394	733.06
597.844	736.16
598.294	754.66
598.744	783.56
599.195	800.36
599.645	844.26
600.095	887.66
600.545	945.86
600.995	1003.76
601.445	1050.06
601.895	1119.66
602.345	1157.26
602.795	1147.76
603.245	1109.86
603.695	1039.66
604.145	998.36
604.594	938.56
605.044	894.96
605.494	820.96
605.944	772.66
606.393	761.36
606.843	744.76
607.293	759.86
607.743	743.06
608.192	766.06
608.642	763.76
609.091	781.06
609.541	787.36
609.99	772.16
610.44	777.76
610.889	732.46
611.339	704.86
611.788	697.96
612.238	710.36
612.687	726.56
613.136	715.56
613.586	729.36
614.035	717.56
614.484	718.86
614.933	720.66
615.383	732.46
615.832	729.96
616.281	718.46
616.73	682.06
617.179	669.66
617.628	654.66
618.077	644.96
618.526	626.26
618.975	637.56
619.424	628.96
619.873	629.16
620.322	635.06
620.771	618.06
621.22	620.76
621.669	606.86
622.118	620.96
622.567	592.86
623.015	575.56
623.464	578.76
623.913	569.46
624.361	567.46
624.81	560.26
625.259	568.36
625.707	568.06
626.156	568.46
626.604	585.86
627.053	578.86
627.501	576.66
627.95	587.96
628.398	599.06
628.847	594.86
629.295	574.46
629.744	588.16
630.192	588.96
630.64	569.96
631.089	560.76
631.537	553.56
631.985	535.36
632.433	546.76
632.881	539.46
633.33	547.86
633.778	528.16
634.226	538.06
634.674	558.06
635.122	552.96
635.57	575.16
636.018	582.26
636.466	587.16
636.914	567.96
637.362	594.46
637.81	598.06
638.258	606.06
638.705	594.16
639.153	632.86
639.601	630.96
640.049	668.06
640.497	690.56
640.944	710.16
641.392	674.26
641.84	641.66
642.287	603.36
642.735	581.76
643.182	578.56
643.63	578.66
644.078	583.96
644.525	589.36
644.973	599.26
645.42	611.56
645.867	625.96
646.315	653.46
646.762	669.26
647.21	697.26
647.657	709.46
648.104	754.66
648.551	770.76
648.999	828.96
649.446	904.86
649.893	982.36
650.34	1121.46
650.787	1364.96
651.234	1657.96
651.682	2152.26
652.129	2938.76
652.576	4180.36
653.023	6071.26
653.47	8153.36
653.917	10041.76
654.363	11507.36
654.81	12583.96
655.257	11934.26
655.704	7913.66
656.151	4778.26
656.598	3128.26
657.044	2248.16
657.491	1764.66
657.938	1419.56
658.385	1206.96
658.831	1055.56
659.278	941.66
659.724	835.16
660.171	782.16
660.618	725.46
661.064	699.96
661.511	673.16
661.957	660.66
662.404	649.96
662.85	653.66
663.296	633.16
663.743	570.16
664.189	549.86
664.635	539.06
665.082	544.16
665.528	544.56
665.974	530.76
666.42	519.46
666.867	512.16
667.313	498.66
667.759	483.76
668.205	468.46
668.651	467.96
669.097	458.56
669.543	454.96
669.989	451.26
670.435	464.36
670.881	458.56
671.327	469.56
671.773	488.56
672.219	517.86
672.665	562.16
673.11	604.46
673.556	646.06
674.002	694.86
674.448	692.46
674.893	579.66
675.339	492.16
675.785	458.16
676.23	437.56
676.676	414.46
677.122	396.06
677.567	383.66
678.013	377.06
678.458	375.86
678.904	374.96
679.349	367.26
679.794	383.66
680.24	367.66
680.685	375.56
681.131	359.76
681.576	365.86
682.021	373.16
682.466	362.96
682.912	361.56
683.357	372.86
683.802	399.66
684.247	431.96
684.692	480.06
685.137	523.96
685.583	560.16
686.028	577.66
686.473	543.56
686.918	464.86
687.363	437.06
687.807	415.46
688.252	385.06
688.697	377.36
689.142	354.06
689.587	351.86
690.032	349.86
690.477	359.96
690.921	367.86
691.366	399.66
691.811	421.66
692.255	450.56
692.7	487.36
693.145	538.86
693.589	762.76
694.034	1222.96
694.478	1652.16
694.923	1825.06
695.367	2348.26
695.812	1267.26
696.256	527.96
696.701	382.96
697.145	359.86
697.59	347.66
698.034	329.36
698.478	342.46
698.922	343.86
699.367	333.76
699.811	345.06
700.255	377.46
700.699	396.66
701.143	453.16
701.588	508.26
702.032	533.96
702.476	537.26
702.92	511.06
703.364	527.26
703.808	697.16
704.252	1138.66
704.696	1581.26
705.14	1755.66
705.584	2226.26
706.027	1134.06
706.471	549.86
706.915	421.96
707.359	377.66
707.803	338.96
708.246	322.66
708.69	327.56
709.134	331.26
709.577	319.06
710.021	331.06
710.465	313.26
710.908	313.76
711.352	312.36
711.795	328.26
712.239	368.46
712.682	394.66
713.126	430.26
713.569	473.66
714.012	370.86
714.456	319.46
714.899	308.06
715.342	293.16
715.786	276.56
716.229	263.66
716.672	264.36
717.115	257.36
717.558	263.46
718.002	267.56
718.445	274.96
718.888	301.56
719.331	307.26
719.774	323.26
720.217	321.16
720.66	293.26
721.103	277.66
721.546	262.56
721.989	263.76
722.432	241.96
722.874	250.26
723.317	244.96
723.76	250.46
724.203	273.36
724.645	340.66
725.088	482.16
725.531	599.06
725.974	676.16
726.416	569.56
726.859	321.06
727.301	270.26
727.744	242.16
728.187	241.76
728.629	247.56
729.071	246.16
729.514	267.56
729.956	287.36
730.399	301.16
730.841	297.86
731.283	284.26
731.726	281.06
732.168	277.06
732.61	279.56
733.053	297.16
733.495	337.66
733.937	379.86
734.379	420.76
734.821	465.96
735.263	592.16
735.705	935.06
736.148	1765.66
736.59	2803.36
737.032	3202.46
737.474	2601.96
737.916	873.66
738.357	453.16
738.799	350.56
739.241	311.36
739.683	288.36
740.125	307.46
740.567	316.46
741.008	330.86
741.45	333.06
741.892	337.46
742.334	376.16
742.775	385.26
743.217	373.56
743.658	288.96
744.1	276.56
744.542	279.86
744.983	330.96
745.425	361.16
745.866	362.26
746.307	289.86
746.749	299.36
747.19	350.46
747.632	499.36
748.073	1001.96
748.514	2076.06
748.956	3057.06
749.397	3851.26
749.838	3189.36
750.279	3073.86
750.72	1580.46
751.162	590.16
751.603	343.16
752.044	275.06
752.485	222.76
752.926	217.16
753.367	217.86
753.808	202.26
754.249	194.86
754.69	196.66
755.131	193.36
755.572	187.46
756.013	194.66
756.453	196.76
756.894	189.66
757.335	197.66
757.776	201.56
758.216	205.66
758.657	209.36
759.098	219.96
759.538	243.36
759.979	292.46
760.42	421.56
760.86	803.06
761.301	2108.96
761.741	4896.56
762.182	6707.66
762.622	4752.86
763.063	1412.16
763.503	576.16
763.943	344.16
