Data from 20171114-ORNL-Ar_H_NY_Subt18_08-04-54-474.txt Node
Date: Tue Nov 14 08:04:54 EST 2017
User: Ender
Spectrometer: HR+D1039
Trigger mode: 0
Integration Time (sec): 2.730000E-2
Scans to average: 10
Electric dark correction enabled: true
Nonlinearity correction enabled: false
Boxcar width: 0
XAxis mode: Wavelengths
Number of Pixels in Spectrum: 2048
>>>>>Begin Spectral Data<<<<<
187.836	-5.77
188.309	-5.77
188.782	-5.77
189.255	2.83
189.728	2.03
190.201	7.13
190.674	1.23
191.147	1.23
191.619	-8.27
192.092	1.03
192.565	5.73
193.038	0.03
193.511	-2.77
193.984	2.43
194.456	-5.87
194.929	-0.77
195.402	-4.57
195.874	4.33
196.347	1.33
196.82	-3.47
197.292	7.23
197.765	1.43
198.237	-3.97
198.71	2.83
199.182	0.33
199.655	-0.07
200.127	1.63
200.6	-4.37
201.072	-4.17
201.544	-5.77
202.017	-1.07
202.489	4.13
202.961	-4.07
203.433	1.63
203.906	-10.57
204.378	-3.37
204.85	0.33
205.322	-10.77
205.794	-5.97
206.266	-6.07
206.739	-9.47
207.211	0.93
207.683	-8.77
208.155	-8.97
208.627	-7.77
209.099	-4.37
209.57	-6.17
210.042	-13.37
210.514	-5.37
210.986	-4.97
211.458	-11.47
211.93	-2.47
212.402	4.13
212.873	-1.87
213.345	-8.37
213.817	-12.07
214.288	-7.57
214.76	-11.17
215.232	-2.57
215.703	-3.37
216.175	2.93
216.646	-4.57
217.118	-3.97
217.589	-6.17
218.061	-5.07
218.532	-6.17
219.004	-4.87
219.475	-5.17
219.946	-1.97
220.418	1.83
220.889	3.63
221.36	-4.97
221.832	-8.27
222.303	-6.57
222.774	-3.67
223.245	-11.37
223.717	-8.37
224.188	-7.87
224.659	-7.57
225.13	-4.77
225.601	-2.57
226.072	-8.37
226.543	0.93
227.014	-2.07
227.485	-6.07
227.956	-8.17
228.427	-3.77
228.898	0.33
229.369	0.83
229.839	-1.57
230.31	-8.57
230.781	1.53
231.252	-0.57
231.722	1.23
232.193	-2.57
232.664	-2.37
233.135	-8.07
233.605	1.63
234.076	-2.27
234.546	-0.07
235.017	0.93
235.487	1.63
235.958	3.83
236.428	-2.87
236.899	3.63
237.369	2.63
237.84	0.53
238.31	6.73
238.78	-2.47
239.251	-4.67
239.721	1.33
240.191	-0.07
240.662	-4.87
241.132	-0.37
241.602	-4.27
242.072	-3.87
242.542	12.13
243.013	1.03
243.483	8.13
243.953	5.53
244.423	3.23
244.893	-2.87
245.363	4.33
245.833	6.23
246.303	-0.77
246.773	8.13
247.243	4.73
247.712	12.93
248.182	9.23
248.652	11.53
249.122	-2.87
249.592	12.43
250.061	26.53
250.531	31.83
251.001	13.53
251.471	21.93
251.94	16.33
252.41	9.73
252.879	3.73
253.349	13.43
253.818	8.13
254.288	2.03
254.757	3.13
255.227	0.03
255.696	-1.17
256.166	9.63
256.635	7.53
257.105	11.13
257.574	2.73
258.043	11.03
258.513	6.03
258.982	18.43
259.451	16.93
259.92	15.63
260.389	9.43
260.859	15.83
261.328	14.23
261.797	18.33
262.266	11.73
262.735	14.43
263.204	4.13
263.673	6.13
264.142	5.03
264.611	-1.97
265.08	-0.27
265.549	3.43
266.018	6.83
266.487	4.53
266.955	2.83
267.424	6.93
267.893	3.03
268.362	1.23
268.83	6.33
269.299	8.63
269.768	6.43
270.236	9.63
270.705	5.33
271.174	12.43
271.642	11.43
272.111	6.43
272.579	12.93
273.048	25.33
273.516	31.73
273.985	27.23
274.453	18.93
274.922	21.23
275.39	7.03
275.858	6.03
276.327	14.53
276.795	22.83
277.263	13.93
277.731	33.93
278.2	60.03
278.668	58.03
279.136	45.83
279.604	20.93
280.072	17.53
280.54	13.73
281.008	14.23
281.477	17.93
281.945	14.53
282.413	17.13
282.881	15.73
283.348	8.73
283.816	13.93
284.284	16.83
284.752	22.53
285.22	15.53
285.688	11.33
286.156	17.73
286.623	50.83
287.091	54.33
287.559	33.53
288.026	14.93
288.494	20.53
288.962	8.93
289.429	14.83
289.897	19.63
290.364	14.13
290.832	14.53
291.3	14.13
291.767	18.83
292.234	18.23
292.702	12.93
293.169	13.53
293.637	26.33
294.104	23.53
294.571	13.93
295.039	13.13
295.506	14.73
295.973	18.13
296.44	18.73
296.908	21.63
297.375	18.13
297.842	23.83
298.309	18.43
298.776	13.73
299.243	22.23
299.71	18.93
300.177	24.23
300.644	26.23
301.111	23.03
301.578	25.73
302.045	15.63
302.512	27.43
302.979	25.73
303.446	23.73
303.913	22.53
304.379	25.73
304.846	25.83
305.313	30.83
305.78	26.93
306.246	27.63
306.713	24.13
307.18	26.83
307.646	27.03
308.113	29.83
308.579	29.83
309.046	27.03
309.512	28.43
309.979	20.93
310.445	29.63
310.912	30.13
311.378	28.53
311.845	35.53
312.311	35.93
312.777	39.23
313.244	29.73
313.71	38.13
314.176	31.33
314.642	30.33
315.109	36.33
315.575	39.53
316.041	34.83
316.507	35.33
316.973	43.03
317.439	39.93
317.905	43.53
318.371	35.53
318.837	38.73
319.303	36.83
319.769	36.53
320.235	30.23
320.701	31.33
321.167	38.13
321.633	35.63
322.099	42.23
322.564	48.23
323.03	42.43
323.496	40.53
323.962	39.83
324.427	38.03
324.893	51.13
325.359	44.03
325.824	34.33
326.29	41.33
326.755	46.03
327.221	39.83
327.686	37.33
328.152	47.23
328.617	47.23
329.083	51.43
329.548	55.43
330.014	49.93
330.479	39.33
330.944	46.53
331.41	40.23
331.875	44.73
332.34	47.73
332.805	41.73
333.271	50.03
333.736	47.33
334.201	53.03
334.666	52.93
335.131	57.73
335.596	47.43
336.061	54.93
336.526	44.63
336.991	52.23
337.456	61.13
337.921	52.83
338.386	39.33
338.851	52.93
339.316	50.13
339.781	44.53
340.246	50.43
340.711	41.23
341.175	48.13
341.64	44.43
342.105	55.23
342.569	56.73
343.034	66.73
343.499	55.73
343.963	56.13
344.428	64.33
344.893	68.23
345.357	62.33
345.822	61.23
346.286	73.43
346.751	72.53
347.215	69.93
347.679	81.43
348.144	108.73
348.608	81.03
349.073	72.93
349.537	70.63
350.001	82.13
350.465	87.23
350.93	81.53
351.394	83.93
351.858	70.23
352.322	90.33
352.786	78.33
353.25	105.43
353.715	115.73
354.179	102.23
354.643	126.33
355.107	132.03
355.571	109.53
356.035	97.23
356.498	113.33
356.962	128.33
357.426	136.03
357.89	116.83
358.354	85.43
358.818	86.33
359.281	79.23
359.745	73.43
360.209	70.83
360.673	75.03
361.136	80.03
361.6	85.03
362.064	85.33
362.527	83.83
362.991	86.43
363.454	80.93
363.918	74.43
364.381	84.63
364.845	90.33
365.308	80.83
365.772	83.33
366.235	83.63
366.698	87.63
367.162	85.83
367.625	94.03
368.088	91.93
368.552	90.23
369.015	92.13
369.478	94.73
369.941	101.43
370.404	93.83
370.867	104.63
371.331	103.13
371.794	115.83
372.257	107.93
372.72	115.63
373.183	112.13
373.646	90.43
374.109	104.43
374.572	110.73
375.035	106.73
375.497	109.53
375.96	106.43
376.423	103.93
376.886	116.73
377.349	110.73
377.811	101.13
378.274	106.83
378.737	105.43
379.199	113.93
379.662	110.03
380.125	111.33
380.587	111.63
381.05	119.13
381.512	121.03
381.975	123.33
382.437	123.53
382.9	126.13
383.362	126.63
383.825	131.83
384.287	145.73
384.75	145.53
385.212	134.93
385.674	139.03
386.136	136.43
386.599	126.93
387.061	123.03
387.523	130.73
387.985	135.03
388.447	143.63
388.91	130.23
389.372	154.23
389.834	151.03
390.296	137.93
390.758	148.73
391.22	162.83
391.682	204.93
392.144	283.03
392.606	224.23
393.068	165.03
393.529	165.73
393.991	147.63
394.453	141.23
394.915	148.73
395.377	184.83
395.838	208.43
396.3	148.83
396.762	140.03
397.224	127.03
397.685	132.83
398.147	126.73
398.608	127.13
399.07	127.53
399.531	130.43
399.993	136.03
400.454	147.23
400.916	146.43
401.377	148.93
401.839	149.53
402.3	141.83
402.762	163.43
403.223	179.93
403.684	170.73
404.145	154.73
404.607	155.43
405.068	163.33
405.529	174.63
405.99	182.93
406.451	172.63
406.913	169.33
407.374	158.83
407.835	159.33
408.296	164.03
408.757	170.53
409.218	184.83
409.679	172.43
410.14	177.33
410.601	172.23
411.062	174.43
411.522	188.63
411.983	179.23
412.444	167.33
412.905	169.13
413.366	173.83
413.826	188.53
414.287	217.83
414.748	257.33
415.208	246.13
415.669	208.23
416.13	198.33
416.59	205.13
417.051	210.63
417.511	214.93
417.972	225.53
418.432	240.43
418.893	277.13
419.353	248.93
419.814	192.33
420.274	181.03
420.734	176.93
421.195	192.93
421.655	191.63
422.115	188.33
422.576	191.63
423.036	188.73
423.496	202.33
423.956	213.13
424.416	225.73
424.876	254.53
425.336	255.73
425.797	257.83
426.257	243.73
426.717	232.63
427.177	227.13
427.637	214.53
428.097	225.33
428.556	236.03
429.016	262.63
429.476	257.73
429.936	266.23
430.396	265.83
430.856	283.23
431.315	306.83
431.775	345.83
432.235	369.73
432.694	340.33
433.154	356.13
433.614	373.83
434.073	328.93
434.533	279.83
434.993	264.33
435.452	277.13
435.912	292.43
436.371	275.23
436.83	270.53
437.29	266.03
437.749	242.93
438.209	234.93
438.668	260.13
439.127	278.83
439.587	261.53
440.046	242.83
440.505	258.13
440.964	272.83
441.424	316.33
441.883	296.33
442.342	254.53
442.801	208.43
443.26	217.93
443.719	209.53
444.178	214.73
444.637	206.43
445.096	214.13
445.555	216.13
446.014	224.03
446.473	219.43
446.932	224.33
447.391	216.23
447.849	219.43
448.308	208.83
448.767	215.13
449.226	229.53
449.685	230.23
450.143	244.43
450.602	229.43
451.061	216.33
451.519	225.33
451.978	224.63
452.436	231.73
452.895	230.03
453.353	246.33
453.812	233.93
454.27	232.43
454.729	232.13
455.187	232.33
455.646	237.23
456.104	233.83
456.562	250.13
457.021	262.03
457.479	256.93
457.937	264.33
458.395	252.23
458.854	243.23
459.312	252.63
459.77	263.33
460.228	244.63
460.686	232.13
461.144	245.43
461.602	235.23
462.06	237.53
462.518	243.93
462.976	242.43
463.434	248.83
463.892	254.83
464.35	267.03
464.808	282.33
465.266	260.43
465.724	262.83
466.181	264.03
466.639	259.93
467.097	284.73
467.555	291.43
468.012	294.53
468.47	300.53
468.928	320.43
469.385	330.93
469.843	337.43
470.3	339.23
470.758	354.53
471.215	373.83
471.673	403.53
472.13	391.03
472.588	413.63
473.045	366.43
473.503	364.03
473.96	385.23
474.417	389.73
474.875	426.23
475.332	464.53
475.789	452.13
476.246	449.83
476.704	477.03
477.161	496.13
477.618	510.03
478.075	549.03
478.532	598.53
478.989	674.23
479.446	790.53
479.903	752.33
480.36	788.83
480.817	840.13
481.274	941.53
481.731	1046.53
482.188	1136.23
482.645	1260.53
483.102	1378.03
483.558	1502.23
484.015	1548.93
484.472	1535.63
484.929	1482.23
485.385	1438.13
485.842	1389.53
486.299	1339.53
486.755	1265.63
487.212	1065.53
487.668	900.53
488.125	823.13
488.582	762.33
489.038	728.33
489.494	698.23
489.951	663.33
490.407	644.83
490.864	629.63
491.32	629.83
491.776	627.83
492.233	627.63
492.689	600.83
493.145	590.13
493.602	591.73
494.058	595.73
494.514	605.33
494.97	627.83
495.426	624.63
495.882	606.33
496.338	607.63
496.794	614.63
497.251	609.13
497.707	630.23
498.163	628.83
498.618	636.73
499.074	636.23
499.53	659.93
499.986	665.43
500.442	632.63
500.898	624.33
501.354	606.63
501.809	619.63
502.265	632.53
502.721	641.73
503.177	650.23
503.632	653.63
504.088	653.13
504.543	683.23
504.999	690.63
505.455	638.93
505.91	627.03
506.366	613.73
506.821	617.03
507.277	609.13
507.732	617.13
508.187	611.73
508.643	613.03
509.098	608.03
509.553	637.03
510.009	641.43
510.464	650.53
510.919	663.43
511.375	671.53
511.83	692.83
512.285	707.43
512.74	737.93
513.195	759.33
513.65	751.93
514.105	744.83
514.56	754.13
515.015	773.13
515.47	808.23
515.925	774.43
516.38	769.53
516.835	787.83
517.29	769.03
517.745	764.03
518.2	745.13
518.655	733.53
519.109	729.63
519.564	723.03
520.019	720.13
520.474	719.33
520.928	712.03
521.383	697.63
521.838	690.63
522.292	693.43
522.747	690.23
523.201	683.33
523.656	675.53
524.11	666.13
524.565	668.73
525.019	670.83
525.474	682.23
525.928	682.53
526.382	680.93
526.837	679.03
527.291	682.93
527.745	676.13
528.2	685.73
528.654	673.23
529.108	665.93
529.562	668.13
530.016	678.83
530.47	669.73
530.925	682.03
531.379	679.43
531.833	687.73
532.287	686.43
532.741	682.63
533.195	686.63
533.649	699.23
534.103	690.73
534.556	695.73
535.01	693.13
535.464	697.73
535.918	697.93
536.372	702.43
536.826	695.93
537.279	691.13
537.733	682.43
538.187	688.53
538.64	699.53
539.094	700.03
539.548	700.13
540.001	697.03
540.455	706.83
540.908	711.63
541.362	704.13
541.815	726.33
542.269	740.73
542.722	737.13
543.175	740.03
543.629	740.43
544.082	758.53
544.536	770.73
544.989	761.53
545.442	767.03
545.895	761.23
546.349	761.33
546.802	760.63
547.255	765.13
547.708	774.83
548.161	785.53
548.614	791.13
549.067	802.13
549.52	783.23
549.973	779.63
550.426	779.03
550.879	754.93
551.332	768.53
551.785	775.23
552.238	778.83
552.691	793.73
553.144	809.43
553.596	826.43
554.049	829.93
554.502	869.73
554.955	882.23
555.407	883.23
555.86	872.43
556.313	855.23
556.765	850.13
557.218	853.53
557.67	844.03
558.123	847.63
558.576	843.83
559.028	841.43
559.48	855.63
559.933	844.23
560.385	810.33
560.838	776.13
561.29	751.53
561.742	755.23
562.195	729.43
562.647	734.73
563.099	738.33
563.551	741.83
564.004	745.93
564.456	736.83
564.908	726.53
565.36	714.93
565.812	708.73
566.264	706.83
566.716	699.43
567.168	680.93
567.62	698.43
568.072	671.23
568.524	666.83
568.976	652.33
569.428	648.23
569.88	635.23
570.332	647.33
570.784	653.83
571.235	652.63
571.687	677.73
572.139	664.83
572.59	685.23
573.042	683.73
573.494	683.63
573.945	675.43
574.397	646.43
574.849	660.83
575.3	661.83
575.752	659.63
576.203	646.33
576.655	663.73
577.106	636.93
577.557	627.53
578.009	642.63
578.46	639.73
578.912	632.23
579.363	640.83
579.814	642.83
580.265	618.53
580.717	648.93
581.168	638.63
581.619	651.33
582.07	652.23
582.521	647.93
582.972	629.03
583.423	646.13
583.875	640.83
584.326	669.43
584.777	704.93
585.227	765.03
585.678	864.93
586.129	933.03
586.58	992.23
587.031	1083.63
587.482	1237.53
587.933	1404.03
588.384	1218.33
588.834	912.43
589.285	762.33
589.736	741.93
590.186	733.73
590.637	724.63
591.088	698.43
591.538	688.23
591.989	683.83
592.439	674.93
592.89	682.43
593.34	665.13
593.791	660.03
594.241	663.13
594.692	658.73
595.142	661.23
595.593	663.23
596.043	671.43
596.493	666.83
596.943	677.83
597.394	674.93
597.844	667.83
598.294	681.23
598.744	711.83
599.195	732.13
599.645	769.53
600.095	796.03
600.545	861.03
600.995	894.93
601.445	957.33
601.895	1020.23
602.345	1070.13
602.795	1050.73
603.245	1003.23
603.695	951.73
604.145	893.63
604.594	850.23
605.044	804.83
605.494	754.43
605.944	704.63
606.393	696.93
606.843	677.73
607.293	688.73
607.743	690.53
608.192	697.33
608.642	701.13
609.091	712.83
609.541	719.33
609.99	717.43
610.44	719.63
610.889	669.83
611.339	656.93
611.788	647.43
612.238	648.33
612.687	666.73
613.136	669.03
613.586	686.43
614.035	677.83
614.484	696.93
614.933	703.83
615.383	698.73
615.832	681.73
616.281	666.83
616.73	635.03
617.179	619.93
617.628	613.73
618.077	591.63
618.526	584.03
618.975	572.63
619.424	572.63
619.873	565.43
620.322	569.23
620.771	564.13
621.22	562.03
621.669	548.93
622.118	550.73
622.567	525.73
623.015	516.43
623.464	533.93
623.913	519.13
624.361	516.33
624.81	511.53
625.259	509.73
625.707	511.03
626.156	508.93
626.604	524.73
627.053	522.13
627.501	524.43
627.95	525.33
628.398	531.03
628.847	521.23
629.295	523.43
629.744	522.73
630.192	526.83
630.64	523.33
631.089	524.73
631.537	526.53
631.985	537.23
632.433	546.33
632.881	556.53
633.33	601.63
633.778	567.13
634.226	514.33
634.674	521.83
635.122	529.33
635.57	539.93
636.018	567.53
636.466	532.33
636.914	509.33
637.362	526.63
637.81	533.83
638.258	537.63
638.705	531.13
639.153	562.73
639.601	565.83
640.049	585.33
640.497	614.93
640.944	632.13
641.392	589.23
641.84	567.33
642.287	525.63
642.735	515.83
643.182	528.43
643.63	529.93
644.078	521.33
644.525	539.83
644.973	541.23
645.42	549.53
645.867	571.13
646.315	580.93
646.762	600.03
647.21	630.43
647.657	645.23
648.104	680.43
648.551	702.23
648.999	754.73
649.446	832.13
649.893	906.23
650.34	1053.13
650.787	1247.83
651.234	1551.23
651.682	2010.63
652.129	2760.63
652.576	3968.73
653.023	5864.03
653.47	8080.73
653.917	10157.53
654.363	11881.33
654.81	13318.93
655.257	12631.23
655.704	8205.53
656.151	4849.23
656.598	3129.83
657.044	2206.53
657.491	1693.73
657.938	1362.93
658.385	1146.03
658.831	991.73
659.278	879.13
659.724	763.73
660.171	721.83
660.618	666.33
661.064	622.73
661.511	601.83
661.957	584.23
662.404	581.53
662.85	588.43
663.296	565.73
663.743	512.13
664.189	489.43
664.635	477.83
665.082	479.73
665.528	479.93
665.974	467.43
666.42	463.63
666.867	453.23
667.313	448.63
667.759	432.93
668.205	426.33
668.651	431.93
669.097	437.33
669.543	455.93
669.989	426.23
670.435	407.23
670.881	404.53
671.327	409.93
671.773	423.73
672.219	443.63
672.665	485.83
673.11	520.93
673.556	570.33
674.002	606.53
674.448	598.83
674.893	503.23
675.339	425.43
675.785	400.33
676.23	377.73
676.676	351.53
677.122	342.13
677.567	333.63
678.013	331.03
678.458	322.53
678.904	321.63
679.349	314.93
679.794	323.03
680.24	318.23
680.685	306.53
681.131	308.53
681.576	313.33
682.021	323.33
682.466	315.23
682.912	308.83
683.357	318.03
683.802	338.73
684.247	369.73
684.692	404.23
685.137	446.03
685.583	481.53
686.028	511.43
686.473	465.43
686.918	404.53
687.363	370.43
687.807	353.73
688.252	326.03
688.697	318.03
689.142	299.43
689.587	302.73
690.032	292.03
690.477	306.63
690.921	311.43
691.366	342.33
691.811	362.83
692.255	394.83
692.7	408.33
693.145	446.93
693.589	616.93
694.034	994.43
694.478	1363.13
694.923	1572.63
695.367	2077.03
695.812	1083.43
696.256	450.83
696.701	326.03
697.145	310.33
697.59	293.23
698.034	280.33
698.478	292.63
698.922	297.53
699.367	294.83
699.811	298.33
700.255	320.03
700.699	340.43
701.143	380.23
701.588	423.63
702.032	466.93
702.476	457.83
702.92	437.33
703.364	437.43
703.808	555.53
704.252	901.03
704.696	1288.73
705.14	1514.83
705.584	1946.93
706.027	965.03
706.471	473.13
706.915	361.13
707.359	307.83
707.803	284.83
708.246	283.83
708.69	291.23
709.134	284.73
709.577	280.53
710.021	281.83
710.465	275.43
710.908	268.33
711.352	267.23
711.795	276.03
712.239	311.93
712.682	335.03
713.126	372.13
713.569	414.73
714.012	326.83
714.456	293.33
714.899	266.43
715.342	249.83
715.786	227.73
716.229	234.33
716.672	230.93
717.115	224.43
717.558	218.43
718.002	224.43
718.445	236.63
718.888	252.83
719.331	254.33
719.774	281.43
720.217	270.43
720.66	253.13
721.103	237.13
721.546	227.93
721.989	226.03
722.432	203.63
722.874	216.23
723.317	206.63
723.76	207.73
724.203	223.83
724.645	273.13
725.088	390.03
725.531	507.93
725.974	585.63
726.416	496.43
726.859	272.43
727.301	217.13
727.744	205.73
728.187	205.03
728.629	204.83
729.071	211.53
729.514	233.63
729.956	250.83
730.399	255.93
730.841	251.53
731.283	243.53
731.726	238.63
732.168	238.33
732.61	236.23
733.053	256.23
733.495	275.23
733.937	317.03
734.379	354.73
734.821	395.13
735.263	478.93
735.705	733.23
736.148	1371.93
736.59	2267.63
737.032	2790.83
737.474	2251.23
737.916	726.53
738.357	376.23
738.799	295.33
739.241	269.63
739.683	250.53
740.125	251.53
740.567	262.63
741.008	283.33
741.45	278.73
741.892	279.33
742.334	307.03
742.775	322.13
743.217	305.63
743.658	239.63
744.1	223.03
744.542	231.73
744.983	280.03
745.425	305.53
745.866	310.13
746.307	241.33
746.749	244.83
747.19	280.23
747.632	391.83
748.073	751.93
748.514	1609.53
748.956	2537.63
749.397	3176.13
749.838	2652.53
750.279	2695.43
750.72	1348.43
751.162	483.13
751.603	281.43
752.044	227.73
752.485	190.33
752.926	190.23
753.367	175.63
753.808	167.33
754.249	163.53
754.69	171.93
755.131	155.83
755.572	164.93
756.013	164.33
756.453	161.73
756.894	165.43
757.335	166.73
757.776	170.73
758.216	163.83
758.657	175.33
759.098	172.23
759.538	195.33
759.979	233.43
760.42	324.73
760.86	599.03
761.301	1561.53
761.741	3875.63
762.182	5869.03
762.622	4142.03
