Data from 20171114-ORNL-Ar_H_NY_Subt18_08-07-04-956.txt Node
Date: Tue Nov 14 08:07:04 EST 2017
User: Ender
Spectrometer: HR+D1039
Trigger mode: 0
Integration Time (sec): 2.730000E-2
Scans to average: 10
Electric dark correction enabled: true
Nonlinearity correction enabled: false
Boxcar width: 0
XAxis mode: Wavelengths
Number of Pixels in Spectrum: 2048
>>>>>Begin Spectral Data<<<<<
187.836	-5.78
188.309	-5.78
188.782	-5.78
189.255	1.52
189.728	-2.58
190.201	4.62
190.674	3.12
191.147	3.82
191.619	-11.78
192.092	1.92
192.565	8.82
193.038	-3.48
193.511	2.72
193.984	-3.28
194.456	-3.68
194.929	5.12
195.402	-4.08
195.874	3.02
196.347	-1.38
196.82	-4.58
197.292	6.12
197.765	-4.48
198.237	-5.68
198.71	-1.08
199.182	-0.88
199.655	0.72
200.127	1.42
200.6	-0.18
201.072	-2.78
201.544	-1.68
202.017	-6.08
202.489	2.92
202.961	-5.48
203.433	-6.98
203.906	-11.48
204.378	-8.58
204.85	0.62
205.322	-9.38
205.794	-5.98
206.266	-2.28
206.739	-6.98
207.211	2.92
207.683	-8.68
208.155	-4.88
208.627	-4.28
209.099	-4.28
209.57	-8.28
210.042	-3.58
210.514	-7.88
210.986	-9.48
211.458	-10.08
211.93	-2.98
212.402	-2.18
212.873	-1.48
213.345	-5.38
213.817	-9.98
214.288	-10.08
214.76	-9.88
215.232	-6.98
215.703	-2.78
216.175	-4.08
216.646	-9.88
217.118	-7.58
217.589	-5.38
218.061	0.12
218.532	-9.88
219.004	-4.48
219.475	-4.58
219.946	-3.48
220.418	-11.18
220.889	0.92
221.36	-4.68
221.832	-6.78
222.303	-2.88
222.774	-3.68
223.245	-7.98
223.717	-7.78
224.188	-5.78
224.659	-5.08
225.13	-3.88
225.601	-1.28
226.072	1.22
226.543	-4.18
227.014	-0.38
227.485	-3.98
227.956	-7.48
228.427	-5.18
228.898	-4.28
229.369	-1.78
229.839	-4.48
230.31	-7.28
230.781	5.32
231.252	-3.58
231.722	-10.18
232.193	-6.88
232.664	-9.48
233.135	-1.48
233.605	-1.38
234.076	0.02
234.546	-1.88
235.017	4.12
235.487	2.22
235.958	3.02
236.428	-6.18
236.899	-4.18
237.369	-3.28
237.84	-5.68
238.31	-4.88
238.78	-1.98
239.251	-5.58
239.721	-3.98
240.191	-1.88
240.662	-5.88
241.132	-4.08
241.602	-6.38
242.072	-9.28
242.542	3.92
243.013	-2.08
243.483	0.72
243.953	-4.08
244.423	-0.88
244.893	-9.98
245.363	2.32
245.833	-2.38
246.303	-4.78
246.773	1.62
247.243	1.72
247.712	1.12
248.182	-0.68
248.652	2.32
249.122	-8.48
249.592	-2.88
250.061	-2.68
250.531	8.92
251.001	-0.88
251.471	-2.08
251.94	5.92
252.41	-1.38
252.879	-3.98
253.349	1.52
253.818	0.02
254.288	-4.58
254.757	-0.08
255.227	-2.08
255.696	-7.28
256.166	-1.48
256.635	2.42
257.105	-1.68
257.574	-1.78
258.043	5.72
258.513	0.72
258.982	0.42
259.451	-3.88
259.92	2.42
260.389	-2.98
260.859	5.12
261.328	1.62
261.797	0.62
262.266	-6.18
262.735	4.62
263.204	0.62
263.673	-2.58
264.142	-2.68
264.611	-7.28
265.08	-5.68
265.549	3.62
266.018	2.02
266.487	-10.18
266.955	-10.38
267.424	-4.08
267.893	-1.28
268.362	-8.88
268.83	8.62
269.299	5.32
269.768	-3.38
270.236	-0.28
270.705	-2.48
271.174	-1.78
271.642	2.72
272.111	6.82
272.579	-0.18
273.048	2.22
273.516	0.42
273.985	0.32
274.453	4.82
274.922	13.52
275.39	2.02
275.858	-3.58
276.327	6.72
276.795	8.52
277.263	1.22
277.731	13.02
278.2	3.42
278.668	3.02
279.136	7.12
279.604	2.92
280.072	2.62
280.54	9.42
281.008	4.12
281.477	9.92
281.945	5.92
282.413	5.72
282.881	8.32
283.348	4.22
283.816	4.42
284.284	7.12
284.752	15.22
285.22	4.42
285.688	5.42
286.156	3.62
286.623	13.72
287.091	7.12
287.559	13.72
288.026	8.82
288.494	8.02
288.962	-1.98
289.429	7.22
289.897	17.02
290.364	6.82
290.832	15.92
291.3	5.42
291.767	8.02
292.234	12.92
292.702	5.72
293.169	11.42
293.637	18.32
294.104	11.62
294.571	6.32
295.039	9.52
295.506	7.92
295.973	15.22
296.44	9.22
296.908	11.92
297.375	6.62
297.842	12.12
298.309	10.92
298.776	5.72
299.243	19.02
299.71	-1.38
300.177	14.52
300.644	13.12
301.111	11.42
301.578	15.82
302.045	7.62
302.512	20.42
302.979	15.52
303.446	16.52
303.913	8.52
304.379	14.62
304.846	16.62
305.313	17.72
305.78	11.12
306.246	18.72
306.713	19.52
307.18	22.52
307.646	21.92
308.113	19.42
308.579	21.52
309.046	15.52
309.512	25.42
309.979	12.02
310.445	17.72
310.912	22.92
311.378	21.32
311.845	21.32
312.311	17.92
312.777	26.32
313.244	21.22
313.71	24.22
314.176	23.12
314.642	20.92
315.109	20.62
315.575	29.32
316.041	26.02
316.507	17.42
316.973	25.62
317.439	27.22
317.905	30.62
318.371	29.02
318.837	29.22
319.303	32.12
319.769	23.72
320.235	25.42
320.701	24.92
321.167	28.92
321.633	24.72
322.099	33.22
322.564	29.12
323.03	27.82
323.496	27.52
323.962	32.22
324.427	30.92
324.893	33.92
325.359	32.72
325.824	33.02
326.29	28.22
326.755	34.92
327.221	30.02
327.686	27.12
328.152	36.82
328.617	34.92
329.083	34.62
329.548	43.42
330.014	40.92
330.479	33.72
330.944	36.62
331.41	37.72
331.875	34.82
332.34	29.82
332.805	34.62
333.271	35.52
333.736	30.12
334.201	38.02
334.666	44.72
335.131	40.52
335.596	42.82
336.061	44.52
336.526	36.52
336.991	40.82
337.456	43.92
337.921	45.02
338.386	35.72
338.851	40.42
339.316	41.92
339.781	37.12
340.246	44.52
340.711	37.82
341.175	41.22
341.64	32.02
342.105	51.22
342.569	47.12
343.034	45.72
343.499	45.52
343.963	44.02
344.428	55.92
344.893	48.32
345.357	51.92
345.822	53.72
346.286	57.32
346.751	61.82
347.215	61.02
347.679	55.22
348.144	85.52
348.608	71.02
349.073	55.52
349.537	60.92
350.001	66.42
350.465	75.72
350.93	66.82
351.394	77.12
351.858	65.22
352.322	73.92
352.786	67.92
353.25	85.22
353.715	86.82
354.179	79.12
354.643	97.02
355.107	98.22
355.571	83.72
356.035	84.92
356.498	92.62
356.962	97.12
357.426	100.02
357.89	96.72
358.354	76.02
358.818	72.32
359.281	69.12
359.745	64.12
360.209	66.02
360.673	61.42
361.136	65.32
361.6	73.02
362.064	71.62
362.527	70.12
362.991	82.02
363.454	68.82
363.918	74.72
364.381	64.62
364.845	77.32
365.308	81.92
365.772	81.52
366.235	80.12
366.698	73.82
367.162	77.32
367.625	77.02
368.088	73.52
368.552	78.82
369.015	80.82
369.478	82.02
369.941	85.52
370.404	85.42
370.867	85.82
371.331	86.62
371.794	98.72
372.257	90.12
372.72	94.42
373.183	91.92
373.646	84.22
374.109	83.22
374.572	85.02
375.035	87.72
375.497	99.72
375.96	97.82
376.423	94.52
376.886	99.62
377.349	100.42
377.811	91.52
378.274	94.72
378.737	99.22
379.199	101.52
379.662	97.12
380.125	102.42
380.587	95.82
381.05	97.22
381.512	108.02
381.975	110.62
382.437	111.42
382.9	108.62
383.362	112.32
383.825	119.32
384.287	112.22
384.75	102.92
385.212	115.52
385.674	119.32
386.136	125.02
386.599	115.72
387.061	119.42
387.523	117.92
387.985	114.42
388.447	123.32
388.91	123.32
389.372	115.12
389.834	118.92
390.296	118.32
390.758	124.72
391.22	124.42
391.682	136.32
392.144	146.32
392.606	133.42
393.068	133.52
393.529	144.92
393.991	134.02
394.453	119.22
394.915	126.02
395.377	128.42
395.838	128.52
396.3	128.52
396.762	135.12
397.224	126.02
397.685	121.02
398.147	125.42
398.608	125.32
399.07	119.02
399.531	127.82
399.993	132.72
400.454	145.92
400.916	141.22
401.377	143.52
401.839	140.92
402.3	147.42
402.762	156.42
403.223	175.32
403.684	166.02
404.145	157.52
404.607	149.42
405.068	161.82
405.529	168.22
405.99	180.42
406.451	160.02
406.913	157.92
407.374	161.42
407.835	156.42
408.296	162.12
408.757	164.82
409.218	172.62
409.679	173.52
410.14	170.52
410.601	168.02
411.062	179.92
411.522	175.42
411.983	167.02
412.444	163.92
412.905	174.32
413.366	185.12
413.826	192.32
414.287	218.32
414.748	263.12
415.208	248.32
415.669	212.82
416.13	203.12
416.59	200.02
417.051	212.42
417.511	225.52
417.972	236.42
418.432	250.72
418.893	296.52
419.353	247.72
419.814	194.82
420.274	184.22
420.734	181.02
421.195	188.22
421.655	192.42
422.115	193.52
422.576	193.22
423.036	194.52
423.496	208.12
423.956	214.32
424.416	226.02
424.876	271.12
425.336	263.62
425.797	257.32
426.257	249.02
426.717	240.82
427.177	238.52
427.637	219.32
428.097	227.62
428.556	236.82
429.016	257.92
429.476	258.22
429.936	269.32
430.396	269.12
430.856	285.02
431.315	304.72
431.775	337.72
432.235	375.42
432.694	331.12
433.154	342.22
433.614	373.52
434.073	321.92
434.533	274.12
434.993	260.82
435.452	271.32
435.912	286.92
436.371	280.62
436.83	272.62
437.29	261.52
437.749	237.32
438.209	242.22
438.668	270.82
439.127	272.32
439.587	263.82
440.046	248.12
440.505	260.52
440.964	271.32
441.424	318.32
441.883	301.32
442.342	255.02
442.801	224.82
443.26	221.52
443.719	228.62
444.178	219.72
444.637	216.32
445.096	220.22
445.555	229.12
446.014	230.12
446.473	232.82
446.932	231.52
447.391	225.02
447.849	235.82
448.308	225.42
448.767	227.82
449.226	241.22
449.685	249.12
450.143	254.92
450.602	247.12
451.061	235.52
451.519	237.02
451.978	237.02
452.436	243.72
452.895	240.12
453.353	255.82
453.812	242.42
454.27	241.72
454.729	251.22
455.187	250.32
455.646	259.32
456.104	254.32
456.562	263.92
457.021	269.12
457.479	263.72
457.937	276.12
458.395	272.42
458.854	258.02
459.312	258.22
459.77	284.72
460.228	262.52
460.686	256.72
461.144	260.12
461.602	259.52
462.06	250.82
462.518	268.62
462.976	261.02
463.434	267.22
463.892	272.22
464.35	280.72
464.808	293.82
465.266	272.42
465.724	275.32
466.181	283.12
466.639	281.42
467.097	301.12
467.555	303.02
468.012	312.42
468.47	315.12
468.928	336.72
469.385	339.92
469.843	360.22
470.3	371.22
470.758	367.92
471.215	397.62
471.673	415.52
472.13	410.72
472.588	426.52
473.045	383.62
473.503	388.42
473.96	402.52
474.417	416.32
474.875	456.42
475.332	485.52
475.789	469.72
476.246	474.72
476.704	502.32
477.161	518.32
477.618	530.72
478.075	561.92
478.532	622.12
478.989	688.02
479.446	796.82
479.903	754.12
480.36	799.02
480.817	834.22
481.274	928.62
481.731	1031.92
482.188	1100.22
482.645	1214.92
483.102	1309.72
483.558	1424.12
484.015	1473.62
484.472	1427.62
484.929	1392.82
485.385	1360.52
485.842	1334.62
486.299	1274.62
486.755	1235.62
487.212	1059.22
487.668	910.72
488.125	837.42
488.582	779.92
489.038	742.32
489.494	722.32
489.951	686.02
490.407	675.02
490.864	661.22
491.32	654.52
491.776	658.42
492.233	663.52
492.689	625.52
493.145	626.92
493.602	616.92
494.058	628.02
494.514	633.92
494.97	651.52
495.426	665.62
495.882	645.82
496.338	625.22
496.794	644.92
497.251	631.02
497.707	648.92
498.163	644.12
498.618	661.02
499.074	652.82
499.53	673.42
499.986	680.92
500.442	665.72
500.898	643.22
501.354	631.72
501.809	642.42
502.265	632.42
502.721	657.02
503.177	655.42
503.632	675.32
504.088	675.72
504.543	696.32
504.999	707.12
505.455	672.12
505.91	649.42
506.366	657.02
506.821	655.82
507.277	645.12
507.732	656.32
508.187	649.02
508.643	662.82
509.098	668.22
509.553	687.62
510.009	700.52
510.464	697.32
510.919	718.92
511.375	716.42
511.83	732.82
512.285	745.92
512.74	766.32
513.195	803.22
513.65	796.32
514.105	794.72
514.56	790.62
515.015	806.82
515.47	831.12
515.925	809.62
516.38	803.22
516.835	812.72
517.29	812.12
517.745	811.42
518.2	794.02
518.655	783.12
519.109	759.42
519.564	770.82
520.019	748.82
520.474	750.82
520.928	752.42
521.383	746.12
521.838	736.52
522.292	730.42
522.747	729.12
523.201	730.72
523.656	723.02
524.11	726.12
524.565	722.92
525.019	721.12
525.474	726.12
525.928	721.92
526.382	721.42
526.837	729.52
527.291	726.52
527.745	722.92
528.2	726.42
528.654	721.02
529.108	719.82
529.562	716.42
530.016	717.12
530.47	722.52
530.925	714.32
531.379	717.22
531.833	730.52
532.287	727.52
532.741	727.02
533.195	737.32
533.649	746.82
534.103	745.52
534.556	727.22
535.01	729.92
535.464	727.22
535.918	739.92
536.372	746.52
536.826	750.42
537.279	728.72
537.733	733.62
538.187	739.72
538.64	736.62
539.094	750.52
539.548	747.12
540.001	743.22
540.455	756.02
540.908	753.82
541.362	764.12
541.815	773.62
542.269	788.12
542.722	778.82
543.175	794.92
543.629	796.82
544.082	825.42
544.536	819.22
544.989	821.12
545.442	833.32
545.895	820.42
546.349	819.52
546.802	835.22
547.255	822.82
547.708	843.52
548.161	852.72
548.614	849.52
549.067	858.22
549.52	854.12
549.973	839.52
550.426	835.32
550.879	823.12
551.332	835.12
551.785	843.12
552.238	853.22
552.691	852.82
553.144	867.22
553.596	879.42
554.049	903.02
554.502	931.72
554.955	953.12
555.407	936.02
555.86	935.12
556.313	920.72
556.765	923.52
557.218	925.22
557.67	916.52
558.123	910.82
558.576	899.32
559.028	919.82
559.48	919.32
559.933	903.02
560.385	872.32
560.838	854.82
561.29	823.82
561.742	825.22
562.195	802.82
562.647	798.62
563.099	825.62
563.551	812.12
564.004	823.12
564.456	791.42
564.908	796.52
565.36	772.32
565.812	761.42
566.264	747.72
566.716	740.22
567.168	734.12
567.62	737.82
568.072	721.42
568.524	715.62
568.976	723.22
569.428	700.72
569.88	700.52
570.332	707.92
570.784	714.72
571.235	718.32
571.687	726.42
572.139	731.42
572.59	739.42
573.042	738.62
573.494	735.52
573.945	737.52
574.397	716.52
574.849	712.82
575.3	721.32
575.752	704.52
576.203	707.12
576.655	716.12
577.106	697.02
577.557	687.02
578.009	692.92
578.46	693.02
578.912	683.02
579.363	695.22
579.814	685.62
580.265	697.12
580.717	691.22
581.168	689.12
581.619	696.42
582.07	699.02
582.521	700.72
582.972	697.22
583.423	694.42
583.875	688.82
584.326	710.62
584.777	714.72
585.227	744.32
585.678	754.32
586.129	768.72
586.58	780.82
587.031	796.72
587.482	842.82
587.933	856.42
588.384	838.62
588.834	803.42
589.285	802.12
589.736	794.62
590.186	800.22
590.637	790.52
591.088	775.12
591.538	761.92
591.989	754.22
592.439	753.02
592.89	740.02
593.34	739.12
593.791	731.42
594.241	723.22
594.692	724.72
595.142	716.92
595.593	713.42
596.043	722.42
596.493	723.02
596.943	727.72
597.394	739.42
597.844	736.12
598.294	755.02
598.744	781.72
599.195	808.72
599.645	848.32
600.095	890.82
600.545	955.62
600.995	997.82
601.445	1067.12
601.895	1122.62
602.345	1171.12
602.795	1155.82
603.245	1107.52
603.695	1045.32
604.145	998.52
604.594	948.92
605.044	882.02
605.494	831.62
605.944	778.32
606.393	774.42
606.843	751.62
607.293	757.62
607.743	748.62
608.192	764.82
608.642	771.62
609.091	778.82
609.541	783.22
609.99	785.22
610.44	785.32
610.889	736.92
611.339	719.12
611.788	702.32
612.238	702.22
612.687	721.72
613.136	715.42
613.586	729.62
614.035	718.52
614.484	739.12
614.933	723.82
615.383	725.52
615.832	724.62
616.281	718.02
616.73	696.72
617.179	673.32
617.628	668.22
618.077	652.02
618.526	642.82
618.975	622.42
619.424	626.32
619.873	629.32
620.322	624.52
620.771	619.82
621.22	614.42
621.669	606.92
622.118	604.12
622.567	599.02
623.015	586.02
623.464	591.72
623.913	581.82
624.361	570.72
624.81	561.82
625.259	568.82
625.707	566.92
626.156	571.82
626.604	571.72
627.053	582.62
627.501	584.22
627.95	581.52
628.398	581.82
628.847	592.62
629.295	593.62
629.744	593.22
630.192	593.02
630.64	570.42
631.089	565.92
631.537	553.72
631.985	547.62
632.433	543.42
632.881	534.52
633.33	535.52
633.778	532.32
634.226	531.52
634.674	552.52
635.122	549.62
635.57	565.62
636.018	571.52
636.466	579.82
636.914	574.12
637.362	587.92
637.81	588.12
638.258	590.72
638.705	603.32
639.153	636.82
639.601	636.62
640.049	664.92
640.497	690.82
640.944	706.42
641.392	668.22
641.84	628.22
642.287	593.82
642.735	575.02
643.182	572.82
643.63	583.92
644.078	578.02
644.525	593.32
644.973	600.32
645.42	603.42
645.867	626.62
646.315	650.42
646.762	668.12
647.21	696.22
647.657	722.22
648.104	744.92
648.551	765.62
648.999	826.22
649.446	894.82
649.893	986.12
650.34	1120.82
650.787	1320.62
651.234	1634.82
651.682	2102.42
652.129	2845.22
652.576	4078.12
653.023	5915.92
653.47	8020.92
653.917	9939.82
654.363	11448.52
654.81	12675.82
655.257	11998.52
655.704	7956.82
656.151	4763.42
656.598	3140.32
657.044	2255.42
657.491	1750.22
657.938	1427.22
658.385	1186.92
658.831	1047.62
659.278	938.12
659.724	835.72
660.171	790.32
660.618	708.72
661.064	678.62
661.511	667.52
661.957	648.52
662.404	651.52
662.85	665.02
663.296	630.92
663.743	565.42
664.189	545.32
664.635	541.32
665.082	538.22
665.528	538.12
665.974	524.62
666.42	525.02
666.867	514.72
667.313	500.72
667.759	476.92
668.205	459.72
668.651	460.42
669.097	457.12
669.543	449.12
669.989	449.22
670.435	461.72
670.881	455.62
671.327	462.72
671.773	486.92
672.219	502.02
672.665	561.22
673.11	600.02
673.556	653.72
674.002	689.82
674.448	681.32
674.893	567.52
675.339	497.42
675.785	455.52
676.23	428.02
676.676	404.62
677.122	398.62
677.567	386.52
678.013	384.52
678.458	368.62
678.904	367.82
679.349	361.32
679.794	367.92
680.24	359.82
680.685	363.92
681.131	368.92
681.576	361.22
682.021	361.92
682.466	352.32
682.912	353.72
683.357	363.52
683.802	396.92
684.247	423.22
684.692	469.42
685.137	506.12
685.583	554.42
686.028	584.62
686.473	541.62
686.918	467.02
687.363	434.72
687.807	406.62
688.252	379.72
688.697	373.12
689.142	350.02
689.587	349.82
690.032	343.52
690.477	351.92
690.921	364.92
691.366	400.12
691.811	416.02
692.255	439.92
692.7	479.32
693.145	521.32
693.589	727.42
694.034	1178.42
694.478	1610.62
694.923	1805.62
695.367	2361.42
695.812	1251.92
696.256	514.82
696.701	386.92
697.145	358.82
697.59	337.82
698.034	330.62
698.478	340.92
698.922	331.92
699.367	329.72
699.811	344.32
700.255	355.62
700.699	393.32
701.143	431.12
701.588	484.82
702.032	524.72
702.476	522.82
702.92	506.12
703.364	509.52
703.808	667.92
704.252	1081.92
704.696	1521.72
705.14	1743.82
705.584	2219.72
706.027	1105.62
706.471	540.22
706.915	413.62
707.359	363.72
707.803	335.02
708.246	318.72
708.69	321.12
709.134	323.22
709.577	312.82
710.021	323.72
710.465	314.72
710.908	304.62
711.352	302.62
711.795	321.12
712.239	364.32
712.682	395.12
713.126	428.52
713.569	472.92
714.012	365.12
714.456	307.82
714.899	287.82
715.342	286.62
715.786	278.22
716.229	268.52
716.672	262.22
717.115	252.52
717.558	255.82
718.002	258.42
718.445	270.12
718.888	287.32
719.331	292.52
719.774	316.02
720.217	307.82
720.66	294.42
721.103	274.42
721.546	262.02
721.989	257.22
722.432	237.72
722.874	243.72
723.317	235.82
723.76	238.12
724.203	258.72
724.645	318.62
725.088	461.42
725.531	585.32
725.974	664.82
726.416	563.32
726.859	308.42
727.301	243.82
727.744	245.42
728.187	241.62
728.629	254.12
729.071	244.02
729.514	269.92
729.956	275.62
730.399	289.12
730.841	297.52
731.283	286.32
731.726	278.02
732.168	269.52
732.61	271.92
733.053	300.82
733.495	327.12
733.937	368.42
734.379	416.12
734.821	449.02
735.263	563.12
735.705	870.92
736.148	1662.82
736.59	2698.32
737.032	3176.02
737.474	2598.02
737.916	848.62
738.357	453.72
738.799	334.02
739.241	303.32
739.683	299.72
740.125	298.72
740.567	308.02
741.008	327.32
741.45	328.32
741.892	337.32
742.334	370.82
742.775	379.72
743.217	354.22
743.658	282.62
744.1	268.22
744.542	272.72
744.983	328.22
745.425	365.02
745.866	359.32
746.307	288.52
746.749	289.22
747.19	343.92
747.632	482.22
748.073	919.92
748.514	1971.22
748.956	2983.62
749.397	3716.22
749.838	3112.32
750.279	3074.72
750.72	1576.52
751.162	574.42
751.603	341.42
752.044	262.02
752.485	228.62
752.926	226.42
753.367	210.32
753.808	199.22
754.249	199.12
754.69	191.12
755.131	191.52
755.572	189.12
756.013	188.42
756.453	189.72
756.894	196.42
757.335	199.42
757.776	197.42
758.216	199.12
758.657	199.52
759.098	208.62
759.538	236.82
759.979	275.92
760.42	393.82
760.86	742.52
761.301	1922.12
761.741	4646.62
762.182	6689.62
762.622	4722.22
763.063	1382.42
763.503	567.52
