Data from 20171114-ORNL-Ar_H_NY_Subt18_08-04-05-065.txt Node
Date: Tue Nov 14 08:04:05 EST 2017
User: Ender
Spectrometer: HR+D1039
Trigger mode: 0
Integration Time (sec): 2.730000E-2
Scans to average: 10
Electric dark correction enabled: true
Nonlinearity correction enabled: false
Boxcar width: 0
XAxis mode: Wavelengths
Number of Pixels in Spectrum: 2048
>>>>>Begin Spectral Data<<<<<
187.836	0.79
188.309	0.79
188.782	0.79
189.255	4.49
189.728	0.09
190.201	2.49
190.674	0.89
191.147	-0.21
191.619	-4.81
192.092	1.79
192.565	2.39
193.038	-2.41
193.511	-3.01
193.984	0.29
194.456	-1.11
194.929	-0.91
195.402	0.49
195.874	-1.31
196.347	3.49
196.82	-4.31
197.292	7.89
197.765	-9.61
198.237	-8.01
198.71	-3.81
199.182	0.59
199.655	0.09
200.127	5.59
200.6	-3.81
201.072	-2.31
201.544	-5.01
202.017	0.79
202.489	-0.41
202.961	1.29
203.433	-6.21
203.906	-9.31
204.378	-8.91
204.85	-3.11
205.322	-13.81
205.794	-1.31
206.266	-1.81
206.739	-9.31
207.211	-0.71
207.683	-7.21
208.155	-8.31
208.627	-8.61
209.099	-7.11
209.57	-4.31
210.042	-7.21
210.514	-9.31
210.986	-1.91
211.458	-13.51
211.93	-5.91
212.402	-0.61
212.873	0.59
213.345	-11.81
213.817	-5.21
214.288	-0.31
214.76	-16.21
215.232	-2.51
215.703	-3.21
216.175	-7.21
216.646	-7.31
217.118	-5.71
217.589	-6.91
218.061	2.39
218.532	-3.11
219.004	-6.11
219.475	-1.71
219.946	-1.01
220.418	-9.91
220.889	-1.71
221.36	-1.61
221.832	-11.71
222.303	-8.61
222.774	3.19
223.245	-9.01
223.717	-4.81
224.188	-8.51
224.659	-9.61
225.13	-3.91
225.601	-4.51
226.072	-0.61
226.543	1.09
227.014	-0.61
227.485	-2.51
227.956	-8.11
228.427	-3.71
228.898	5.79
229.369	-1.41
229.839	-7.61
230.31	-9.71
230.781	1.79
231.252	-2.31
231.722	-12.81
232.193	-3.41
232.664	-1.81
233.135	4.19
233.605	-6.81
234.076	-9.41
234.546	-6.01
235.017	-3.41
235.487	-0.81
235.958	-8.31
236.428	-2.71
236.899	1.99
237.369	3.69
237.84	-1.71
238.31	3.29
238.78	-4.41
239.251	-0.81
239.721	-2.11
240.191	0.59
240.662	2.29
241.132	0.59
241.602	-2.31
242.072	0.69
242.542	4.29
243.013	-0.41
243.483	0.99
243.953	-1.41
244.423	-4.11
244.893	-4.81
245.363	1.89
245.833	1.99
246.303	2.59
246.773	4.39
247.243	-3.51
247.712	2.99
248.182	0.89
248.652	0.99
249.122	-3.41
249.592	6.09
250.061	10.49
250.531	24.89
251.001	8.49
251.471	8.59
251.94	15.59
252.41	1.69
252.879	-6.91
253.349	8.99
253.818	5.39
254.288	4.09
254.757	-0.41
255.227	-2.41
255.696	-2.21
256.166	1.39
256.635	2.19
257.105	4.69
257.574	6.09
258.043	0.89
258.513	9.09
258.982	6.69
259.451	2.99
259.92	4.79
260.389	3.39
260.859	5.59
261.328	4.79
261.797	8.59
262.266	1.89
262.735	7.79
263.204	4.29
263.673	0.59
264.142	4.19
264.611	-0.01
265.08	-3.51
265.549	-3.81
266.018	2.49
266.487	-2.11
266.955	3.99
267.424	-4.31
267.893	8.79
268.362	-1.31
268.83	-1.21
269.299	8.89
269.768	0.09
270.236	3.39
270.705	1.39
271.174	2.89
271.642	-2.41
272.111	-0.41
272.579	9.89
273.048	11.89
273.516	15.09
273.985	23.29
274.453	15.99
274.922	14.29
275.39	3.59
275.858	-2.41
276.327	8.29
276.795	7.59
277.263	7.09
277.731	19.69
278.2	25.19
278.668	31.09
279.136	29.89
279.604	12.79
280.072	15.79
280.54	8.39
281.008	8.69
281.477	9.09
281.945	5.99
282.413	9.29
282.881	7.49
283.348	2.89
283.816	11.59
284.284	10.89
284.752	17.29
285.22	6.59
285.688	7.29
286.156	11.69
286.623	25.29
287.091	31.09
287.559	20.49
288.026	9.99
288.494	12.29
288.962	-0.81
289.429	-0.01
289.897	8.09
290.364	8.29
290.832	8.89
291.3	10.09
291.767	12.19
292.234	12.59
292.702	-0.11
293.169	10.79
293.637	14.69
294.104	12.79
294.571	0.19
295.039	6.69
295.506	10.49
295.973	13.09
296.44	7.89
296.908	10.89
297.375	11.49
297.842	11.69
298.309	10.79
298.776	5.99
299.243	13.69
299.71	2.39
300.177	13.59
300.644	8.19
301.111	10.89
301.578	17.79
302.045	12.29
302.512	16.79
302.979	20.59
303.446	14.39
303.913	10.99
304.379	10.79
304.846	15.49
305.313	16.39
305.78	16.39
306.246	20.99
306.713	21.29
307.18	16.29
307.646	17.19
308.113	16.39
308.579	14.29
309.046	6.99
309.512	18.89
309.979	8.89
310.445	14.49
310.912	23.39
311.378	18.69
311.845	22.39
312.311	21.29
312.777	20.19
313.244	18.79
313.71	27.39
314.176	22.29
314.642	20.39
315.109	25.89
315.575	24.49
316.041	30.39
316.507	17.79
316.973	28.19
317.439	26.29
317.905	27.09
318.371	27.39
318.837	19.09
319.303	23.69
319.769	21.29
320.235	27.09
320.701	25.39
321.167	33.09
321.633	19.99
322.099	26.69
322.564	30.49
323.03	26.19
323.496	23.89
323.962	25.39
324.427	24.09
324.893	30.09
325.359	27.79
325.824	27.29
326.29	24.59
326.755	27.29
327.221	30.19
327.686	29.09
328.152	36.89
328.617	30.99
329.083	33.19
329.548	38.49
330.014	39.59
330.479	32.39
330.944	30.69
331.41	28.49
331.875	34.59
332.34	29.09
332.805	30.89
333.271	35.99
333.736	32.59
334.201	32.79
334.666	37.29
335.131	44.69
335.596	38.49
336.061	37.59
336.526	31.29
336.991	35.29
337.456	40.59
337.921	34.69
338.386	28.09
338.851	34.19
339.316	39.39
339.781	35.99
340.246	45.89
340.711	35.59
341.175	43.49
341.64	29.39
342.105	39.69
342.569	46.49
343.034	56.39
343.499	47.09
343.963	39.09
344.428	51.39
344.893	50.39
345.357	46.39
345.822	44.59
346.286	48.89
346.751	54.69
347.215	49.59
347.679	52.89
348.144	71.89
348.608	67.09
349.073	56.09
349.537	61.49
350.001	64.69
350.465	73.09
350.93	58.69
351.394	63.09
351.858	50.19
352.322	74.29
352.786	64.49
353.25	73.99
353.715	85.49
354.179	75.09
354.643	91.29
355.107	92.79
355.571	83.89
356.035	88.79
356.498	84.09
356.962	89.69
357.426	89.59
357.89	88.29
358.354	70.69
358.818	67.59
359.281	62.29
359.745	62.79
360.209	63.39
360.673	62.79
361.136	60.89
361.6	71.29
362.064	69.79
362.527	62.49
362.991	80.39
363.454	65.39
363.918	69.09
364.381	66.89
364.845	71.59
365.308	72.19
365.772	74.79
366.235	67.89
366.698	69.59
367.162	70.49
367.625	73.59
368.088	69.99
368.552	76.79
369.015	68.99
369.478	80.19
369.941	80.59
370.404	81.49
370.867	86.49
371.331	87.89
371.794	89.19
372.257	86.09
372.72	95.69
373.183	91.99
373.646	86.99
374.109	89.09
374.572	87.79
375.035	81.79
375.497	96.09
375.96	93.99
376.423	88.69
376.886	92.99
377.349	87.69
377.811	85.79
378.274	97.39
378.737	92.49
379.199	95.29
379.662	96.49
380.125	96.19
380.587	101.19
381.05	95.89
381.512	108.19
381.975	109.59
382.437	113.89
382.9	105.89
383.362	110.49
383.825	117.99
384.287	117.39
384.75	123.79
385.212	119.49
385.674	120.29
386.136	120.49
386.599	111.99
387.061	103.89
387.523	114.59
387.985	118.29
388.447	120.19
388.91	125.39
389.372	128.89
389.834	125.79
390.296	121.89
390.758	127.39
391.22	136.59
391.682	167.59
392.144	228.89
392.606	186.99
393.068	138.69
393.529	146.79
393.991	129.99
394.453	121.09
394.915	138.19
395.377	157.99
395.838	173.89
396.3	133.69
396.762	123.99
397.224	115.29
397.685	116.69
398.147	117.29
398.608	115.79
399.07	113.39
399.531	120.99
399.993	127.29
400.454	128.49
400.916	130.49
401.377	127.19
401.839	128.29
402.3	133.99
402.762	144.69
403.223	156.09
403.684	146.19
404.145	148.89
404.607	142.59
405.068	140.09
405.529	149.19
405.99	157.79
406.451	152.99
406.913	150.39
407.374	134.79
407.835	139.59
408.296	150.29
408.757	151.99
409.218	160.79
409.679	158.79
410.14	159.79
410.601	152.59
411.062	163.89
411.522	163.89
411.983	170.29
412.444	161.99
412.905	158.49
413.366	159.69
413.826	167.19
414.287	198.89
414.748	232.09
415.208	223.39
415.669	193.09
416.13	188.49
416.59	174.59
417.051	200.69
417.511	199.49
417.972	213.29
418.432	219.29
418.893	264.29
419.353	223.59
419.814	179.79
420.274	165.89
420.734	160.69
421.195	169.09
421.655	178.69
422.115	171.89
422.576	173.29
423.036	180.09
423.496	185.39
423.956	191.89
424.416	209.29
424.876	238.69
425.336	228.19
425.797	232.29
426.257	222.39
426.717	216.49
427.177	207.39
427.637	193.89
428.097	207.49
428.556	217.49
429.016	238.19
429.476	225.69
429.936	237.09
430.396	239.49
430.856	259.09
431.315	276.79
431.775	298.89
432.235	327.69
432.694	312.79
433.154	309.79
433.614	322.39
434.073	281.89
434.533	245.39
434.993	244.49
435.452	255.39
435.912	260.19
436.371	245.59
436.83	238.99
437.29	235.39
437.749	213.89
438.209	211.49
438.668	229.49
439.127	239.69
439.587	225.59
440.046	210.79
440.505	229.09
440.964	235.39
441.424	262.69
441.883	248.99
442.342	225.79
442.801	204.49
443.26	196.59
443.719	199.39
444.178	193.49
444.637	187.29
445.096	186.59
445.555	194.09
446.014	202.09
446.473	200.69
446.932	202.29
447.391	207.09
447.849	204.29
448.308	195.99
448.767	198.39
449.226	206.69
449.685	213.99
450.143	225.59
450.602	210.29
451.061	205.49
451.519	209.39
451.978	206.79
452.436	212.89
452.895	207.79
453.353	222.19
453.812	206.79
454.27	213.99
454.729	213.39
455.187	200.69
455.646	215.19
456.104	214.49
456.562	226.49
457.021	231.69
457.479	228.29
457.937	228.19
458.395	237.09
458.854	220.19
459.312	222.19
459.77	238.59
460.228	215.79
460.686	215.29
461.144	217.59
461.602	214.79
462.06	218.99
462.518	215.59
462.976	223.39
463.434	222.29
463.892	234.89
464.35	230.89
464.808	246.09
465.266	236.59
465.724	239.39
466.181	243.39
466.639	242.59
467.097	266.49
467.555	264.59
468.012	272.09
468.47	263.39
468.928	288.39
469.385	295.29
469.843	301.59
470.3	304.29
470.758	315.59
471.215	324.19
471.673	343.49
472.13	345.39
472.588	357.99
473.045	322.49
473.503	339.49
473.96	349.09
474.417	360.29
474.875	378.59
475.332	406.99
475.789	401.79
476.246	408.19
476.704	421.79
477.161	438.89
477.618	444.49
478.075	483.59
478.532	532.69
478.989	586.59
479.446	662.69
479.903	663.69
480.36	711.39
480.817	743.99
481.274	840.29
481.731	927.49
482.188	1000.79
482.645	1129.19
483.102	1214.09
483.558	1346.69
484.015	1397.89
484.472	1377.19
484.929	1330.29
485.385	1284.19
485.842	1255.29
486.299	1195.09
486.755	1105.39
487.212	955.19
487.668	824.99
488.125	755.39
488.582	702.09
489.038	668.69
489.494	633.39
489.951	612.19
490.407	596.09
490.864	568.59
491.32	571.29
491.776	555.99
492.233	563.49
492.689	530.39
493.145	530.09
493.602	534.79
494.058	531.09
494.514	533.09
494.97	550.39
495.426	559.39
495.882	537.59
496.338	534.89
496.794	549.39
497.251	532.19
497.707	550.89
498.163	558.29
498.618	554.59
499.074	558.59
499.53	571.29
499.986	578.99
500.442	560.69
500.898	551.99
501.354	548.19
501.809	550.09
502.265	550.59
502.721	573.49
503.177	575.19
503.632	570.09
504.088	585.89
504.543	604.89
504.999	605.99
505.455	572.19
505.91	546.19
506.366	553.29
506.821	549.89
507.277	540.49
507.732	542.39
508.187	549.69
508.643	550.99
509.098	554.99
509.553	566.99
510.009	580.79
510.464	583.19
510.919	595.49
511.375	608.09
511.83	608.99
512.285	626.19
512.74	651.49
513.195	669.19
513.65	683.19
514.105	672.69
514.56	670.69
515.015	689.19
515.47	699.39
515.925	673.59
516.38	682.69
516.835	691.59
517.29	677.09
517.745	679.19
518.2	668.79
518.655	653.29
519.109	637.99
519.564	645.29
520.019	622.79
520.474	627.99
520.928	625.59
521.383	622.09
521.838	611.19
522.292	616.69
522.747	613.29
523.201	598.59
523.656	603.19
524.11	594.19
524.565	597.19
525.019	587.89
525.474	608.69
525.928	602.29
526.382	590.79
526.837	595.69
527.291	611.59
527.745	605.39
528.2	595.99
528.654	589.49
529.108	591.59
529.562	592.19
530.016	588.99
530.47	587.89
530.925	594.79
531.379	591.39
531.833	605.19
532.287	595.19
532.741	591.19
533.195	600.99
533.649	606.79
534.103	610.39
534.556	603.79
535.01	604.19
535.464	604.99
535.918	606.49
536.372	614.49
536.826	600.39
537.279	598.79
537.733	604.69
538.187	607.89
538.64	600.49
539.094	615.39
539.548	612.69
540.001	621.99
540.455	611.29
540.908	616.99
541.362	623.49
541.815	622.69
542.269	640.99
542.722	641.59
543.175	645.89
543.629	644.79
544.082	667.99
544.536	657.49
544.989	664.09
545.442	667.79
545.895	668.79
546.349	664.09
546.802	668.19
547.255	679.09
547.708	676.19
548.161	676.19
548.614	689.99
549.067	685.79
549.52	677.89
549.973	681.79
550.426	680.09
550.879	671.79
551.332	659.09
551.785	670.09
552.238	673.09
552.691	685.89
553.144	699.99
553.596	700.89
554.049	722.69
554.502	748.79
554.955	759.59
555.407	759.19
555.86	752.69
556.313	737.39
556.765	732.99
557.218	738.69
557.67	729.99
558.123	719.79
558.576	724.19
559.028	731.99
559.48	736.09
559.933	719.09
560.385	700.29
560.838	669.79
561.29	658.79
561.742	645.09
562.195	624.09
562.647	626.49
563.099	639.19
563.551	639.39
564.004	652.99
564.456	644.69
564.908	626.49
565.36	611.19
565.812	606.69
566.264	600.79
566.716	592.39
567.168	587.39
567.62	584.69
568.072	580.99
568.524	563.69
568.976	566.59
569.428	547.59
569.88	541.79
570.332	550.19
570.784	550.19
571.235	549.99
571.687	566.59
572.139	571.79
572.59	589.79
573.042	586.89
573.494	575.69
573.945	573.79
574.397	555.99
574.849	561.99
575.3	558.09
575.752	552.39
576.203	548.39
576.655	554.89
577.106	537.39
577.557	532.59
578.009	541.49
578.46	526.09
578.912	540.29
579.363	526.29
579.814	533.49
580.265	534.99
580.717	542.29
581.168	537.59
581.619	545.09
582.07	549.09
582.521	539.19
582.972	541.19
583.423	545.49
583.875	546.99
584.326	556.09
584.777	590.59
585.227	656.59
585.678	719.39
586.129	789.39
586.58	848.69
587.031	906.89
587.482	1027.19
587.933	1170.89
588.384	1027.09
588.834	772.59
589.285	652.99
589.736	635.09
590.186	624.29
590.637	613.89
591.088	603.89
591.538	589.59
591.989	586.69
592.439	580.29
592.89	584.39
593.34	562.49
593.791	563.79
594.241	559.29
594.692	553.89
595.142	546.69
595.593	548.39
596.043	553.39
596.493	559.99
596.943	562.69
597.394	569.39
597.844	562.69
598.294	578.59
598.744	594.09
599.195	622.89
599.645	641.79
600.095	672.29
600.545	723.59
600.995	768.49
601.445	812.09
601.895	866.39
602.345	896.29
602.795	883.59
603.245	851.59
603.695	807.59
604.145	758.09
604.594	724.49
605.044	680.29
605.494	630.39
605.944	579.09
606.393	584.69
606.843	562.09
607.293	573.59
607.743	564.39
608.192	583.59
608.642	590.49
609.091	593.89
609.541	601.49
609.99	598.79
610.44	593.29
610.889	563.79
611.339	544.89
611.788	528.89
612.238	543.09
612.687	557.49
613.136	560.49
613.586	575.39
614.035	583.59
614.484	581.69
614.933	575.79
615.383	567.69
615.832	568.29
616.281	554.89
616.73	529.39
617.179	527.59
617.628	506.99
618.077	494.89
618.526	484.19
618.975	473.99
619.424	478.09
619.873	471.59
620.322	479.79
620.771	468.89
621.22	464.39
621.669	456.49
622.118	452.89
622.567	444.39
623.015	438.09
623.464	439.09
623.913	436.29
624.361	426.69
624.81	428.29
625.259	429.79
625.707	425.29
626.156	431.79
626.604	439.59
627.053	431.09
627.501	440.59
627.95	441.49
628.398	445.89
628.847	435.49
629.295	440.39
629.744	438.99
630.192	435.79
630.64	429.29
631.089	425.39
631.537	440.59
631.985	435.09
632.433	446.99
632.881	443.29
633.33	484.59
633.778	469.99
634.226	420.19
634.674	435.59
635.122	434.09
635.57	447.59
636.018	468.79
636.466	437.29
636.914	423.49
637.362	433.69
637.81	445.89
638.258	442.39
638.705	445.69
639.153	464.29
639.601	467.79
640.049	488.49
640.497	520.89
640.944	529.39
641.392	489.79
641.84	463.89
642.287	437.29
642.735	434.49
643.182	435.49
643.63	431.69
644.078	438.49
644.525	448.19
644.973	452.79
645.42	460.09
645.867	477.49
646.315	485.49
646.762	496.39
647.21	525.79
647.657	535.89
648.104	557.79
648.551	581.29
648.999	632.19
649.446	693.09
649.893	756.99
650.34	860.39
650.787	1029.99
651.234	1258.79
651.682	1639.89
652.129	2229.19
652.576	3174.79
653.023	4715.69
653.47	6565.89
653.917	8260.99
654.363	9797.49
654.81	11072.69
655.257	10504.29
655.704	6836.99
656.151	4004.89
656.598	2581.19
657.044	1834.19
657.491	1410.99
657.938	1133.79
658.385	934.19
658.831	817.49
659.278	732.29
659.724	641.69
660.171	588.29
660.618	538.19
661.064	514.59
661.511	488.29
661.957	476.49
662.404	470.59
662.85	471.69
663.296	458.79
663.743	420.99
664.189	402.29
664.635	406.29
665.082	389.59
665.528	397.49
665.974	387.89
666.42	384.19
666.867	381.39
667.313	362.49
667.759	369.39
668.205	364.09
668.651	367.39
669.097	361.39
669.543	368.69
669.989	357.89
670.435	332.09
670.881	336.59
671.327	338.29
671.773	348.49
672.219	363.49
672.665	404.49
673.11	431.99
673.556	474.89
674.002	498.69
674.448	497.69
674.893	417.19
675.339	363.89
675.785	318.39
676.23	312.89
676.676	294.49
677.122	275.99
677.567	279.19
678.013	274.39
678.458	263.29
678.904	260.59
679.349	252.59
679.794	267.49
680.24	263.09
680.685	263.59
681.131	266.99
681.576	257.79
682.021	265.49
682.466	262.99
682.912	255.49
683.357	254.49
683.802	283.49
684.247	303.09
684.692	323.09
685.137	365.59
685.583	409.69
686.028	422.69
686.473	385.39
686.918	322.09
687.363	307.59
687.807	294.09
688.252	274.49
688.697	262.19
689.142	246.59
689.587	246.19
690.032	232.89
690.477	258.09
690.921	255.39
691.366	279.49
691.811	305.69
692.255	323.79
692.7	341.69
693.145	369.49
693.589	505.09
694.034	807.09
694.478	1135.99
694.923	1318.99
695.367	1760.39
695.812	911.19
696.256	373.39
696.701	279.19
697.145	256.69
697.59	238.69
698.034	236.39
698.478	238.59
698.922	237.89
699.367	243.49
699.811	248.39
700.255	258.39
700.699	281.59
701.143	303.99
701.588	352.69
702.032	385.19
702.476	383.79
702.92	366.59
703.364	366.09
703.808	457.49
704.252	747.49
704.696	1053.49
705.14	1267.69
705.584	1637.79
706.027	812.99
706.471	390.39
706.915	288.89
707.359	255.59
707.803	232.89
708.246	230.29
708.69	227.29
709.134	231.09
709.577	236.49
710.021	236.99
710.465	223.49
710.908	222.09
711.352	222.39
711.795	218.79
712.239	247.39
712.682	277.99
713.126	304.09
713.569	349.89
714.012	277.39
714.456	239.49
714.899	219.89
715.342	202.79
715.786	195.89
716.229	196.39
716.672	190.69
717.115	181.39
717.558	186.89
718.002	185.69
718.445	191.99
718.888	210.49
719.331	211.49
719.774	224.39
720.217	227.09
720.66	210.09
721.103	202.29
721.546	186.39
721.989	182.59
722.432	158.79
722.874	178.59
723.317	173.79
723.76	171.49
724.203	191.29
724.645	224.39
725.088	316.19
725.531	418.39
725.974	491.69
726.416	417.49
726.859	228.99
727.301	183.79
727.744	173.59
728.187	175.49
728.629	176.19
729.071	176.29
729.514	193.69
729.956	202.49
730.399	209.89
730.841	209.99
731.283	192.29
731.726	201.09
732.168	193.29
732.61	189.79
733.053	205.79
733.495	230.09
733.937	263.19
734.379	283.69
734.821	316.19
735.263	396.49
735.705	604.19
736.148	1125.09
736.59	1895.09
737.032	2369.89
737.474	1921.19
737.916	615.59
738.357	315.69
738.799	239.89
739.241	211.29
739.683	208.09
740.125	214.09
740.567	219.29
741.008	240.29
741.45	235.79
741.892	228.49
742.334	256.19
742.775	272.99
743.217	253.79
743.658	199.39
744.1	183.69
744.542	191.99
744.983	230.29
745.425	268.39
745.866	260.59
746.307	206.49
746.749	204.09
747.19	237.19
747.632	320.39
748.073	609.99
748.514	1336.29
748.956	2134.49
749.397	2669.89
749.838	2231.69
750.279	2300.39
750.72	1151.89
751.162	413.59
751.603	235.29
752.044	185.29
752.485	155.79
752.926	151.39
753.367	138.59
753.808	134.99
754.249	144.99
754.69	137.09
755.131	129.79
755.572	131.99
756.013	133.29
756.453	130.99
756.894	129.69
757.335	133.09
757.776	140.19
758.216	137.69
758.657	146.49
759.098	140.89
759.538	166.19
759.979	192.39
760.42	262.69
760.86	501.09
761.301	1280.69
761.741	3256.09
762.182	5093.89
762.622	3612.19
763.063	1011.39
763.503	407.39
763.943	251.09
764.384	249.19
