Data from 20171114-ORNL-Ar_H_NY_Subt18_08-06-07-631.txt Node
Date: Tue Nov 14 08:06:07 EST 2017
User: Ender
Spectrometer: HR+D1039
Trigger mode: 0
Integration Time (sec): 2.730000E-2
Scans to average: 10
Electric dark correction enabled: true
Nonlinearity correction enabled: false
Boxcar width: 0
XAxis mode: Wavelengths
Number of Pixels in Spectrum: 2048
>>>>>Begin Spectral Data<<<<<
187.836	-4.55
188.309	-4.55
188.782	-4.55
189.255	0.65
189.728	-0.35
190.201	7.95
190.674	3.75
191.147	6.15
191.619	-7.65
192.092	2.45
192.565	3.45
193.038	-0.45
193.511	-1.15
193.984	1.75
194.456	-7.55
194.929	1.25
195.402	-5.25
195.874	-0.45
196.347	1.25
196.82	-5.75
197.292	7.35
197.765	-5.65
198.237	-6.95
198.71	-3.35
199.182	-7.55
199.655	3.55
200.127	5.15
200.6	-3.05
201.072	-4.35
201.544	-4.75
202.017	-5.45
202.489	5.75
202.961	-0.45
203.433	-2.95
203.906	-1.55
204.378	-7.95
204.85	-5.85
205.322	-7.45
205.794	-6.25
206.266	-3.85
206.739	-13.35
207.211	-2.65
207.683	-3.45
208.155	-8.65
208.627	-7.45
209.099	-10.25
209.57	-2.65
210.042	-4.85
210.514	-1.75
210.986	-3.85
211.458	-5.45
211.93	1.45
212.402	3.75
212.873	-8.25
213.345	-3.65
213.817	-11.25
214.288	-3.35
214.76	-12.55
215.232	0.15
215.703	-5.65
216.175	-6.85
216.646	-6.25
217.118	-1.65
217.589	-6.35
218.061	-3.95
218.532	-11.15
219.004	0.85
219.475	-0.65
219.946	-2.35
220.418	-8.45
220.889	1.15
221.36	0.95
221.832	-6.45
222.303	-6.05
222.774	-8.25
223.245	-8.65
223.717	-5.85
224.188	-6.25
224.659	-6.35
225.13	-9.55
225.601	-0.65
226.072	-3.35
226.543	0.75
227.014	-1.75
227.485	-1.05
227.956	-7.35
228.427	-3.05
228.898	3.95
229.369	3.15
229.839	-8.75
230.31	-5.85
230.781	-1.15
231.252	0.45
231.722	-4.85
232.193	-1.85
232.664	-3.75
233.135	5.35
233.605	-0.55
234.076	-8.35
234.546	3.85
235.017	3.65
235.487	-3.25
235.958	-3.05
236.428	-3.45
236.899	8.05
237.369	1.75
237.84	1.65
238.31	7.85
238.78	1.75
239.251	2.85
239.721	-1.25
240.191	1.05
240.662	5.05
241.132	-2.25
241.602	-2.25
242.072	3.85
242.542	5.85
243.013	-2.05
243.483	1.15
243.953	3.55
244.423	5.05
244.893	-3.25
245.363	2.45
245.833	4.85
246.303	-3.65
246.773	5.65
247.243	-1.25
247.712	2.35
248.182	13.65
248.652	6.25
249.122	-3.65
249.592	12.35
250.061	22.75
250.531	33.15
251.001	13.75
251.471	21.25
251.94	16.45
252.41	3.65
252.879	3.35
253.349	14.75
253.818	12.15
254.288	6.35
254.757	9.35
255.227	-0.15
255.696	-1.05
256.166	6.05
256.635	3.85
257.105	9.55
257.574	9.85
258.043	17.05
258.513	14.95
258.982	17.15
259.451	10.75
259.92	9.75
260.389	9.95
260.859	12.05
261.328	15.65
261.797	16.05
262.266	11.05
262.735	5.45
263.204	10.75
263.673	-0.55
264.142	-0.95
264.611	0.55
265.08	3.15
265.549	5.65
266.018	7.05
266.487	2.15
266.955	-0.35
267.424	0.95
267.893	9.95
268.362	1.55
268.83	4.45
269.299	12.35
269.768	5.75
270.236	7.25
270.705	1.55
271.174	4.75
271.642	7.75
272.111	8.75
272.579	11.95
273.048	23.95
273.516	32.05
273.985	31.85
274.453	24.95
274.922	23.05
275.39	12.55
275.858	3.85
276.327	11.35
276.795	18.65
277.263	8.95
277.731	26.85
278.2	53.85
278.668	58.45
279.136	47.65
279.604	17.95
280.072	15.85
280.54	10.35
281.008	11.05
281.477	12.45
281.945	11.05
282.413	9.75
282.881	14.95
283.348	12.45
283.816	20.55
284.284	12.85
284.752	20.35
285.22	19.25
285.688	16.25
286.156	19.25
286.623	51.95
287.091	52.55
287.559	32.05
288.026	16.65
288.494	18.65
288.962	4.85
289.429	15.95
289.897	17.95
290.364	17.95
290.832	16.55
291.3	12.85
291.767	12.85
292.234	17.05
292.702	15.75
293.169	16.95
293.637	21.85
294.104	22.35
294.571	9.25
295.039	18.35
295.506	17.35
295.973	23.15
296.44	18.35
296.908	25.65
297.375	23.65
297.842	16.25
298.309	17.85
298.776	13.25
299.243	21.55
299.71	13.75
300.177	23.65
300.644	22.15
301.111	20.95
301.578	26.95
302.045	23.35
302.512	26.85
302.979	25.75
303.446	26.85
303.913	16.75
304.379	17.15
304.846	26.15
305.313	23.15
305.78	24.05
306.246	26.65
306.713	24.15
307.18	28.95
307.646	27.95
308.113	30.15
308.579	25.65
309.046	28.95
309.512	30.35
309.979	24.55
310.445	25.55
310.912	24.25
311.378	32.35
311.845	22.75
312.311	25.25
312.777	36.15
313.244	32.95
313.71	39.95
314.176	35.75
314.642	30.15
315.109	29.95
315.575	34.55
316.041	40.75
316.507	29.85
316.973	37.95
317.439	34.95
317.905	34.45
318.371	42.55
318.837	37.05
319.303	34.65
319.769	36.95
320.235	33.55
320.701	32.95
321.167	33.25
321.633	36.95
322.099	41.75
322.564	49.05
323.03	41.25
323.496	40.55
323.962	47.05
324.427	40.75
324.893	43.55
325.359	42.85
325.824	40.75
326.29	36.95
326.755	36.85
327.221	39.85
327.686	38.15
328.152	47.05
328.617	40.35
329.083	42.65
329.548	44.75
330.014	44.85
330.479	40.95
330.944	45.15
331.41	43.05
331.875	47.05
332.34	46.75
332.805	47.25
333.271	45.95
333.736	46.45
334.201	48.95
334.666	51.95
335.131	54.15
335.596	54.45
336.061	55.15
336.526	39.15
336.991	50.85
337.456	55.55
337.921	52.25
338.386	48.45
338.851	46.45
339.316	52.15
339.781	50.15
340.246	47.95
340.711	48.75
341.175	49.35
341.64	45.15
342.105	51.75
342.569	59.65
343.034	59.75
343.499	56.35
343.963	53.45
344.428	64.35
344.893	65.75
345.357	65.05
345.822	60.25
346.286	67.75
346.751	77.05
347.215	68.55
347.679	78.15
348.144	98.55
348.608	81.85
349.073	69.85
349.537	73.35
350.001	78.85
350.465	90.05
350.93	83.35
351.394	87.75
351.858	71.15
352.322	87.35
352.786	84.05
353.25	105.45
353.715	114.95
354.179	106.35
354.643	118.35
355.107	122.85
355.571	107.65
356.035	105.25
356.498	119.25
356.962	126.15
357.426	131.35
357.89	124.55
358.354	87.75
358.818	85.05
359.281	89.65
359.745	75.45
360.209	77.95
360.673	81.45
361.136	83.75
361.6	88.45
362.064	87.85
362.527	82.55
362.991	95.45
363.454	80.75
363.918	81.95
364.381	70.45
364.845	81.05
365.308	88.75
365.772	93.55
366.235	85.35
366.698	86.35
367.162	85.25
367.625	84.65
368.088	91.45
368.552	93.15
369.015	90.25
369.478	92.55
369.941	96.75
370.404	94.25
370.867	106.65
371.331	105.35
371.794	111.95
372.257	108.35
372.72	117.95
373.183	111.05
373.646	105.65
374.109	98.35
374.572	100.25
375.035	116.35
375.497	116.05
375.96	105.25
376.423	107.65
376.886	116.55
377.349	110.55
377.811	107.75
378.274	110.35
378.737	112.05
379.199	114.65
379.662	113.15
380.125	116.05
380.587	120.25
381.05	126.15
381.512	130.05
381.975	134.35
382.437	132.15
382.9	139.85
383.362	139.45
383.825	152.95
384.287	142.55
384.75	141.45
385.212	146.05
385.674	149.95
386.136	134.05
386.599	133.75
387.061	130.75
387.523	135.15
387.985	134.45
388.447	142.05
388.91	146.25
389.372	160.25
389.834	152.85
390.296	140.05
390.758	153.35
391.22	168.35
391.682	215.35
392.144	299.85
392.606	231.65
393.068	171.65
393.529	174.05
393.991	159.45
394.453	149.45
394.915	157.85
395.377	196.95
395.838	214.85
396.3	164.45
396.762	141.95
397.224	134.45
397.685	133.35
398.147	133.45
398.608	127.25
399.07	132.45
399.531	134.45
399.993	142.95
400.454	146.25
400.916	146.05
401.377	142.25
401.839	157.45
402.3	158.85
402.762	166.65
403.223	179.15
403.684	177.95
404.145	164.55
404.607	159.25
405.068	171.65
405.529	172.65
405.99	189.95
406.451	175.75
406.913	177.85
407.374	164.45
407.835	160.85
408.296	170.15
408.757	169.45
409.218	184.95
409.679	175.65
410.14	176.25
410.601	178.05
411.062	180.55
411.522	192.35
411.983	187.45
412.444	176.45
412.905	181.65
413.366	181.35
413.826	189.55
414.287	219.35
414.748	259.55
415.208	253.85
415.669	214.75
416.13	210.35
416.59	198.05
417.051	211.65
417.511	219.45
417.972	243.45
418.432	240.75
418.893	287.85
419.353	254.55
419.814	199.95
420.274	176.35
420.734	188.05
421.195	203.45
421.655	202.35
422.115	189.35
422.576	192.85
423.036	196.45
423.496	197.65
423.956	223.35
424.416	228.15
424.876	267.45
425.336	265.25
425.797	266.75
426.257	253.25
426.717	240.25
427.177	231.35
427.637	218.45
428.097	243.05
428.556	251.55
429.016	274.65
429.476	267.15
429.936	278.85
430.396	276.25
430.856	300.15
431.315	321.75
431.775	356.75
432.235	387.85
432.694	357.25
433.154	369.75
433.614	402.65
434.073	347.45
434.533	289.65
434.993	279.95
435.452	289.75
435.912	302.05
436.371	293.85
436.83	287.45
437.29	275.95
437.749	247.85
438.209	251.25
438.668	278.15
439.127	291.65
439.587	265.05
440.046	242.15
440.505	260.35
440.964	278.95
441.424	327.05
441.883	323.25
442.342	261.45
442.801	217.75
443.26	226.55
443.719	222.25
444.178	222.85
444.637	203.35
445.096	218.25
445.555	220.25
446.014	223.25
446.473	234.35
446.932	233.85
447.391	226.35
447.849	225.25
448.308	219.55
448.767	224.15
449.226	234.25
449.685	239.95
450.143	253.25
450.602	232.95
451.061	227.05
451.519	238.95
451.978	235.45
452.436	238.05
452.895	242.25
453.353	251.25
453.812	240.55
454.27	238.65
454.729	243.85
455.187	242.85
455.646	246.95
456.104	249.95
456.562	272.25
457.021	272.35
457.479	264.75
457.937	279.45
458.395	267.05
458.854	252.25
459.312	257.35
459.77	272.75
460.228	261.35
460.686	246.25
461.144	253.65
461.602	241.75
462.06	247.05
462.518	254.95
462.976	255.35
463.434	261.35
463.892	261.45
464.35	280.95
464.808	292.95
465.266	268.55
465.724	265.25
466.181	283.95
466.639	272.75
467.097	291.55
467.555	303.55
468.012	306.35
468.47	315.35
468.928	330.05
469.385	346.15
469.843	350.65
470.3	356.75
470.758	370.15
471.215	387.35
471.673	404.35
472.13	408.45
472.588	423.15
473.045	376.95
473.503	380.75
473.96	405.05
474.417	396.75
474.875	442.05
475.332	484.05
475.789	465.75
476.246	474.15
476.704	487.95
477.161	510.45
477.618	529.95
478.075	564.75
478.532	623.45
478.989	696.05
479.446	823.75
479.903	784.15
480.36	820.15
480.817	882.55
481.274	1001.95
481.731	1108.75
482.188	1203.85
482.645	1340.85
483.102	1439.15
483.558	1581.65
484.015	1628.35
484.472	1609.15
484.929	1550.15
485.385	1501.15
485.842	1459.65
486.299	1397.85
486.755	1320.35
487.212	1109.65
487.668	939.95
488.125	854.35
488.582	793.35
489.038	758.15
489.494	723.25
489.951	690.45
490.407	675.95
490.864	650.75
491.32	650.35
491.776	648.95
492.233	652.15
492.689	617.65
493.145	608.65
493.602	616.95
494.058	616.45
494.514	622.15
494.97	643.35
495.426	655.15
495.882	627.55
496.338	623.35
496.794	628.15
497.251	626.35
497.707	648.15
498.163	640.75
498.618	653.75
499.074	659.15
499.53	681.95
499.986	678.55
500.442	659.75
500.898	644.05
501.354	627.55
501.809	648.55
502.265	649.25
502.721	672.35
503.177	679.45
503.632	671.85
504.088	689.45
504.543	723.15
504.999	721.75
505.455	665.55
505.91	641.45
506.366	634.95
506.821	627.65
507.277	629.75
507.732	627.05
508.187	623.95
508.643	637.45
509.098	639.35
509.553	662.65
510.009	672.15
510.464	678.85
510.919	697.95
511.375	697.05
511.83	722.85
512.285	725.75
512.74	773.05
513.195	797.95
513.65	779.85
514.105	780.25
514.56	780.85
515.015	809.15
515.47	817.65
515.925	804.15
516.38	796.95
516.835	804.45
517.29	789.15
517.745	786.75
518.2	771.55
518.655	761.65
519.109	751.85
519.564	747.65
520.019	739.85
520.474	736.15
520.928	732.05
521.383	722.95
521.838	717.05
522.292	722.05
522.747	711.45
523.201	717.15
523.656	704.25
524.11	695.95
524.565	696.75
525.019	692.35
525.474	704.05
525.928	708.55
526.382	718.45
526.837	705.75
527.291	705.45
527.745	697.85
528.2	706.15
528.654	696.85
529.108	692.15
529.562	694.25
530.016	695.95
530.47	695.55
530.925	689.45
531.379	709.15
531.833	711.85
532.287	703.65
532.741	705.05
533.195	721.15
533.649	709.55
534.103	725.85
534.556	705.25
535.01	727.45
535.464	720.05
535.918	726.05
536.372	720.25
536.826	726.65
537.279	714.05
537.733	721.15
538.187	724.15
538.64	733.55
539.094	733.35
539.548	735.15
540.001	728.25
540.455	730.25
540.908	737.25
541.362	738.95
541.815	752.45
542.269	752.05
542.722	774.75
543.175	774.05
543.629	778.55
544.082	790.05
544.536	798.05
544.989	778.25
545.442	793.95
545.895	796.25
546.349	790.45
546.802	800.25
547.255	797.15
547.708	801.65
548.161	821.25
548.614	818.35
549.067	838.65
549.52	813.65
549.973	813.55
550.426	818.55
550.879	792.85
551.332	800.95
551.785	821.25
552.238	817.75
552.691	830.55
553.144	839.25
553.596	852.05
554.049	869.45
554.502	910.65
554.955	911.45
555.407	920.05
555.86	916.15
556.313	904.75
556.765	883.45
557.218	890.35
557.67	886.35
558.123	883.85
558.576	882.75
559.028	879.55
559.48	885.55
559.933	867.45
560.385	843.75
560.838	804.85
561.29	778.35
561.742	792.45
562.195	761.65
562.647	769.05
563.099	788.35
563.551	772.65
564.004	788.35
564.456	774.45
564.908	766.65
565.36	746.45
565.812	736.15
566.264	737.15
566.716	727.65
567.168	715.55
567.62	728.15
568.072	706.55
568.524	703.15
568.976	696.35
569.428	675.15
569.88	671.75
570.332	684.15
570.784	694.85
571.235	678.75
571.687	695.25
572.139	703.75
572.59	714.55
573.042	712.95
573.494	724.05
573.945	706.85
574.397	691.35
574.849	697.45
575.3	692.95
575.752	686.85
576.203	680.35
576.655	679.65
577.106	669.85
577.557	662.55
578.009	668.65
578.46	660.45
578.912	669.85
579.363	669.75
579.814	670.55
580.265	666.85
580.717	670.35
581.168	673.15
581.619	683.45
582.07	693.25
582.521	681.45
582.972	670.05
583.423	679.15
583.875	681.45
584.326	704.45
584.777	751.45
585.227	830.25
585.678	930.35
586.129	1016.95
586.58	1101.65
587.031	1168.65
587.482	1335.95
587.933	1528.35
588.384	1326.35
588.834	986.15
589.285	802.75
589.736	789.45
590.186	776.35
590.637	758.45
591.088	738.85
591.538	737.95
591.989	732.45
592.439	729.55
592.89	716.55
593.34	717.55
593.791	711.15
594.241	698.75
594.692	704.95
595.142	698.75
595.593	699.85
596.043	707.55
596.493	707.45
596.943	719.05
597.394	722.95
597.844	711.15
598.294	726.95
598.744	744.65
599.195	774.95
599.645	811.35
600.095	860.55
600.545	915.75
600.995	971.15
601.445	1016.45
601.895	1082.45
602.345	1130.15
602.795	1104.85
603.245	1078.15
603.695	1012.35
604.145	945.15
604.594	924.75
605.044	854.75
605.494	793.95
605.944	749.45
606.393	745.75
606.843	720.75
607.293	730.85
607.743	727.65
608.192	744.15
608.642	758.35
609.091	768.25
609.541	770.95
609.99	773.95
610.44	763.25
610.889	718.25
611.339	704.75
611.788	685.55
612.238	702.35
612.687	718.35
613.136	723.75
613.586	733.15
614.035	729.85
614.484	755.25
614.933	757.25
615.383	746.05
615.832	740.75
616.281	724.35
616.73	689.65
617.179	667.65
617.628	653.05
618.077	629.85
618.526	618.25
618.975	618.95
619.424	613.45
619.873	611.85
620.322	622.25
620.771	599.55
621.22	600.15
621.669	587.85
622.118	583.25
622.567	570.65
623.015	565.85
623.464	574.25
623.913	562.85
624.361	549.65
624.81	550.75
625.259	544.25
625.707	560.65
626.156	554.15
626.604	559.85
627.053	562.55
627.501	557.55
627.95	558.95
628.398	577.85
628.847	571.85
629.295	563.15
629.744	575.25
630.192	570.65
630.64	554.15
631.089	557.35
631.537	570.85
631.985	580.65
632.433	595.45
632.881	611.95
633.33	654.95
633.778	641.85
634.226	564.95
634.674	577.55
635.122	573.35
635.57	593.25
636.018	626.55
636.466	576.65
636.914	553.05
637.362	571.25
637.81	571.55
638.258	575.55
638.705	574.35
639.153	595.35
639.601	618.15
640.049	632.45
640.497	666.55
640.944	689.95
641.392	626.25
641.84	609.15
642.287	586.75
642.735	561.95
643.182	573.05
643.63	576.95
644.078	569.25
644.525	593.25
644.973	594.35
645.42	605.85
645.867	614.35
646.315	627.45
646.762	659.05
647.21	684.05
647.657	706.35
648.104	742.75
648.551	765.85
648.999	834.95
649.446	919.45
649.893	1005.85
650.34	1165.75
650.787	1391.25
651.234	1737.05
651.682	2250.35
652.129	3102.25
652.576	4469.05
653.023	6595.95
653.47	9069.25
653.917	11365.45
654.363	13140.15
654.81	14535.25
655.257	13824.75
655.704	9056.15
656.151	5312.35
656.598	3453.25
657.044	2429.35
657.491	1871.85
657.938	1489.55
658.385	1237.35
658.831	1081.35
659.278	961.45
659.724	856.15
660.171	787.45
660.618	722.15
661.064	691.35
661.511	658.35
661.957	652.45
662.404	637.75
662.85	644.85
663.296	621.45
663.743	553.65
664.189	521.75
664.635	538.45
665.082	522.45
665.528	520.55
665.974	514.15
666.42	496.45
666.867	499.35
667.313	488.85
667.759	480.75
668.205	471.65
668.651	480.35
669.097	476.65
669.543	495.95
669.989	463.75
670.435	444.75
670.881	440.35
671.327	441.85
671.773	461.65
672.219	482.75
672.665	530.55
673.11	569.75
673.556	616.05
674.002	656.25
674.448	644.25
674.893	546.55
675.339	464.75
675.785	428.35
676.23	412.15
676.676	382.65
677.122	370.85
677.567	371.85
678.013	364.45
678.458	359.15
678.904	351.25
679.349	347.65
679.794	355.95
680.24	350.95
680.685	339.45
681.131	342.75
681.576	341.85
682.021	346.35
682.466	345.35
682.912	345.85
683.357	348.45
683.802	371.75
684.247	402.25
684.692	444.95
685.137	481.35
685.583	529.65
686.028	546.15
686.473	504.15
686.918	439.35
687.363	414.25
687.807	389.65
688.252	360.45
688.697	347.65
689.142	336.15
689.587	328.15
690.032	312.65
690.477	341.65
690.921	342.55
691.366	376.55
691.811	391.05
692.255	417.55
692.7	453.95
693.145	489.35
693.589	676.45
694.034	1093.85
694.478	1508.95
694.923	1700.35
695.367	2218.45
695.812	1179.15
696.256	484.95
696.701	361.25
697.145	340.65
697.59	322.85
698.034	310.05
698.478	329.75
698.922	323.35
699.367	325.05
699.811	330.15
700.255	350.65
700.699	378.05
701.143	419.65
701.588	463.05
702.032	509.65
702.476	500.05
702.92	482.05
703.364	480.45
703.808	614.75
704.252	1001.95
704.696	1413.05
705.14	1640.75
705.584	2084.95
706.027	1037.05
706.471	514.65
706.915	389.15
707.359	349.25
707.803	312.95
708.246	302.55
708.69	307.05
709.134	306.25
709.577	304.35
710.021	307.45
710.465	302.55
710.908	290.15
711.352	295.35
711.795	303.45
712.239	341.65
712.682	378.05
713.126	411.55
713.569	454.25
714.012	362.45
714.456	318.05
714.899	290.55
715.342	273.65
715.786	249.05
716.229	248.95
716.672	249.15
717.115	242.65
717.558	243.55
718.002	239.65
718.445	257.25
718.888	284.65
719.331	290.45
719.774	300.65
720.217	296.75
720.66	280.45
721.103	266.15
721.546	252.35
721.989	247.95
722.432	233.05
722.874	233.35
723.317	221.25
723.76	227.65
724.203	256.95
724.645	310.15
725.088	435.55
725.531	552.65
725.974	627.95
726.416	532.45
726.859	293.05
727.301	245.15
727.744	227.65
728.187	225.65
728.629	230.35
729.071	238.35
729.514	248.85
729.956	272.35
730.399	269.65
730.841	283.05
731.283	268.35
731.726	258.45
732.168	253.85
732.61	254.85
733.053	277.35
733.495	300.65
733.937	341.25
734.379	394.85
734.821	420.45
735.263	531.35
735.705	810.75
736.148	1516.75
736.59	2482.95
737.032	2983.45
737.474	2412.95
737.916	785.15
738.357	416.15
738.799	313.35
739.241	292.55
739.683	280.25
740.125	288.55
740.567	288.55
741.008	306.75
741.45	307.15
741.892	307.05
742.334	338.65
742.775	352.85
743.217	327.25
743.658	257.45
744.1	241.25
744.542	258.55
744.983	304.55
745.425	330.15
745.866	341.65
746.307	276.25
746.749	273.45
747.19	316.95
747.632	432.25
748.073	842.55
748.514	1802.25
748.956	2771.85
749.397	3452.45
749.838	2877.85
750.279	2898.95
750.72	1456.55
751.162	530.45
751.603	315.25
752.044	254.85
752.485	213.35
752.926	198.45
753.367	198.45
753.808	188.05
754.249	181.85
754.69	180.75
755.131	181.55
755.572	172.55
756.013	173.65
756.453	173.95
756.894	180.35
757.335	185.15
757.776	187.65
758.216	191.15
758.657	190.65
759.098	197.45
759.538	216.05
759.979	260.85
760.42	358.55
760.86	671.35
761.301	1746.15
761.741	4256.35
762.182	6258.85
