Data from 20171114-ORNL-Ar_H_NY_Subt18_08-04-43-009.txt Node
Date: Tue Nov 14 08:04:43 EST 2017
User: Ender
Spectrometer: HR+D1039
Trigger mode: 0
Integration Time (sec): 2.730000E-2
Scans to average: 10
Electric dark correction enabled: true
Nonlinearity correction enabled: false
Boxcar width: 0
XAxis mode: Wavelengths
Number of Pixels in Spectrum: 2048
>>>>>Begin Spectral Data<<<<<
187.836	-7.36
188.309	-7.36
188.782	-7.36
189.255	3.84
189.728	-1.26
190.201	7.34
190.674	2.04
191.147	0.94
191.619	-8.26
192.092	0.44
192.565	6.04
193.038	-0.16
193.511	0.74
193.984	0.54
194.456	-2.96
194.929	2.24
195.402	-0.46
195.874	-3.76
196.347	-2.36
196.82	-7.16
197.292	10.04
197.765	-0.96
198.237	-3.16
198.71	2.94
199.182	-3.16
199.655	5.04
200.127	-0.06
200.6	-5.16
201.072	-3.76
201.544	-6.66
202.017	-6.76
202.489	0.74
202.961	-8.76
203.433	-5.56
203.906	-9.26
204.378	-7.66
204.85	-7.46
205.322	-9.56
205.794	-1.86
206.266	-0.86
206.739	-10.46
207.211	-0.86
207.683	-6.26
208.155	-3.56
208.627	-7.56
209.099	-1.06
209.57	-15.06
210.042	-6.36
210.514	-0.36
210.986	-0.06
211.458	-9.16
211.93	-1.96
212.402	2.94
212.873	-4.86
213.345	-9.76
213.817	-17.66
214.288	-2.46
214.76	-10.66
215.232	-5.06
215.703	-1.26
216.175	0.54
216.646	-1.46
217.118	-10.66
217.589	-5.46
218.061	-6.06
218.532	-3.46
219.004	-3.56
219.475	-0.26
219.946	-6.56
220.418	1.84
220.889	4.24
221.36	5.14
221.832	-6.66
222.303	-9.36
222.774	-1.16
223.245	-8.26
223.717	-3.46
224.188	-3.46
224.659	-6.06
225.13	-8.16
225.601	-7.36
226.072	-1.96
226.543	0.64
227.014	2.04
227.485	-4.76
227.956	-7.46
228.427	-3.16
228.898	-1.36
229.369	0.24
229.839	-2.36
230.31	-2.96
230.781	-3.66
231.252	-4.86
231.722	-4.76
232.193	-1.36
232.664	2.84
233.135	3.74
233.605	3.84
234.076	-1.16
234.546	-1.96
235.017	10.54
235.487	5.64
235.958	1.94
236.428	-0.66
236.899	4.44
237.369	5.74
237.84	1.44
238.31	6.64
238.78	5.14
239.251	0.74
239.721	3.44
240.191	3.24
240.662	-0.36
241.132	-0.36
241.602	1.44
242.072	-1.56
242.542	4.84
243.013	0.34
243.483	4.94
243.953	1.74
244.423	-0.06
244.893	-1.36
245.363	-3.26
245.833	8.14
246.303	-2.16
246.773	1.54
247.243	2.84
247.712	9.44
248.182	9.44
248.652	7.64
249.122	4.04
249.592	7.74
250.061	24.24
250.531	38.84
251.001	21.84
251.471	24.74
251.94	18.14
252.41	9.54
252.879	-0.76
253.349	16.44
253.818	11.74
254.288	8.14
254.757	4.54
255.227	0.54
255.696	5.54
256.166	7.14
256.635	5.54
257.105	14.64
257.574	4.94
258.043	4.54
258.513	10.44
258.982	19.94
259.451	16.54
259.92	17.74
260.389	11.14
260.859	22.84
261.328	18.64
261.797	22.74
262.266	8.84
262.735	17.24
263.204	2.84
263.673	10.44
264.142	8.44
264.611	-1.86
265.08	7.84
265.549	3.84
266.018	13.34
266.487	-3.36
266.955	0.14
267.424	-2.76
267.893	7.74
268.362	6.24
268.83	10.14
269.299	12.94
269.768	9.24
270.236	10.24
270.705	3.54
271.174	14.54
271.642	12.54
272.111	9.64
272.579	21.04
273.048	25.64
273.516	36.64
273.985	28.24
274.453	23.54
274.922	13.04
275.39	9.64
275.858	1.44
276.327	13.84
276.795	19.24
277.263	15.64
277.731	34.44
278.2	61.74
278.668	65.44
279.136	49.74
279.604	21.94
280.072	15.74
280.54	16.94
281.008	14.04
281.477	13.54
281.945	11.94
282.413	14.44
282.881	23.44
283.348	9.84
283.816	19.64
284.284	16.04
284.752	27.14
285.22	15.64
285.688	22.34
286.156	18.34
286.623	42.64
287.091	60.74
287.559	29.04
288.026	21.04
288.494	14.64
288.962	5.64
289.429	10.84
289.897	17.84
290.364	12.54
290.832	20.64
291.3	11.64
291.767	17.44
292.234	20.64
292.702	14.74
293.169	20.64
293.637	26.84
294.104	24.14
294.571	12.14
295.039	8.04
295.506	12.34
295.973	19.54
296.44	20.94
296.908	24.64
297.375	20.84
297.842	19.94
298.309	20.64
298.776	12.64
299.243	25.04
299.71	18.94
300.177	20.94
300.644	22.44
301.111	27.34
301.578	29.34
302.045	14.64
302.512	27.84
302.979	26.44
303.446	28.34
303.913	32.14
304.379	25.64
304.846	29.24
305.313	26.94
305.78	18.74
306.246	27.24
306.713	26.44
307.18	33.84
307.646	31.74
308.113	30.94
308.579	25.04
309.046	26.64
309.512	24.94
309.979	19.34
310.445	28.64
310.912	31.64
311.378	41.34
311.845	29.94
312.311	32.44
312.777	28.84
313.244	31.04
313.71	37.24
314.176	32.34
314.642	34.64
315.109	37.44
315.575	38.44
316.041	42.14
316.507	39.04
316.973	36.04
317.439	36.94
317.905	35.84
318.371	39.44
318.837	32.24
319.303	40.74
319.769	34.24
320.235	36.24
320.701	36.44
321.167	36.64
321.633	37.74
322.099	36.64
322.564	46.74
323.03	44.94
323.496	41.74
323.962	40.34
324.427	38.04
324.893	43.54
325.359	46.34
325.824	41.14
326.29	40.74
326.755	37.24
327.221	41.54
327.686	39.44
328.152	48.64
328.617	44.24
329.083	47.14
329.548	53.44
330.014	51.04
330.479	45.94
330.944	47.94
331.41	41.24
331.875	51.84
332.34	43.44
332.805	44.64
333.271	43.54
333.736	43.64
334.201	54.44
334.666	50.74
335.131	54.14
335.596	50.84
336.061	54.04
336.526	46.14
336.991	51.44
337.456	54.04
337.921	44.04
338.386	39.74
338.851	47.74
339.316	53.34
339.781	46.14
340.246	52.24
340.711	50.74
341.175	54.64
341.64	47.84
342.105	60.34
342.569	61.84
343.034	61.54
343.499	52.94
343.963	61.94
344.428	63.84
344.893	55.94
345.357	56.94
345.822	54.94
346.286	66.74
346.751	77.04
347.215	70.04
347.679	74.74
348.144	94.14
348.608	82.74
349.073	68.14
349.537	76.44
350.001	84.94
350.465	91.94
350.93	80.54
351.394	85.54
351.858	75.24
352.322	86.54
352.786	78.04
353.25	98.44
353.715	103.04
354.179	89.44
354.643	118.64
355.107	121.34
355.571	105.74
356.035	106.44
356.498	117.44
356.962	123.04
357.426	129.54
357.89	118.04
358.354	95.84
358.818	85.14
359.281	81.54
359.745	76.54
360.209	78.94
360.673	74.34
361.136	83.64
361.6	82.64
362.064	80.24
362.527	84.34
362.991	94.94
363.454	74.74
363.918	83.14
364.381	83.54
364.845	82.04
365.308	83.54
365.772	83.14
366.235	85.74
366.698	84.44
367.162	84.44
367.625	83.74
368.088	90.14
368.552	90.74
369.015	90.34
369.478	93.34
369.941	99.64
370.404	94.64
370.867	96.34
371.331	110.64
371.794	110.24
372.257	108.34
372.72	119.14
373.183	105.74
373.646	106.04
374.109	104.14
374.572	100.14
375.035	104.94
375.497	110.24
375.96	108.04
376.423	102.24
376.886	107.94
377.349	107.94
377.811	99.54
378.274	100.94
378.737	101.44
379.199	105.14
379.662	106.04
380.125	116.94
380.587	116.44
381.05	120.14
381.512	127.34
381.975	129.24
382.437	125.44
382.9	113.54
383.362	131.64
383.825	145.44
384.287	138.04
384.75	139.54
385.212	130.64
385.674	135.74
386.136	125.24
386.599	125.84
387.061	124.04
387.523	121.54
387.985	135.94
388.447	142.64
388.91	137.74
389.372	150.14
389.834	147.64
390.296	144.84
390.758	147.54
391.22	159.64
391.682	200.14
392.144	278.24
392.606	221.14
393.068	160.64
393.529	161.94
393.991	155.94
394.453	144.14
394.915	148.94
395.377	180.64
395.838	196.14
396.3	148.34
396.762	139.04
397.224	120.64
397.685	123.74
398.147	126.44
398.608	128.14
399.07	123.04
399.531	126.24
399.993	143.04
400.454	140.64
400.916	145.64
401.377	142.24
401.839	148.94
402.3	145.04
402.762	156.64
403.223	169.84
403.684	167.14
404.145	154.34
404.607	156.14
405.068	154.04
405.529	163.64
405.99	173.84
406.451	165.54
406.913	160.74
407.374	158.24
407.835	157.04
408.296	162.74
408.757	155.84
409.218	173.64
409.679	170.14
410.14	171.34
410.601	171.24
411.062	174.24
411.522	181.14
411.983	181.24
412.444	170.84
412.905	168.44
413.366	181.54
413.826	178.84
414.287	209.54
414.748	257.94
415.208	240.74
415.669	207.44
416.13	200.04
416.59	195.84
417.051	205.74
417.511	202.84
417.972	229.14
418.432	239.14
418.893	274.84
419.353	235.14
419.814	195.64
420.274	179.14
420.734	170.04
421.195	185.34
421.655	183.34
422.115	185.24
422.576	187.04
423.036	184.24
423.496	197.04
423.956	200.34
424.416	217.14
424.876	249.84
425.336	246.04
425.797	250.54
426.257	252.94
426.717	228.24
427.177	224.94
427.637	205.94
428.097	221.94
428.556	237.24
429.016	257.24
429.476	246.34
429.936	260.64
430.396	261.24
430.856	272.54
431.315	300.24
431.775	337.74
432.235	366.24
432.694	333.34
433.154	336.14
433.614	369.24
434.073	319.64
434.533	273.34
434.993	257.94
435.452	267.94
435.912	280.44
436.371	266.24
436.83	268.04
437.29	262.14
437.749	227.04
438.209	229.44
438.668	253.24
439.127	275.64
439.587	254.74
440.046	235.84
440.505	246.44
440.964	260.94
441.424	303.34
441.883	285.64
442.342	248.54
442.801	220.54
443.26	208.34
443.719	206.74
444.178	200.44
444.637	205.74
445.096	209.74
445.555	216.34
446.014	216.94
446.473	213.54
446.932	219.94
447.391	220.94
447.849	219.14
448.308	204.14
448.767	213.04
449.226	222.74
449.685	231.94
450.143	243.54
450.602	230.34
451.061	212.54
451.519	221.14
451.978	217.94
452.436	221.64
452.895	227.74
453.353	241.74
453.812	230.44
454.27	229.74
454.729	228.84
455.187	226.04
455.646	230.64
456.104	235.54
456.562	242.84
457.021	251.84
457.479	238.64
457.937	257.64
458.395	252.24
458.854	243.74
459.312	242.04
459.77	252.74
460.228	240.34
460.686	228.24
461.144	239.24
461.602	234.04
462.06	233.44
462.518	248.24
462.976	243.14
463.434	246.74
463.892	249.34
464.35	250.84
464.808	275.74
465.266	254.14
465.724	262.34
466.181	259.04
466.639	259.64
467.097	279.64
467.555	288.34
468.012	284.14
468.47	297.34
468.928	311.94
469.385	330.74
469.843	328.24
470.3	331.94
470.758	346.34
471.215	366.34
471.673	384.74
472.13	388.14
472.588	391.84
473.045	350.24
473.503	358.14
473.96	371.14
474.417	388.24
474.875	415.34
475.332	448.24
475.789	440.24
476.246	442.74
476.704	463.34
477.161	477.64
477.618	493.84
478.075	527.64
478.532	588.34
478.989	654.54
479.446	760.04
479.903	737.74
480.36	762.44
480.817	824.24
481.274	927.14
481.731	1018.54
482.188	1111.54
482.645	1252.04
483.102	1338.14
483.558	1475.94
484.015	1541.74
484.472	1509.74
484.929	1450.24
485.385	1420.94
485.842	1370.94
486.299	1303.74
486.755	1233.94
487.212	1044.84
487.668	882.94
488.125	819.14
488.582	746.14
489.038	711.84
489.494	686.04
489.951	661.24
490.407	639.34
490.864	618.24
491.32	619.44
491.776	622.84
492.233	613.84
492.689	585.54
493.145	571.44
493.602	567.54
494.058	579.54
494.514	590.14
494.97	607.04
495.426	608.14
495.882	593.84
496.338	582.54
496.794	594.24
497.251	592.74
497.707	612.14
498.163	609.04
498.618	620.94
499.074	616.84
499.53	651.74
499.986	645.24
500.442	619.74
500.898	599.34
501.354	588.64
501.809	602.34
502.265	614.24
502.721	627.24
503.177	634.14
503.632	637.74
504.088	641.94
504.543	672.64
504.999	673.14
505.455	633.24
505.91	595.54
506.366	595.54
506.821	595.74
507.277	601.14
507.732	591.14
508.187	596.54
508.643	598.94
509.098	607.24
509.553	624.54
510.009	638.94
510.464	640.94
510.919	662.74
511.375	650.44
511.83	673.44
512.285	687.74
512.74	724.04
513.195	748.04
513.65	731.74
514.105	733.34
514.56	740.24
515.015	754.24
515.47	771.04
515.925	756.94
516.38	756.04
516.835	762.24
517.29	749.94
517.745	737.94
518.2	726.54
518.655	719.94
519.109	703.44
519.564	705.94
520.019	693.64
520.474	692.54
520.928	690.34
521.383	689.34
521.838	681.14
522.292	675.24
522.747	672.84
523.201	659.94
523.656	650.24
524.11	652.74
524.565	655.94
525.019	652.54
525.474	668.54
525.928	666.24
526.382	658.54
526.837	656.24
527.291	665.24
527.745	661.84
528.2	657.14
528.654	657.44
529.108	654.04
529.562	653.94
530.016	657.34
530.47	652.24
530.925	651.64
531.379	659.84
531.833	664.44
532.287	657.14
532.741	659.14
533.195	676.64
533.649	683.44
534.103	679.54
534.556	678.94
535.01	670.24
535.464	675.44
535.918	693.04
536.372	682.14
536.826	685.44
537.279	674.54
537.733	670.44
538.187	681.44
538.64	694.44
539.094	685.14
539.548	688.74
540.001	694.04
540.455	685.34
540.908	690.24
541.362	696.14
541.815	698.84
542.269	722.44
542.722	718.14
543.175	723.14
543.629	724.24
544.082	734.74
544.536	738.84
544.989	738.24
545.442	746.54
545.895	746.34
546.349	743.64
546.802	747.14
547.255	744.24
547.708	752.74
548.161	765.34
548.614	763.84
549.067	787.24
549.52	767.24
549.973	752.54
550.426	753.74
550.879	747.84
551.332	752.34
551.785	752.64
552.238	758.04
552.691	758.34
553.144	779.14
553.596	795.24
554.049	807.04
554.502	844.54
554.955	858.74
555.407	846.04
555.86	837.34
556.313	839.24
556.765	829.54
557.218	826.04
557.67	835.74
558.123	832.24
558.576	822.44
559.028	815.44
559.48	827.34
559.933	811.34
560.385	785.24
560.838	755.94
561.29	733.64
561.742	726.64
562.195	720.24
562.647	710.14
563.099	718.84
563.551	715.24
564.004	732.14
564.456	720.14
564.908	703.14
565.36	704.44
565.812	682.64
566.264	678.04
566.716	672.24
567.168	661.14
567.62	669.24
568.072	660.64
568.524	649.64
568.976	638.54
569.428	631.04
569.88	616.14
570.332	631.24
570.784	633.84
571.235	630.14
571.687	640.34
572.139	651.74
572.59	650.54
573.042	651.24
573.494	658.04
573.945	648.64
574.397	632.14
574.849	639.34
575.3	650.34
575.752	628.94
576.203	631.54
576.655	632.64
577.106	619.94
577.557	613.34
578.009	614.04
578.46	614.64
578.912	613.44
579.363	617.44
579.814	613.14
580.265	614.54
580.717	610.84
581.168	613.44
581.619	629.94
582.07	628.54
582.521	612.44
582.972	620.44
583.423	623.24
583.875	626.74
584.326	658.44
584.777	689.94
585.227	753.54
585.678	840.44
586.129	931.24
586.58	994.74
587.031	1069.84
587.482	1242.54
587.933	1403.84
588.384	1221.94
588.834	901.04
589.285	737.44
589.736	716.14
590.186	710.24
590.637	695.94
591.088	682.14
591.538	672.44
591.989	671.54
592.439	665.94
592.89	655.24
593.34	649.44
593.791	646.24
594.241	644.64
594.692	651.54
595.142	635.44
595.593	642.94
596.043	651.04
596.493	653.24
596.943	651.24
597.394	665.94
597.844	650.44
598.294	667.94
598.744	682.64
599.195	715.24
599.645	737.74
600.095	770.24
600.545	831.04
600.995	888.14
601.445	936.84
601.895	995.94
602.345	1035.04
602.795	1007.74
603.245	971.64
603.695	919.14
604.145	879.64
604.594	824.24
605.044	773.84
605.494	725.04
605.944	671.64
606.393	671.24
606.843	654.44
607.293	657.64
607.743	655.94
608.192	676.64
608.642	682.84
609.091	696.64
609.541	681.84
609.99	696.54
610.44	686.94
610.889	650.54
611.339	631.64
611.788	622.84
612.238	639.14
612.687	650.44
613.136	650.44
613.586	667.14
614.035	661.84
614.484	683.64
614.933	673.74
615.383	677.54
615.832	666.64
616.281	654.64
616.73	619.44
617.179	599.14
617.628	590.64
618.077	569.84
618.526	565.44
618.975	553.64
619.424	558.54
619.873	549.54
620.322	561.84
620.771	541.24
621.22	546.54
621.669	528.84
622.118	533.34
622.567	527.34
623.015	502.34
623.464	504.44
623.913	502.44
624.361	491.84
624.81	498.64
625.259	499.44
625.707	495.04
626.156	491.04
626.604	510.54
627.053	498.24
627.501	508.84
627.95	510.44
628.398	522.84
628.847	511.34
629.295	513.34
629.744	511.54
630.192	510.54
630.64	506.64
631.089	502.24
631.537	511.44
631.985	520.34
632.433	521.04
632.881	539.84
633.33	581.64
633.778	564.24
634.226	501.64
634.674	513.14
635.122	520.84
635.57	527.34
636.018	544.54
636.466	518.04
636.914	496.34
637.362	506.34
637.81	502.64
638.258	505.84
638.705	510.04
639.153	539.34
639.601	538.54
640.049	566.24
640.497	592.64
640.944	610.14
641.392	568.84
641.84	537.84
642.287	521.24
642.735	500.14
643.182	500.84
643.63	512.34
644.078	500.14
644.525	521.64
644.973	525.74
645.42	537.64
645.867	542.64
646.315	566.04
646.762	581.54
647.21	612.14
647.657	628.94
648.104	658.34
648.551	688.24
648.999	735.64
649.446	809.24
649.893	885.44
650.34	1007.34
650.787	1217.94
651.234	1509.84
651.682	1952.74
652.129	2673.64
652.576	3844.14
653.023	5685.44
653.47	7849.74
653.917	9942.44
654.363	11558.64
654.81	12974.64
655.257	12344.74
655.704	8012.54
656.151	4713.74
656.598	3027.94
657.044	2153.14
657.491	1662.34
657.938	1321.94
658.385	1102.94
658.831	958.44
659.278	845.44
659.724	758.64
660.171	692.44
660.618	644.74
661.064	611.34
661.511	584.04
661.957	571.24
662.404	555.74
662.85	557.94
663.296	545.74
663.743	491.14
664.189	477.44
664.635	473.84
665.082	458.14
665.528	463.54
665.974	453.34
666.42	449.44
666.867	443.54
667.313	426.84
667.759	426.14
668.205	412.24
668.651	425.14
669.097	425.64
669.543	436.34
669.989	409.24
670.435	396.54
670.881	389.24
671.327	390.64
671.773	405.54
672.219	427.74
672.665	471.94
673.11	501.94
673.556	546.64
674.002	587.44
674.448	574.94
674.893	481.04
675.339	417.54
675.785	378.84
676.23	364.24
676.676	348.64
677.122	337.04
677.567	320.64
678.013	321.24
678.458	311.94
678.904	312.14
679.349	307.34
679.794	309.74
680.24	304.54
680.685	301.44
681.131	297.24
681.576	298.64
682.021	305.04
682.466	298.44
682.912	302.04
683.357	301.04
683.802	319.24
684.247	352.24
684.692	388.64
685.137	428.64
685.583	474.74
686.028	490.44
686.473	452.54
686.918	387.94
687.363	362.44
687.807	338.84
688.252	319.14
688.697	305.54
689.142	288.34
689.587	287.94
690.032	282.44
690.477	292.34
690.921	304.34
691.366	327.94
691.811	348.64
692.255	378.14
692.7	400.84
693.145	436.14
693.589	588.64
694.034	950.74
694.478	1314.14
694.923	1532.84
695.367	2021.64
695.812	1052.94
696.256	432.24
696.701	326.94
697.145	297.94
697.59	294.24
698.034	270.74
698.478	286.34
698.922	278.24
699.367	281.14
699.811	288.34
700.255	308.44
700.699	334.84
701.143	369.94
701.588	415.24
702.032	446.64
702.476	447.04
702.92	419.34
703.364	423.04
703.808	529.84
704.252	867.34
704.696	1247.74
705.14	1472.74
705.584	1895.64
706.027	926.84
706.471	452.24
706.915	341.74
707.359	307.34
707.803	283.84
708.246	264.74
708.69	272.74
709.134	272.34
709.577	274.34
710.021	273.74
710.465	270.04
710.908	261.14
711.352	259.44
711.795	264.64
712.239	295.94
712.682	337.74
713.126	360.04
713.569	400.34
714.012	315.14
714.456	282.04
714.899	250.14
715.342	239.84
715.786	223.54
716.229	234.44
716.672	220.84
717.115	219.24
717.558	216.64
718.002	217.94
718.445	223.14
718.888	253.94
719.331	257.44
719.774	260.34
720.217	262.34
720.66	245.14
721.103	227.84
721.546	217.94
721.989	217.24
722.432	199.34
722.874	207.34
723.317	193.54
723.76	203.64
724.203	225.34
724.645	262.34
725.088	377.74
725.531	484.44
725.974	563.14
726.416	477.94
726.859	263.94
727.301	211.74
727.744	202.14
728.187	198.64
728.629	203.54
729.071	205.54
729.514	220.04
729.956	237.34
730.399	242.14
730.841	245.74
731.283	229.74
731.726	223.24
732.168	225.24
732.61	227.14
733.053	249.74
733.495	263.84
733.937	308.44
734.379	336.04
734.821	372.14
735.263	463.44
735.705	692.94
736.148	1311.74
736.59	2202.84
737.032	2708.44
737.474	2180.44
737.916	701.94
738.357	370.44
738.799	277.74
739.241	253.14
739.683	238.14
740.125	244.64
740.567	258.34
741.008	276.84
741.45	269.54
741.892	274.24
742.334	300.84
742.775	310.74
743.217	297.14
743.658	226.24
744.1	220.94
744.542	224.24
744.983	269.04
745.425	299.14
745.866	305.24
746.307	244.04
746.749	238.84
747.19	276.14
747.632	382.94
748.073	731.64
748.514	1563.84
748.956	2473.74
749.397	3083.04
749.838	2557.04
750.279	2616.34
750.72	1313.54
751.162	470.04
751.603	268.44
752.044	217.64
752.485	185.04
752.926	173.74
753.367	170.24
753.808	162.74
754.249	160.54
754.69	156.84
755.131	154.54
755.572	161.14
756.013	150.74
756.453	149.94
756.894	161.64
757.335	165.44
757.776	168.44
758.216	164.64
758.657	168.94
759.098	167.94
759.538	197.24
759.979	228.24
760.42	314.64
760.86	584.54
761.301	1503.84
761.741	3738.64
762.182	5709.24
762.622	4019.64
