Data from 20171114-ORNL-Ar_H_NY_Subt18_08-09-23-687.txt Node
Date: Tue Nov 14 08:09:23 EST 2017
User: Ender
Spectrometer: HR+D1039
Trigger mode: 0
Integration Time (sec): 2.730000E-2
Scans to average: 10
Electric dark correction enabled: true
Nonlinearity correction enabled: false
Boxcar width: 0
XAxis mode: Wavelengths
Number of Pixels in Spectrum: 2048
>>>>>Begin Spectral Data<<<<<
187.836	-4.64
188.309	-4.64
188.782	-4.64
189.255	-1.94
189.728	1.26
190.201	6.16
190.674	3.26
191.147	3.26
191.619	-9.44
192.092	3.46
192.565	6.26
193.038	-1.84
193.511	-1.54
193.984	-2.64
194.456	-3.64
194.929	2.06
195.402	0.86
195.874	-0.84
196.347	-0.54
196.82	-4.64
197.292	0.36
197.765	-0.04
198.237	-11.64
198.71	-0.34
199.182	-1.34
199.655	0.46
200.127	-3.54
200.6	-3.44
201.072	-4.34
201.544	-5.84
202.017	2.96
202.489	0.06
202.961	0.86
203.433	-2.84
203.906	-7.54
204.378	-8.04
204.85	-10.84
205.322	-8.34
205.794	-4.14
206.266	-5.94
206.739	-12.94
207.211	-5.94
207.683	-11.94
208.155	-10.94
208.627	-3.74
209.099	-5.44
209.57	-6.74
210.042	-1.14
210.514	0.56
210.986	-7.44
211.458	-13.94
211.93	-3.24
212.402	0.66
212.873	-6.34
213.345	-10.64
213.817	-12.24
214.288	-5.64
214.76	-11.64
215.232	-4.14
215.703	-7.54
216.175	-6.94
216.646	-8.54
217.118	-8.54
217.589	-6.74
218.061	-2.24
218.532	-6.14
219.004	-5.04
219.475	-1.84
219.946	-5.14
220.418	-12.94
220.889	-3.34
221.36	-4.44
221.832	-6.54
222.303	-7.24
222.774	-4.84
223.245	-10.94
223.717	-6.14
224.188	-5.74
224.659	-4.64
225.13	-12.54
225.601	-1.24
226.072	5.76
226.543	-4.34
227.014	-2.84
227.485	-0.14
227.956	-7.14
228.427	-3.54
228.898	-3.54
229.369	6.56
229.839	-9.34
230.31	-7.54
230.781	0.86
231.252	-2.04
231.722	-9.84
232.193	-7.54
232.664	-1.94
233.135	1.86
233.605	-6.24
234.076	-12.24
234.546	-8.94
235.017	-0.74
235.487	-4.94
235.958	-10.34
236.428	-7.44
236.899	-2.84
237.369	0.06
237.84	-7.44
238.31	-6.34
238.78	-5.74
239.251	-8.74
239.721	-3.44
240.191	-2.54
240.662	-5.14
241.132	1.16
241.602	-6.44
242.072	-5.44
242.542	4.76
243.013	-3.14
243.483	-3.04
243.953	-0.64
244.423	0.16
244.893	-11.44
245.363	-7.04
245.833	0.56
246.303	-4.24
246.773	-1.04
247.243	-3.94
247.712	-4.94
248.182	1.46
248.652	-3.34
249.122	-12.14
249.592	-0.04
250.061	6.86
250.531	2.86
251.001	-8.04
251.471	8.26
251.94	4.56
252.41	-8.54
252.879	-11.64
253.349	3.46
253.818	0.26
254.288	-0.94
254.757	-3.94
255.227	-3.84
255.696	-2.94
256.166	2.86
256.635	4.86
257.105	1.46
257.574	-3.54
258.043	-6.44
258.513	-8.54
258.982	-0.74
259.451	-9.84
259.92	-3.94
260.389	-2.04
260.859	6.36
261.328	-1.04
261.797	-2.04
262.266	-0.04
262.735	7.46
263.204	1.26
263.673	-0.94
264.142	5.26
264.611	-14.64
265.08	-6.34
265.549	-4.84
266.018	3.86
266.487	-7.54
266.955	-10.54
267.424	-7.44
267.893	1.26
268.362	-2.64
268.83	-5.64
269.299	3.56
269.768	-0.24
270.236	1.26
270.705	-2.34
271.174	0.86
271.642	-6.54
272.111	-1.94
272.579	-4.04
273.048	-0.94
273.516	-2.34
273.985	4.46
274.453	-3.44
274.922	-1.74
275.39	3.66
275.858	-5.04
276.327	1.46
276.795	10.26
277.263	-0.74
277.731	7.56
278.2	-0.34
278.668	1.26
279.136	3.66
279.604	-4.44
280.072	-1.14
280.54	5.36
281.008	4.86
281.477	3.56
281.945	2.96
282.413	7.66
282.881	5.86
283.348	-0.54
283.816	6.06
284.284	4.56
284.752	7.26
285.22	4.86
285.688	13.36
286.156	7.26
286.623	8.56
287.091	5.36
287.559	8.56
288.026	6.76
288.494	7.66
288.962	0.06
289.429	2.56
289.897	10.46
290.364	12.06
290.832	10.06
291.3	4.36
291.767	9.46
292.234	15.06
292.702	3.16
293.169	1.06
293.637	11.76
294.104	9.76
294.571	2.96
295.039	7.16
295.506	5.46
295.973	6.56
296.44	6.86
296.908	4.56
297.375	8.36
297.842	11.36
298.309	6.66
298.776	5.06
299.243	10.76
299.71	9.36
300.177	12.56
300.644	9.36
301.111	10.86
301.578	8.16
302.045	4.26
302.512	11.66
302.979	11.66
303.446	6.16
303.913	0.66
304.379	6.66
304.846	11.46
305.313	10.66
305.78	8.66
306.246	14.86
306.713	13.66
307.18	16.26
307.646	11.86
308.113	13.36
308.579	14.66
309.046	15.66
309.512	18.96
309.979	13.16
310.445	18.66
310.912	18.26
311.378	21.26
311.845	16.06
312.311	15.56
312.777	19.66
313.244	20.76
313.71	26.06
314.176	20.46
314.642	21.76
315.109	18.56
315.575	18.66
316.041	22.86
316.507	15.66
316.973	23.86
317.439	16.36
317.905	22.86
318.371	18.06
318.837	19.66
319.303	19.36
319.769	23.46
320.235	18.06
320.701	30.26
321.167	21.26
321.633	22.26
322.099	26.26
322.564	24.56
323.03	27.96
323.496	30.86
323.962	25.76
324.427	26.46
324.893	22.96
325.359	28.36
325.824	25.06
326.29	25.86
326.755	28.16
327.221	33.66
327.686	27.96
328.152	31.66
328.617	24.96
329.083	31.36
329.548	34.76
330.014	35.26
330.479	30.36
330.944	30.76
331.41	30.06
331.875	29.66
332.34	27.56
332.805	28.76
333.271	32.76
333.736	29.86
334.201	35.36
334.666	37.86
335.131	38.76
335.596	37.06
336.061	36.06
336.526	24.06
336.991	28.46
337.456	41.16
337.921	31.76
338.386	31.16
338.851	38.86
339.316	34.16
339.781	31.36
340.246	42.76
340.711	30.26
341.175	36.26
341.64	32.56
342.105	40.96
342.569	37.76
343.034	39.96
343.499	40.26
343.963	38.96
344.428	50.86
344.893	41.86
345.357	45.06
345.822	47.16
346.286	45.86
346.751	52.36
347.215	49.66
347.679	49.76
348.144	70.06
348.608	62.46
349.073	53.86
349.537	53.96
350.001	57.76
350.465	65.86
350.93	58.76
351.394	59.86
351.858	50.86
352.322	66.76
352.786	61.26
353.25	70.56
353.715	82.96
354.179	66.76
354.643	88.66
355.107	91.76
355.571	81.76
356.035	69.66
356.498	84.36
356.962	79.16
357.426	96.76
357.89	87.26
358.354	68.86
358.818	64.66
359.281	64.06
359.745	62.66
360.209	60.76
360.673	56.16
361.136	60.86
361.6	60.66
362.064	66.56
362.527	68.76
362.991	78.16
363.454	61.36
363.918	55.16
364.381	58.96
364.845	66.96
365.308	72.46
365.772	68.96
366.235	65.96
366.698	69.46
367.162	64.56
367.625	65.36
368.088	70.36
368.552	75.56
369.015	72.96
369.478	74.36
369.941	81.66
370.404	70.76
370.867	77.66
371.331	79.36
371.794	85.86
372.257	80.36
372.72	80.76
373.183	82.06
373.646	74.76
374.109	75.46
374.572	88.36
375.035	83.26
375.497	83.26
375.96	85.36
376.423	83.86
376.886	92.46
377.349	91.86
377.811	81.86
378.274	83.86
378.737	88.06
379.199	87.26
379.662	90.76
380.125	91.06
380.587	92.86
381.05	93.36
381.512	96.56
381.975	100.66
382.437	100.86
382.9	95.06
383.362	101.76
383.825	107.26
384.287	103.46
384.75	98.46
385.212	105.16
385.674	118.06
386.136	108.66
386.599	98.76
387.061	109.36
387.523	103.36
387.985	110.56
388.447	113.06
388.91	110.66
389.372	107.86
389.834	108.56
390.296	110.36
390.758	113.76
391.22	115.66
391.682	124.26
392.144	136.66
392.606	128.36
393.068	126.16
393.529	130.46
393.991	123.76
394.453	115.96
394.915	109.16
395.377	114.06
395.838	115.36
396.3	121.46
396.762	123.26
397.224	121.26
397.685	120.26
398.147	121.66
398.608	118.26
399.07	121.36
399.531	123.86
399.993	128.46
400.454	141.06
400.916	130.26
401.377	132.76
401.839	137.96
402.3	130.16
402.762	144.56
403.223	166.06
403.684	152.96
404.145	141.86
404.607	142.46
405.068	146.36
405.529	151.86
405.99	161.46
406.451	154.26
406.913	152.16
407.374	149.96
407.835	143.66
408.296	154.56
408.757	154.36
409.218	166.26
409.679	163.16
410.14	160.66
410.601	154.56
411.062	161.46
411.522	167.16
411.983	161.56
412.444	157.96
412.905	172.76
413.366	173.96
413.826	185.86
414.287	202.36
414.748	247.96
415.208	228.56
415.669	198.86
416.13	203.06
416.59	192.96
417.051	204.96
417.511	210.86
417.972	230.76
418.432	231.76
418.893	272.86
419.353	244.76
419.814	187.26
420.274	165.26
420.734	172.76
421.195	184.56
421.655	179.06
422.115	181.66
422.576	185.16
423.036	184.66
423.496	196.06
423.956	203.06
424.416	214.16
424.876	244.76
425.336	248.86
425.797	250.76
426.257	234.46
426.717	215.96
427.177	223.76
427.637	203.46
428.097	219.66
428.556	230.96
429.016	250.76
429.476	242.76
429.936	250.46
430.396	254.06
430.856	268.36
431.315	287.86
431.775	318.86
432.235	358.16
432.694	322.16
433.154	329.46
433.614	351.66
434.073	298.86
434.533	267.86
434.993	250.26
435.452	269.26
435.912	273.26
436.371	264.86
436.83	264.26
437.29	245.06
437.749	230.56
438.209	234.46
438.668	256.66
439.127	267.66
439.587	250.56
440.046	236.06
440.505	247.46
440.964	255.76
441.424	298.96
441.883	291.86
442.342	242.56
442.801	219.86
443.26	213.66
443.719	218.66
444.178	216.46
444.637	202.66
445.096	212.36
445.555	206.16
446.014	219.26
446.473	223.56
446.932	231.06
447.391	218.76
447.849	221.56
448.308	213.96
448.767	214.06
449.226	232.36
449.685	233.66
450.143	241.96
450.602	227.06
451.061	220.66
451.519	224.36
451.978	223.96
452.436	225.76
452.895	229.56
453.353	233.36
453.812	230.56
454.27	234.96
454.729	232.66
455.187	236.96
455.646	236.86
456.104	249.86
456.562	258.56
457.021	259.36
457.479	247.96
457.937	268.36
458.395	252.36
458.854	246.16
459.312	251.56
459.77	268.66
460.228	252.56
460.686	239.36
461.144	245.66
461.602	243.96
462.06	240.26
462.518	250.86
462.976	247.26
463.434	251.66
463.892	261.06
464.35	269.96
464.808	285.66
465.266	255.96
465.724	260.26
466.181	276.56
466.639	269.56
467.097	290.26
467.555	292.56
468.012	294.36
468.47	305.36
468.928	317.36
469.385	342.36
469.843	337.76
470.3	343.16
470.758	354.66
471.215	373.76
471.673	402.56
472.13	400.96
472.588	411.26
473.045	371.76
473.503	384.76
473.96	383.86
474.417	407.16
474.875	420.56
475.332	463.66
475.789	452.46
476.246	458.76
476.704	480.66
477.161	498.36
477.618	504.36
478.075	533.36
478.532	593.56
478.989	652.46
479.446	757.56
479.903	737.56
480.36	761.96
480.817	801.06
481.274	890.86
481.731	963.66
482.188	1048.96
482.645	1165.66
483.102	1249.36
483.558	1345.46
484.015	1400.96
484.472	1369.46
484.929	1334.06
485.385	1305.46
485.842	1269.26
486.299	1220.56
486.755	1177.36
487.212	1009.76
487.668	865.16
488.125	805.66
488.582	740.66
489.038	713.06
489.494	680.66
489.951	660.46
490.407	646.96
490.864	618.36
491.32	616.16
491.776	624.46
492.233	628.16
492.689	604.36
493.145	588.66
493.602	582.96
494.058	599.36
494.514	600.46
494.97	625.36
495.426	629.46
495.882	604.96
496.338	600.16
496.794	606.76
497.251	601.66
497.707	609.96
498.163	618.16
498.618	622.46
499.074	631.46
499.53	653.86
499.986	655.36
500.442	627.96
500.898	613.46
501.354	608.86
501.809	607.56
502.265	607.66
502.721	611.96
503.177	635.46
503.632	627.66
504.088	634.96
504.543	648.36
504.999	674.86
505.455	643.86
505.91	624.26
506.366	625.46
506.821	630.86
507.277	627.26
507.732	623.56
508.187	633.96
508.643	635.56
509.098	633.06
509.553	657.06
510.009	664.96
510.464	669.76
510.919	686.36
511.375	693.36
511.83	708.96
512.285	716.26
512.74	747.66
513.195	767.26
513.65	747.56
514.105	748.16
514.56	757.66
515.015	776.66
515.47	788.86
515.925	766.66
516.38	768.06
516.835	786.56
517.29	764.86
517.745	765.06
518.2	760.36
518.655	750.96
519.109	739.26
519.564	746.66
520.019	719.86
520.474	721.86
520.928	720.76
521.383	711.86
521.838	709.66
522.292	713.46
522.747	710.96
523.201	714.36
523.656	692.96
524.11	698.06
524.565	687.46
525.019	689.96
525.474	700.26
525.928	696.26
526.382	688.96
526.837	695.86
527.291	710.76
527.745	706.56
528.2	699.66
528.654	686.16
529.108	686.16
529.562	686.86
530.016	687.86
530.47	681.66
530.925	686.46
531.379	695.46
531.833	705.06
532.287	703.46
532.741	699.66
533.195	703.16
533.649	710.26
534.103	705.56
534.556	705.06
535.01	687.46
535.464	691.46
535.918	710.16
536.372	719.26
536.826	715.36
537.279	707.76
537.733	712.06
538.187	707.46
538.64	707.96
539.094	721.86
539.548	730.16
540.001	723.86
540.455	725.86
540.908	729.16
541.362	735.86
541.815	755.26
542.269	759.76
542.722	761.56
543.175	765.36
543.629	773.86
544.082	781.26
544.536	784.56
544.989	776.96
545.442	792.66
545.895	786.86
546.349	797.26
546.802	795.76
547.255	799.26
547.708	809.96
548.161	815.36
548.614	825.56
549.067	825.16
549.52	822.06
549.973	818.26
550.426	814.76
550.879	802.06
551.332	802.76
551.785	819.76
552.238	806.26
552.691	819.76
553.144	842.66
553.596	856.26
554.049	869.36
554.502	900.06
554.955	913.76
555.407	922.26
555.86	913.66
556.313	896.36
556.765	891.86
557.218	887.36
557.67	891.66
558.123	874.36
558.576	878.96
559.028	880.26
559.48	895.66
559.933	885.36
560.385	834.36
560.838	810.66
561.29	794.76
561.742	792.66
562.195	774.46
562.647	778.46
563.099	769.46
563.551	781.36
564.004	785.66
564.456	764.76
564.908	764.66
565.36	741.96
565.812	743.56
566.264	735.86
566.716	718.76
567.168	715.06
567.62	714.26
568.072	703.96
568.524	708.66
568.976	690.46
569.428	687.36
569.88	679.26
570.332	685.76
570.784	695.36
571.235	696.76
571.687	698.16
572.139	704.16
572.59	721.16
573.042	722.36
573.494	716.66
573.945	716.16
574.397	694.26
574.849	693.36
575.3	702.96
575.752	683.06
576.203	684.06
576.655	689.96
577.106	673.26
577.557	671.76
578.009	674.46
578.46	674.96
578.912	669.56
579.363	680.76
579.814	674.96
580.265	668.16
580.717	676.76
581.168	667.06
581.619	679.26
582.07	692.96
582.521	677.76
582.972	677.86
583.423	679.56
583.875	679.46
584.326	692.26
584.777	699.46
585.227	719.56
585.678	725.56
586.129	745.36
586.58	762.56
587.031	776.86
587.482	797.66
587.933	813.46
588.384	801.76
588.834	780.26
589.285	777.16
589.736	782.16
590.186	784.16
590.637	768.76
591.088	757.66
591.538	745.26
591.989	742.66
592.439	732.66
592.89	737.36
593.34	713.26
593.791	703.96
594.241	691.96
594.692	691.06
595.142	707.86
595.593	707.36
596.043	713.66
596.493	706.06
596.943	713.76
597.394	731.36
597.844	721.66
598.294	747.06
598.744	769.46
599.195	796.96
599.645	840.66
600.095	880.76
600.545	930.56
600.995	991.46
601.445	1048.16
601.895	1100.06
602.345	1164.96
602.795	1135.76
603.245	1087.86
603.695	1029.16
604.145	974.36
604.594	925.36
605.044	877.36
605.494	806.96
605.944	770.66
606.393	747.96
606.843	737.76
607.293	747.96
607.743	747.16
608.192	755.86
608.642	762.36
609.091	763.56
609.541	773.86
609.99	772.96
610.44	770.96
610.889	727.96
611.339	705.66
611.788	678.86
612.238	699.06
612.687	715.46
613.136	711.26
613.586	716.06
614.035	712.76
614.484	719.96
614.933	717.96
615.383	720.06
615.832	704.36
616.281	709.46
616.73	677.06
617.179	662.16
617.628	654.66
618.077	635.06
618.526	628.86
618.975	626.76
619.424	625.96
619.873	615.16
620.322	634.16
620.771	608.06
621.22	604.16
621.669	594.06
622.118	593.76
622.567	584.56
623.015	571.26
623.464	585.76
623.913	566.26
624.361	558.46
624.81	553.36
625.259	557.26
625.707	563.46
626.156	575.16
626.604	580.96
627.053	577.66
627.501	565.66
627.95	584.36
628.398	582.46
628.847	580.36
629.295	570.86
629.744	584.46
630.192	565.06
630.64	563.76
631.089	557.36
631.537	541.56
631.985	542.36
632.433	540.76
632.881	528.36
633.33	537.56
633.778	531.46
634.226	536.76
634.674	547.26
635.122	552.86
635.57	550.86
636.018	568.66
636.466	568.96
636.914	567.96
637.362	575.56
637.81	587.16
638.258	593.46
638.705	594.46
639.153	631.86
639.601	632.76
640.049	656.16
640.497	696.76
640.944	713.66
641.392	660.76
641.84	624.16
642.287	597.26
642.735	573.46
643.182	570.06
643.63	575.36
644.078	571.56
644.525	586.16
644.973	582.16
645.42	611.46
645.867	630.76
646.315	635.76
646.762	663.46
647.21	690.46
647.657	709.96
648.104	747.56
648.551	764.26
648.999	814.86
649.446	891.06
649.893	972.76
650.34	1134.46
650.787	1345.46
651.234	1640.86
651.682	2143.16
652.129	2893.66
652.576	4090.76
653.023	5998.36
653.47	8076.56
653.917	9948.26
654.363	11313.16
654.81	12418.36
655.257	11776.36
655.704	7819.16
656.151	4705.86
656.598	3078.76
657.044	2222.16
657.491	1722.96
657.938	1397.56
658.385	1167.76
658.831	1031.66
659.278	928.36
659.724	833.16
660.171	760.86
660.618	718.06
661.064	683.26
661.511	667.26
661.957	650.96
662.404	637.86
662.85	659.76
663.296	623.26
663.743	570.86
664.189	546.96
664.635	547.36
665.082	534.86
665.528	532.36
665.974	528.16
666.42	521.16
666.867	506.26
667.313	485.26
667.759	474.36
668.205	463.36
668.651	457.66
669.097	459.26
669.543	443.86
669.989	449.76
670.435	461.06
670.881	457.46
671.327	467.46
671.773	490.36
672.219	509.46
672.665	566.76
673.11	606.16
673.556	651.96
674.002	683.46
674.448	675.56
674.893	558.56
675.339	490.46
675.785	457.46
676.23	427.26
676.676	402.46
677.122	392.46
677.567	389.56
678.013	370.76
678.458	375.86
678.904	377.26
679.349	362.46
679.794	361.66
680.24	358.66
680.685	363.66
681.131	356.56
681.576	357.46
682.021	371.96
682.466	361.16
682.912	357.06
683.357	369.36
683.802	401.96
684.247	426.86
684.692	467.96
685.137	509.86
685.583	560.76
686.028	582.36
686.473	535.56
686.918	460.86
687.363	429.66
687.807	406.66
688.252	380.66
688.697	368.56
689.142	348.46
689.587	345.26
690.032	338.46
690.477	357.16
690.921	373.76
691.366	398.36
691.811	406.86
692.255	448.96
692.7	476.96
693.145	534.26
693.589	748.16
694.034	1223.86
694.478	1627.76
694.923	1782.26
695.367	2322.06
695.812	1240.26
696.256	521.96
696.701	384.76
697.145	352.76
697.59	345.76
698.034	330.56
698.478	332.66
698.922	331.36
699.367	329.66
699.811	347.46
700.255	360.26
700.699	394.96
701.143	439.46
701.588	485.96
702.032	529.06
702.476	531.66
702.92	510.06
703.364	520.16
703.808	684.26
704.252	1131.36
704.696	1554.96
705.14	1747.46
705.584	2195.96
706.027	1112.56
706.471	547.46
706.915	417.46
707.359	367.06
707.803	333.56
708.246	324.96
708.69	321.36
709.134	324.16
709.577	321.06
710.021	328.56
710.465	319.36
710.908	307.06
711.352	305.66
711.795	322.86
712.239	365.36
712.682	400.96
713.126	422.56
713.569	463.36
714.012	371.16
714.456	313.46
714.899	301.66
715.342	283.86
715.786	276.86
716.229	266.26
716.672	265.16
717.115	258.66
717.558	259.96
718.002	257.26
718.445	270.86
718.888	294.86
719.331	305.76
719.774	322.96
720.217	316.26
720.66	296.16
721.103	268.96
721.546	270.36
721.989	251.76
722.432	245.16
722.874	249.26
723.317	240.16
723.76	245.26
724.203	266.66
724.645	340.96
725.088	468.26
725.531	593.96
725.974	666.26
726.416	573.06
726.859	321.46
727.301	251.86
727.744	245.66
728.187	245.86
728.629	243.56
729.071	257.16
729.514	271.46
729.956	279.66
730.399	297.46
730.841	294.16
731.283	282.16
731.726	282.36
732.168	267.06
732.61	292.36
733.053	300.96
733.495	338.36
733.937	376.56
734.379	415.66
734.821	468.16
735.263	591.16
735.705	926.06
736.148	1752.46
736.59	2759.16
737.032	3162.36
737.474	2574.96
737.916	854.96
738.357	443.26
738.799	341.36
739.241	309.66
739.683	297.86
740.125	300.16
740.567	308.26
741.008	334.76
741.45	329.16
741.892	333.76
742.334	368.96
742.775	371.36
743.217	353.86
743.658	286.96
744.1	264.46
744.542	273.66
744.983	328.26
745.425	363.26
745.866	357.46
746.307	289.96
746.749	291.06
747.19	356.36
747.632	506.56
748.073	987.36
748.514	2054.46
748.956	3004.86
749.397	3824.26
749.838	3123.86
750.279	3038.86
750.72	1576.86
751.162	579.96
751.603	337.86
752.044	262.06
752.485	225.16
752.926	225.96
753.367	205.86
753.808	201.36
754.249	199.06
754.69	196.66
755.131	194.16
755.572	185.16
756.013	190.96
756.453	191.66
756.894	194.96
757.335	198.16
757.776	201.36
758.216	210.76
758.657	205.36
759.098	211.76
759.538	233.26
759.979	279.26
760.42	408.96
760.86	799.96
761.301	2069.56
761.741	4836.66
762.182	6620.66
762.622	4685.36
763.063	1389.46
763.503	558.26
