Data from 20171114-ORNL-Ar_H_NY_Subt18_08-08-18-387.txt Node
Date: Tue Nov 14 08:08:18 EST 2017
User: Ender
Spectrometer: HR+D1039
Trigger mode: 0
Integration Time (sec): 2.730000E-2
Scans to average: 10
Electric dark correction enabled: true
Nonlinearity correction enabled: false
Boxcar width: 0
XAxis mode: Wavelengths
Number of Pixels in Spectrum: 2048
>>>>>Begin Spectral Data<<<<<
187.836	-6.35
188.309	-6.35
188.782	-6.35
189.255	-2.25
189.728	-0.25
190.201	2.35
190.674	-2.75
191.147	2.85
191.619	-6.05
192.092	3.25
192.565	2.75
193.038	0.85
193.511	-0.15
193.984	3.55
194.456	2.25
194.929	-2.35
195.402	1.55
195.874	0.75
196.347	-3.85
196.82	-6.05
197.292	9.95
197.765	-3.75
198.237	-1.35
198.71	2.25
199.182	-2.25
199.655	5.95
200.127	7.55
200.6	-2.45
201.072	-3.65
201.544	1.05
202.017	-4.65
202.489	5.35
202.961	-0.15
203.433	-5.25
203.906	-7.05
204.378	-5.95
204.85	-4.75
205.322	-2.05
205.794	-3.05
206.266	-4.35
206.739	-10.95
207.211	-0.05
207.683	-9.65
208.155	-5.75
208.627	-5.55
209.099	-6.35
209.57	-4.75
210.042	-6.65
210.514	-0.95
210.986	-1.95
211.458	-11.35
211.93	-9.05
212.402	2.85
212.873	-4.45
213.345	-7.25
213.817	-8.55
214.288	-2.45
214.76	-5.35
215.232	-2.85
215.703	-5.95
216.175	-2.25
216.646	-4.75
217.118	-7.05
217.589	-7.35
218.061	-0.65
218.532	0.05
219.004	-0.05
219.475	0.25
219.946	-3.05
220.418	-2.85
220.889	0.05
221.36	-0.05
221.832	-3.95
222.303	-1.75
222.774	4.45
223.245	-3.05
223.717	-5.35
224.188	-8.65
224.659	-8.45
225.13	-3.45
225.601	-2.75
226.072	-1.15
226.543	-1.15
227.014	-5.95
227.485	-3.55
227.956	-7.15
228.427	-5.25
228.898	-0.75
229.369	1.35
229.839	-3.75
230.31	-3.05
230.781	5.45
231.252	-2.95
231.722	-4.25
232.193	0.15
232.664	1.45
233.135	2.05
233.605	3.95
234.076	-1.55
234.546	2.25
235.017	4.55
235.487	-3.55
235.958	-5.95
236.428	-1.95
236.899	6.45
237.369	9.75
237.84	5.45
238.31	10.75
238.78	4.95
239.251	-3.45
239.721	6.05
240.191	1.15
240.662	-3.65
241.132	4.45
241.602	-6.45
242.072	-1.35
242.542	10.15
243.013	-4.75
243.483	2.25
243.953	6.15
244.423	-2.75
244.893	-6.15
245.363	4.25
245.833	7.05
246.303	0.85
246.773	5.85
247.243	3.85
247.712	8.05
248.182	10.55
248.652	10.95
249.122	-1.05
249.592	14.65
250.061	18.85
250.531	26.95
251.001	21.45
251.471	21.95
251.94	16.15
252.41	5.35
252.879	6.55
253.349	18.45
253.818	3.45
254.288	8.05
254.757	3.15
255.227	3.95
255.696	6.95
256.166	6.85
256.635	3.85
257.105	7.35
257.574	4.65
258.043	8.75
258.513	11.35
258.982	13.85
259.451	7.45
259.92	13.35
260.389	11.45
260.859	15.25
261.328	15.05
261.797	14.25
262.266	8.25
262.735	9.05
263.204	2.55
263.673	2.65
264.142	5.95
264.611	-7.95
265.08	3.95
265.549	-1.75
266.018	5.15
266.487	-3.95
266.955	-4.85
267.424	0.65
267.893	6.65
268.362	1.65
268.83	-0.25
269.299	6.25
269.768	8.05
270.236	7.15
270.705	-1.75
271.174	7.65
271.642	12.45
272.111	7.25
272.579	19.25
273.048	24.35
273.516	24.55
273.985	21.85
274.453	18.75
274.922	20.45
275.39	7.65
275.858	7.15
276.327	8.75
276.795	15.75
277.263	10.05
277.731	27.45
278.2	50.35
278.668	44.25
279.136	39.75
279.604	15.65
280.072	11.45
280.54	16.25
281.008	12.35
281.477	13.95
281.945	10.85
282.413	12.55
282.881	12.65
283.348	3.45
283.816	14.25
284.284	13.45
284.752	21.45
285.22	12.15
285.688	10.05
286.156	20.25
286.623	40.85
287.091	49.15
287.559	23.05
288.026	17.15
288.494	14.45
288.962	7.35
289.429	7.05
289.897	17.05
290.364	14.15
290.832	12.95
291.3	13.55
291.767	16.35
292.234	12.15
292.702	12.55
293.169	19.15
293.637	22.95
294.104	18.05
294.571	3.95
295.039	14.45
295.506	16.85
295.973	15.45
296.44	14.65
296.908	19.35
297.375	14.45
297.842	22.55
298.309	14.75
298.776	16.35
299.243	19.25
299.71	14.05
300.177	20.85
300.644	19.35
301.111	18.25
301.578	23.65
302.045	19.35
302.512	24.75
302.979	25.05
303.446	22.05
303.913	16.15
304.379	22.25
304.846	27.35
305.313	21.95
305.78	18.35
306.246	23.15
306.713	32.15
307.18	24.05
307.646	31.95
308.113	24.25
308.579	22.65
309.046	28.35
309.512	21.95
309.979	24.75
310.445	31.45
310.912	26.05
311.378	30.15
311.845	28.25
312.311	32.95
312.777	28.15
313.244	29.85
313.71	32.65
314.176	30.35
314.642	31.85
315.109	28.55
315.575	33.75
316.041	35.25
316.507	35.35
316.973	39.05
317.439	27.05
317.905	36.35
318.371	34.75
318.837	33.35
319.303	29.95
319.769	32.15
320.235	28.35
320.701	32.35
321.167	32.45
321.633	29.15
322.099	35.35
322.564	38.85
323.03	38.05
323.496	33.45
323.962	38.75
324.427	33.75
324.893	42.45
325.359	41.85
325.824	39.95
326.29	31.15
326.755	39.85
327.221	37.25
327.686	36.25
328.152	44.65
328.617	39.55
329.083	42.25
329.548	48.55
330.014	46.95
330.479	39.95
330.944	44.65
331.41	41.05
331.875	47.95
332.34	45.55
332.805	46.65
333.271	43.15
333.736	41.05
334.201	52.25
334.666	50.55
335.131	53.05
335.596	45.55
336.061	50.95
336.526	43.25
336.991	49.25
337.456	59.65
337.921	52.05
338.386	45.25
338.851	40.25
339.316	44.35
339.781	49.45
340.246	49.15
340.711	46.05
341.175	47.25
341.64	41.85
342.105	50.95
342.569	58.15
343.034	56.65
343.499	56.05
343.963	50.85
344.428	61.55
344.893	55.55
345.357	61.55
345.822	58.65
346.286	66.85
346.751	67.45
347.215	65.55
347.679	69.35
348.144	101.15
348.608	83.25
349.073	67.65
349.537	73.25
350.001	79.15
350.465	86.55
350.93	83.55
351.394	83.65
351.858	70.25
352.322	83.85
352.786	84.05
353.25	99.35
353.715	111.35
354.179	99.65
354.643	117.25
355.107	127.95
355.571	107.25
356.035	105.35
356.498	124.55
356.962	129.55
357.426	135.25
357.89	120.25
358.354	91.95
358.818	82.95
359.281	82.75
359.745	76.15
360.209	72.95
360.673	74.75
361.136	77.25
361.6	84.35
362.064	78.25
362.527	83.75
362.991	86.45
363.454	76.65
363.918	74.75
364.381	75.15
364.845	76.45
365.308	94.05
365.772	84.05
366.235	81.75
366.698	83.05
367.162	85.45
367.625	83.15
368.088	85.65
368.552	80.45
369.015	86.35
369.478	91.85
369.941	95.85
370.404	97.35
370.867	99.65
371.331	104.75
371.794	107.65
372.257	111.45
372.72	112.95
373.183	107.35
373.646	99.55
374.109	97.95
374.572	108.35
375.035	114.25
375.497	111.25
375.96	106.25
376.423	101.75
376.886	109.65
377.349	107.25
377.811	106.55
378.274	105.75
378.737	112.65
379.199	104.65
379.662	110.25
380.125	116.55
380.587	114.95
381.05	122.55
381.512	134.45
381.975	139.55
382.437	136.15
382.9	128.55
383.362	131.75
383.825	142.65
384.287	146.85
384.75	137.65
385.212	146.25
385.674	141.35
386.136	132.35
386.599	124.15
387.061	131.35
387.523	123.85
387.985	143.35
388.447	145.05
388.91	144.25
389.372	160.65
389.834	154.45
390.296	150.95
390.758	155.15
391.22	174.05
391.682	206.65
392.144	311.75
392.606	235.35
393.068	167.65
393.529	173.55
393.991	154.65
394.453	150.85
394.915	156.05
395.377	193.55
395.838	218.65
396.3	156.85
396.762	144.95
397.224	131.35
397.685	126.95
398.147	135.05
398.608	127.75
399.07	132.65
399.531	131.25
399.993	150.55
400.454	151.95
400.916	140.65
401.377	135.35
401.839	149.35
402.3	157.55
402.762	168.65
403.223	186.35
403.684	172.85
404.145	162.05
404.607	168.95
405.068	161.15
405.529	165.05
405.99	190.85
406.451	178.35
406.913	170.65
407.374	163.05
407.835	159.25
408.296	169.85
408.757	170.65
409.218	186.65
409.679	180.05
410.14	175.75
410.601	180.05
411.062	180.85
411.522	193.15
411.983	192.45
412.444	173.45
412.905	178.05
413.366	181.65
413.826	195.95
414.287	214.75
414.748	257.65
415.208	247.45
415.669	205.15
416.13	204.75
416.59	206.45
417.051	210.25
417.511	218.55
417.972	229.45
418.432	243.55
418.893	282.75
419.353	251.25
419.814	203.15
420.274	184.65
420.734	184.85
421.195	204.15
421.655	199.95
422.115	195.25
422.576	191.95
423.036	195.55
423.496	204.05
423.956	215.85
424.416	224.15
424.876	254.65
425.336	259.75
425.797	264.55
426.257	256.45
426.717	239.55
427.177	230.05
427.637	227.65
428.097	230.95
428.556	240.65
429.016	266.75
429.476	267.85
429.936	281.85
430.396	278.65
430.856	292.55
431.315	313.25
431.775	349.35
432.235	388.35
432.694	357.75
433.154	365.75
433.614	403.95
434.073	337.25
434.533	286.25
434.993	269.35
435.452	276.55
435.912	291.85
436.371	298.25
436.83	286.65
437.29	270.35
437.749	249.45
438.209	245.15
438.668	270.75
439.127	298.85
439.587	267.25
440.046	257.25
440.505	261.45
440.964	279.75
441.424	317.45
441.883	311.45
442.342	262.75
442.801	224.45
443.26	221.85
443.719	225.45
444.178	221.25
444.637	212.05
445.096	222.45
445.555	219.25
446.014	222.65
446.473	225.35
446.932	238.55
447.391	229.45
447.849	220.75
448.308	222.95
448.767	223.35
449.226	236.95
449.685	240.55
450.143	251.05
450.602	231.25
451.061	222.75
451.519	227.35
451.978	232.65
452.436	226.85
452.895	235.85
453.353	247.85
453.812	238.45
454.27	237.55
454.729	240.85
455.187	244.45
455.646	246.65
456.104	243.75
456.562	264.25
457.021	266.45
457.479	255.75
457.937	272.75
458.395	263.85
458.854	249.45
459.312	259.55
459.77	278.75
460.228	258.85
460.686	239.45
461.144	249.45
461.602	241.75
462.06	241.35
462.518	260.45
462.976	254.45
463.434	258.55
463.892	259.55
464.35	271.75
464.808	283.95
465.266	273.85
465.724	267.75
466.181	270.65
466.639	267.55
467.097	287.35
467.555	301.95
468.012	300.45
468.47	306.25
468.928	329.35
469.385	345.75
469.843	350.15
470.3	345.05
470.758	355.25
471.215	389.75
471.673	402.05
472.13	404.15
472.588	411.05
473.045	369.55
473.503	372.35
473.96	396.85
474.417	401.95
474.875	430.55
475.332	469.95
475.789	464.05
476.246	468.35
476.704	489.35
477.161	500.75
477.618	517.65
478.075	564.75
478.532	616.75
478.989	686.45
479.446	812.15
479.903	771.25
480.36	795.85
480.817	859.65
481.274	966.35
481.731	1054.35
482.188	1156.55
482.645	1289.05
483.102	1409.65
483.558	1532.25
484.015	1594.45
484.472	1559.45
484.929	1513.15
485.385	1459.75
485.842	1421.75
486.299	1347.05
486.755	1291.15
487.212	1090.55
487.668	923.55
488.125	840.65
488.582	769.65
489.038	743.75
489.494	707.25
489.951	676.05
490.407	665.75
490.864	641.85
491.32	625.35
491.776	630.65
492.233	642.15
492.689	606.55
493.145	593.25
493.602	592.85
494.058	610.85
494.514	613.65
494.97	625.25
495.426	636.65
495.882	613.85
496.338	595.05
496.794	611.35
497.251	613.45
497.707	622.75
498.163	624.25
498.618	633.25
499.074	630.65
499.53	665.75
499.986	667.65
500.442	643.55
500.898	623.45
501.354	618.05
501.809	633.75
502.265	634.65
502.721	662.65
503.177	662.95
503.632	658.15
504.088	673.55
504.543	710.65
504.999	717.85
505.455	655.75
505.91	625.15
506.366	624.45
506.821	616.85
507.277	620.55
507.732	613.95
508.187	614.05
508.643	627.85
509.098	618.55
509.553	645.05
510.009	654.05
510.464	655.15
510.919	672.45
511.375	682.95
511.83	700.05
512.285	710.35
512.74	752.85
513.195	780.05
513.65	764.65
514.105	757.75
514.56	762.15
515.015	775.45
515.47	787.75
515.925	780.75
516.38	776.15
516.835	783.15
517.29	755.75
517.745	766.45
518.2	750.95
518.655	731.05
519.109	730.75
519.564	724.25
520.019	712.15
520.474	716.15
520.928	711.75
521.383	708.85
521.838	704.45
522.292	694.45
522.747	685.15
523.201	702.75
523.656	690.55
524.11	685.55
524.565	683.85
525.019	684.55
525.474	694.35
525.928	694.85
526.382	685.95
526.837	691.55
527.291	694.95
527.745	689.75
528.2	688.05
528.654	678.35
529.108	679.45
529.562	683.45
530.016	683.15
530.47	672.15
530.925	679.95
531.379	687.75
531.833	696.25
532.287	690.75
532.741	691.85
533.195	692.65
533.649	707.35
534.103	714.75
534.556	698.15
535.01	701.35
535.464	697.35
535.918	707.65
536.372	707.75
536.826	717.05
537.279	698.15
537.733	703.55
538.187	712.25
538.64	703.45
539.094	706.85
539.548	726.55
540.001	705.85
540.455	714.75
540.908	712.15
541.362	736.25
541.815	739.95
542.269	759.15
542.722	759.95
543.175	761.45
543.629	768.55
544.082	776.25
544.536	774.55
544.989	780.75
545.442	780.15
545.895	786.05
546.349	787.45
546.802	785.85
547.255	789.65
547.708	796.05
548.161	812.85
548.614	801.65
549.067	814.45
549.52	799.25
549.973	809.95
550.426	794.55
550.879	786.25
551.332	782.85
551.785	803.75
552.238	794.55
552.691	800.35
553.144	807.85
553.596	826.65
554.049	858.25
554.502	887.35
554.955	896.85
555.407	886.45
555.86	892.55
556.313	872.65
556.765	872.85
557.218	877.65
557.67	873.85
558.123	865.65
558.576	872.45
559.028	868.85
559.48	860.75
559.933	851.05
560.385	825.45
560.838	807.25
561.29	771.15
561.742	768.95
562.195	760.35
562.647	760.35
563.099	757.15
563.551	772.45
564.004	767.85
564.456	760.45
564.908	760.15
565.36	742.25
565.812	729.85
566.264	722.55
566.716	712.95
567.168	704.05
567.62	714.65
568.072	696.75
568.524	692.85
568.976	677.25
569.428	667.45
569.88	677.05
570.332	683.05
570.784	673.55
571.235	676.45
571.687	686.55
572.139	701.05
572.59	708.25
573.042	705.15
573.494	706.45
573.945	699.35
574.397	691.25
574.849	691.25
575.3	683.75
575.752	683.15
576.203	672.55
576.655	682.25
577.106	655.85
577.557	661.55
578.009	667.45
578.46	654.95
578.912	656.65
579.363	659.75
579.814	662.25
580.265	658.45
580.717	665.15
581.168	662.25
581.619	682.35
582.07	678.45
582.521	674.15
582.972	668.45
583.423	678.55
583.875	668.85
584.326	690.15
584.777	747.95
585.227	829.15
585.678	918.15
586.129	1023.75
586.58	1090.45
587.031	1172.45
587.482	1330.35
587.933	1513.15
588.384	1305.95
588.834	976.25
589.285	801.65
589.736	772.95
590.186	774.15
590.637	767.15
591.088	733.35
591.538	741.55
591.989	731.25
592.439	719.65
592.89	709.65
593.34	708.15
593.791	706.45
594.241	706.75
594.692	713.85
595.142	699.45
595.593	703.15
596.043	703.65
596.493	718.75
596.943	709.45
597.394	711.45
597.844	714.45
598.294	733.25
598.744	742.65
599.195	773.65
599.645	809.95
600.095	860.05
600.545	905.55
600.995	951.45
601.445	1020.85
601.895	1081.75
602.345	1132.75
602.795	1105.05
603.245	1055.55
603.695	1000.65
604.145	958.35
604.594	906.55
605.044	852.95
605.494	783.25
605.944	742.55
606.393	737.85
606.843	719.65
607.293	731.55
607.743	734.55
608.192	740.85
608.642	754.65
609.091	763.95
609.541	773.05
609.99	774.15
610.44	771.15
610.889	720.55
611.339	708.15
611.788	688.15
612.238	704.75
612.687	726.75
613.136	722.85
613.586	731.15
614.035	734.45
614.484	758.45
614.933	766.25
615.383	755.95
615.832	737.85
616.281	730.65
616.73	689.65
617.179	663.65
617.628	650.25
618.077	635.35
618.526	618.15
618.975	617.45
619.424	610.05
619.873	614.15
620.322	625.65
620.771	601.45
621.22	606.85
621.669	594.75
622.118	587.35
622.567	577.25
623.015	566.55
623.464	569.25
623.913	560.85
624.361	550.05
624.81	552.05
625.259	553.55
625.707	553.15
626.156	553.75
626.604	569.75
627.053	566.75
627.501	567.45
627.95	563.35
628.398	578.35
628.847	567.75
629.295	578.25
629.744	574.75
630.192	571.25
630.64	565.95
631.089	566.75
631.537	580.35
631.985	589.15
632.433	600.45
632.881	623.55
633.33	671.75
633.778	650.55
634.226	576.65
634.674	572.75
635.122	579.05
635.57	598.75
636.018	641.55
636.466	586.85
636.914	557.45
637.362	570.75
637.81	582.85
638.258	582.55
638.705	582.55
639.153	607.75
639.601	614.35
640.049	647.35
640.497	675.25
640.944	696.65
641.392	652.05
641.84	615.35
642.287	579.95
642.735	576.95
643.182	575.35
643.63	567.85
644.078	582.05
644.525	593.95
644.973	602.45
645.42	604.55
645.867	618.95
646.315	636.85
646.762	665.25
647.21	693.55
647.657	709.65
648.104	761.15
648.551	774.55
648.999	844.85
649.446	921.35
649.893	1014.15
650.34	1162.15
650.787	1402.85
651.234	1746.35
651.682	2300.35
652.129	3159.95
652.576	4599.75
653.023	6753.85
653.47	9209.15
653.917	11451.95
654.363	13101.35
654.81	14365.15
655.257	13690.75
655.704	8971.95
656.151	5285.25
656.598	3411.05
657.044	2420.35
657.491	1864.75
657.938	1490.35
658.385	1246.15
658.831	1083.95
659.278	973.35
659.724	865.55
660.171	784.05
660.618	726.35
661.064	694.95
661.511	672.65
661.957	662.55
662.404	649.15
662.85	656.25
663.296	628.95
663.743	562.75
664.189	542.55
664.635	538.65
665.082	524.85
665.528	533.85
665.974	522.95
666.42	521.65
666.867	508.85
667.313	493.65
667.759	485.15
668.205	475.85
668.651	494.55
669.097	490.45
669.543	510.45
669.989	474.75
670.435	446.55
670.881	442.25
671.327	447.45
671.773	472.45
672.219	489.65
672.665	545.25
673.11	581.35
673.556	627.65
674.002	666.95
674.448	654.15
674.893	545.75
675.339	480.75
675.785	444.25
676.23	420.75
676.676	391.85
677.122	386.85
677.567	368.65
678.013	372.35
678.458	358.75
678.904	363.85
679.349	348.25
679.794	358.55
680.24	351.75
680.685	348.95
681.131	347.95
681.576	352.65
682.021	351.15
682.466	353.25
682.912	347.95
683.357	358.75
683.802	386.35
684.247	416.65
684.692	451.05
685.137	503.15
685.583	536.25
686.028	562.55
686.473	514.25
686.918	441.45
687.363	416.95
687.807	391.15
688.252	367.85
688.697	352.75
689.142	335.95
689.587	335.15
690.032	329.85
690.477	348.15
690.921	355.75
691.366	390.15
691.811	404.25
692.255	430.35
692.7	455.55
693.145	504.05
693.589	708.05
694.034	1148.75
694.478	1541.95
694.923	1723.25
695.367	2200.15
695.812	1182.25
696.256	504.25
696.701	367.65
697.145	342.95
697.59	333.35
698.034	321.95
698.478	332.65
698.922	329.55
699.367	332.75
699.811	339.15
700.255	359.55
700.699	391.95
701.143	437.15
701.588	481.65
702.032	512.35
702.476	516.15
702.92	490.85
703.364	491.85
703.808	656.15
704.252	1065.45
704.696	1452.55
705.14	1648.25
705.584	2091.65
706.027	1069.55
706.471	525.05
706.915	393.85
707.359	348.45
707.803	317.55
708.246	306.95
708.69	316.35
709.134	312.55
709.577	309.75
710.021	314.35
710.465	305.45
710.908	307.45
711.352	298.65
711.795	313.55
712.239	364.35
712.682	389.65
713.126	423.05
713.569	462.75
714.012	372.35
714.456	318.65
714.899	300.15
715.342	274.15
715.786	267.35
716.229	264.85
716.672	258.85
717.115	254.25
717.558	254.25
718.002	258.15
718.445	268.25
718.888	284.85
719.331	293.25
719.774	298.35
720.217	299.25
720.66	286.15
721.103	264.55
721.546	254.75
721.989	246.25
722.432	237.45
722.874	242.25
723.317	227.05
723.76	236.75
724.203	259.15
724.645	326.45
725.088	451.65
725.531	565.45
725.974	633.95
726.416	541.25
726.859	309.25
727.301	244.95
727.744	236.05
728.187	236.65
728.629	239.15
729.071	240.85
729.514	256.75
729.956	272.85
730.399	288.35
730.841	285.85
731.283	275.75
731.726	268.75
732.168	262.15
732.61	267.05
733.053	288.75
733.495	320.05
733.937	358.15
734.379	393.25
734.821	434.85
735.263	556.95
735.705	851.45
736.148	1615.05
736.59	2585.85
737.032	2982.95
737.474	2438.75
737.916	801.85
738.357	430.05
738.799	332.95
739.241	300.15
739.683	287.15
740.125	295.75
740.567	301.95
741.008	313.95
741.45	312.75
741.892	311.35
742.334	351.55
742.775	360.45
743.217	342.45
743.658	270.85
744.1	253.55
744.542	260.05
744.983	305.15
745.425	341.65
745.866	334.45
746.307	279.55
746.749	288.45
747.19	329.75
747.632	461.15
748.073	911.75
748.514	1901.85
748.956	2832.55
749.397	3557.95
749.838	2959.45
750.279	2892.55
750.72	1475.65
751.162	539.85
751.603	322.85
752.044	250.45
752.485	219.45
752.926	208.15
753.367	200.65
753.808	196.85
754.249	194.05
754.69	184.85
755.131	182.55
755.572	183.85
756.013	179.15
756.453	182.45
756.894	196.65
757.335	188.15
757.776	191.15
758.216	196.65
758.657	199.45
759.098	203.75
759.538	231.15
759.979	273.15
760.42	383.75
760.86	735.35
761.301	1897.05
761.741	4517.65
762.182	6240.15
762.622	4433.85
