Data from 20171114-ORNL-Ar_H_NY_Subt18_08-08-01-735.txt Node
Date: Tue Nov 14 08:08:01 EST 2017
User: Ender
Spectrometer: HR+D1039
Trigger mode: 0
Integration Time (sec): 2.730000E-2
Scans to average: 10
Electric dark correction enabled: true
Nonlinearity correction enabled: false
Boxcar width: 0
XAxis mode: Wavelengths
Number of Pixels in Spectrum: 2048
>>>>>Begin Spectral Data<<<<<
187.836	-3.73
188.309	-3.73
188.782	-3.73
189.255	4.67
189.728	-1.53
190.201	8.07
190.674	3.27
191.147	-1.13
191.619	-5.13
192.092	1.97
192.565	4.67
193.038	-1.23
193.511	-2.03
193.984	-1.33
194.456	-1.93
194.929	-2.53
195.402	-3.03
195.874	0.97
196.347	-7.83
196.82	-7.33
197.292	6.67
197.765	-4.43
198.237	-4.83
198.71	-2.83
199.182	1.67
199.655	0.57
200.127	3.57
200.6	-1.53
201.072	-1.83
201.544	-4.43
202.017	-3.13
202.489	0.57
202.961	-5.03
203.433	-4.73
203.906	-6.23
204.378	-7.13
204.85	2.67
205.322	-10.53
205.794	-4.43
206.266	0.97
206.739	-4.63
207.211	1.27
207.683	-10.83
208.155	-3.13
208.627	-12.23
209.099	-1.33
209.57	-8.93
210.042	-4.13
210.514	-4.13
210.986	-7.63
211.458	-9.93
211.93	-5.23
212.402	-1.83
212.873	-1.13
213.345	-8.73
213.817	-6.93
214.288	-2.73
214.76	-4.73
215.232	0.97
215.703	-7.93
216.175	-5.63
216.646	-3.13
217.118	-8.03
217.589	-7.33
218.061	-1.53
218.532	-4.53
219.004	-2.03
219.475	-6.23
219.946	0.87
220.418	-0.93
220.889	7.17
221.36	-0.03
221.832	-3.73
222.303	-5.53
222.774	-0.43
223.245	-10.23
223.717	-1.33
224.188	-6.63
224.659	-11.93
225.13	-3.33
225.601	-6.23
226.072	-7.03
226.543	-6.53
227.014	-5.43
227.485	-0.03
227.956	-6.63
228.427	0.47
228.898	-3.43
229.369	-3.83
229.839	-3.63
230.31	-12.93
230.781	-0.33
231.252	-4.33
231.722	-6.93
232.193	-1.33
232.664	-0.03
233.135	-3.83
233.605	-0.03
234.076	-5.63
234.546	3.17
235.017	3.17
235.487	-1.53
235.958	-2.93
236.428	-1.63
236.899	3.67
237.369	3.77
237.84	-6.13
238.31	4.27
238.78	1.27
239.251	3.57
239.721	2.47
240.191	-0.33
240.662	-2.53
241.132	-1.03
241.602	-4.03
242.072	0.37
242.542	5.67
243.013	-2.23
243.483	0.77
243.953	7.67
244.423	2.67
244.893	-3.83
245.363	3.67
245.833	3.77
246.303	1.77
246.773	7.27
247.243	6.07
247.712	3.67
248.182	9.87
248.652	9.57
249.122	0.77
249.592	9.37
250.061	20.77
250.531	32.17
251.001	17.27
251.471	19.27
251.94	17.57
252.41	11.97
252.879	1.97
253.349	15.27
253.818	9.67
254.288	7.47
254.757	7.97
255.227	-1.73
255.696	1.07
256.166	6.97
256.635	13.27
257.105	8.67
257.574	6.57
258.043	3.87
258.513	11.77
258.982	10.17
259.451	9.17
259.92	16.77
260.389	5.57
260.859	16.17
261.328	12.47
261.797	15.67
262.266	4.67
262.735	14.17
263.204	6.27
263.673	-1.13
264.142	6.37
264.611	-1.73
265.08	2.17
265.549	4.87
266.018	8.37
266.487	0.07
266.955	-1.53
267.424	2.37
267.893	6.87
268.362	-0.33
268.83	4.47
269.299	9.47
269.768	9.27
270.236	10.97
270.705	10.37
271.174	8.17
271.642	9.77
272.111	9.97
272.579	16.67
273.048	22.87
273.516	18.47
273.985	30.87
274.453	23.37
274.922	19.07
275.39	13.87
275.858	5.17
276.327	12.67
276.795	16.77
277.263	12.67
277.731	32.77
278.2	50.67
278.668	56.07
279.136	44.87
279.604	15.87
280.072	15.07
280.54	15.27
281.008	6.87
281.477	12.67
281.945	14.57
282.413	13.77
282.881	18.57
283.348	7.77
283.816	17.47
284.284	9.47
284.752	24.27
285.22	12.57
285.688	17.77
286.156	19.97
286.623	46.07
287.091	58.07
287.559	35.07
288.026	20.77
288.494	15.97
288.962	5.97
289.429	9.77
289.897	15.67
290.364	17.67
290.832	15.47
291.3	16.07
291.767	12.57
292.234	14.47
292.702	14.97
293.169	21.17
293.637	24.97
294.104	18.57
294.571	6.67
295.039	16.07
295.506	13.67
295.973	19.67
296.44	14.87
296.908	23.97
297.375	22.27
297.842	24.97
298.309	16.97
298.776	14.67
299.243	16.27
299.71	5.87
300.177	22.27
300.644	20.47
301.111	19.77
301.578	22.57
302.045	14.97
302.512	23.27
302.979	26.77
303.446	22.37
303.913	16.07
304.379	21.57
304.846	24.47
305.313	25.17
305.78	22.97
306.246	27.97
306.713	22.57
307.18	22.97
307.646	32.67
308.113	24.27
308.579	25.87
309.046	21.27
309.512	27.57
309.979	19.57
310.445	27.57
310.912	25.87
311.378	29.97
311.845	23.47
312.311	27.37
312.777	28.67
313.244	31.47
313.71	39.57
314.176	31.57
314.642	27.67
315.109	28.67
315.575	30.67
316.041	32.37
316.507	31.67
316.973	40.37
317.439	33.77
317.905	39.97
318.371	27.57
318.837	30.17
319.303	30.77
319.769	29.27
320.235	34.37
320.701	31.77
321.167	39.07
321.633	32.77
322.099	37.57
322.564	49.67
323.03	46.57
323.496	39.37
323.962	40.07
324.427	36.47
324.893	43.27
325.359	37.17
325.824	38.77
326.29	36.27
326.755	40.47
327.221	39.37
327.686	40.57
328.152	46.07
328.617	37.97
329.083	44.37
329.548	51.47
330.014	45.07
330.479	34.67
330.944	45.17
331.41	42.37
331.875	38.87
332.34	47.17
332.805	37.57
333.271	50.97
333.736	50.17
334.201	55.47
334.666	52.87
335.131	53.17
335.596	42.37
336.061	49.67
336.526	39.87
336.991	48.47
337.456	59.17
337.921	50.77
338.386	42.77
338.851	50.67
339.316	46.17
339.781	39.37
340.246	47.87
340.711	47.27
341.175	49.57
341.64	43.77
342.105	46.47
342.569	55.07
343.034	60.27
343.499	55.47
343.963	51.77
344.428	62.77
344.893	59.37
345.357	56.27
345.822	58.07
346.286	69.37
346.751	72.77
347.215	70.47
347.679	71.37
348.144	101.57
348.608	83.67
349.073	69.87
349.537	70.97
350.001	78.67
350.465	86.67
350.93	79.67
351.394	80.07
351.858	68.17
352.322	80.17
352.786	85.17
353.25	100.47
353.715	107.57
354.179	99.27
354.643	123.67
355.107	125.57
355.571	105.37
356.035	101.07
356.498	114.67
356.962	123.97
357.426	128.97
357.89	114.47
358.354	87.37
358.818	84.67
359.281	75.27
359.745	75.77
360.209	76.57
360.673	74.27
361.136	87.07
361.6	85.87
362.064	84.17
362.527	86.37
362.991	91.47
363.454	80.27
363.918	73.17
364.381	72.37
364.845	79.57
365.308	86.27
365.772	83.07
366.235	87.27
366.698	82.37
367.162	86.17
367.625	79.87
368.088	87.27
368.552	89.47
369.015	84.47
369.478	96.17
369.941	99.07
370.404	94.97
370.867	105.67
371.331	111.77
371.794	110.97
372.257	112.97
372.72	115.17
373.183	111.07
373.646	109.27
374.109	104.17
374.572	106.17
375.035	108.17
375.497	108.87
375.96	111.87
376.423	103.67
376.886	110.97
377.349	111.87
377.811	104.97
378.274	109.47
378.737	109.87
379.199	116.47
379.662	112.67
380.125	116.77
380.587	118.17
381.05	120.57
381.512	132.67
381.975	145.07
382.437	126.67
382.9	131.17
383.362	130.97
383.825	141.37
384.287	155.77
384.75	141.87
385.212	137.77
385.674	137.07
386.136	136.97
386.599	129.17
387.061	131.77
387.523	137.47
387.985	140.17
388.447	143.07
388.91	152.17
389.372	158.77
389.834	157.17
390.296	144.87
390.758	156.77
391.22	181.97
391.682	216.87
392.144	305.87
392.606	241.17
393.068	170.17
393.529	172.47
393.991	158.37
394.453	149.87
394.915	160.67
395.377	199.37
395.838	221.87
396.3	153.07
396.762	144.17
397.224	136.77
397.685	127.67
398.147	128.07
398.608	128.77
399.07	137.17
399.531	138.27
399.993	142.27
400.454	154.07
400.916	150.77
401.377	145.77
401.839	145.67
402.3	157.27
402.762	167.27
403.223	185.47
403.684	173.17
404.145	162.77
404.607	163.77
405.068	171.07
405.529	172.57
405.99	192.47
406.451	169.67
406.913	174.57
407.374	160.97
407.835	168.57
408.296	173.17
408.757	170.97
409.218	186.97
409.679	184.47
410.14	178.07
410.601	181.67
411.062	182.07
411.522	202.27
411.983	194.17
412.444	178.07
412.905	184.77
413.366	185.87
413.826	198.07
414.287	218.87
414.748	263.77
415.208	247.47
415.669	210.67
416.13	198.37
416.59	207.17
417.051	213.57
417.511	220.67
417.972	238.87
418.432	249.37
418.893	291.67
419.353	259.17
419.814	197.37
420.274	185.27
420.734	184.37
421.195	198.07
421.655	203.07
422.115	197.97
422.576	194.87
423.036	201.67
423.496	206.27
423.956	218.27
424.416	230.67
424.876	271.87
425.336	259.27
425.797	263.07
426.257	256.97
426.717	247.77
427.177	230.37
427.637	226.07
428.097	243.37
428.556	247.17
429.016	276.97
429.476	267.67
429.936	281.17
430.396	281.27
430.856	297.77
431.315	316.77
431.775	351.27
432.235	385.37
432.694	352.07
433.154	370.67
433.614	398.37
434.073	343.67
434.533	289.17
434.993	275.77
435.452	284.17
435.912	299.57
436.371	291.37
436.83	284.37
437.29	274.57
437.749	253.97
438.209	256.57
438.668	275.57
439.127	285.47
439.587	271.27
440.046	251.67
440.505	257.47
440.964	277.77
441.424	322.27
441.883	313.27
442.342	266.57
442.801	230.37
443.26	222.37
443.719	215.67
444.178	222.57
444.637	216.47
445.096	228.77
445.555	231.77
446.014	224.67
446.473	229.47
446.932	236.47
447.391	229.97
447.849	225.27
448.308	223.87
448.767	223.47
449.226	240.77
449.685	238.17
450.143	246.27
450.602	233.47
451.061	228.37
451.519	229.77
451.978	234.27
452.436	234.27
452.895	245.77
453.353	251.27
453.812	243.17
454.27	238.27
454.729	239.97
455.187	238.37
455.646	249.87
456.104	250.47
456.562	261.07
457.021	271.87
457.479	258.97
457.937	276.37
458.395	260.87
458.854	249.07
459.312	250.27
459.77	273.87
460.228	256.47
460.686	249.37
461.144	252.87
461.602	249.87
462.06	239.77
462.518	254.67
462.976	259.67
463.434	251.07
463.892	262.97
464.35	278.27
464.808	284.47
465.266	265.17
465.724	267.57
466.181	267.77
466.639	275.47
467.097	288.47
467.555	298.37
468.012	298.77
468.47	309.47
468.928	325.77
469.385	341.77
469.843	342.57
470.3	347.47
470.758	364.47
471.215	388.67
471.673	406.07
472.13	410.57
472.588	427.27
473.045	374.87
473.503	376.67
473.96	395.07
474.417	405.97
474.875	435.67
475.332	479.67
475.789	459.17
476.246	468.17
476.704	480.07
477.161	511.17
477.618	523.07
478.075	559.27
478.532	623.37
478.989	693.07
479.446	811.37
479.903	771.87
480.36	823.97
480.817	881.97
481.274	969.07
481.731	1078.57
482.188	1173.67
482.645	1315.57
483.102	1420.07
483.558	1552.47
484.015	1616.87
484.472	1582.57
484.929	1537.47
485.385	1481.27
485.842	1431.57
486.299	1364.97
486.755	1310.87
487.212	1096.47
487.668	939.47
488.125	865.57
488.582	781.07
489.038	743.47
489.494	714.17
489.951	685.47
490.407	668.27
490.864	650.17
491.32	642.07
491.776	643.87
492.233	656.07
492.689	612.47
493.145	612.87
493.602	596.47
494.058	615.97
494.514	615.57
494.97	646.57
495.426	647.47
495.882	627.07
496.338	612.37
496.794	637.57
497.251	613.17
497.707	626.17
498.163	633.57
498.618	635.27
499.074	647.07
499.53	675.77
499.986	681.87
500.442	651.97
500.898	628.57
501.354	616.67
501.809	641.87
502.265	645.87
502.721	668.07
503.177	679.37
503.632	674.47
504.088	684.87
504.543	711.87
504.999	715.17
505.455	662.77
505.91	630.77
506.366	630.57
506.821	626.07
507.277	622.27
507.732	620.57
508.187	627.07
508.643	633.07
509.098	641.47
509.553	653.27
510.009	667.17
510.464	670.37
510.919	695.57
511.375	694.27
511.83	707.17
512.285	720.17
512.74	747.67
513.195	780.77
513.65	765.87
514.105	761.87
514.56	770.47
515.015	792.67
515.47	808.47
515.925	785.07
516.38	786.87
516.835	805.37
517.29	782.67
517.745	767.07
518.2	755.77
518.655	751.07
519.109	743.47
519.564	731.97
520.019	716.67
520.474	718.87
520.928	720.37
521.383	716.77
521.838	707.17
522.292	709.77
522.747	705.57
523.201	695.97
523.656	693.17
524.11	689.67
524.565	689.37
525.019	686.27
525.474	699.77
525.928	696.57
526.382	695.67
526.837	696.07
527.291	704.47
527.745	693.27
528.2	690.77
528.654	687.17
529.108	695.07
529.562	690.17
530.016	690.77
530.47	683.47
530.925	692.67
531.379	700.97
531.833	707.17
532.287	693.87
532.741	705.97
533.195	703.67
533.649	721.77
534.103	712.77
534.556	708.07
535.01	705.17
535.464	704.37
535.918	722.57
536.372	715.47
536.826	714.17
537.279	706.17
537.733	715.37
538.187	710.47
538.64	721.17
539.094	717.57
539.548	735.77
540.001	720.77
540.455	728.27
540.908	734.17
541.362	739.87
541.815	747.67
542.269	756.77
542.722	752.47
543.175	772.07
543.629	762.17
544.082	792.87
544.536	790.67
544.989	782.87
545.442	795.17
545.895	798.37
546.349	789.37
546.802	786.57
547.255	792.77
547.708	801.97
548.161	812.87
548.614	838.27
549.067	835.47
549.52	820.27
549.973	814.57
550.426	793.37
550.879	795.87
551.332	798.07
551.785	808.67
552.238	811.57
552.691	814.57
553.144	829.97
553.596	846.47
554.049	854.37
554.502	883.97
554.955	909.67
555.407	903.47
555.86	891.77
556.313	887.47
556.765	886.97
557.218	880.97
557.67	873.37
558.123	871.47
558.576	871.47
559.028	873.77
559.48	883.47
559.933	875.77
560.385	835.77
560.838	806.77
561.29	780.67
561.742	778.07
562.195	771.27
562.647	766.97
563.099	769.57
563.551	777.27
564.004	783.67
564.456	773.57
564.908	771.67
565.36	752.37
565.812	740.17
566.264	730.17
566.716	725.87
567.168	722.67
567.62	721.27
568.072	708.67
568.524	704.17
568.976	698.87
569.428	675.37
569.88	673.77
570.332	688.77
570.784	685.27
571.235	683.07
571.687	696.07
572.139	696.57
572.59	704.07
573.042	724.77
573.494	705.47
573.945	705.27
574.397	679.67
574.849	687.87
575.3	688.17
575.752	688.17
576.203	680.17
576.655	684.37
577.106	675.77
577.557	670.97
578.009	665.77
578.46	665.97
578.912	664.97
579.363	678.97
579.814	666.97
580.265	654.57
580.717	665.47
581.168	669.87
581.619	674.37
582.07	689.87
582.521	682.37
582.972	667.37
583.423	686.07
583.875	680.07
584.326	701.57
584.777	760.57
585.227	833.17
585.678	934.37
586.129	1030.67
586.58	1109.17
587.031	1208.97
587.482	1360.97
587.933	1549.07
588.384	1368.67
588.834	995.37
589.285	819.47
589.736	789.37
590.186	770.47
590.637	769.67
591.088	748.47
591.538	737.67
591.989	739.77
592.439	733.87
592.89	723.47
593.34	710.57
593.791	716.97
594.241	713.07
594.692	718.77
595.142	709.67
595.593	707.17
596.043	712.87
596.493	722.07
596.943	727.07
597.394	725.77
597.844	719.87
598.294	744.67
598.744	747.37
599.195	784.57
599.645	825.37
600.095	860.97
600.545	920.47
600.995	967.67
601.445	1027.77
601.895	1090.97
602.345	1140.27
602.795	1117.57
603.245	1063.77
603.695	1018.57
604.145	951.27
604.594	906.67
605.044	853.57
605.494	795.57
605.944	760.87
606.393	747.87
606.843	736.17
607.293	733.67
607.743	736.27
608.192	752.87
608.642	767.27
609.091	778.57
609.541	772.67
609.99	768.57
610.44	768.77
610.889	725.77
611.339	714.37
611.788	690.77
612.238	694.57
612.687	726.37
613.136	723.27
613.586	754.47
614.035	753.27
614.484	763.97
614.933	773.57
615.383	758.87
615.832	746.97
616.281	740.77
616.73	707.37
617.179	669.47
617.628	656.47
618.077	646.67
618.526	638.37
618.975	622.97
619.424	611.67
619.873	621.57
620.322	622.67
620.771	611.97
621.22	615.57
621.669	599.27
622.118	593.27
622.567	575.87
623.015	576.17
623.464	571.97
623.913	559.07
624.361	556.87
624.81	553.47
625.259	562.57
625.707	558.47
626.156	565.67
626.604	574.47
627.053	565.07
627.501	560.87
627.95	563.97
628.398	579.27
628.847	570.37
629.295	560.97
629.744	581.57
630.192	571.07
630.64	575.77
631.089	581.47
631.537	592.97
631.985	601.47
632.433	609.67
632.881	620.37
633.33	679.47
633.778	661.77
634.226	570.87
634.674	576.77
635.122	589.47
635.57	607.97
636.018	641.97
636.466	584.67
636.914	561.47
637.362	571.87
637.81	577.37
638.258	576.27
638.705	589.77
639.153	611.27
639.601	613.47
640.049	642.97
640.497	667.97
640.944	691.27
641.392	643.97
641.84	617.67
642.287	584.07
642.735	572.87
643.182	576.57
643.63	577.07
644.078	586.27
644.525	593.07
644.973	604.07
645.42	607.27
645.867	628.97
646.315	646.47
646.762	673.27
647.21	699.97
647.657	732.67
648.104	754.77
648.551	780.77
648.999	845.57
649.446	927.87
649.893	1011.37
650.34	1177.87
650.787	1424.37
651.234	1768.27
651.682	2313.57
652.129	3189.47
652.576	4635.77
653.023	6829.47
653.47	9329.07
653.917	11594.87
654.363	13316.17
654.81	14566.67
655.257	13868.07
655.704	9071.97
656.151	5324.07
656.598	3469.17
657.044	2447.07
657.491	1877.07
657.938	1504.97
658.385	1254.47
658.831	1084.77
659.278	971.97
659.724	857.57
660.171	796.57
660.618	735.17
661.064	698.37
661.511	673.47
661.957	657.87
662.404	647.37
662.85	657.17
663.296	621.37
663.743	559.87
664.189	540.87
664.635	538.57
665.082	525.67
665.528	531.77
665.974	520.47
666.42	518.97
666.867	513.07
667.313	503.57
667.759	493.97
668.205	488.97
668.651	498.77
669.097	494.37
669.543	512.17
669.989	482.17
670.435	458.07
670.881	451.47
671.327	452.47
671.773	472.67
672.219	493.97
672.665	536.37
673.11	587.17
673.556	630.77
674.002	684.07
674.448	652.57
674.893	552.17
675.339	482.67
675.785	445.07
676.23	415.67
676.676	396.67
677.122	381.67
677.567	374.87
678.013	370.97
678.458	358.37
678.904	360.17
679.349	350.77
679.794	352.97
680.24	353.07
680.685	349.37
681.131	354.87
681.576	352.47
682.021	360.77
682.466	353.37
682.912	355.67
683.357	346.37
683.802	387.77
684.247	408.17
684.692	462.37
685.137	499.77
685.583	540.07
686.028	557.87
686.473	522.67
686.918	453.57
687.363	423.77
687.807	393.57
688.252	364.17
688.697	355.87
689.142	338.27
689.587	330.77
690.032	327.87
690.477	340.97
690.921	352.07
691.366	386.07
691.811	399.27
692.255	430.67
692.7	461.27
693.145	504.07
693.589	715.67
694.034	1165.37
694.478	1573.87
694.923	1747.67
695.367	2258.37
695.812	1192.97
696.256	498.27
696.701	378.97
697.145	343.77
697.59	332.57
698.034	322.27
698.478	337.77
698.922	325.67
699.367	333.67
699.811	352.47
700.255	357.97
700.699	396.07
701.143	433.37
701.588	483.57
702.032	518.27
702.476	516.67
702.92	490.27
703.364	496.07
703.808	648.17
704.252	1056.57
704.696	1462.57
705.14	1662.17
705.584	2118.57
706.027	1070.77
706.471	521.27
706.915	408.17
707.359	355.07
707.803	323.47
708.246	320.77
708.69	311.77
709.134	318.77
709.577	308.67
710.021	319.97
710.465	312.67
710.908	302.17
711.352	298.57
711.795	310.57
712.239	355.17
712.682	385.07
713.126	430.37
713.569	464.37
714.012	379.97
714.456	332.47
714.899	298.17
715.342	284.57
715.786	263.07
716.229	257.07
716.672	255.17
717.115	251.37
717.558	254.57
718.002	253.77
718.445	265.17
718.888	284.77
719.331	289.97
719.774	313.87
720.217	308.67
720.66	283.17
721.103	268.77
721.546	256.57
721.989	253.07
722.432	228.17
722.874	240.67
723.317	225.67
723.76	248.27
724.203	258.17
724.645	321.07
725.088	452.17
725.531	570.87
725.974	647.17
726.416	536.97
726.859	307.37
727.301	245.97
727.744	243.57
728.187	234.47
728.629	239.37
729.071	242.67
729.514	261.97
729.956	280.37
730.399	293.27
730.841	285.37
731.283	276.77
731.726	273.47
732.168	264.77
732.61	271.87
733.053	287.47
733.495	317.47
733.937	358.07
734.379	401.57
734.821	435.67
735.263	547.97
735.705	867.97
736.148	1630.67
736.59	2603.17
737.032	3019.87
737.474	2461.47
737.916	812.27
738.357	433.77
738.799	324.17
739.241	303.07
739.683	285.67
740.125	291.57
740.567	304.77
741.008	320.67
741.45	320.57
741.892	318.67
742.334	346.17
742.775	355.57
743.217	336.07
743.658	270.27
744.1	263.37
744.542	268.57
744.983	307.27
745.425	336.57
745.866	335.67
746.307	285.87
746.749	285.77
747.19	330.17
747.632	474.47
748.073	918.17
748.514	1916.67
748.956	2862.97
749.397	3592.67
749.838	2965.57
750.279	2908.17
750.72	1474.87
751.162	553.57
751.603	321.57
752.044	248.27
752.485	212.67
752.926	209.57
753.367	200.47
753.808	198.97
754.249	193.97
754.69	188.17
755.131	181.27
755.572	182.17
756.013	182.67
756.453	187.97
756.894	191.97
757.335	197.87
757.776	197.67
758.216	194.57
758.657	205.97
759.098	209.27
759.538	233.27
759.979	272.67
760.42	381.27
760.86	725.77
761.301	1894.37
761.741	4535.27
762.182	6341.27
