Data from 20171114-ORNL-Ar_H_NY_Subt18_08-05-04-574.txt Node
Date: Tue Nov 14 08:05:04 EST 2017
User: Ender
Spectrometer: HR+D1039
Trigger mode: 0
Integration Time (sec): 2.730000E-2
Scans to average: 10
Electric dark correction enabled: true
Nonlinearity correction enabled: false
Boxcar width: 0
XAxis mode: Wavelengths
Number of Pixels in Spectrum: 2048
>>>>>Begin Spectral Data<<<<<
187.836	0.24
188.309	0.24
188.782	0.24
189.255	2.24
189.728	0.64
190.201	1.64
190.674	-0.96
191.147	4.14
191.619	-9.76
192.092	1.14
192.565	10.34
193.038	-3.36
193.511	-1.46
193.984	-1.66
194.456	1.14
194.929	1.44
195.402	-5.16
195.874	-0.66
196.347	-3.66
196.82	-5.96
197.292	4.34
197.765	3.24
198.237	-4.46
198.71	0.34
199.182	-3.66
199.655	1.44
200.127	5.64
200.6	-4.46
201.072	-6.86
201.544	-3.86
202.017	-3.46
202.489	2.74
202.961	-0.86
203.433	-2.26
203.906	-5.56
204.378	-4.06
204.85	-4.96
205.322	-6.66
205.794	-4.16
206.266	-6.46
206.739	-13.36
207.211	-0.56
207.683	-4.16
208.155	-6.96
208.627	-8.06
209.099	-0.26
209.57	-9.16
210.042	-6.26
210.514	0.54
210.986	-3.06
211.458	-11.96
211.93	-2.46
212.402	5.84
212.873	-8.56
213.345	-8.66
213.817	-11.06
214.288	5.34
214.76	-11.06
215.232	1.54
215.703	-0.06
216.175	-6.46
216.646	-3.86
217.118	-4.26
217.589	2.74
218.061	1.34
218.532	-9.26
219.004	1.24
219.475	0.84
219.946	-0.96
220.418	-6.06
220.889	5.64
221.36	5.14
221.832	-4.46
222.303	-9.26
222.774	0.34
223.245	-7.16
223.717	-4.26
224.188	-3.36
224.659	-8.76
225.13	-3.66
225.601	0.84
226.072	7.64
226.543	1.44
227.014	1.74
227.485	3.04
227.956	-7.66
228.427	2.94
228.898	-1.06
229.369	0.74
229.839	-3.46
230.31	-2.66
230.781	4.94
231.252	-2.16
231.722	-5.36
232.193	-4.06
232.664	0.14
233.135	0.14
233.605	-3.56
234.076	-4.96
234.546	3.44
235.017	2.74
235.487	-3.86
235.958	-5.16
236.428	-1.76
236.899	3.64
237.369	0.64
237.84	0.34
238.31	8.64
238.78	3.84
239.251	2.14
239.721	2.44
240.191	0.34
240.662	-0.56
241.132	6.14
241.602	0.34
242.072	2.24
242.542	10.84
243.013	2.44
243.483	1.24
243.953	1.54
244.423	-1.86
244.893	-2.46
245.363	4.44
245.833	-0.06
246.303	-1.76
246.773	7.24
247.243	7.84
247.712	8.44
248.182	7.34
248.652	6.34
249.122	1.24
249.592	11.84
250.061	22.64
250.531	38.34
251.001	22.14
251.471	24.64
251.94	19.94
252.41	3.54
252.879	1.84
253.349	10.64
253.818	13.74
254.288	6.64
254.757	6.94
255.227	8.04
255.696	4.54
256.166	6.04
256.635	4.94
257.105	9.24
257.574	5.24
258.043	14.54
258.513	14.04
258.982	23.24
259.451	10.04
259.92	15.54
260.389	16.74
260.859	20.14
261.328	15.94
261.797	19.94
262.266	10.54
262.735	8.64
263.204	11.64
263.673	5.54
264.142	12.84
264.611	-2.06
265.08	2.94
265.549	-2.36
266.018	6.94
266.487	1.14
266.955	2.74
267.424	2.94
267.893	9.74
268.362	4.34
268.83	7.64
269.299	16.14
269.768	9.94
270.236	11.34
270.705	5.64
271.174	5.74
271.642	7.84
272.111	11.74
272.579	21.14
273.048	27.84
273.516	30.74
273.985	25.94
274.453	24.54
274.922	20.04
275.39	12.84
275.858	13.94
276.327	13.84
276.795	21.94
277.263	11.54
277.731	33.34
278.2	60.84
278.668	58.24
279.136	50.04
279.604	25.24
280.072	17.14
280.54	15.14
281.008	12.54
281.477	16.74
281.945	15.74
282.413	15.74
282.881	19.14
283.348	8.14
283.816	16.74
284.284	15.84
284.752	26.84
285.22	16.24
285.688	16.04
286.156	24.74
286.623	45.84
287.091	55.64
287.559	29.44
288.026	23.34
288.494	18.14
288.962	9.34
289.429	12.04
289.897	18.64
290.364	23.74
290.832	19.54
291.3	16.74
291.767	18.04
292.234	23.34
292.702	13.04
293.169	22.44
293.637	26.54
294.104	22.64
294.571	12.44
295.039	11.04
295.506	10.64
295.973	19.74
296.44	17.34
296.908	20.14
297.375	24.34
297.842	22.04
298.309	21.54
298.776	16.44
299.243	27.74
299.71	20.14
300.177	22.74
300.644	26.34
301.111	18.94
301.578	20.44
302.045	19.64
302.512	32.34
302.979	31.74
303.446	22.84
303.913	25.84
304.379	20.64
304.846	28.74
305.313	30.94
305.78	30.34
306.246	25.94
306.713	28.64
307.18	29.34
307.646	32.94
308.113	30.04
308.579	32.24
309.046	31.04
309.512	29.64
309.979	21.24
310.445	31.74
310.912	28.54
311.378	36.54
311.845	32.64
312.311	35.44
312.777	39.24
313.244	30.54
313.71	38.34
314.176	32.64
314.642	35.84
315.109	35.04
315.575	34.34
316.041	38.64
316.507	33.44
316.973	37.24
317.439	37.34
317.905	40.14
318.371	37.34
318.837	38.84
319.303	38.04
319.769	41.84
320.235	35.14
320.701	40.74
321.167	37.84
321.633	38.74
322.099	42.14
322.564	44.84
323.03	50.24
323.496	40.04
323.962	43.64
324.427	45.74
324.893	45.34
325.359	45.24
325.824	38.44
326.29	30.14
326.755	38.34
327.221	46.74
327.686	41.84
328.152	48.74
328.617	36.74
329.083	49.44
329.548	52.44
330.014	48.04
330.479	40.84
330.944	48.94
331.41	47.04
331.875	48.34
332.34	45.84
332.805	41.74
333.271	49.24
333.736	46.94
334.201	54.64
334.666	58.64
335.131	58.14
335.596	50.34
336.061	53.64
336.526	44.84
336.991	52.84
337.456	61.14
337.921	56.34
338.386	53.04
338.851	50.04
339.316	50.74
339.781	49.34
340.246	48.64
340.711	47.64
341.175	53.24
341.64	50.94
342.105	54.74
342.569	61.24
343.034	63.24
343.499	63.44
343.963	55.54
344.428	61.84
344.893	63.94
345.357	61.94
345.822	66.84
346.286	71.54
346.751	78.74
347.215	75.34
347.679	78.54
348.144	100.54
348.608	87.54
349.073	72.04
349.537	75.44
350.001	85.84
350.465	85.64
350.93	85.54
351.394	80.74
351.858	77.74
352.322	87.14
352.786	89.04
353.25	98.54
353.715	111.94
354.179	102.94
354.643	121.44
355.107	130.44
355.571	109.94
356.035	105.14
356.498	122.14
356.962	124.14
357.426	134.04
357.89	120.64
358.354	91.94
358.818	85.64
359.281	83.64
359.745	81.14
360.209	84.54
360.673	76.84
361.136	84.04
361.6	83.74
362.064	91.24
362.527	90.44
362.991	94.34
363.454	78.54
363.918	72.44
364.381	83.54
364.845	77.44
365.308	93.44
365.772	90.24
366.235	91.14
366.698	85.44
367.162	91.84
367.625	90.24
368.088	88.04
368.552	93.24
369.015	93.04
369.478	94.74
369.941	100.54
370.404	93.84
370.867	104.14
371.331	106.94
371.794	110.44
372.257	114.54
372.72	119.94
373.183	108.24
373.646	102.44
374.109	107.14
374.572	108.04
375.035	110.44
375.497	112.34
375.96	112.44
376.423	109.64
376.886	121.44
377.349	115.24
377.811	103.34
378.274	105.54
378.737	110.94
379.199	111.64
379.662	116.54
380.125	121.74
380.587	121.14
381.05	126.44
381.512	125.84
381.975	138.64
382.437	137.14
382.9	124.94
383.362	130.94
383.825	146.14
384.287	140.54
384.75	146.24
385.212	146.94
385.674	139.14
386.136	133.94
386.599	124.84
387.061	127.24
387.523	129.74
387.985	138.14
388.447	139.04
388.91	144.74
389.372	156.94
389.834	148.34
390.296	141.74
390.758	152.54
391.22	169.64
391.682	203.74
392.144	282.54
392.606	225.64
393.068	160.14
393.529	167.84
393.991	153.84
394.453	150.44
394.915	160.94
395.377	188.04
395.838	207.14
396.3	159.54
396.762	141.14
397.224	139.34
397.685	128.04
398.147	134.74
398.608	130.14
399.07	122.04
399.531	135.64
399.993	142.44
400.454	155.34
400.916	144.84
401.377	144.14
401.839	153.84
402.3	148.64
402.762	160.84
403.223	169.14
403.684	163.64
404.145	156.94
404.607	160.64
405.068	155.74
405.529	166.04
405.99	182.74
406.451	185.14
406.913	171.44
407.374	165.74
407.835	160.74
408.296	166.84
408.757	176.24
409.218	187.54
409.679	176.54
410.14	171.24
410.601	177.64
411.062	187.34
411.522	183.24
411.983	187.64
412.444	179.64
412.905	175.14
413.366	180.64
413.826	192.14
414.287	212.34
414.748	260.14
415.208	248.14
415.669	209.44
416.13	205.34
416.59	205.64
417.051	210.74
417.511	210.24
417.972	231.54
418.432	245.64
418.893	293.14
419.353	254.24
419.814	198.34
420.274	185.74
420.734	180.34
421.195	199.74
421.655	195.74
422.115	192.24
422.576	193.24
423.036	197.74
423.496	204.44
423.956	214.54
424.416	230.24
424.876	260.74
425.336	258.54
425.797	256.64
426.257	257.44
426.717	238.94
427.177	229.14
427.637	218.14
428.097	232.54
428.556	251.04
429.016	271.44
429.476	255.44
429.936	267.84
430.396	272.84
430.856	294.34
431.315	309.14
431.775	342.34
432.235	373.54
432.694	345.64
433.154	355.54
433.614	382.04
434.073	330.84
434.533	288.44
434.993	269.74
435.452	285.24
435.912	292.44
436.371	288.84
436.83	277.94
437.29	274.84
437.749	248.34
438.209	243.14
438.668	266.54
439.127	285.84
439.587	265.64
440.046	249.84
440.505	260.34
440.964	282.74
441.424	316.04
441.883	310.54
442.342	253.64
442.801	226.74
443.26	220.34
443.719	218.14
444.178	223.14
444.637	209.64
445.096	220.24
445.555	218.04
446.014	224.04
446.473	223.34
446.932	232.64
447.391	224.94
447.849	222.94
448.308	217.94
448.767	221.84
449.226	237.74
449.685	232.44
450.143	240.84
450.602	236.34
451.061	226.04
451.519	233.64
451.978	233.24
452.436	230.74
452.895	242.64
453.353	251.14
453.812	240.64
454.27	236.54
454.729	234.34
455.187	238.34
455.646	248.64
456.104	242.64
456.562	256.44
457.021	261.54
457.479	260.84
457.937	269.44
458.395	258.54
458.854	240.14
459.312	249.94
459.77	271.74
460.228	250.54
460.686	236.44
461.144	241.24
461.602	243.34
462.06	239.24
462.518	249.34
462.976	248.04
463.434	257.94
463.892	264.74
464.35	270.94
464.808	289.34
465.266	266.74
465.724	267.64
466.181	278.64
466.639	271.64
467.097	290.14
467.555	302.44
468.012	296.14
468.47	309.94
468.928	326.14
469.385	346.34
469.843	349.34
470.3	338.64
470.758	360.84
471.215	389.14
471.673	405.04
472.13	400.14
472.588	413.14
473.045	369.44
473.503	369.94
473.96	387.34
474.417	393.04
474.875	425.04
475.332	470.64
475.789	450.64
476.246	471.84
476.704	480.34
477.161	503.84
477.618	522.14
478.075	552.34
478.532	611.24
478.989	688.44
479.446	803.44
479.903	766.04
480.36	806.64
480.817	861.34
481.274	968.44
481.731	1056.54
482.188	1159.54
482.645	1297.94
483.102	1410.14
483.558	1519.64
484.015	1589.34
484.472	1565.44
484.929	1517.94
485.385	1474.04
485.842	1423.24
486.299	1350.44
486.755	1280.94
487.212	1088.84
487.668	930.04
488.125	846.94
488.582	785.64
489.038	755.64
489.494	705.84
489.951	691.54
490.407	668.54
490.864	647.94
491.32	641.04
491.776	636.64
492.233	654.54
492.689	605.84
493.145	601.34
493.602	591.14
494.058	607.94
494.514	610.64
494.97	637.74
495.426	643.94
495.882	621.74
496.338	615.34
496.794	632.74
497.251	615.74
497.707	644.94
498.163	641.74
498.618	649.34
499.074	647.44
499.53	671.24
499.986	670.14
500.442	655.24
500.898	635.44
501.354	620.54
501.809	632.74
502.265	635.04
502.721	658.24
503.177	660.44
503.632	651.64
504.088	669.34
504.543	697.94
504.999	708.34
505.455	657.74
505.91	634.64
506.366	636.64
506.821	625.44
507.277	625.24
507.732	634.14
508.187	616.74
508.643	625.04
509.098	630.14
509.553	653.14
510.009	655.04
510.464	665.04
510.919	690.04
511.375	681.64
511.83	694.44
512.285	725.24
512.74	762.44
513.195	781.54
513.65	764.54
514.105	774.94
514.56	775.04
515.015	785.04
515.47	805.64
515.925	786.44
516.38	786.84
516.835	789.04
517.29	778.64
517.745	776.34
518.2	756.84
518.655	755.24
519.109	741.44
519.564	732.54
520.019	731.04
520.474	721.64
520.928	729.24
521.383	721.64
521.838	711.04
522.292	706.24
522.747	713.54
523.201	702.44
523.656	693.54
524.11	686.64
524.565	684.94
525.019	685.04
525.474	703.74
525.928	698.24
526.382	705.64
526.837	690.34
527.291	696.04
527.745	688.84
528.2	687.74
528.654	684.24
529.108	678.04
529.562	691.14
530.016	690.94
530.47	684.74
530.925	695.84
531.379	682.44
531.833	688.34
532.287	698.84
532.741	699.64
533.195	698.04
533.649	716.54
534.103	715.44
534.556	702.84
535.01	715.24
535.464	702.94
535.918	723.84
536.372	721.14
536.826	714.94
537.279	695.94
537.733	713.04
538.187	704.64
538.64	704.84
539.094	710.34
539.548	719.84
540.001	715.34
540.455	716.04
540.908	716.94
541.362	719.04
541.815	733.24
542.269	747.84
542.722	747.24
543.175	756.14
543.629	757.04
544.082	774.44
544.536	784.14
544.989	775.54
545.442	781.44
545.895	775.94
546.349	768.84
546.802	779.14
547.255	781.54
547.708	788.74
548.161	803.94
548.614	817.84
549.067	816.54
549.52	810.94
549.973	795.74
550.426	801.74
550.879	785.24
551.332	779.14
551.785	801.84
552.238	798.64
552.691	814.54
553.144	827.14
553.596	828.84
554.049	851.44
554.502	885.14
554.955	888.34
555.407	892.24
555.86	891.84
556.313	877.94
556.765	876.24
557.218	870.84
557.67	868.04
558.123	868.04
558.576	867.64
559.028	864.44
559.48	876.94
559.933	868.64
560.385	825.94
560.838	795.94
561.29	762.94
561.742	773.44
562.195	746.74
562.647	748.54
563.099	763.74
563.551	758.94
564.004	774.94
564.456	754.04
564.908	750.04
565.36	739.34
565.812	720.34
566.264	715.84
566.716	705.14
567.168	705.94
567.62	700.84
568.072	683.84
568.524	684.14
568.976	667.24
569.428	646.14
569.88	658.94
570.332	671.84
570.784	668.24
571.235	670.14
571.687	676.14
572.139	690.94
572.59	694.24
573.042	690.24
573.494	701.34
573.945	691.54
574.397	668.84
574.849	677.94
575.3	672.74
575.752	672.74
576.203	661.24
576.655	667.44
577.106	654.54
577.557	650.94
578.009	652.94
578.46	645.54
578.912	643.14
579.363	651.84
579.814	650.04
580.265	643.34
580.717	645.14
581.168	657.74
581.619	654.34
582.07	666.84
582.521	660.94
582.972	648.34
583.423	659.84
583.875	644.54
584.326	670.44
584.777	711.54
585.227	791.34
585.678	872.54
586.129	960.94
586.58	1026.24
587.031	1108.24
587.482	1257.84
587.933	1435.64
588.384	1238.24
588.834	930.04
589.285	776.74
589.736	758.54
590.186	752.04
590.637	738.74
591.088	723.24
591.538	710.54
591.989	699.74
592.439	698.44
592.89	686.14
593.34	684.14
593.791	685.94
594.241	683.84
594.692	681.64
595.142	678.44
595.593	667.64
596.043	685.24
596.493	685.64
596.943	700.04
597.394	703.24
597.844	687.34
598.294	703.64
598.744	720.44
599.195	748.04
599.645	786.64
600.095	821.34
600.545	878.24
600.995	924.04
601.445	985.44
601.895	1034.54
602.345	1094.24
602.795	1082.34
603.245	1019.24
603.695	976.94
604.145	916.64
604.594	877.14
605.044	823.14
605.494	764.54
605.944	728.74
606.393	716.94
606.843	703.44
607.293	699.74
607.743	697.04
608.192	709.44
608.642	725.84
609.091	731.54
609.541	733.44
609.99	735.14
610.44	729.54
610.889	686.34
611.339	675.34
611.788	661.34
612.238	673.44
612.687	685.34
613.136	693.24
613.586	706.14
614.035	697.04
614.484	721.54
614.933	721.04
615.383	707.84
615.832	704.74
616.281	690.34
616.73	658.24
617.179	639.34
617.628	622.74
618.077	613.34
618.526	584.94
618.975	579.44
619.424	573.24
619.873	586.74
620.322	593.94
620.771	579.24
621.22	571.74
621.669	558.34
622.118	559.24
622.567	551.74
623.015	542.84
623.464	539.74
623.913	536.24
624.361	520.24
624.81	527.94
625.259	523.24
625.707	518.04
626.156	532.14
626.604	532.24
627.053	524.94
627.501	537.54
627.95	535.54
628.398	546.64
628.847	538.64
629.295	536.14
629.744	543.44
630.192	538.74
630.64	536.14
631.089	539.24
631.537	546.84
631.985	555.84
632.433	555.44
632.881	571.04
633.33	605.54
633.778	599.54
634.226	533.64
634.674	540.94
635.122	545.24
635.57	561.64
636.018	597.04
636.466	551.74
636.914	530.14
637.362	529.24
637.81	547.74
638.258	547.94
638.705	547.04
639.153	580.64
639.601	578.84
640.049	607.24
640.497	635.54
640.944	649.84
641.392	603.24
641.84	577.54
642.287	547.34
642.735	537.54
643.182	539.94
643.63	538.14
644.078	546.44
644.525	560.14
644.973	564.94
645.42	565.84
645.867	581.54
646.315	598.04
646.762	615.24
647.21	642.84
647.657	674.44
648.104	701.04
648.551	716.44
648.999	781.44
649.446	858.74
649.893	945.54
650.34	1085.24
650.787	1291.64
651.234	1598.64
651.682	2073.74
652.129	2846.34
652.576	4093.24
653.023	6017.04
653.47	8259.24
653.917	10451.54
654.363	12166.24
654.81	13593.24
655.257	12928.04
655.704	8440.54
656.151	4985.74
656.598	3230.54
657.044	2279.64
657.491	1748.64
657.938	1404.14
658.385	1164.04
658.831	1019.14
659.278	897.44
659.724	802.54
660.171	736.34
660.618	663.04
661.064	649.74
661.511	626.24
661.957	616.34
662.404	596.84
662.85	609.74
663.296	580.64
663.743	524.14
664.189	513.14
664.635	501.14
665.082	496.84
665.528	490.54
665.974	478.84
666.42	475.24
666.867	470.64
667.313	469.14
667.759	450.64
668.205	449.04
668.651	452.84
669.097	455.44
669.543	467.54
669.989	439.44
670.435	416.24
670.881	423.04
671.327	427.44
671.773	434.44
672.219	451.74
672.665	504.74
673.11	545.64
673.556	584.44
674.002	627.44
674.448	606.24
674.893	514.54
675.339	445.54
675.785	412.34
676.23	393.64
676.676	365.94
677.122	356.74
677.567	354.54
678.013	340.64
678.458	335.94
678.904	328.74
679.349	316.54
679.794	321.74
680.24	330.14
680.685	327.64
681.131	327.04
681.576	328.04
682.021	322.44
682.466	322.54
682.912	325.74
683.357	327.44
683.802	352.64
684.247	378.64
684.692	412.24
685.137	455.64
685.583	497.94
686.028	525.94
686.473	465.84
686.918	413.54
687.363	379.04
687.807	370.24
688.252	339.74
688.697	325.24
689.142	313.34
689.587	304.74
690.032	304.64
690.477	312.44
690.921	321.44
691.366	350.44
691.811	369.84
692.255	394.84
692.7	425.14
693.145	465.14
693.589	623.74
694.034	1019.44
694.478	1413.64
694.923	1619.34
695.367	2125.24
695.812	1097.64
696.256	457.94
696.701	348.04
697.145	312.24
697.59	307.54
698.034	293.74
698.478	309.44
698.922	295.34
699.367	304.94
699.811	311.14
700.255	327.64
700.699	351.34
701.143	385.94
701.588	437.04
702.032	474.14
702.476	472.74
702.92	454.84
703.364	448.94
703.808	568.94
704.252	933.74
704.696	1314.74
705.14	1547.44
705.584	1993.24
706.027	990.84
706.471	474.74
706.915	365.24
707.359	319.54
707.803	297.14
708.246	282.84
708.69	292.64
709.134	290.04
709.577	278.64
710.021	290.84
710.465	282.24
710.908	283.04
711.352	277.44
711.795	290.64
712.239	316.84
712.682	354.34
713.126	386.34
713.569	432.24
714.012	340.74
714.456	295.24
714.899	276.64
715.342	254.44
715.786	240.84
716.229	241.04
716.672	234.44
717.115	231.54
717.558	235.14
718.002	229.04
718.445	237.44
718.888	265.24
719.331	276.14
719.774	283.44
720.217	281.24
720.66	259.14
721.103	243.24
721.546	236.14
721.989	231.14
722.432	211.34
722.874	212.74
723.317	208.14
723.76	211.44
724.203	232.14
724.645	289.14
725.088	407.34
725.531	515.94
725.974	594.04
726.416	510.54
726.859	280.14
727.301	225.54
727.744	220.14
728.187	207.74
728.629	222.64
729.071	220.14
729.514	238.34
729.956	243.04
730.399	260.64
730.841	266.14
731.283	251.24
731.726	251.54
732.168	238.14
732.61	235.14
733.053	257.54
733.495	287.14
733.937	320.24
734.379	365.34
734.821	391.14
735.263	496.44
735.705	748.54
736.148	1409.74
736.59	2333.84
737.032	2866.94
737.474	2316.34
737.916	746.64
738.357	398.04
738.799	301.54
739.241	274.64
739.683	261.04
740.125	267.94
740.567	274.94
741.008	289.04
741.45	285.54
741.892	290.44
742.334	317.94
742.775	325.24
743.217	315.84
743.658	238.64
744.1	233.64
744.542	235.74
744.983	283.84
745.425	315.34
745.866	318.94
746.307	258.44
746.749	255.04
747.19	291.24
747.632	411.64
748.073	774.04
748.514	1654.94
748.956	2607.84
749.397	3256.34
749.838	2710.44
750.279	2756.24
750.72	1383.44
751.162	496.84
751.603	301.04
752.044	228.54
752.485	192.24
752.926	189.34
753.367	184.64
753.808	178.44
754.249	166.84
754.69	165.54
755.131	165.84
755.572	172.74
756.013	163.94
756.453	171.14
756.894	169.84
757.335	176.24
757.776	175.44
758.216	179.34
758.657	176.74
759.098	182.24
759.538	204.04
759.979	245.24
760.42	332.84
760.86	624.04
761.301	1611.14
761.741	4006.04
762.182	6003.44
762.622	4237.74
