Data from 20171114-ORNL-Ar_H_NY_Subt18_08-03-50-051.txt Node
Date: Tue Nov 14 08:03:50 EST 2017
User: Ender
Spectrometer: HR+D1039
Trigger mode: 0
Integration Time (sec): 2.730000E-2
Scans to average: 10
Electric dark correction enabled: true
Nonlinearity correction enabled: false
Boxcar width: 0
XAxis mode: Wavelengths
Number of Pixels in Spectrum: 2048
>>>>>Begin Spectral Data<<<<<
187.836	2.87
188.309	2.87
188.782	2.87
189.255	3.57
189.728	-1.03
190.201	3.17
190.674	-0.13
191.147	5.97
191.619	-10.63
192.092	-1.33
192.565	7.47
193.038	0.27
193.511	0.87
193.984	-4.33
194.456	-4.03
194.929	0.37
195.402	-1.73
195.874	-1.33
196.347	-3.53
196.82	-3.83
197.292	2.97
197.765	-6.63
198.237	-8.03
198.71	-2.13
199.182	-10.33
199.655	-0.93
200.127	1.17
200.6	-0.63
201.072	-1.93
201.544	-7.83
202.017	-4.53
202.489	5.27
202.961	-0.43
203.433	-3.83
203.906	-7.63
204.378	-3.33
204.85	-5.13
205.322	-14.73
205.794	-1.83
206.266	-4.73
206.739	-1.43
207.211	0.97
207.683	-9.03
208.155	-5.13
208.627	-5.33
209.099	0.87
209.57	-1.93
210.042	-5.43
210.514	-2.43
210.986	-7.23
211.458	-12.13
211.93	-3.83
212.402	4.27
212.873	-5.63
213.345	-6.43
213.817	-12.03
214.288	-6.03
214.76	-12.43
215.232	0.67
215.703	-2.53
216.175	-4.53
216.646	-10.73
217.118	-10.13
217.589	-6.83
218.061	2.77
218.532	-6.53
219.004	0.37
219.475	-3.73
219.946	-2.23
220.418	-4.83
220.889	1.77
221.36	5.37
221.832	-1.83
222.303	-5.43
222.774	-1.13
223.245	-1.83
223.717	-5.73
224.188	-2.83
224.659	-2.53
225.13	-1.43
225.601	-4.73
226.072	3.17
226.543	-3.03
227.014	0.17
227.485	-5.13
227.956	-5.33
228.427	-2.43
228.898	3.17
229.369	0.77
229.839	-0.93
230.31	-8.13
230.781	-0.13
231.252	-6.13
231.722	-6.13
232.193	-8.13
232.664	-6.33
233.135	-4.23
233.605	-0.83
234.076	-10.63
234.546	-4.53
235.017	3.47
235.487	-3.43
235.958	-4.73
236.428	-5.93
236.899	-4.63
237.369	-2.23
237.84	-11.23
238.31	-4.73
238.78	-9.33
239.251	-6.43
239.721	-3.73
240.191	-5.73
240.662	-6.63
241.132	0.67
241.602	-5.83
242.072	-0.93
242.542	2.57
243.013	-3.53
243.483	-1.93
243.953	-2.93
244.423	-3.03
244.893	-3.33
245.363	1.07
245.833	-1.33
246.303	1.97
246.773	2.97
247.243	-1.73
247.712	0.47
248.182	4.87
248.652	10.47
249.122	-11.13
249.592	0.97
250.061	-0.33
250.531	10.27
251.001	3.37
251.471	2.97
251.94	7.97
252.41	-0.63
252.879	-12.33
253.349	4.07
253.818	3.67
254.288	0.97
254.757	1.57
255.227	-9.83
255.696	-4.43
256.166	0.57
256.635	0.57
257.105	0.17
257.574	-6.33
258.043	-1.53
258.513	-5.53
258.982	-3.83
259.451	-5.73
259.92	-0.73
260.389	-5.83
260.859	7.27
261.328	0.87
261.797	4.87
262.266	-0.63
262.735	7.07
263.204	-1.13
263.673	-5.63
264.142	4.27
264.611	-7.33
265.08	-5.63
265.549	3.17
266.018	0.57
266.487	-3.63
266.955	-6.23
267.424	-3.13
267.893	1.37
268.362	-3.73
268.83	-0.53
269.299	9.07
269.768	3.07
270.236	3.37
270.705	0.37
271.174	1.37
271.642	-1.93
272.111	3.87
272.579	1.17
273.048	1.17
273.516	5.37
273.985	3.67
274.453	4.07
274.922	8.47
275.39	-1.33
275.858	-6.73
276.327	9.47
276.795	9.07
277.263	0.77
277.731	8.37
278.2	6.07
278.668	1.47
279.136	5.37
279.604	-7.13
280.072	4.07
280.54	1.47
281.008	4.07
281.477	8.87
281.945	6.77
282.413	1.57
282.881	6.97
283.348	2.37
283.816	5.07
284.284	6.37
284.752	5.67
285.22	7.07
285.688	10.27
286.156	3.17
286.623	12.47
287.091	7.87
287.559	15.27
288.026	10.67
288.494	9.27
288.962	-0.63
289.429	5.17
289.897	12.97
290.364	9.27
290.832	15.07
291.3	9.97
291.767	14.27
292.234	10.07
292.702	7.97
293.169	6.57
293.637	10.37
294.104	14.27
294.571	2.87
295.039	4.57
295.506	2.77
295.973	14.27
296.44	6.27
296.908	9.77
297.375	5.77
297.842	16.87
298.309	9.57
298.776	4.27
299.243	14.07
299.71	7.27
300.177	11.47
300.644	15.77
301.111	12.67
301.578	14.07
302.045	8.97
302.512	20.47
302.979	20.37
303.446	14.37
303.913	9.17
304.379	10.37
304.846	16.27
305.313	12.27
305.78	11.87
306.246	13.77
306.713	14.27
307.18	17.27
307.646	18.47
308.113	18.47
308.579	11.27
309.046	17.27
309.512	13.97
309.979	4.97
310.445	16.97
310.912	21.97
311.378	26.77
311.845	20.27
312.311	25.37
312.777	22.07
313.244	19.37
313.71	33.17
314.176	22.67
314.642	24.87
315.109	16.57
315.575	27.27
316.041	28.67
316.507	20.37
316.973	26.87
317.439	20.67
317.905	24.67
318.371	28.17
318.837	22.37
319.303	26.67
319.769	28.27
320.235	23.77
320.701	26.87
321.167	27.07
321.633	28.37
322.099	26.67
322.564	28.67
323.03	22.67
323.496	27.07
323.962	31.57
324.427	22.57
324.893	32.07
325.359	28.37
325.824	27.97
326.29	28.07
326.755	28.87
327.221	33.87
327.686	32.87
328.152	37.27
328.617	29.77
329.083	39.67
329.548	42.47
330.014	37.17
330.479	24.27
330.944	32.17
331.41	31.17
331.875	37.07
332.34	29.67
332.805	31.27
333.271	33.47
333.736	33.07
334.201	39.87
334.666	45.17
335.131	39.57
335.596	38.47
336.061	38.87
336.526	33.67
336.991	43.07
337.456	43.97
337.921	43.77
338.386	37.37
338.851	43.47
339.316	48.97
339.781	37.37
340.246	47.17
340.711	42.37
341.175	42.57
341.64	38.57
342.105	42.37
342.569	51.17
343.034	51.27
343.499	44.17
343.963	43.97
344.428	55.27
344.893	53.57
345.357	51.27
345.822	50.17
346.286	54.37
346.751	66.27
347.215	59.17
347.679	59.27
348.144	69.87
348.608	70.07
349.073	61.37
349.537	62.87
350.001	68.77
350.465	76.37
350.93	68.67
351.394	71.57
351.858	65.17
352.322	77.67
352.786	69.77
353.25	77.57
353.715	86.87
354.179	78.07
354.643	98.57
355.107	95.47
355.571	89.57
356.035	85.97
356.498	94.57
356.962	98.57
357.426	106.47
357.89	96.17
358.354	81.17
358.818	76.17
359.281	70.17
359.745	67.87
360.209	64.57
360.673	71.47
361.136	75.57
361.6	77.07
362.064	70.77
362.527	77.07
362.991	77.47
363.454	73.07
363.918	65.17
364.381	72.77
364.845	74.57
365.308	82.07
365.772	84.57
366.235	76.27
366.698	79.57
367.162	83.17
367.625	74.17
368.088	80.27
368.552	87.37
369.015	84.07
369.478	93.97
369.941	100.47
370.404	86.67
370.867	92.87
371.331	99.87
371.794	94.47
372.257	94.37
372.72	98.67
373.183	94.37
373.646	90.57
374.109	94.17
374.572	94.17
375.035	99.77
375.497	99.37
375.96	101.77
376.423	96.67
376.886	105.57
377.349	102.87
377.811	98.57
378.274	97.17
378.737	100.57
379.199	105.07
379.662	103.87
380.125	108.97
380.587	104.87
381.05	106.77
381.512	108.07
381.975	123.57
382.437	109.07
382.9	114.57
383.362	126.67
383.825	131.77
384.287	127.07
384.75	113.97
385.212	121.87
385.674	127.57
386.136	127.37
386.599	120.47
387.061	123.67
387.523	126.67
387.985	124.67
388.447	132.67
388.91	125.67
389.372	131.87
389.834	128.07
390.296	126.57
390.758	133.57
391.22	137.47
391.682	144.87
392.144	152.37
392.606	146.37
393.068	147.27
393.529	154.17
393.991	141.87
394.453	136.07
394.915	128.97
395.377	137.17
395.838	140.27
396.3	135.97
396.762	134.47
397.224	137.27
397.685	136.57
398.147	127.77
398.608	131.47
399.07	132.67
399.531	139.27
399.993	149.37
400.454	150.87
400.916	148.07
401.377	150.47
401.839	152.77
402.3	152.77
402.762	166.37
403.223	180.87
403.684	178.97
404.145	162.47
404.607	164.57
405.068	163.47
405.529	171.17
405.99	175.57
406.451	166.27
406.913	173.67
407.374	177.37
407.835	161.17
408.296	168.17
408.757	180.77
409.218	186.27
409.679	178.67
410.14	178.17
410.601	175.77
411.062	180.07
411.522	186.27
411.983	182.37
412.444	180.47
412.905	183.97
413.366	184.97
413.826	203.87
414.287	220.97
414.748	264.67
415.208	264.07
415.669	209.87
416.13	217.57
416.59	211.17
417.051	225.37
417.511	233.17
417.972	248.87
418.432	270.57
418.893	312.27
419.353	268.17
419.814	207.07
420.274	191.97
420.734	187.67
421.195	200.77
421.655	190.97
422.115	199.67
422.576	206.07
423.036	209.07
423.496	208.87
423.956	220.17
424.416	234.47
424.876	275.47
425.336	267.37
425.797	268.57
426.257	260.57
426.717	248.07
427.177	233.37
427.637	223.07
428.097	237.17
428.556	244.97
429.016	273.07
429.476	263.07
429.936	271.17
430.396	274.97
430.856	280.47
431.315	299.07
431.775	337.17
432.235	367.37
432.694	346.37
433.154	351.07
433.614	364.67
434.073	324.57
434.533	278.37
434.993	271.97
435.452	271.07
435.912	283.07
436.371	280.77
436.83	265.57
437.29	249.27
437.749	247.27
438.209	243.27
438.668	262.97
439.127	276.57
439.587	250.87
440.046	242.87
440.505	248.67
440.964	272.77
441.424	283.17
441.883	289.17
442.342	251.17
442.801	222.97
443.26	225.27
443.719	225.67
444.178	228.97
444.637	222.27
445.096	234.27
445.555	225.17
446.014	221.87
446.473	235.57
446.932	237.77
447.391	230.67
447.849	228.07
448.308	224.87
448.767	227.67
449.226	239.47
449.685	240.87
450.143	253.27
450.602	240.37
451.061	226.37
451.519	237.87
451.978	227.47
452.436	228.27
452.895	232.77
453.353	247.67
453.812	241.77
454.27	239.47
454.729	238.77
455.187	238.77
455.646	242.47
456.104	251.07
456.562	252.27
457.021	258.17
457.479	259.57
457.937	266.17
458.395	266.07
458.854	256.37
459.312	254.77
459.77	267.47
460.228	252.47
460.686	244.27
461.144	247.97
461.602	251.07
462.06	245.77
462.518	254.47
462.976	258.37
463.434	258.17
463.892	255.07
464.35	266.27
464.808	278.37
465.266	263.57
465.724	271.57
466.181	274.27
466.639	275.27
467.097	286.57
467.555	294.47
468.012	299.57
468.47	297.97
468.928	318.97
469.385	337.17
469.843	343.87
470.3	335.77
470.758	347.67
471.215	356.67
471.673	378.37
472.13	384.87
472.588	397.27
473.045	372.47
473.503	370.57
473.96	392.67
474.417	396.17
474.875	414.57
475.332	445.87
475.789	439.07
476.246	450.97
476.704	460.87
477.161	488.97
477.618	493.97
478.075	529.47
478.532	571.77
478.989	631.27
479.446	708.17
479.903	692.27
480.36	738.77
480.817	770.17
481.274	856.87
481.731	949.57
482.188	1013.17
482.645	1123.07
483.102	1219.07
483.558	1325.57
484.015	1385.47
484.472	1370.67
484.929	1332.17
485.385	1281.27
485.842	1255.47
486.299	1214.47
486.755	1154.97
487.212	993.27
487.668	860.87
488.125	792.17
488.582	732.87
489.038	709.67
489.494	668.07
489.951	649.27
490.407	631.87
490.864	606.27
491.32	600.87
491.776	604.17
492.233	607.37
492.689	573.87
493.145	572.77
493.602	567.47
494.058	582.57
494.514	576.87
494.97	594.17
495.426	602.67
495.882	575.37
496.338	575.17
496.794	580.47
497.251	572.57
497.707	582.57
498.163	586.07
498.618	584.57
499.074	588.97
499.53	598.27
499.986	615.07
500.442	600.77
500.898	572.97
501.354	572.07
501.809	579.07
502.265	576.37
502.721	590.67
503.177	596.77
503.632	594.97
504.088	604.97
504.543	612.07
504.999	621.47
505.455	605.47
505.91	593.77
506.366	598.27
506.821	592.47
507.277	593.27
507.732	590.97
508.187	587.27
508.643	596.87
509.098	589.57
509.553	618.27
510.009	615.27
510.464	614.27
510.919	639.17
511.375	637.97
511.83	651.07
512.285	660.27
512.74	679.07
513.195	707.17
513.65	701.67
514.105	691.17
514.56	691.37
515.015	709.47
515.47	732.57
515.925	705.07
516.38	719.57
516.835	731.27
517.29	708.97
517.745	709.17
518.2	697.87
518.655	689.77
519.109	672.67
519.564	666.67
520.019	653.37
520.474	652.17
520.928	658.67
521.383	650.87
521.838	642.57
522.292	644.27
522.747	639.77
523.201	645.17
523.656	628.17
524.11	628.97
524.565	625.57
525.019	614.87
525.474	624.77
525.928	625.87
526.382	618.37
526.837	628.97
527.291	631.87
527.745	613.97
528.2	624.27
528.654	620.47
529.108	614.17
529.562	611.77
530.016	613.97
530.47	616.97
530.925	614.97
531.379	611.27
531.833	612.27
532.287	614.07
532.741	618.17
533.195	609.67
533.649	616.67
534.103	624.67
534.556	615.17
535.01	619.37
535.464	614.57
535.918	626.27
536.372	624.07
536.826	621.97
537.279	610.97
537.733	623.27
538.187	620.87
538.64	621.27
539.094	633.87
539.548	641.07
540.001	639.97
540.455	635.67
540.908	643.87
541.362	641.87
541.815	648.07
542.269	654.37
542.722	657.37
543.175	669.47
543.629	661.67
544.082	683.57
544.536	679.07
544.989	675.37
545.442	691.67
545.895	683.47
546.349	689.47
546.802	687.97
547.255	706.67
547.708	691.97
548.161	705.77
548.614	712.87
549.067	707.57
549.52	704.77
549.973	696.27
550.426	684.37
550.879	678.97
551.332	678.37
551.785	689.17
552.238	682.77
552.691	697.77
553.144	705.17
553.596	714.77
554.049	720.87
554.502	755.17
554.955	762.27
555.407	764.57
555.86	762.47
556.313	746.27
556.765	733.87
557.218	736.67
557.67	738.67
558.123	730.67
558.576	725.57
559.028	736.47
559.48	739.47
559.933	737.17
560.385	704.77
560.838	686.87
561.29	668.27
561.742	661.27
562.195	643.87
562.647	641.57
563.099	656.47
563.551	649.87
564.004	644.97
564.456	645.77
564.908	638.57
565.36	612.67
565.812	604.27
566.264	606.07
566.716	588.77
567.168	582.57
567.62	593.27
568.072	569.67
568.524	567.37
568.976	568.97
569.428	554.37
569.88	564.97
570.332	562.17
570.784	564.97
571.235	558.47
571.687	580.47
572.139	564.57
572.59	585.97
573.042	588.77
573.494	571.37
573.945	566.87
574.397	550.77
574.849	559.37
575.3	563.77
575.752	560.87
576.203	544.97
576.655	554.07
577.106	538.17
577.557	536.17
578.009	541.57
578.46	538.27
578.912	531.27
579.363	534.37
579.814	531.57
580.265	514.57
580.717	538.57
581.168	533.87
581.619	535.47
582.07	543.77
582.521	537.47
582.972	539.37
583.423	547.37
583.875	534.77
584.326	538.77
584.777	559.07
585.227	578.27
585.678	597.27
586.129	613.47
586.58	641.17
587.031	658.77
587.482	692.77
587.933	724.07
588.384	694.97
588.834	635.97
589.285	618.77
589.736	605.77
590.186	609.37
590.637	608.57
591.088	588.47
591.538	574.47
591.989	570.97
592.439	577.67
592.89	565.67
593.34	554.27
593.791	546.97
594.241	538.27
594.692	549.07
595.142	543.47
595.593	539.87
596.043	540.67
596.493	550.07
596.943	552.27
597.394	557.67
597.844	560.17
598.294	572.77
598.744	587.27
599.195	597.37
599.645	639.47
600.095	658.87
600.545	709.37
600.995	748.37
601.445	784.37
601.895	837.17
602.345	875.27
602.795	856.17
603.245	827.47
603.695	792.37
604.145	741.87
604.594	702.07
605.044	658.17
605.494	623.57
605.944	582.37
606.393	565.57
606.843	555.27
607.293	554.37
607.743	547.07
608.192	553.47
608.642	573.97
609.091	577.37
609.541	565.47
609.99	568.97
610.44	572.57
610.889	533.77
611.339	527.47
611.788	514.57
612.238	523.67
612.687	532.97
613.136	524.97
613.586	534.77
614.035	523.57
614.484	542.37
614.933	538.97
615.383	523.17
615.832	529.77
616.281	521.87
616.73	504.47
617.179	496.77
617.628	492.57
618.077	479.47
618.526	469.27
618.975	462.07
619.424	467.17
619.873	462.17
620.322	465.37
620.771	449.87
621.22	449.07
621.669	432.57
622.118	434.27
622.567	424.07
623.015	420.17
623.464	421.27
623.913	418.57
624.361	412.67
624.81	409.77
625.259	410.27
625.707	417.67
626.156	414.97
626.604	411.87
627.053	415.07
627.501	427.57
627.95	421.47
628.398	428.77
628.847	418.87
629.295	419.17
629.744	425.57
630.192	417.67
630.64	422.57
631.089	400.37
631.537	397.17
631.985	386.17
632.433	389.07
632.881	383.47
633.33	381.77
633.778	382.87
634.226	380.77
634.674	391.17
635.122	406.37
635.57	401.27
636.018	407.97
636.466	406.77
636.914	400.87
637.362	415.77
637.81	424.77
638.258	418.57
638.705	418.67
639.153	441.77
639.601	443.47
640.049	469.97
640.497	493.07
640.944	514.77
641.392	467.87
641.84	451.57
642.287	424.87
642.735	404.57
643.182	410.97
643.63	415.37
644.078	410.27
644.525	420.17
644.973	419.47
645.42	427.77
645.867	451.27
646.315	464.77
646.762	471.37
647.21	495.77
647.657	510.97
648.104	529.57
648.551	542.57
648.999	581.37
649.446	631.07
649.893	679.17
650.34	769.97
650.787	920.17
651.234	1133.07
651.682	1442.37
652.129	1933.87
652.576	2738.67
653.023	3993.37
653.47	5531.67
653.917	6979.77
654.363	8194.47
654.81	9270.27
655.257	8804.97
655.704	5831.27
656.151	3448.17
656.598	2255.17
657.044	1619.07
657.491	1246.27
657.938	1015.47
658.385	857.37
658.831	743.27
659.278	659.67
659.724	594.47
660.171	548.87
660.618	493.67
661.064	475.57
661.511	452.07
661.957	437.87
662.404	436.57
662.85	436.67
663.296	424.87
663.743	388.57
664.189	380.57
664.635	381.17
665.082	375.07
665.528	370.37
665.974	367.47
666.42	360.97
666.867	359.57
667.313	337.27
667.759	325.77
668.205	321.47
668.651	322.07
669.097	317.07
669.543	314.87
669.989	318.07
670.435	317.27
670.881	310.77
671.327	313.57
671.773	339.47
672.219	343.67
672.665	388.97
673.11	408.07
673.556	447.77
674.002	481.97
674.448	478.67
674.893	402.87
675.339	344.87
675.785	315.87
676.23	305.27
676.676	280.87
677.122	274.57
677.567	269.97
678.013	264.47
678.458	250.77
678.904	259.17
679.349	238.07
679.794	248.57
680.24	256.37
680.685	247.37
681.131	249.57
681.576	246.87
682.021	253.77
682.466	242.27
682.912	242.87
683.357	240.67
683.802	269.37
684.247	284.37
684.692	316.77
685.137	350.67
685.583	381.37
686.028	403.97
686.473	374.97
686.918	317.27
687.363	292.67
687.807	285.57
688.252	260.87
688.697	252.97
689.142	237.37
689.587	224.27
690.032	231.77
690.477	239.77
690.921	246.37
691.366	266.97
691.811	279.67
692.255	304.27
692.7	331.67
693.145	358.07
693.589	481.87
694.034	767.37
694.478	1081.87
694.923	1270.77
695.367	1693.67
695.812	895.47
696.256	364.27
696.701	264.77
697.145	237.77
697.59	231.57
698.034	218.87
698.478	229.97
698.922	228.67
699.367	230.27
699.811	232.67
700.255	243.87
700.699	271.97
701.143	292.47
701.588	335.07
702.032	362.07
702.476	356.37
702.92	349.97
703.364	349.17
703.808	437.27
704.252	693.27
704.696	1005.97
705.14	1200.17
705.584	1568.37
706.027	779.97
706.471	379.57
706.915	280.47
707.359	246.57
707.803	228.37
708.246	218.37
708.69	220.17
709.134	228.57
709.577	215.87
710.021	222.27
710.465	216.17
710.908	206.57
711.352	204.37
711.795	216.67
712.239	248.57
712.682	262.27
713.126	284.77
713.569	327.97
714.012	248.97
714.456	214.77
714.899	207.07
715.342	192.87
715.786	177.67
716.229	178.47
716.672	180.37
717.115	168.87
717.558	173.07
718.002	170.57
718.445	186.57
718.888	197.97
719.331	205.77
719.774	212.67
720.217	210.57
720.66	196.87
721.103	186.77
721.546	177.87
721.989	174.27
722.432	155.37
722.874	172.17
723.317	155.07
723.76	159.27
724.203	173.97
724.645	214.47
725.088	292.17
725.531	392.37
725.974	465.17
726.416	392.47
726.859	214.37
727.301	171.77
727.744	170.77
728.187	156.37
728.629	170.37
729.071	166.07
729.514	177.37
729.956	182.97
730.399	190.37
730.841	204.97
731.283	193.57
731.726	187.07
732.168	184.47
732.61	186.27
733.053	195.57
733.495	211.77
733.937	248.97
734.379	273.77
734.821	301.87
735.263	372.27
735.705	568.07
736.148	1073.87
736.59	1794.97
737.032	2268.17
737.474	1862.87
737.916	583.07
738.357	304.77
738.799	233.57
739.241	203.87
739.683	204.77
740.125	201.67
740.567	208.57
741.008	226.97
741.45	228.57
741.892	225.57
742.334	248.77
742.775	263.67
743.217	256.77
743.658	194.87
744.1	177.27
744.542	188.47
744.983	232.47
745.425	262.17
745.866	262.07
746.307	197.77
746.749	195.67
747.19	221.97
747.632	306.27
748.073	579.37
748.514	1270.87
748.956	2038.17
749.397	2556.87
749.838	2138.67
750.279	2216.17
750.72	1117.77
751.162	408.27
751.603	219.37
752.044	181.87
752.485	148.67
752.926	148.57
753.367	142.37
753.808	138.47
754.249	132.57
754.69	128.47
755.131	133.67
755.572	124.97
756.013	118.77
756.453	122.77
756.894	124.87
757.335	127.67
757.776	131.27
758.216	147.87
758.657	136.17
759.098	134.87
759.538	162.27
759.979	175.77
760.42	247.07
760.86	472.57
761.301	1227.37
761.741	3111.27
762.182	4915.37
762.622	3500.97
763.063	984.77
763.503	394.17
763.943	231.07
