Data from 20171114-ORNL-Ar_H_NY_Subt18_08-05-08-668.txt Node
Date: Tue Nov 14 08:05:08 EST 2017
User: Ender
Spectrometer: HR+D1039
Trigger mode: 0
Integration Time (sec): 2.730000E-2
Scans to average: 10
Electric dark correction enabled: true
Nonlinearity correction enabled: false
Boxcar width: 0
XAxis mode: Wavelengths
Number of Pixels in Spectrum: 2048
>>>>>Begin Spectral Data<<<<<
187.836	-0.4
188.309	-0.4
188.782	-0.4
189.255	4.4
189.728	0.3
190.201	4.6
190.674	-2.6
191.147	3.4
191.619	-7.5
192.092	-5.5
192.565	6
193.038	0.1
193.511	-0.3
193.984	0.5
194.456	-4
194.929	4.4
195.402	-1
195.874	-2.4
196.347	1.5
196.82	-5.3
197.292	3.6
197.765	-4.3
198.237	-7.7
198.71	1.6
199.182	-1
199.655	0.6
200.127	3.3
200.6	-1.2
201.072	-0.2
201.544	-5.5
202.017	-3.8
202.489	-0.7
202.961	0.4
203.433	-2.8
203.906	-5.5
204.378	-6.6
204.85	-8.2
205.322	-12.7
205.794	-0.9
206.266	-5.4
206.739	-6.5
207.211	6.3
207.683	-11
208.155	-6.3
208.627	-5.6
209.099	-2.9
209.57	-5
210.042	-0.3
210.514	-0.9
210.986	1.9
211.458	-11.9
211.93	2.4
212.402	3.3
212.873	-6
213.345	-9.8
213.817	-8.9
214.288	-5.5
214.76	-7.6
215.232	-4.5
215.703	-4.8
216.175	-6
216.646	-2.7
217.118	-7
217.589	-1.7
218.061	-2.9
218.532	-6.2
219.004	-8.1
219.475	-4.2
219.946	-1.5
220.418	-4.6
220.889	1.2
221.36	-2.8
221.832	-6.7
222.303	-11.5
222.774	7.5
223.245	-5.2
223.717	-10.2
224.188	-6
224.659	-2.4
225.13	-6.4
225.601	-1.2
226.072	-3.4
226.543	4.2
227.014	2.6
227.485	1.4
227.956	-9.8
228.427	-1.2
228.898	1.6
229.369	4.2
229.839	-3.4
230.31	-4.6
230.781	7.6
231.252	-1.5
231.722	-1.3
232.193	-2.1
232.664	-0.5
233.135	3.7
233.605	0.8
234.076	-5.1
234.546	7.8
235.017	8.2
235.487	7.4
235.958	-1.1
236.428	-0.3
236.899	7.7
237.369	2.9
237.84	0.6
238.31	3.6
238.78	0.6
239.251	-3.9
239.721	4
240.191	0.7
240.662	-2.4
241.132	-2.8
241.602	-0.5
242.072	2.4
242.542	5.1
243.013	1.7
243.483	2.8
243.953	-2
244.423	-0.8
244.893	-2.9
245.363	5.5
245.833	-0.1
246.303	1.8
246.773	13.5
247.243	2.4
247.712	7.1
248.182	8.4
248.652	10.5
249.122	2.4
249.592	14.2
250.061	25.6
250.531	35.1
251.001	18.7
251.471	18.7
251.94	23.9
252.41	6.6
252.879	5
253.349	12.8
253.818	10.5
254.288	11.2
254.757	8.7
255.227	5.4
255.696	4.9
256.166	1.6
256.635	6.5
257.105	10.9
257.574	12
258.043	18.3
258.513	7.3
258.982	24.2
259.451	14.7
259.92	18.1
260.389	17.8
260.859	19
261.328	16.1
261.797	18.6
262.266	7
262.735	13.6
263.204	4.5
263.673	0.6
264.142	7.8
264.611	-3.3
265.08	4
265.549	-0.6
266.018	7.7
266.487	1.7
266.955	-3.2
267.424	10.4
267.893	11.7
268.362	5
268.83	8.8
269.299	10.3
269.768	10
270.236	6.2
270.705	4.7
271.174	8.4
271.642	15
272.111	13.9
272.579	20.1
273.048	18.6
273.516	29.2
273.985	30.5
274.453	26.1
274.922	23.5
275.39	10.2
275.858	6.2
276.327	16.3
276.795	18.4
277.263	10.5
277.731	33.5
278.2	52.3
278.668	65.2
279.136	54
279.604	24.3
280.072	20.1
280.54	14.2
281.008	15
281.477	17.4
281.945	12.7
282.413	17.2
282.881	18.8
283.348	6.5
283.816	18.6
284.284	16.8
284.752	29.9
285.22	13.7
285.688	19
286.156	25.5
286.623	45.4
287.091	52.6
287.559	29.5
288.026	29.7
288.494	23.5
288.962	11.4
289.429	16.1
289.897	21.4
290.364	22.1
290.832	16.4
291.3	18.9
291.767	20.9
292.234	26.6
292.702	16.9
293.169	19.2
293.637	32.8
294.104	21.2
294.571	7.8
295.039	15.1
295.506	13.5
295.973	18.3
296.44	23.7
296.908	26.3
297.375	23
297.842	21.6
298.309	20.2
298.776	18.6
299.243	23.3
299.71	13.5
300.177	24.4
300.644	26.2
301.111	28.6
301.578	31
302.045	20.9
302.512	28.2
302.979	27.6
303.446	21.9
303.913	19.2
304.379	18.2
304.846	29.3
305.313	27.3
305.78	24.4
306.246	25.3
306.713	32.1
307.18	29.3
307.646	29.6
308.113	31.7
308.579	27.2
309.046	26.2
309.512	30.9
309.979	19.7
310.445	29.9
310.912	27.6
311.378	34.8
311.845	33.8
312.311	33.9
312.777	33.7
313.244	37.4
313.71	42
314.176	32.9
314.642	36
315.109	37.1
315.575	43
316.041	45.1
316.507	37.4
316.973	43.9
317.439	40.1
317.905	35.6
318.371	37
318.837	36.6
319.303	43.8
319.769	43.1
320.235	36.9
320.701	37.9
321.167	38.1
321.633	37.4
322.099	39.4
322.564	50.2
323.03	41.2
323.496	39.3
323.962	45.7
324.427	39.3
324.893	48.9
325.359	37.9
325.824	44.3
326.29	39.6
326.755	40.8
327.221	45.4
327.686	42.1
328.152	48.4
328.617	43.4
329.083	49.5
329.548	56.9
330.014	48.9
330.479	41.4
330.944	47.5
331.41	48.4
331.875	46.7
332.34	46.7
332.805	44.5
333.271	49.1
333.736	49.8
334.201	53.7
334.666	56.8
335.131	58.5
335.596	54
336.061	55.5
336.526	53.3
336.991	52.2
337.456	57.8
337.921	52.4
338.386	50.4
338.851	52.6
339.316	52.6
339.781	51.1
340.246	54.6
340.711	55.8
341.175	52.6
341.64	48.8
342.105	53.4
342.569	58.2
343.034	58.3
343.499	62
343.963	55.2
344.428	68.5
344.893	65.1
345.357	72.8
345.822	71
346.286	70.8
346.751	77.6
347.215	70.4
347.679	81.9
348.144	103.6
348.608	85.3
349.073	77.7
349.537	75.9
350.001	90.5
350.465	93.3
350.93	87.6
351.394	88.1
351.858	76.1
352.322	89.5
352.786	87.5
353.25	109.4
353.715	120.2
354.179	103.5
354.643	122.5
355.107	130.3
355.571	115.7
356.035	110.1
356.498	119
356.962	128.5
357.426	136.7
357.89	123.9
358.354	89.1
358.818	89.7
359.281	91
359.745	86.4
360.209	78.9
360.673	84.4
361.136	87.8
361.6	93
362.064	87.1
362.527	85.7
362.991	94.5
363.454	84.6
363.918	76.7
364.381	83.8
364.845	87.8
365.308	90.4
365.772	89.9
366.235	90.9
366.698	88
367.162	91.1
367.625	93.5
368.088	93.1
368.552	91.3
369.015	89.3
369.478	93.4
369.941	101.5
370.404	100.3
370.867	107.3
371.331	108.3
371.794	116.5
372.257	117.2
372.72	115.8
373.183	112.8
373.646	108.4
374.109	109.9
374.572	106.4
375.035	113.1
375.497	115.5
375.96	115.5
376.423	109.2
376.886	117
377.349	111.9
377.811	104.3
378.274	108.4
378.737	114.9
379.199	116.7
379.662	113
380.125	120.7
380.587	122.6
381.05	128.9
381.512	127
381.975	135.7
382.437	133.4
382.9	128.9
383.362	139.5
383.825	147.8
384.287	154.3
384.75	138.1
385.212	138.7
385.674	138.4
386.136	133.7
386.599	125.8
387.061	129.3
387.523	131.7
387.985	143.9
388.447	144.2
388.91	145.2
389.372	158.9
389.834	149.8
390.296	146.5
390.758	156.5
391.22	170.6
391.682	207.4
392.144	292.5
392.606	230.9
393.068	169.6
393.529	170.2
393.991	150.6
394.453	151
394.915	165
395.377	187.2
395.838	213.5
396.3	155.3
396.762	138.8
397.224	132
397.685	134.5
398.147	139.4
398.608	132.7
399.07	130.4
399.531	135.1
399.993	144.1
400.454	153.9
400.916	150.5
401.377	147.6
401.839	158.6
402.3	151.4
402.762	172.9
403.223	179.5
403.684	172.8
404.145	163.9
404.607	164.9
405.068	169.8
405.529	171.1
405.99	187
406.451	176.5
406.913	179.9
407.374	171.2
407.835	168.9
408.296	166.8
408.757	178.3
409.218	193.3
409.679	178.8
410.14	176.8
410.601	179.2
411.062	182.8
411.522	194.9
411.983	192.3
412.444	182
412.905	179.1
413.366	182
413.826	193.6
414.287	216.5
414.748	262.9
415.208	247.6
415.669	214.5
416.13	209.6
416.59	206
417.051	211.2
417.511	223.8
417.972	240.1
418.432	255.3
418.893	287.8
419.353	252.6
419.814	199.3
420.274	188
420.734	190.4
421.195	202.4
421.655	197.6
422.115	194.3
422.576	201
423.036	195.7
423.496	208.7
423.956	222.7
424.416	228.8
424.876	274.9
425.336	264
425.797	268.7
426.257	257.8
426.717	244.4
427.177	231.4
427.637	225.1
428.097	234.3
428.556	248.3
429.016	271.3
429.476	267.8
429.936	274.4
430.396	285.3
430.856	302.3
431.315	321.5
431.775	353.8
432.235	375.3
432.694	354.2
433.154	368.9
433.614	391.3
434.073	339.2
434.533	281.3
434.993	268.6
435.452	282.3
435.912	302.5
436.371	294.7
436.83	291.9
437.29	267.2
437.749	249.4
438.209	242.8
438.668	275.5
439.127	291.8
439.587	271.7
440.046	252.2
440.505	263.9
440.964	283.7
441.424	333.9
441.883	316.4
442.342	262.5
442.801	229.3
443.26	217.5
443.719	221
444.178	224.3
444.637	214.3
445.096	217.1
445.555	223.5
446.014	226
446.473	228.6
446.932	228.3
447.391	225.4
447.849	226.5
448.308	229.2
448.767	226.9
449.226	236.4
449.685	239
450.143	248.1
450.602	242.4
451.061	229.4
451.519	232.6
451.978	230.4
452.436	231.8
452.895	245.3
453.353	258.1
453.812	251.7
454.27	248.4
454.729	240
455.187	243
455.646	248.8
456.104	256.4
456.562	272
457.021	267.3
457.479	267.6
457.937	274.1
458.395	265.9
458.854	249.9
459.312	253.7
459.77	270.3
460.228	252.9
460.686	248.1
461.144	255.4
461.602	248.4
462.06	246.2
462.518	257.1
462.976	255.9
463.434	262.5
463.892	266.2
464.35	275.9
464.808	290.8
465.266	269.3
465.724	275.1
466.181	277.6
466.639	273.5
467.097	293.9
467.555	303.1
468.012	299.8
468.47	305.3
468.928	328
469.385	340.3
469.843	355.2
470.3	347.9
470.758	364.1
471.215	386.4
471.673	414.4
472.13	404.1
472.588	422.8
473.045	375.3
473.503	379.7
473.96	390.5
474.417	415.5
474.875	448
475.332	471.2
475.789	460.3
476.246	473.1
476.704	493.9
477.161	511.5
477.618	531.9
478.075	562.3
478.532	617.2
478.989	693.4
479.446	804.2
479.903	780
480.36	807.1
480.817	870.9
481.274	965.8
481.731	1076.1
482.188	1168.9
482.645	1292.8
483.102	1397.3
483.558	1539
484.015	1600.1
484.472	1567.9
484.929	1510.9
485.385	1469.7
485.842	1440
486.299	1366.1
486.755	1303.9
487.212	1108.7
487.668	926.7
488.125	867.5
488.582	781.7
489.038	752.9
489.494	710.8
489.951	690.2
490.407	673.2
490.864	647.6
491.32	636.4
491.776	641.2
492.233	643.3
492.689	615.3
493.145	603.7
493.602	595.5
494.058	622
494.514	629
494.97	643.1
495.426	652.1
495.882	623.6
496.338	617.4
496.794	630.5
497.251	634.9
497.707	640.5
498.163	634.1
498.618	654.2
499.074	652.9
499.53	684.8
499.986	674.8
500.442	653
500.898	627.4
501.354	627.3
501.809	644.6
502.265	644.8
502.721	669.6
503.177	671.2
503.632	665.5
504.088	675.2
504.543	711.1
504.999	710.6
505.455	654.9
505.91	632.2
506.366	637
506.821	627.2
507.277	635.2
507.732	625
508.187	623.3
508.643	632.1
509.098	635.3
509.553	659.5
510.009	665.1
510.464	671
510.919	691.7
511.375	694.8
511.83	710
512.285	719.3
512.74	764.6
513.195	785.6
513.65	764.8
514.105	774
514.56	771.9
515.015	788.9
515.47	810.7
515.925	789.4
516.38	790.1
516.835	808.1
517.29	794.5
517.745	783.1
518.2	763.8
518.655	752.8
519.109	747.1
519.564	737.3
520.019	735.7
520.474	722.4
520.928	733.5
521.383	715.2
521.838	707.4
522.292	714
522.747	708.5
523.201	704.7
523.656	688.9
524.11	687
524.565	705.1
525.019	682.4
525.474	698.3
525.928	696.4
526.382	698
526.837	700.9
527.291	694.5
527.745	688.9
528.2	694.5
528.654	686.7
529.108	693.7
529.562	682.9
530.016	690.9
530.47	689.8
530.925	689
531.379	691.9
531.833	702
532.287	697.6
532.741	696.9
533.195	709.4
533.649	711.3
534.103	724.1
534.556	702.5
535.01	715.7
535.464	712.5
535.918	719.9
536.372	723.8
536.826	722.9
537.279	708.4
537.733	708.1
538.187	710.6
538.64	713
539.094	719.6
539.548	725.4
540.001	715.5
540.455	714.7
540.908	716.6
541.362	726.6
541.815	743
542.269	756.6
542.722	761.8
543.175	763.9
543.629	769.6
544.082	786.5
544.536	788.4
544.989	775.3
545.442	793.6
545.895	787
546.349	787.8
546.802	785.1
547.255	786.9
547.708	792.5
548.161	806.4
548.614	814.8
549.067	817.1
549.52	800.4
549.973	799.7
550.426	805.7
550.879	784.3
551.332	787.5
551.785	795
552.238	803.8
552.691	810.7
553.144	819.2
553.596	837.3
554.049	848.7
554.502	881.8
554.955	903.5
555.407	905.4
555.86	892.1
556.313	883.3
556.765	879.5
557.218	877.4
557.67	876
558.123	870.5
558.576	860.2
559.028	872.2
559.48	869.6
559.933	863.5
560.385	823.8
560.838	801.4
561.29	773.9
561.742	774.8
562.195	750.3
562.647	753.1
563.099	760
563.551	760.7
564.004	771.3
564.456	763.4
564.908	749.4
565.36	737.7
565.812	718.8
566.264	716.2
566.716	721.8
567.168	699.7
567.62	716.2
568.072	691.3
568.524	678.3
568.976	681.1
569.428	661.2
569.88	659.1
570.332	667.1
570.784	673.5
571.235	673.6
571.687	691.3
572.139	686.2
572.59	695.6
573.042	699.6
573.494	692.3
573.945	694.9
574.397	668.4
574.849	680.1
575.3	679.1
575.752	670.1
576.203	658.8
576.655	670.7
577.106	659.6
577.557	659.9
578.009	654
578.46	644.7
578.912	662.6
579.363	653.7
579.814	648.2
580.265	657.6
580.717	658.8
581.168	653.7
581.619	676.1
582.07	674.1
582.521	667.9
582.972	660.3
583.423	656.7
583.875	666.9
584.326	679.5
584.777	718.9
585.227	797.6
585.678	889.7
586.129	962.7
586.58	1030.2
587.031	1098.2
587.482	1251.4
587.933	1418.7
588.384	1234.2
588.834	939.3
589.285	776.2
589.736	768.7
590.186	750.7
590.637	741.3
591.088	725.8
591.538	715.9
591.989	714.9
592.439	701.7
592.89	696.8
593.34	683.2
593.791	690.5
594.241	674.8
594.692	693.7
595.142	684.4
595.593	687.3
596.043	687.5
596.493	690.7
596.943	696.8
597.394	705.8
597.844	682.3
598.294	706.9
598.744	736.1
599.195	747.8
599.645	792.9
600.095	826.3
600.545	885.7
600.995	931.3
601.445	984.9
601.895	1044.3
602.345	1097.2
602.795	1074.6
603.245	1029.9
603.695	973
604.145	920.2
604.594	885.1
605.044	827.1
605.494	779.1
605.944	732.7
606.393	716.4
606.843	700.2
607.293	704.9
607.743	704.1
608.192	720.3
608.642	723.5
609.091	734
609.541	742.8
609.99	741.8
610.44	731.7
610.889	688.9
611.339	671.2
611.788	659.7
612.238	666.6
612.687	690.8
613.136	684.3
613.586	703.9
614.035	710.4
614.484	712.7
614.933	726.5
615.383	724.2
615.832	707.2
616.281	699.7
616.73	652.8
617.179	649
617.628	627.7
618.077	613.5
618.526	595.7
618.975	591.4
619.424	586.4
619.873	592.8
620.322	586.3
620.771	579.3
621.22	571.9
621.669	566
622.118	563.8
622.567	558
623.015	545.6
623.464	546.9
623.913	535.8
624.361	523.9
624.81	529.6
625.259	526.8
625.707	530.1
626.156	535.9
626.604	541
627.053	542.3
627.501	540.6
627.95	548.4
628.398	547.1
628.847	537.4
629.295	534.3
629.744	548.5
630.192	540.1
630.64	536.4
631.089	536.6
631.537	547.2
631.985	555.2
632.433	564.4
632.881	579.5
633.33	625.2
633.778	598.2
634.226	529.3
634.674	546.1
635.122	547.4
635.57	569.8
636.018	590.2
636.466	544
636.914	521.9
637.362	541.6
637.81	543.5
638.258	551.4
638.705	537.6
639.153	569.1
639.601	585.8
640.049	601.7
640.497	632.4
640.944	663
641.392	611.3
641.84	577
642.287	555.8
642.735	536.5
643.182	548.3
643.63	543.6
644.078	540.3
644.525	551.2
644.973	555.2
645.42	566.7
645.867	591.6
646.315	598.6
646.762	629.4
647.21	650.6
647.657	666.3
648.104	704.1
648.551	727.9
648.999	782.8
649.446	853.5
649.893	937.5
650.34	1083.1
650.787	1284.9
651.234	1611.1
651.682	2074.6
652.129	2839.8
652.576	4075
653.023	6050
653.47	8302.7
653.917	10448.1
654.363	12166.9
654.81	13566.2
655.257	12868.5
655.704	8439.7
656.151	4970.2
656.598	3224
657.044	2289.4
657.491	1764.2
657.938	1408.4
658.385	1160
658.831	1012.2
659.278	907.9
659.724	797
660.171	746.2
660.618	677.9
661.064	637.8
661.511	627.3
661.957	617.1
662.404	596.8
662.85	606.6
663.296	585.9
663.743	518.6
664.189	505.7
664.635	493.1
665.082	492.9
665.528	489
665.974	478.9
666.42	478.1
666.867	474.5
667.313	465.2
667.759	446.3
668.205	448
668.651	453.5
669.097	447.4
669.543	469.6
669.989	445.1
670.435	422
670.881	413.7
671.327	417.5
671.773	437
672.219	453.2
672.665	505.4
673.11	541.2
673.556	581.2
674.002	632
674.448	621.7
674.893	521.6
675.339	447.4
675.785	412.7
676.23	392.6
676.676	364.6
677.122	347.4
677.567	350.1
678.013	349.9
678.458	334
678.904	337.9
679.349	323.1
679.794	329.3
680.24	331
680.685	323.1
681.131	319.4
681.576	325.2
682.021	335
682.466	324.7
682.912	327.1
683.357	326.9
683.802	352.5
684.247	388.2
684.692	416.5
685.137	460.1
685.583	500.5
686.028	526.5
686.473	477.4
686.918	416.5
687.363	392.8
687.807	366.6
688.252	337.5
688.697	329.7
689.142	310.5
689.587	302
690.032	295.4
690.477	311.1
690.921	324
691.366	358.4
691.811	373.2
692.255	400.1
692.7	423.7
693.145	461.5
693.589	634.7
694.034	1027.1
694.478	1397.9
694.923	1618.4
695.367	2141.1
695.812	1114
696.256	460.4
696.701	340.6
697.145	314.5
697.59	303.7
698.034	293.1
698.478	303.6
698.922	302.7
699.367	301
699.811	320.9
700.255	327.3
700.699	363.9
701.143	391.5
701.588	442.3
702.032	476.1
702.476	477.9
702.92	449
703.364	451.2
703.808	573
704.252	931.1
704.696	1341
705.14	1560.8
705.584	1996.1
706.027	994.1
706.471	485.5
706.915	366.5
707.359	322.5
707.803	298
708.246	285.7
708.69	295.2
709.134	289.2
709.577	292.6
710.021	292.4
710.465	275.1
710.908	270.4
711.352	276.3
711.795	287.2
712.239	326
712.682	355.9
713.126	386.3
713.569	429.2
714.012	342
714.456	293.6
714.899	280
715.342	249.5
715.786	237.2
716.229	238.4
716.672	241.4
717.115	231.5
717.558	231.5
718.002	240.1
718.445	241.9
718.888	265
719.331	273.4
719.774	290.7
720.217	285.1
720.66	263.5
721.103	247.8
721.546	239.8
721.989	233.4
722.432	212.8
722.874	214.7
723.317	209
723.76	220.8
724.203	229.7
724.645	299.1
725.088	411.2
725.531	522.2
725.974	598.6
726.416	509.7
726.859	288.5
727.301	217.7
727.744	220.8
728.187	216.5
728.629	223.5
729.071	221.4
729.514	240.7
729.956	250.9
730.399	261.3
730.841	265.6
731.283	249.3
731.726	245
732.168	241.6
732.61	247.4
733.053	266.8
733.495	288.1
733.937	322
734.379	369.2
734.821	403.2
735.263	498
735.705	759
736.148	1424.2
736.59	2359.9
737.032	2872.9
737.474	2325.7
737.916	748.9
738.357	388.1
738.799	297.8
739.241	278.5
739.683	258.4
740.125	272.2
740.567	271.7
741.008	291.6
741.45	288.8
741.892	287.7
742.334	317.2
742.775	339.9
743.217	320.1
743.658	257.9
744.1	233.4
744.542	234.4
744.983	288.5
745.425	315.4
745.866	315.1
746.307	259.2
746.749	260
747.19	294.4
747.632	411.2
748.073	776.7
748.514	1670.9
748.956	2622.5
749.397	3285.7
749.838	2742.8
750.279	2780.5
750.72	1400.1
751.162	499.4
751.603	294.5
752.044	235.6
752.485	196.2
752.926	195.6
753.367	179.6
753.808	182.6
754.249	175.8
754.69	174.1
755.131	163.8
755.572	172.7
756.013	169.6
756.453	169.3
756.894	168
757.335	180.7
757.776	181.3
758.216	181
758.657	177
759.098	186.1
759.538	207.9
759.979	239.3
760.42	339.5
760.86	631.3
761.301	1618
761.741	4011.4
762.182	6032.4
762.622	4268.4
763.063	1207.3
763.503	500.8
763.943	318.7
764.384	307.7
764.824	361.9
765.264	399.9
765.705	277.4
766.145	189.3
766.585	177
767.025	165.4
767.465	171.5
767.906	216.5
768.346	286.2
768.786	312.7
769.226	234.1
769.666	288.4
770.106	551
770.546	1384.2
770.986	2434
771.426	2233.3
771.866	739.3
772.306	304.7
772.745	198.8
773.185	162.6
773.625	154.7
774.065	150.7
774.505	180.4
774.944	263.4
775.384	575.7
775.824	1085.3
776.263	1066.1
776.703	456.4
777.142	200.6
777.582	146.9
778.021	125
778.461	123.8
778.9	124.6
779.34	126.9
779.779	113.3
780.219	104.3
780.658	99.1
781.097	103.9
781.537	103.7
781.976	99.7
782.415	98.9
782.855	97.6
783.294	98.3
783.733	96.1
784.172	108.2
784.611	96.1
785.05	100.9
785.489	105
785.928	110
786.367	118.7
786.806	105.4
787.245	112.9
787.684	126.8
788.123	144.5
788.562	120.5
789.001	117
789.44	117.5
789.879	108.9
790.317	113.5
790.756	119.3
791.195	125
791.634	137
792.072	185.1
792.511	317.1
792.95	896.4
793.388	1961.7
793.827	1836.7
794.265	627
794.704	262.9
795.142	163.9
795.581	141.6
796.019	124.4
796.458	121
796.896	109.6
797.334	119.5
797.773	145.9
798.211	196.9
798.649	389.7
799.087	918.7
799.526	1464.2
799.964	1831.1
800.402	1888.6
800.84	696.2
801.278	274.7
801.716	174.9
802.154	139.3
802.592	131.7
803.03	126.2
803.468	120.9
803.906	133.7
804.344	136.4
804.782	127.1
805.22	117.8
805.658	114.4
806.096	133.5
806.533	142.2
806.971	160.8
