Data from 20171114-ORNL-Ar_H_NY_Subt18_08-05-27-777.txt Node
Date: Tue Nov 14 08:05:27 EST 2017
User: Ender
Spectrometer: HR+D1039
Trigger mode: 0
Integration Time (sec): 2.730000E-2
Scans to average: 10
Electric dark correction enabled: true
Nonlinearity correction enabled: false
Boxcar width: 0
XAxis mode: Wavelengths
Number of Pixels in Spectrum: 2048
>>>>>Begin Spectral Data<<<<<
187.836	-3.89
188.309	-3.89
188.782	-3.89
189.255	0.51
189.728	-4.79
190.201	3.61
190.674	0.81
191.147	4.61
191.619	-7.99
192.092	3.91
192.565	8.81
193.038	0.41
193.511	-0.19
193.984	-1.89
194.456	-1.89
194.929	2.11
195.402	-2.49
195.874	-1.69
196.347	-5.69
196.82	-7.19
197.292	3.01
197.765	-0.49
198.237	-1.79
198.71	2.71
199.182	-4.19
199.655	-2.29
200.127	4.81
200.6	-4.49
201.072	-3.29
201.544	-0.59
202.017	0.51
202.489	0.81
202.961	2.61
203.433	-6.99
203.906	-2.79
204.378	-6.19
204.85	-8.59
205.322	-6.99
205.794	-1.89
206.266	-4.09
206.739	-12.89
207.211	-1.89
207.683	-10.59
208.155	-2.79
208.627	-8.59
209.099	-2.59
209.57	-14.89
210.042	-10.29
210.514	-1.59
210.986	0.61
211.458	-12.49
211.93	-4.49
212.402	3.31
212.873	-8.99
213.345	-9.69
213.817	-11.39
214.288	-5.09
214.76	-9.39
215.232	-5.69
215.703	1.21
216.175	-4.29
216.646	-2.09
217.118	-7.29
217.589	-4.39
218.061	-1.09
218.532	-0.69
219.004	-0.39
219.475	-2.09
219.946	-0.39
220.418	-9.49
220.889	-1.59
221.36	-3.49
221.832	-4.59
222.303	-13.59
222.774	-3.89
223.245	-5.09
223.717	-7.69
224.188	-3.39
224.659	-7.19
225.13	-5.59
225.601	-0.39
226.072	0.01
226.543	-1.19
227.014	-2.09
227.485	-3.99
227.956	-4.59
228.427	-2.69
228.898	-2.29
229.369	6.81
229.839	-1.79
230.31	-7.69
230.781	5.51
231.252	-2.79
231.722	-2.79
232.193	-2.59
232.664	1.31
233.135	-2.59
233.605	-2.49
234.076	-0.79
234.546	-3.29
235.017	9.21
235.487	-3.39
235.958	1.91
236.428	-2.99
236.899	4.81
237.369	3.01
237.84	0.31
238.31	9.81
238.78	5.51
239.251	3.51
239.721	4.71
240.191	6.41
240.662	-1.99
241.132	-1.79
241.602	-2.79
242.072	4.01
242.542	5.61
243.013	-0.39
243.483	0.51
243.953	6.11
244.423	6.21
244.893	-2.19
245.363	6.61
245.833	6.21
246.303	-0.49
246.773	7.51
247.243	7.71
247.712	5.01
248.182	8.41
248.652	10.61
249.122	4.11
249.592	13.21
250.061	21.31
250.531	36.61
251.001	17.91
251.471	27.61
251.94	17.61
252.41	12.31
252.879	4.61
253.349	15.71
253.818	15.41
254.288	5.61
254.757	9.01
255.227	0.11
255.696	7.21
256.166	8.51
256.635	5.41
257.105	9.31
257.574	9.21
258.043	13.11
258.513	10.91
258.982	14.31
259.451	11.41
259.92	18.11
260.389	11.91
260.859	13.51
261.328	11.81
261.797	22.01
262.266	9.31
262.735	10.41
263.204	6.81
263.673	3.51
264.142	8.41
264.611	-3.49
265.08	-1.09
265.549	-0.89
266.018	12.41
266.487	2.91
266.955	-3.09
267.424	3.11
267.893	2.91
268.362	7.81
268.83	2.31
269.299	7.71
269.768	4.31
270.236	5.31
270.705	6.81
271.174	7.71
271.642	10.31
272.111	13.51
272.579	20.11
273.048	23.11
273.516	30.41
273.985	34.01
274.453	27.21
274.922	20.61
275.39	16.21
275.858	6.81
276.327	15.21
276.795	15.81
277.263	10.71
277.731	38.61
278.2	59.21
278.668	63.21
279.136	52.01
279.604	21.01
280.072	26.31
280.54	11.11
281.008	14.31
281.477	18.21
281.945	18.71
282.413	16.51
282.881	16.61
283.348	12.11
283.816	17.91
284.284	14.21
284.752	22.31
285.22	13.11
285.688	10.61
286.156	16.71
286.623	47.21
287.091	51.51
287.559	26.51
288.026	22.21
288.494	19.21
288.962	10.11
289.429	16.01
289.897	21.81
290.364	20.21
290.832	20.41
291.3	16.41
291.767	20.41
292.234	21.01
292.702	15.11
293.169	21.11
293.637	25.61
294.104	21.51
294.571	14.21
295.039	14.91
295.506	18.41
295.973	20.31
296.44	20.61
296.908	23.11
297.375	21.71
297.842	23.51
298.309	15.21
298.776	12.31
299.243	18.11
299.71	19.61
300.177	16.81
300.644	23.51
301.111	26.11
301.578	23.11
302.045	21.71
302.512	23.01
302.979	29.51
303.446	29.61
303.913	21.41
304.379	19.51
304.846	28.91
305.313	31.81
305.78	21.31
306.246	25.01
306.713	28.21
307.18	29.01
307.646	32.51
308.113	33.41
308.579	23.71
309.046	23.01
309.512	28.01
309.979	16.81
310.445	28.71
310.912	28.81
311.378	39.51
311.845	27.81
312.311	33.91
312.777	37.61
313.244	38.01
313.71	39.41
314.176	28.11
314.642	32.91
315.109	37.21
315.575	42.11
316.041	38.61
316.507	31.71
316.973	37.61
317.439	31.81
317.905	35.81
318.371	33.21
318.837	37.81
319.303	35.71
319.769	34.81
320.235	33.81
320.701	39.41
321.167	40.31
321.633	36.91
322.099	47.01
322.564	45.41
323.03	42.61
323.496	41.11
323.962	43.51
324.427	35.21
324.893	45.31
325.359	36.81
325.824	38.91
326.29	40.11
326.755	35.41
327.221	41.41
327.686	42.21
328.152	50.71
328.617	44.81
329.083	47.11
329.548	45.91
330.014	46.21
330.479	43.11
330.944	44.41
331.41	43.11
331.875	51.41
332.34	48.71
332.805	43.71
333.271	49.81
333.736	41.01
334.201	53.81
334.666	56.81
335.131	58.51
335.596	58.11
336.061	49.51
336.526	51.81
336.991	53.11
337.456	56.61
337.921	53.21
338.386	41.81
338.851	43.21
339.316	44.41
339.781	51.41
340.246	55.31
340.711	50.31
341.175	50.51
341.64	45.91
342.105	56.41
342.569	57.81
343.034	62.31
343.499	62.51
343.963	59.41
344.428	68.51
344.893	62.51
345.357	58.81
345.822	65.21
346.286	71.21
346.751	77.71
347.215	71.91
347.679	79.11
348.144	100.11
348.608	89.71
349.073	69.61
349.537	76.81
350.001	76.61
350.465	92.41
350.93	84.91
351.394	83.71
351.858	74.31
352.322	87.01
352.786	80.31
353.25	106.71
353.715	114.61
354.179	103.01
354.643	123.21
355.107	128.11
355.571	115.21
356.035	108.01
356.498	123.51
356.962	131.01
357.426	135.31
357.89	116.91
358.354	90.91
358.818	85.21
359.281	82.51
359.745	76.91
360.209	78.71
360.673	77.21
361.136	79.21
361.6	87.21
362.064	90.01
362.527	89.31
362.991	93.51
363.454	79.81
363.918	78.81
364.381	83.51
364.845	71.11
365.308	88.21
365.772	87.81
366.235	88.01
366.698	84.41
367.162	87.61
367.625	93.41
368.088	87.61
368.552	93.91
369.015	88.61
369.478	90.41
369.941	101.61
370.404	96.31
370.867	111.01
371.331	107.01
371.794	116.41
372.257	104.01
372.72	116.71
373.183	114.41
373.646	107.81
374.109	103.31
374.572	108.81
375.035	113.61
375.497	106.51
375.96	110.11
376.423	107.81
376.886	113.01
377.349	109.11
377.811	104.91
378.274	103.01
378.737	109.61
379.199	113.61
379.662	111.71
380.125	116.31
380.587	115.21
381.05	119.41
381.512	127.41
381.975	134.81
382.437	131.71
382.9	127.21
383.362	138.91
383.825	140.31
384.287	141.41
384.75	138.31
385.212	149.61
385.674	142.31
386.136	137.71
386.599	120.31
387.061	127.91
387.523	123.21
387.985	128.21
388.447	147.11
388.91	149.31
389.372	158.61
389.834	149.91
390.296	144.11
390.758	153.81
391.22	165.01
391.682	209.81
392.144	295.31
392.606	230.11
393.068	161.81
393.529	174.41
393.991	156.11
394.453	146.61
394.915	152.81
395.377	187.81
395.838	211.91
396.3	155.51
396.762	140.81
397.224	132.01
397.685	138.41
398.147	137.61
398.608	132.91
399.07	130.01
399.531	132.61
399.993	140.01
400.454	149.61
400.916	141.51
401.377	143.81
401.839	153.61
402.3	150.91
402.762	166.71
403.223	183.01
403.684	179.21
404.145	165.31
404.607	164.31
405.068	168.31
405.529	167.91
405.99	179.81
406.451	180.11
406.913	180.51
407.374	159.81
407.835	163.31
408.296	169.01
408.757	164.81
409.218	178.61
409.679	184.01
410.14	180.71
410.601	173.11
411.062	185.61
411.522	194.21
411.983	181.71
412.444	180.51
412.905	174.21
413.366	186.01
413.826	195.51
414.287	217.31
414.748	269.81
415.208	249.51
415.669	212.31
416.13	206.51
416.59	197.81
417.051	218.31
417.511	216.71
417.972	234.61
418.432	246.41
418.893	286.41
419.353	251.01
419.814	197.21
420.274	180.61
420.734	179.11
421.195	198.11
421.655	194.51
422.115	193.51
422.576	192.41
423.036	194.41
423.496	207.61
423.956	217.91
424.416	227.01
424.876	270.61
425.336	258.31
425.797	257.11
426.257	243.41
426.717	237.91
427.177	232.21
427.637	218.91
428.097	227.51
428.556	247.71
429.016	260.81
429.476	269.31
429.936	273.01
430.396	279.21
430.856	292.31
431.315	314.71
431.775	347.01
432.235	382.11
432.694	347.21
433.154	357.71
433.614	397.01
434.073	340.51
434.533	286.81
434.993	273.41
435.452	280.01
435.912	293.81
436.371	284.61
436.83	282.11
437.29	270.61
437.749	248.51
438.209	245.61
438.668	273.81
439.127	287.71
439.587	265.11
440.046	252.71
440.505	253.41
440.964	285.81
441.424	318.61
441.883	318.81
442.342	262.51
442.801	220.31
443.26	217.01
443.719	222.31
444.178	224.31
444.637	211.51
445.096	222.51
445.555	218.91
446.014	215.51
446.473	224.11
446.932	230.51
447.391	219.21
447.849	219.71
448.308	216.11
448.767	220.11
449.226	238.61
449.685	236.01
450.143	244.91
450.602	229.31
451.061	232.81
451.519	228.21
451.978	235.81
452.436	244.41
452.895	240.91
453.353	255.71
453.812	241.01
454.27	237.71
454.729	238.01
455.187	243.21
455.646	245.31
456.104	253.61
456.562	261.21
457.021	271.51
457.479	256.01
457.937	270.61
458.395	260.71
458.854	244.11
459.312	264.91
459.77	274.11
460.228	255.01
460.686	243.71
461.144	251.51
461.602	248.21
462.06	244.51
462.518	252.71
462.976	256.51
463.434	259.21
463.892	263.71
464.35	280.71
464.808	289.61
465.266	264.61
465.724	268.21
466.181	268.41
466.639	274.91
467.097	291.81
467.555	298.91
468.012	300.51
468.47	310.31
468.928	332.11
469.385	335.71
469.843	346.11
470.3	353.41
470.758	362.61
471.215	386.41
471.673	409.91
472.13	402.51
472.588	413.81
473.045	371.11
473.503	375.11
473.96	392.61
474.417	405.41
474.875	439.11
475.332	476.81
475.789	456.81
476.246	465.31
476.704	488.11
477.161	513.81
477.618	520.81
478.075	559.51
478.532	616.61
478.989	698.01
479.446	807.21
479.903	768.91
480.36	797.91
480.817	871.01
481.274	965.71
481.731	1075.01
482.188	1173.71
482.645	1302.31
483.102	1411.41
483.558	1542.71
484.015	1593.41
484.472	1576.01
484.929	1533.81
485.385	1482.31
485.842	1434.61
486.299	1375.41
486.755	1309.91
487.212	1096.71
487.668	920.81
488.125	852.51
488.582	782.41
489.038	760.41
489.494	724.31
489.951	701.01
490.407	669.81
490.864	656.71
491.32	640.51
491.776	646.41
492.233	648.71
492.689	605.11
493.145	602.11
493.602	597.21
494.058	602.41
494.514	618.01
494.97	637.21
495.426	646.91
495.882	623.11
496.338	620.21
496.794	627.61
497.251	618.91
497.707	640.21
498.163	644.81
498.618	648.01
499.074	643.41
499.53	673.71
499.986	681.01
500.442	661.71
500.898	636.01
501.354	634.81
501.809	634.41
502.265	651.11
502.721	652.01
503.177	672.31
503.632	672.21
504.088	677.01
504.543	708.61
504.999	707.41
505.455	661.31
505.91	632.41
506.366	632.31
506.821	630.11
507.277	626.51
507.732	625.41
508.187	628.31
508.643	625.81
509.098	633.11
509.553	654.51
510.009	671.01
510.464	670.21
510.919	683.51
511.375	695.21
511.83	713.11
512.285	721.31
512.74	762.61
513.195	789.01
513.65	779.21
514.105	760.41
514.56	773.01
515.015	806.11
515.47	813.61
515.925	790.61
516.38	790.41
516.835	792.81
517.29	777.01
517.745	779.21
518.2	766.11
518.655	750.81
519.109	740.71
519.564	749.61
520.019	733.91
520.474	731.11
520.928	728.31
521.383	724.71
521.838	714.91
522.292	711.01
522.747	718.11
523.201	701.11
523.656	692.91
524.11	698.81
524.565	687.61
525.019	688.21
525.474	695.91
525.928	703.61
526.382	697.31
526.837	689.31
527.291	708.91
527.745	700.81
528.2	704.01
528.654	696.51
529.108	687.81
529.562	685.91
530.016	678.91
530.47	684.71
530.925	690.81
531.379	704.31
531.833	707.21
532.287	707.61
532.741	707.31
533.195	704.51
533.649	713.61
534.103	724.91
534.556	712.61
535.01	719.91
535.464	706.11
535.918	725.31
536.372	717.11
536.826	711.21
537.279	714.01
537.733	703.91
538.187	716.81
538.64	720.21
539.094	732.11
539.548	724.71
540.001	728.71
540.455	722.31
540.908	731.51
541.362	732.91
541.815	746.81
542.269	766.61
542.722	751.91
543.175	764.31
543.629	774.31
544.082	781.91
544.536	775.91
544.989	777.31
545.442	793.11
545.895	788.71
546.349	797.51
546.802	792.11
547.255	791.91
547.708	785.21
548.161	817.41
548.614	815.41
549.067	834.01
549.52	804.91
549.973	805.51
550.426	808.01
550.879	783.31
551.332	786.71
551.785	797.21
552.238	800.71
552.691	823.81
553.144	835.51
553.596	847.21
554.049	866.31
554.502	891.01
554.955	912.21
555.407	907.41
555.86	903.91
556.313	889.91
556.765	879.21
557.218	877.31
557.67	877.11
558.123	864.41
558.576	862.31
559.028	887.61
559.48	874.71
559.933	864.71
560.385	841.11
560.838	808.91
561.29	779.31
561.742	766.91
562.195	766.41
562.647	766.91
563.099	761.01
563.551	775.11
564.004	771.91
564.456	760.31
564.908	756.21
565.36	745.31
565.812	729.81
566.264	726.71
566.716	718.81
567.168	706.11
567.62	710.91
568.072	689.81
568.524	690.31
568.976	679.21
569.428	673.91
569.88	664.71
570.332	667.31
570.784	682.11
571.235	683.91
571.687	688.11
572.139	693.71
572.59	708.91
573.042	700.31
573.494	700.61
573.945	703.41
574.397	682.81
574.849	695.01
575.3	677.11
575.752	677.51
576.203	668.01
576.655	674.61
577.106	661.31
577.557	663.01
578.009	657.91
578.46	659.71
578.912	656.71
579.363	648.61
579.814	668.41
580.265	653.21
580.717	666.81
581.168	665.51
581.619	670.11
582.07	672.41
582.521	661.51
582.972	657.61
583.423	677.31
583.875	673.11
584.326	683.91
584.777	730.41
585.227	814.61
585.678	896.01
586.129	976.71
586.58	1059.61
587.031	1145.51
587.482	1293.91
587.933	1489.11
588.384	1282.31
588.834	958.31
589.285	784.81
589.736	763.71
590.186	765.41
590.637	758.71
591.088	721.81
591.538	729.91
591.989	725.11
592.439	708.51
592.89	708.31
593.34	714.51
593.791	696.61
594.241	691.81
594.692	694.51
595.142	685.61
595.593	685.61
596.043	686.61
596.493	699.91
596.943	702.51
597.394	707.41
597.844	699.71
598.294	717.71
598.744	732.61
599.195	757.31
599.645	797.01
600.095	841.41
600.545	901.91
600.995	940.51
601.445	997.91
601.895	1067.01
602.345	1101.01
602.795	1083.01
603.245	1048.11
603.695	980.31
604.145	935.01
604.594	893.91
605.044	839.31
605.494	785.21
605.944	739.41
606.393	724.01
606.843	713.61
607.293	713.51
607.743	716.21
608.192	734.01
608.642	743.61
609.091	755.91
609.541	760.81
609.99	756.21
610.44	749.61
610.889	703.81
611.339	670.51
611.788	662.01
612.238	684.11
612.687	699.71
613.136	690.61
613.586	718.31
614.035	722.51
614.484	738.71
614.933	739.31
615.383	739.81
615.832	726.91
616.281	708.91
616.73	668.81
617.179	653.81
617.628	638.21
618.077	618.71
618.526	612.31
618.975	608.01
619.424	593.31
619.873	603.71
620.322	601.61
620.771	595.61
621.22	589.01
621.669	574.81
622.118	575.01
622.567	564.71
623.015	555.11
623.464	555.21
623.913	543.61
624.361	541.21
624.81	540.01
625.259	536.01
625.707	536.21
626.156	537.81
626.604	552.41
627.053	541.31
627.501	550.11
627.95	548.41
628.398	560.11
628.847	552.01
629.295	545.91
629.744	543.11
630.192	545.91
630.64	554.91
631.089	547.51
631.537	558.01
631.985	562.61
632.433	578.01
632.881	584.31
633.33	625.31
633.778	618.61
634.226	556.51
634.674	562.41
635.122	567.41
635.57	574.31
636.018	609.61
636.466	566.31
636.914	539.31
637.362	550.81
637.81	558.41
638.258	558.31
638.705	559.11
639.153	584.41
639.601	585.01
640.049	620.01
640.497	644.91
640.944	669.01
641.392	615.61
641.84	586.61
642.287	562.31
642.735	543.21
643.182	552.21
643.63	556.01
644.078	561.71
644.525	566.91
644.973	583.01
645.42	585.21
645.867	599.71
646.315	620.61
646.762	640.31
647.21	666.01
647.657	688.31
648.104	725.11
648.551	744.31
648.999	803.41
649.446	873.61
649.893	969.21
650.34	1120.71
650.787	1343.61
651.234	1645.11
651.682	2148.31
652.129	2947.81
652.576	4224.01
653.023	6261.41
653.47	8604.51
653.917	10799.31
654.363	12558.41
654.81	13962.11
655.257	13296.41
655.704	8662.21
656.151	5131.61
656.598	3298.11
657.044	2361.11
657.491	1796.81
657.938	1447.31
658.385	1213.51
658.831	1040.51
659.278	937.71
659.724	819.21
660.171	766.11
660.618	701.61
661.064	664.61
661.511	639.91
661.957	623.01
662.404	621.81
662.85	624.31
663.296	605.61
663.743	530.91
664.189	515.61
664.635	501.31
665.082	510.41
665.528	503.01
665.974	493.11
666.42	485.61
666.867	491.21
667.313	471.31
667.759	464.51
668.205	457.71
668.651	468.11
669.097	462.01
669.543	479.41
669.989	457.51
670.435	433.01
670.881	430.31
671.327	428.51
671.773	451.81
672.219	471.81
672.665	516.61
673.11	559.51
673.556	600.51
674.002	637.91
674.448	632.21
674.893	516.31
675.339	464.21
675.785	431.11
676.23	398.01
676.676	370.41
677.122	363.31
677.567	353.61
678.013	356.21
678.458	345.31
678.904	345.31
679.349	333.71
679.794	338.71
680.24	328.21
680.685	337.21
681.131	332.91
681.576	329.21
682.021	340.51
682.466	334.51
682.912	332.91
683.357	332.31
683.802	359.11
684.247	392.51
684.692	431.01
685.137	468.91
685.583	511.21
686.028	533.51
686.473	489.01
686.918	422.21
687.363	402.71
687.807	371.31
688.252	346.41
688.697	339.41
689.142	324.61
689.587	312.41
690.032	312.61
690.477	330.21
690.921	330.01
691.366	348.81
691.811	385.71
692.255	405.61
692.7	439.71
693.145	470.61
693.589	643.71
694.034	1048.21
694.478	1437.61
694.923	1641.51
695.367	2172.01
695.812	1144.31
696.256	468.21
696.701	355.31
697.145	329.41
697.59	316.51
698.034	302.41
698.478	313.41
698.922	306.21
699.367	311.81
699.811	328.41
700.255	339.01
700.699	364.01
701.143	400.21
701.588	452.61
702.032	490.21
702.476	479.31
702.92	461.81
703.364	454.01
703.808	590.21
704.252	964.61
704.696	1352.51
705.14	1591.11
705.584	2051.71
706.027	1012.81
706.471	495.21
706.915	376.01
707.359	329.01
707.803	307.01
708.246	293.81
708.69	297.31
709.134	296.51
709.577	297.71
710.021	302.21
710.465	294.91
710.908	285.91
711.352	280.91
711.795	297.41
712.239	326.71
712.682	360.51
713.126	394.51
713.569	442.71
714.012	355.41
714.456	302.81
714.899	282.01
715.342	266.21
715.786	250.31
716.229	241.51
716.672	242.91
717.115	233.91
717.558	237.01
718.002	241.51
718.445	246.01
718.888	274.91
719.331	275.81
719.774	295.51
720.217	290.31
720.66	275.91
721.103	251.31
721.546	240.21
721.989	236.81
722.432	218.81
722.874	231.21
723.317	216.31
723.76	223.81
724.203	237.71
724.645	302.11
725.088	428.21
725.531	538.81
725.974	607.51
726.416	514.91
726.859	286.81
727.301	233.61
727.744	221.41
728.187	219.11
728.629	229.81
729.071	229.61
729.514	244.51
729.956	258.61
730.399	263.91
730.841	268.71
731.283	252.71
731.726	249.51
732.168	246.41
732.61	250.51
733.053	263.11
733.495	297.31
733.937	330.41
734.379	374.81
734.821	416.21
735.263	499.71
735.705	770.91
736.148	1467.61
736.59	2396.31
737.032	2911.41
737.474	2387.71
737.916	762.51
738.357	408.61
738.799	312.01
739.241	281.41
739.683	268.41
740.125	274.51
740.567	282.01
741.008	299.51
741.45	296.21
741.892	308.01
742.334	331.61
742.775	340.41
743.217	324.11
743.658	262.01
744.1	231.71
744.542	249.71
744.983	288.71
745.425	324.51
745.866	325.61
746.307	266.11
746.749	265.81
747.19	306.61
747.632	422.41
748.073	800.01
748.514	1720.71
748.956	2671.81
749.397	3371.41
749.838	2787.81
750.279	2818.31
750.72	1430.31
751.162	514.81
751.603	295.81
752.044	240.31
752.485	201.41
752.926	195.71
753.367	190.91
753.808	184.11
754.249	181.91
754.69	179.81
755.131	171.61
755.572	169.21
756.013	172.21
756.453	178.21
756.894	174.81
757.335	178.61
757.776	179.81
758.216	187.71
758.657	187.81
759.098	192.01
759.538	222.51
759.979	246.41
760.42	352.81
760.86	634.21
761.301	1658.91
761.741	4096.41
762.182	6117.11
