Data from 20171114-ORNL-Ar_H_NY_Subt18_08-06-56-494.txt Node
Date: Tue Nov 14 08:06:56 EST 2017
User: Ender
Spectrometer: HR+D1039
Trigger mode: 0
Integration Time (sec): 2.730000E-2
Scans to average: 10
Electric dark correction enabled: true
Nonlinearity correction enabled: false
Boxcar width: 0
XAxis mode: Wavelengths
Number of Pixels in Spectrum: 2048
>>>>>Begin Spectral Data<<<<<
187.836	-4.25
188.309	-4.25
188.782	-4.25
189.255	-0.25
189.728	-2.15
190.201	5.25
190.674	3.35
191.147	1.75
191.619	-9.05
192.092	-0.05
192.565	7.85
193.038	1.05
193.511	0.75
193.984	0.85
194.456	-4.45
194.929	2.25
195.402	-1.85
195.874	-1.05
196.347	2.05
196.82	-2.15
197.292	11.25
197.765	1.15
198.237	-9.15
198.71	-0.95
199.182	-2.75
199.655	0.95
200.127	2.45
200.6	-1.35
201.072	-3.25
201.544	-3.95
202.017	-2.55
202.489	3.45
202.961	0.45
203.433	-3.05
203.906	-5.45
204.378	-1.25
204.85	-2.05
205.322	-8.15
205.794	-7.55
206.266	1.85
206.739	-8.75
207.211	2.15
207.683	-5.35
208.155	-1.25
208.627	-6.05
209.099	-3.55
209.57	-5.65
210.042	-3.05
210.514	-5.85
210.986	-2.05
211.458	-6.15
211.93	0.45
212.402	-0.35
212.873	-6.55
213.345	-8.45
213.817	-10.45
214.288	-0.45
214.76	-8.65
215.232	-5.75
215.703	-3.35
216.175	-1.85
216.646	-8.65
217.118	-4.85
217.589	3.25
218.061	4.25
218.532	-7.75
219.004	-1.15
219.475	-3.05
219.946	-6.15
220.418	-2.05
220.889	0.05
221.36	-1.15
221.832	-4.05
222.303	-2.85
222.774	-3.15
223.245	-9.95
223.717	-0.65
224.188	1.15
224.659	-13.45
225.13	-10.15
225.601	-5.75
226.072	2.35
226.543	0.85
227.014	-1.05
227.485	-0.35
227.956	-9.45
228.427	-5.45
228.898	1.35
229.369	6.35
229.839	-5.65
230.31	-5.35
230.781	5.55
231.252	-4.85
231.722	-6.25
232.193	-5.35
232.664	-6.55
233.135	1.15
233.605	-4.15
234.076	-4.55
234.546	-2.75
235.017	-0.35
235.487	0.55
235.958	0.15
236.428	-6.65
236.899	5.65
237.369	-0.25
237.84	-5.75
238.31	1.25
238.78	-1.05
239.251	-1.45
239.721	-2.65
240.191	1.75
240.662	-8.95
241.132	0.15
241.602	-4.85
242.072	-1.95
242.542	5.25
243.013	-4.05
243.483	8.75
243.953	-1.75
244.423	0.35
244.893	-4.25
245.363	6.75
245.833	1.75
246.303	-4.75
246.773	5.05
247.243	-1.75
247.712	0.45
248.182	2.85
248.652	6.35
249.122	-10.65
249.592	-1.25
250.061	0.95
250.531	7.25
251.001	2.55
251.471	6.65
251.94	7.65
252.41	3.55
252.879	-7.35
253.349	2.85
253.818	5.95
254.288	1.85
254.757	0.25
255.227	-0.45
255.696	-1.75
256.166	1.95
256.635	0.45
257.105	5.55
257.574	1.15
258.043	3.75
258.513	-2.95
258.982	0.55
259.451	-1.15
259.92	3.65
260.389	0.35
260.859	3.75
261.328	-2.25
261.797	0.55
262.266	-2.15
262.735	4.05
263.204	0.05
263.673	-1.05
264.142	2.05
264.611	-7.25
265.08	-3.55
265.549	-2.25
266.018	5.35
266.487	4.85
266.955	-3.55
267.424	-0.55
267.893	1.75
268.362	0.95
268.83	-1.05
269.299	11.45
269.768	5.05
270.236	3.15
270.705	-2.45
271.174	-0.25
271.642	5.35
272.111	2.55
272.579	1.65
273.048	3.95
273.516	3.45
273.985	9.75
274.453	8.35
274.922	10.15
275.39	7.65
275.858	2.25
276.327	5.25
276.795	18.85
277.263	6.25
277.731	10.45
278.2	13.15
278.668	4.55
279.136	12.45
279.604	8.35
280.072	15.05
280.54	11.85
281.008	6.45
281.477	6.85
281.945	1.95
282.413	13.45
282.881	12.95
283.348	6.75
283.816	14.75
284.284	9.75
284.752	13.25
285.22	12.05
285.688	7.75
286.156	9.95
286.623	19.25
287.091	5.25
287.559	12.15
288.026	13.45
288.494	14.25
288.962	5.95
289.429	6.15
289.897	17.35
290.364	9.05
290.832	8.65
291.3	14.05
291.767	16.25
292.234	16.85
292.702	13.25
293.169	15.15
293.637	22.25
294.104	15.05
294.571	0.45
295.039	10.15
295.506	12.85
295.973	17.95
296.44	14.75
296.908	16.35
297.375	12.55
297.842	16.85
298.309	14.35
298.776	10.75
299.243	18.35
299.71	12.35
300.177	18.85
300.644	24.95
301.111	16.85
301.578	23.45
302.045	11.35
302.512	12.55
302.979	19.45
303.446	22.15
303.913	16.85
304.379	16.85
304.846	18.85
305.313	20.35
305.78	11.95
306.246	20.75
306.713	21.35
307.18	24.75
307.646	25.75
308.113	24.65
308.579	24.25
309.046	21.35
309.512	23.75
309.979	10.45
310.445	23.55
310.912	24.85
311.378	29.65
311.845	32.45
312.311	20.55
312.777	29.25
313.244	30.75
313.71	34.35
314.176	28.65
314.642	21.35
315.109	22.65
315.575	24.25
316.041	34.35
316.507	24.05
316.973	30.25
317.439	29.05
317.905	33.65
318.371	28.65
318.837	31.45
319.303	32.45
319.769	28.35
320.235	27.25
320.701	25.65
321.167	31.85
321.633	26.15
322.099	31.35
322.564	36.85
323.03	36.15
323.496	28.35
323.962	33.95
324.427	31.55
324.893	38.35
325.359	35.75
325.824	30.95
326.29	31.65
326.755	34.75
327.221	35.45
327.686	37.65
328.152	44.05
328.617	38.75
329.083	44.45
329.548	48.95
330.014	45.05
330.479	37.15
330.944	39.55
331.41	39.25
331.875	39.05
332.34	40.45
332.805	36.25
333.271	38.05
333.736	38.25
334.201	44.65
334.666	41.65
335.131	43.85
335.596	42.95
336.061	46.95
336.526	35.65
336.991	46.95
337.456	49.85
337.921	47.75
338.386	41.95
338.851	43.85
339.316	41.85
339.781	38.15
340.246	40.65
340.711	40.05
341.175	48.85
341.64	40.15
342.105	47.25
342.569	50.35
343.034	53.95
343.499	48.75
343.963	49.55
344.428	52.95
344.893	55.85
345.357	54.45
345.822	55.35
346.286	60.05
346.751	65.05
347.215	58.25
347.679	63.15
348.144	88.75
348.608	73.05
349.073	59.75
349.537	67.45
350.001	67.75
350.465	78.55
350.93	73.65
351.394	75.45
351.858	67.55
352.322	83.05
352.786	75.95
353.25	87.25
353.715	94.25
354.179	88.55
354.643	102.05
355.107	110.45
355.571	96.75
356.035	94.15
356.498	106.95
356.962	102.75
357.426	111.85
357.89	102.85
358.354	84.85
358.818	72.35
359.281	69.95
359.745	67.95
360.209	75.05
360.673	70.45
361.136	72.55
361.6	78.55
362.064	80.35
362.527	76.65
362.991	86.85
363.454	76.25
363.918	65.55
364.381	74.25
364.845	81.05
365.308	77.75
365.772	79.35
366.235	77.85
366.698	72.45
367.162	72.95
367.625	75.45
368.088	84.15
368.552	87.85
369.015	83.25
369.478	87.55
369.941	92.85
370.404	88.55
370.867	93.05
371.331	100.45
371.794	98.75
372.257	95.05
372.72	101.05
373.183	98.05
373.646	88.15
374.109	88.55
374.572	94.25
375.035	96.85
375.497	97.05
375.96	100.85
376.423	100.15
376.886	102.15
377.349	102.45
377.811	97.15
378.274	95.65
378.737	99.65
379.199	100.75
379.662	103.85
380.125	106.05
380.587	103.85
381.05	110.75
381.512	109.45
381.975	113.75
382.437	112.25
382.9	115.65
383.362	119.25
383.825	128.95
384.287	121.95
384.75	116.85
385.212	110.45
385.674	127.05
386.136	129.65
386.599	119.15
387.061	121.85
387.523	117.65
387.985	121.85
388.447	128.95
388.91	122.75
389.372	120.95
389.834	129.85
390.296	120.95
390.758	126.85
391.22	127.35
391.682	144.25
392.144	149.35
392.606	138.05
393.068	133.15
393.529	146.35
393.991	138.85
394.453	122.45
394.915	127.55
395.377	129.35
395.838	133.25
396.3	139.65
396.762	139.05
397.224	136.15
397.685	119.55
398.147	121.85
398.608	124.95
399.07	130.95
399.531	131.45
399.993	143.95
400.454	149.85
400.916	144.05
401.377	143.65
401.839	150.95
402.3	149.95
402.762	162.25
403.223	173.35
403.684	166.65
404.145	159.15
404.607	155.65
405.068	166.65
405.529	166.35
405.99	181.55
406.451	169.25
406.913	176.15
407.374	162.15
407.835	165.15
408.296	170.25
408.757	167.15
409.218	192.55
409.679	174.65
410.14	170.65
410.601	173.95
411.062	177.15
411.522	175.45
411.983	173.35
412.444	181.05
412.905	183.45
413.366	192.55
413.826	199.35
414.287	221.35
414.748	264.35
415.208	248.05
415.669	220.95
416.13	209.95
416.59	212.25
417.051	215.55
417.511	224.95
417.972	244.45
418.432	242.85
418.893	292.45
419.353	262.15
419.814	210.75
420.274	188.65
420.734	183.35
421.195	190.05
421.655	198.95
422.115	202.75
422.576	202.05
423.036	208.35
423.496	210.95
423.956	228.25
424.416	236.75
424.876	271.15
425.336	268.25
425.797	267.15
426.257	264.45
426.717	244.55
427.177	244.05
427.637	224.55
428.097	237.65
428.556	251.45
429.016	267.65
429.476	264.65
429.936	265.25
430.396	269.45
430.856	286.85
431.315	315.25
431.775	331.75
432.235	372.05
432.694	351.65
433.154	358.95
433.614	388.95
434.073	331.65
434.533	286.75
434.993	265.65
435.452	289.65
435.912	288.25
436.371	287.25
436.83	272.05
437.29	269.75
437.749	254.15
438.209	259.05
438.668	274.85
439.127	291.75
439.587	266.85
440.046	259.05
440.505	260.55
440.964	285.65
441.424	339.65
441.883	309.25
442.342	273.65
442.801	227.45
443.26	237.35
443.719	231.15
444.178	226.55
444.637	227.65
445.096	228.95
445.555	227.55
446.014	229.35
446.473	240.55
446.932	241.05
447.391	240.85
447.849	245.65
448.308	231.45
448.767	232.75
449.226	247.15
449.685	245.25
450.143	260.25
450.602	251.85
451.061	238.95
451.519	242.45
451.978	248.45
452.436	249.65
452.895	252.45
453.353	259.95
453.812	254.85
454.27	245.85
454.729	252.75
455.187	258.75
455.646	256.15
456.104	259.75
456.562	275.05
457.021	275.85
457.479	266.85
457.937	283.55
458.395	275.85
458.854	264.25
459.312	270.75
459.77	291.85
460.228	266.95
460.686	255.15
461.144	256.75
461.602	250.15
462.06	258.65
462.518	276.25
462.976	269.65
463.434	268.45
463.892	283.05
464.35	288.55
464.808	303.55
465.266	276.65
465.724	286.45
466.181	284.15
466.639	288.15
467.097	308.05
467.555	326.05
468.012	326.75
468.47	321.45
468.928	348.55
469.385	363.25
469.843	362.05
470.3	355.95
470.758	377.95
471.215	397.25
471.673	418.85
472.13	420.55
472.588	437.35
473.045	389.25
473.503	400.65
473.96	419.85
474.417	426.95
474.875	451.75
475.332	486.65
475.789	479.75
476.246	483.55
476.704	510.95
477.161	534.95
477.618	539.65
478.075	585.55
478.532	638.35
478.989	713.55
479.446	811.45
479.903	768.65
480.36	809.45
480.817	854.95
481.274	954.75
481.731	1048.55
482.188	1121.15
482.645	1248.35
483.102	1342.05
483.558	1462.95
484.015	1498.35
484.472	1475.95
484.929	1429.25
485.385	1389.65
485.842	1365.05
486.299	1320.55
486.755	1258.95
487.212	1075.05
487.668	923.35
488.125	857.05
488.582	791.55
489.038	756.35
489.494	729.15
489.951	709.35
490.407	691.45
490.864	672.65
491.32	673.65
491.776	673.35
492.233	677.35
492.689	647.55
493.145	637.55
493.602	622.95
494.058	632.65
494.514	650.05
494.97	668.35
495.426	675.35
495.882	654.35
496.338	631.15
496.794	650.75
497.251	650.35
497.707	666.65
498.163	664.65
498.618	664.05
499.074	670.75
499.53	704.75
499.986	698.55
500.442	671.85
500.898	650.25
501.354	644.55
501.809	656.05
502.265	649.65
502.721	661.45
503.177	674.25
503.632	668.05
504.088	678.35
504.543	705.75
504.999	712.55
505.455	693.85
505.91	659.45
506.366	667.75
506.821	661.15
507.277	668.65
507.732	661.05
508.187	671.45
508.643	669.85
509.098	675.85
509.553	693.05
510.009	707.65
510.464	715.95
510.919	725.35
511.375	734.25
511.83	744.85
512.285	760.85
512.74	797.85
513.195	817.45
513.65	801.45
514.105	802.15
514.56	810.25
515.015	825.85
515.47	836.95
515.925	823.45
516.38	834.05
516.835	838.95
517.29	815.15
517.745	815.95
518.2	804.95
518.655	786.65
519.109	784.15
519.564	779.15
520.019	761.65
520.474	763.15
520.928	774.15
521.383	764.05
521.838	753.35
522.292	755.05
522.747	747.05
523.201	744.05
523.656	733.45
524.11	739.55
524.565	737.45
525.019	727.05
525.474	724.75
525.928	738.75
526.382	739.65
526.837	739.85
527.291	746.75
527.745	734.55
528.2	736.15
528.654	725.65
529.108	721.05
529.562	728.45
530.016	724.45
530.47	724.75
530.925	727.25
531.379	735.95
531.833	738.95
532.287	746.25
532.741	732.55
533.195	739.05
533.649	747.45
534.103	767.25
534.556	749.55
535.01	757.25
535.464	749.45
535.918	763.65
536.372	756.65
536.826	752.15
537.279	738.65
537.733	751.45
538.187	750.75
538.64	762.55
539.094	760.15
539.548	772.95
540.001	756.65
540.455	772.25
540.908	766.45
541.362	790.55
541.815	787.05
542.269	802.15
542.722	806.75
543.175	813.45
543.629	809.35
544.082	834.35
544.536	833.75
544.989	831.15
545.442	848.05
545.895	831.95
546.349	833.75
546.802	839.95
547.255	853.85
547.708	860.15
548.161	863.45
548.614	863.45
549.067	874.15
549.52	870.55
549.973	861.75
550.426	858.85
550.879	845.65
551.332	849.95
551.785	861.35
552.238	871.35
552.691	872.65
553.144	880.75
553.596	898.05
554.049	920.05
554.502	941.95
554.955	969.85
555.407	966.55
555.86	957.55
556.313	949.25
556.765	934.45
557.218	937.45
557.67	933.95
558.123	926.55
558.576	929.95
559.028	929.35
559.48	940.85
559.933	923.05
560.385	891.35
560.838	867.45
561.29	832.25
561.742	832.45
562.195	814.25
562.647	804.95
563.099	821.05
563.551	819.95
564.004	831.15
564.456	816.35
564.908	805.65
565.36	778.15
565.812	768.85
566.264	751.55
566.716	754.75
567.168	747.35
567.62	756.05
568.072	745.15
568.524	741.65
568.976	728.25
569.428	711.75
569.88	720.45
570.332	725.45
570.784	729.45
571.235	724.65
571.687	742.35
572.139	745.85
572.59	746.95
573.042	758.35
573.494	755.25
573.945	749.45
574.397	729.35
574.849	744.05
575.3	740.25
575.752	735.05
576.203	710.75
576.655	723.85
577.106	714.45
577.557	714.95
578.009	711.95
578.46	709.75
578.912	701.15
579.363	707.05
579.814	718.05
580.265	705.85
580.717	708.15
581.168	707.85
581.619	715.25
582.07	720.75
582.521	711.45
582.972	710.95
583.423	715.25
583.875	714.45
584.326	714.15
584.777	736.55
585.227	762.75
585.678	761.15
586.129	783.65
586.58	810.65
587.031	836.55
587.482	854.15
587.933	891.95
588.384	863.35
588.834	826.65
589.285	807.95
589.736	824.95
590.186	812.75
590.637	801.75
591.088	791.65
591.538	780.25
591.989	767.95
592.439	765.25
592.89	751.05
593.34	744.35
593.791	743.95
594.241	731.75
594.692	739.85
595.142	731.45
595.593	731.05
596.043	738.75
596.493	750.05
596.943	738.95
597.394	760.25
597.844	751.65
598.294	770.25
598.744	801.55
599.195	821.15
599.645	863.65
600.095	912.25
600.545	963.75
600.995	1020.95
601.445	1075.05
601.895	1141.85
602.345	1195.55
602.795	1170.65
603.245	1125.55
603.695	1068.05
604.145	1009.25
604.594	968.05
605.044	909.75
605.494	853.95
605.944	807.95
606.393	786.35
606.843	771.65
607.293	767.45
607.743	766.85
608.192	768.25
608.642	792.75
609.091	798.25
609.541	792.65
609.99	800.55
610.44	803.95
610.889	749.05
611.339	730.05
611.788	716.75
612.238	728.15
612.687	742.25
613.136	724.95
613.586	745.45
614.035	733.35
614.484	735.65
614.933	735.55
615.383	736.75
615.832	738.05
616.281	733.95
616.73	687.65
617.179	683.75
617.628	678.75
618.077	655.95
618.526	652.05
618.975	641.45
619.424	638.95
619.873	637.95
620.322	653.05
620.771	635.95
621.22	633.85
621.669	626.05
622.118	622.85
622.567	606.75
623.015	597.75
623.464	586.35
623.913	589.15
624.361	581.05
624.81	583.15
625.259	579.25
625.707	575.55
626.156	590.05
626.604	591.65
627.053	591.95
627.501	593.55
627.95	597.55
628.398	613.45
628.847	597.75
629.295	599.05
629.744	603.35
630.192	592.45
630.64	594.05
631.089	573.75
631.537	564.35
631.985	558.75
632.433	552.55
632.881	547.35
633.33	556.95
633.778	553.25
634.226	548.25
634.674	562.55
635.122	562.25
635.57	577.15
636.018	582.85
636.466	583.85
636.914	564.55
637.362	602.45
637.81	602.55
638.258	615.45
638.705	604.95
639.153	646.35
639.601	638.55
640.049	665.35
640.497	712.15
640.944	733.35
641.392	679.45
641.84	640.35
642.287	609.05
642.735	588.25
643.182	592.85
643.63	588.15
644.078	585.35
644.525	596.45
644.973	607.35
645.42	622.75
645.867	640.45
646.315	659.65
646.762	677.85
647.21	716.95
647.657	736.65
648.104	774.25
648.551	783.05
648.999	836.75
649.446	913.95
649.893	998.65
650.34	1139.05
650.787	1349.55
651.234	1662.55
651.682	2144.35
652.129	2907.95
652.576	4130.35
653.023	6008.05
653.47	8122.55
653.917	10125.75
654.363	11677.95
654.81	12890.35
655.257	12216.15
655.704	8103.65
656.151	4899.15
656.598	3197.95
657.044	2294.15
657.491	1788.45
657.938	1445.15
658.385	1224.15
658.831	1064.95
659.278	967.25
659.724	861.85
660.171	795.35
660.618	734.65
661.064	703.05
661.511	688.95
661.957	676.05
662.404	652.65
662.85	667.55
663.296	636.75
663.743	579.15
664.189	552.65
664.635	544.35
665.082	547.75
665.528	555.75
665.974	534.95
666.42	530.25
666.867	522.25
667.313	506.05
667.759	482.25
668.205	471.85
668.651	467.75
669.097	463.85
669.543	459.05
669.989	459.65
670.435	466.95
670.881	474.75
671.327	472.25
671.773	488.85
672.219	512.05
672.665	572.85
673.11	606.95
673.556	663.55
674.002	696.25
674.448	687.45
674.893	581.45
675.339	501.65
675.785	465.65
676.23	450.35
676.676	413.75
677.122	401.15
677.567	391.55
678.013	390.15
678.458	383.65
678.904	377.45
679.349	368.05
679.794	373.95
680.24	365.75
680.685	368.75
681.131	360.85
681.576	366.95
682.021	375.25
682.466	373.65
682.912	365.75
683.357	372.45
683.802	403.95
684.247	435.25
684.692	484.75
685.137	533.05
685.583	558.65
686.028	590.75
686.473	545.05
686.918	466.45
687.363	440.95
687.807	415.85
688.252	375.55
688.697	379.95
689.142	359.35
689.587	354.25
690.032	344.25
690.477	359.15
690.921	370.45
691.366	408.15
691.811	424.55
692.255	450.15
692.7	487.55
693.145	539.35
693.589	742.55
694.034	1198.05
694.478	1628.45
694.923	1841.15
695.367	2399.85
695.812	1267.75
696.256	533.65
696.701	390.85
697.145	358.05
697.59	342.25
698.034	338.05
698.478	350.15
698.922	332.15
699.367	346.65
699.811	353.45
700.255	370.65
700.699	396.15
701.143	442.65
701.588	496.95
702.032	532.25
702.476	539.25
702.92	522.35
703.364	532.05
703.808	693.15
704.252	1095.35
704.696	1534.05
705.14	1766.55
705.584	2255.85
706.027	1122.85
706.471	555.45
706.915	419.25
707.359	372.25
707.803	338.75
708.246	335.35
708.69	327.75
709.134	329.25
709.577	330.15
710.021	335.75
710.465	325.25
710.908	316.05
711.352	315.05
711.795	335.55
712.239	371.95
712.682	402.55
713.126	425.45
713.569	474.75
714.012	366.85
714.456	323.65
714.899	305.45
715.342	291.45
715.786	280.75
716.229	281.65
716.672	264.85
717.115	264.05
717.558	264.45
718.002	260.75
718.445	276.75
718.888	305.05
719.331	312.75
719.774	309.25
720.217	322.35
720.66	292.55
721.103	283.55
721.546	267.95
721.989	257.85
722.432	244.05
722.874	250.85
723.317	251.95
723.76	242.95
724.203	268.45
724.645	333.65
725.088	470.55
725.531	601.25
725.974	682.25
726.416	573.35
726.859	325.25
727.301	264.95
727.744	254.15
728.187	245.45
728.629	249.35
729.071	254.95
729.514	270.95
729.956	286.15
730.399	300.95
730.841	295.65
731.283	287.05
731.726	284.15
732.168	276.45
732.61	280.75
733.053	311.05
733.495	332.15
733.937	369.75
734.379	423.75
734.821	461.45
735.263	578.75
735.705	884.05
736.148	1687.25
736.59	2747.25
737.032	3235.55
737.474	2629.15
737.916	851.25
738.357	452.15
738.799	350.65
739.241	311.35
739.683	294.55
740.125	304.85
740.567	314.25
741.008	333.85
741.45	334.45
741.892	340.25
742.334	372.65
742.775	383.15
743.217	375.05
743.658	287.05
744.1	265.45
744.542	283.95
744.983	335.05
745.425	361.05
745.866	367.95
746.307	302.25
746.749	292.25
747.19	345.85
747.632	488.05
748.073	941.35
748.514	1973.55
748.956	3039.55
749.397	3805.55
749.838	3151.85
750.279	3132.35
750.72	1591.75
751.162	583.85
751.603	333.25
752.044	267.45
752.485	232.15
752.926	227.35
753.367	214.35
753.808	212.25
754.249	203.95
754.69	194.25
755.131	192.65
755.572	190.65
756.013	188.15
756.453	199.55
756.894	198.75
757.335	202.55
757.776	204.45
758.216	205.85
758.657	208.75
759.098	212.25
759.538	237.05
759.979	286.65
760.42	396.15
760.86	748.75
761.301	1943.65
761.741	4710.05
762.182	6802.25
762.622	4818.05
763.063	1397.05
763.503	570.55
