Data from 20171114-ORNL-Ar_H_NY_Subt18_08-05-43-336.txt Node
Date: Tue Nov 14 08:05:43 EST 2017
User: Ender
Spectrometer: HR+D1039
Trigger mode: 0
Integration Time (sec): 2.730000E-2
Scans to average: 10
Electric dark correction enabled: true
Nonlinearity correction enabled: false
Boxcar width: 0
XAxis mode: Wavelengths
Number of Pixels in Spectrum: 2048
>>>>>Begin Spectral Data<<<<<
187.836	-6.36
188.309	-6.36
188.782	-6.36
189.255	0.94
189.728	-1.46
190.201	9.94
190.674	3.84
191.147	3.94
191.619	-13.06
192.092	-0.16
192.565	2.24
193.038	1.84
193.511	2.64
193.984	3.14
194.456	0.34
194.929	-0.46
195.402	-4.96
195.874	-2.46
196.347	-4.06
196.82	-10.36
197.292	3.54
197.765	-3.56
198.237	-4.66
198.71	-1.06
199.182	-1.06
199.655	4.14
200.127	1.64
200.6	-3.46
201.072	-4.86
201.544	-0.06
202.017	1.74
202.489	5.74
202.961	-4.66
203.433	-4.96
203.906	-7.26
204.378	-9.76
204.85	-3.16
205.322	-5.46
205.794	-2.36
206.266	-7.16
206.739	-10.86
207.211	6.44
207.683	-12.26
208.155	-4.96
208.627	-7.16
209.099	-0.46
209.57	-8.26
210.042	-4.56
210.514	-1.66
210.986	-3.06
211.458	-11.76
211.93	-4.96
212.402	6.54
212.873	-1.06
213.345	-16.36
213.817	-15.86
214.288	0.14
214.76	-11.06
215.232	-5.56
215.703	3.24
216.175	-8.26
216.646	-6.26
217.118	-9.36
217.589	-3.66
218.061	-3.36
218.532	-8.46
219.004	-1.86
219.475	-0.56
219.946	-0.36
220.418	-3.56
220.889	0.04
221.36	1.24
221.832	-4.56
222.303	-8.56
222.774	2.14
223.245	-7.76
223.717	-9.66
224.188	-8.76
224.659	-8.06
225.13	0.44
225.601	-2.96
226.072	-3.46
226.543	-3.96
227.014	1.44
227.485	-3.76
227.956	-7.16
228.427	-3.06
228.898	2.14
229.369	1.44
229.839	-6.96
230.31	-0.76
230.781	5.24
231.252	-1.26
231.722	-11.76
232.193	1.64
232.664	-2.76
233.135	-0.46
233.605	5.54
234.076	-6.56
234.546	3.64
235.017	-3.06
235.487	1.14
235.958	-2.76
236.428	-0.96
236.899	-0.06
237.369	-1.06
237.84	0.34
238.31	6.24
238.78	9.74
239.251	-0.76
239.721	4.14
240.191	-0.26
240.662	4.04
241.132	6.14
241.602	-7.36
242.072	-3.46
242.542	9.64
243.013	0.34
243.483	4.64
243.953	0.14
244.423	-0.86
244.893	3.04
245.363	3.34
245.833	2.84
246.303	-4.56
246.773	5.74
247.243	-0.46
247.712	3.94
248.182	9.04
248.652	2.14
249.122	4.84
249.592	9.94
250.061	15.94
250.531	33.34
251.001	25.84
251.471	17.24
251.94	17.24
252.41	8.24
252.879	-1.66
253.349	17.84
253.818	11.04
254.288	10.84
254.757	5.94
255.227	1.04
255.696	5.34
256.166	1.34
256.635	9.94
257.105	5.84
257.574	-0.36
258.043	9.84
258.513	13.94
258.982	15.84
259.451	6.24
259.92	19.94
260.389	9.14
260.859	15.34
261.328	3.74
261.797	18.64
262.266	4.84
262.735	12.84
263.204	8.64
263.673	5.24
264.142	4.74
264.611	0.64
265.08	4.44
265.549	3.44
266.018	5.84
266.487	-2.46
266.955	0.74
267.424	3.34
267.893	11.74
268.362	5.04
268.83	3.34
269.299	9.84
269.768	2.64
270.236	7.24
270.705	2.64
271.174	4.14
271.642	8.34
272.111	9.84
272.579	14.94
273.048	21.14
273.516	27.84
273.985	31.44
274.453	23.74
274.922	15.64
275.39	15.14
275.858	1.94
276.327	12.24
276.795	27.94
277.263	9.44
277.731	32.94
278.2	57.04
278.668	55.14
279.136	45.64
279.604	20.44
280.072	17.34
280.54	17.34
281.008	11.14
281.477	16.84
281.945	10.44
282.413	16.74
282.881	20.44
283.348	6.44
283.816	14.94
284.284	14.64
284.752	27.14
285.22	12.84
285.688	16.24
286.156	22.44
286.623	41.64
287.091	50.64
287.559	24.14
288.026	20.84
288.494	20.74
288.962	7.74
289.429	15.94
289.897	21.84
290.364	13.44
290.832	18.54
291.3	17.74
291.767	22.44
292.234	24.24
292.702	15.84
293.169	16.84
293.637	29.04
294.104	23.14
294.571	12.74
295.039	17.44
295.506	17.14
295.973	15.54
296.44	13.94
296.908	19.34
297.375	22.14
297.842	24.34
298.309	21.34
298.776	14.14
299.243	20.44
299.71	15.34
300.177	20.84
300.644	24.94
301.111	21.04
301.578	30.64
302.045	21.44
302.512	25.04
302.979	26.94
303.446	22.94
303.913	17.94
304.379	20.54
304.846	32.24
305.313	25.14
305.78	26.14
306.246	25.84
306.713	28.64
307.18	32.04
307.646	26.74
308.113	31.84
308.579	26.44
309.046	26.64
309.512	29.04
309.979	16.84
310.445	26.44
310.912	26.94
311.378	34.24
311.845	32.44
312.311	33.84
312.777	34.04
313.244	32.14
313.71	45.34
314.176	30.64
314.642	34.64
315.109	32.74
315.575	41.84
316.041	40.44
316.507	36.74
316.973	40.74
317.439	38.04
317.905	31.34
318.371	39.14
318.837	32.14
319.303	36.54
319.769	36.74
320.235	34.44
320.701	32.54
321.167	38.14
321.633	36.04
322.099	42.14
322.564	46.74
323.03	39.54
323.496	48.14
323.962	40.24
324.427	38.84
324.893	40.24
325.359	45.54
325.824	37.04
326.29	35.64
326.755	43.64
327.221	43.34
327.686	41.64
328.152	44.14
328.617	41.44
329.083	49.44
329.548	51.74
330.014	44.94
330.479	42.94
330.944	40.84
331.41	41.14
331.875	51.94
332.34	42.04
332.805	42.04
333.271	46.04
333.736	42.24
334.201	55.34
334.666	55.84
335.131	50.24
335.596	50.74
336.061	49.14
336.526	44.64
336.991	42.44
337.456	52.64
337.921	49.54
338.386	48.14
338.851	48.44
339.316	50.54
339.781	45.84
340.246	49.74
340.711	44.04
341.175	59.84
341.64	47.94
342.105	50.64
342.569	49.54
343.034	58.04
343.499	56.54
343.963	56.74
344.428	66.74
344.893	57.84
345.357	60.94
345.822	64.14
346.286	68.04
346.751	77.34
347.215	66.54
347.679	79.04
348.144	98.14
348.608	85.14
349.073	75.94
349.537	77.94
350.001	78.64
350.465	91.64
350.93	82.64
351.394	80.64
351.858	76.94
352.322	86.84
352.786	87.14
353.25	105.04
353.715	112.34
354.179	105.04
354.643	122.54
355.107	131.74
355.571	114.44
356.035	108.04
356.498	118.64
356.962	122.94
357.426	139.54
357.89	120.04
358.354	89.44
358.818	89.84
359.281	76.14
359.745	81.64
360.209	83.04
360.673	79.04
361.136	89.84
361.6	92.34
362.064	85.24
362.527	84.34
362.991	91.94
363.454	81.04
363.918	74.04
364.381	78.34
364.845	82.84
365.308	84.94
365.772	84.94
366.235	90.94
366.698	83.44
367.162	90.84
367.625	84.94
368.088	85.84
368.552	85.64
369.015	87.44
369.478	99.74
369.941	97.44
370.404	93.64
370.867	106.04
371.331	104.54
371.794	113.64
372.257	111.84
372.72	112.64
373.183	110.84
373.646	106.74
374.109	100.74
374.572	109.44
375.035	108.94
375.497	115.74
375.96	111.44
376.423	109.34
376.886	118.84
377.349	107.74
377.811	101.74
378.274	105.44
378.737	116.84
379.199	110.24
379.662	108.64
380.125	116.24
380.587	117.04
381.05	124.04
381.512	124.44
381.975	132.34
382.437	120.64
382.9	127.74
383.362	133.54
383.825	144.74
384.287	148.74
384.75	150.24
385.212	140.34
385.674	136.34
386.136	136.84
386.599	123.34
387.061	126.14
387.523	129.44
387.985	146.14
388.447	145.44
388.91	146.54
389.372	159.64
389.834	151.34
390.296	154.84
390.758	147.84
391.22	169.84
391.682	211.54
392.144	290.54
392.606	232.74
393.068	174.24
393.529	163.34
393.991	151.44
394.453	144.04
394.915	160.24
395.377	188.74
395.838	217.04
396.3	153.74
396.762	134.74
397.224	133.84
397.685	129.94
398.147	133.34
398.608	131.34
399.07	129.04
399.531	131.64
399.993	142.94
400.454	154.14
400.916	140.74
401.377	145.64
401.839	156.54
402.3	155.44
402.762	167.34
403.223	180.04
403.684	166.54
404.145	159.34
404.607	162.04
405.068	168.24
405.529	168.94
405.99	180.24
406.451	173.94
406.913	177.94
407.374	161.04
407.835	159.04
408.296	165.34
408.757	172.94
409.218	187.44
409.679	176.94
410.14	175.74
410.601	179.94
411.062	184.94
411.522	190.44
411.983	186.64
412.444	177.74
412.905	183.04
413.366	181.44
413.826	194.94
414.287	205.84
414.748	263.94
415.208	248.24
415.669	211.44
416.13	205.14
416.59	203.34
417.051	210.34
417.511	216.64
417.972	242.04
418.432	246.24
418.893	283.24
419.353	249.74
419.814	194.54
420.274	182.54
420.734	180.04
421.195	199.34
421.655	196.64
422.115	189.54
422.576	194.74
423.036	202.64
423.496	213.04
423.956	213.04
424.416	228.04
424.876	267.54
425.336	263.54
425.797	261.04
426.257	251.84
426.717	234.24
427.177	233.34
427.637	220.64
428.097	238.54
428.556	245.74
429.016	268.04
429.476	267.64
429.936	277.44
430.396	283.04
430.856	285.64
431.315	326.54
431.775	357.94
432.235	381.94
432.694	353.04
433.154	366.34
433.614	393.74
434.073	338.94
434.533	292.44
434.993	277.64
435.452	289.94
435.912	298.04
436.371	291.54
436.83	281.24
437.29	275.54
437.749	250.34
438.209	241.54
438.668	271.74
439.127	288.14
439.587	269.14
440.046	253.14
440.505	259.84
440.964	279.74
441.424	326.34
441.883	315.04
442.342	257.64
442.801	230.14
443.26	219.04
443.719	226.34
444.178	213.84
444.637	217.04
445.096	224.44
445.555	228.64
446.014	231.34
446.473	220.54
446.932	233.04
447.391	225.74
447.849	227.74
448.308	216.94
448.767	223.24
449.226	235.14
449.685	233.74
450.143	247.54
450.602	241.44
451.061	231.74
451.519	231.14
451.978	241.14
452.436	234.94
452.895	249.14
453.353	258.04
453.812	244.14
454.27	246.04
454.729	245.14
455.187	238.24
455.646	244.84
456.104	253.24
456.562	259.34
457.021	272.04
457.479	255.14
457.937	272.14
458.395	265.94
458.854	253.34
459.312	255.84
459.77	276.34
460.228	256.24
460.686	247.04
461.144	256.54
461.602	246.94
462.06	244.04
462.518	257.44
462.976	252.74
463.434	258.04
463.892	272.14
464.35	277.54
464.808	283.54
465.266	262.34
465.724	266.34
466.181	272.24
466.639	274.94
467.097	288.84
467.555	300.94
468.012	311.04
468.47	318.74
468.928	333.44
469.385	343.84
469.843	353.74
470.3	355.04
470.758	369.34
471.215	388.34
471.673	412.74
472.13	411.94
472.588	423.24
473.045	373.94
473.503	380.34
473.96	392.94
474.417	403.94
474.875	437.64
475.332	478.44
475.789	464.04
476.246	468.94
476.704	489.04
477.161	513.44
477.618	531.64
478.075	559.04
478.532	622.14
478.989	701.74
479.446	817.04
479.903	784.14
480.36	812.04
480.817	872.44
481.274	973.74
481.731	1082.54
482.188	1182.44
482.645	1326.04
483.102	1427.14
483.558	1565.84
484.015	1616.74
484.472	1594.94
484.929	1545.94
485.385	1495.34
485.842	1477.84
486.299	1396.14
486.755	1313.74
487.212	1104.14
487.668	941.04
488.125	852.94
488.582	782.64
489.038	755.74
489.494	717.64
489.951	694.84
490.407	672.24
490.864	663.44
491.32	650.84
491.776	639.74
492.233	655.14
492.689	625.94
493.145	617.14
493.602	597.84
494.058	622.74
494.514	613.54
494.97	647.24
495.426	662.64
495.882	638.94
496.338	617.54
496.794	637.74
497.251	633.84
497.707	643.54
498.163	647.04
498.618	649.24
499.074	652.54
499.53	682.54
499.986	689.14
500.442	656.84
500.898	637.04
501.354	621.74
501.809	643.54
502.265	653.54
502.721	661.94
503.177	676.94
503.632	665.54
504.088	684.34
504.543	721.14
504.999	719.64
505.455	664.24
505.91	641.84
506.366	638.04
506.821	640.14
507.277	638.04
507.732	630.14
508.187	636.24
508.643	636.44
509.098	641.44
509.553	664.44
510.009	668.94
510.464	678.54
510.919	691.74
511.375	703.74
511.83	720.14
512.285	744.04
512.74	773.54
513.195	796.84
513.65	779.74
514.105	780.24
514.56	786.94
515.015	798.44
515.47	823.84
515.925	803.24
516.38	802.24
516.835	805.44
517.29	794.04
517.745	788.04
518.2	774.84
518.655	761.14
519.109	750.34
519.564	753.04
520.019	738.84
520.474	734.74
520.928	733.94
521.383	727.84
521.838	720.94
522.292	721.74
522.747	722.34
523.201	715.94
523.656	703.64
524.11	693.04
524.565	697.04
525.019	693.64
525.474	707.54
525.928	708.04
526.382	712.14
526.837	710.04
527.291	712.14
527.745	707.04
528.2	695.94
528.654	695.34
529.108	694.44
529.562	697.84
530.016	691.74
530.47	700.84
530.925	690.74
531.379	708.14
531.833	721.44
532.287	709.34
532.741	702.14
533.195	711.64
533.649	720.14
534.103	739.14
534.556	719.14
535.01	719.14
535.464	717.34
535.918	722.84
536.372	732.44
536.826	726.64
537.279	714.44
537.733	717.84
538.187	723.04
538.64	722.24
539.094	734.64
539.548	745.14
540.001	737.24
540.455	724.84
540.908	751.94
541.362	746.04
541.815	752.74
542.269	762.44
542.722	761.84
543.175	782.84
543.629	780.34
544.082	794.34
544.536	790.34
544.989	789.44
545.442	801.74
545.895	797.54
546.349	799.54
546.802	804.54
547.255	800.24
547.708	812.34
548.161	821.84
548.614	825.14
549.067	836.54
549.52	821.54
549.973	826.84
550.426	823.74
550.879	800.84
551.332	794.94
551.785	814.54
552.238	815.04
552.691	828.04
553.144	839.34
553.596	845.44
554.049	868.14
554.502	896.64
554.955	917.84
555.407	913.74
555.86	910.44
556.313	899.34
556.765	890.54
557.218	895.34
557.67	892.84
558.123	891.74
558.576	883.94
559.028	880.44
559.48	893.94
559.933	876.64
560.385	851.44
560.838	812.24
561.29	791.04
561.742	788.74
562.195	768.94
562.647	760.84
563.099	776.94
563.551	768.64
564.004	785.34
564.456	782.14
564.908	768.34
565.36	751.24
565.812	736.64
566.264	731.74
566.716	719.84
567.168	720.64
567.62	725.74
568.072	711.14
568.524	692.24
568.976	685.14
569.428	675.24
569.88	675.44
570.332	689.04
570.784	670.94
571.235	692.34
571.687	700.44
572.139	695.64
572.59	716.34
573.042	719.34
573.494	707.74
573.945	713.74
574.397	689.04
574.849	697.04
575.3	692.24
575.752	684.24
576.203	683.94
576.655	696.44
577.106	669.54
577.557	667.44
578.009	669.14
578.46	671.74
578.912	658.64
579.363	665.04
579.814	670.44
580.265	661.94
580.717	665.94
581.168	666.54
581.619	673.54
582.07	680.54
582.521	684.04
582.972	669.04
583.423	675.54
583.875	680.34
584.326	696.54
584.777	736.24
585.227	820.44
585.678	911.64
586.129	984.24
586.58	1058.84
587.031	1142.54
587.482	1307.44
587.933	1485.64
588.384	1295.14
588.834	964.34
589.285	809.44
589.736	776.94
590.186	766.14
590.637	769.04
591.088	749.34
591.538	737.84
591.989	720.54
592.439	726.04
592.89	724.84
593.34	713.24
593.791	709.74
594.241	704.84
594.692	710.24
595.142	695.04
595.593	694.04
596.043	707.74
596.493	709.54
596.943	713.04
597.394	721.14
597.844	712.24
598.294	731.64
598.744	753.34
599.195	772.84
599.645	811.44
600.095	844.24
600.545	902.04
600.995	951.34
601.445	1015.34
601.895	1075.44
602.345	1125.84
602.795	1110.74
603.245	1064.54
603.695	1005.64
604.145	938.84
604.594	914.74
605.044	849.54
605.494	802.34
605.944	748.54
606.393	739.14
606.843	731.94
607.293	723.34
607.743	724.94
608.192	742.94
608.642	752.24
609.091	757.24
609.541	763.64
609.99	762.04
610.44	761.34
610.889	716.64
611.339	691.54
611.788	672.24
612.238	692.84
612.687	707.84
613.136	710.74
613.586	727.14
614.035	726.34
614.484	748.94
614.933	757.64
615.383	737.84
615.832	730.84
616.281	711.54
616.73	684.14
617.179	660.24
617.628	641.84
618.077	635.24
618.526	624.34
618.975	609.84
619.424	604.74
619.873	605.64
620.322	616.04
620.771	605.94
621.22	598.44
621.669	586.74
622.118	576.64
622.567	576.24
623.015	564.04
623.464	562.44
623.913	554.84
624.361	552.14
624.81	551.34
625.259	547.34
625.707	556.04
626.156	564.14
626.604	564.04
627.053	550.24
627.501	557.74
627.95	563.74
628.398	568.64
628.847	562.64
629.295	561.04
629.744	568.14
630.192	572.04
630.64	558.34
631.089	557.64
631.537	563.94
631.985	573.84
632.433	587.64
632.881	595.34
633.33	643.44
633.778	618.04
634.226	561.84
634.674	562.74
635.122	567.54
635.57	586.64
636.018	618.84
636.466	574.04
636.914	548.64
637.362	556.84
637.81	571.54
638.258	574.44
638.705	574.74
639.153	597.94
639.601	600.74
640.049	634.34
640.497	658.94
640.944	685.64
641.392	628.24
641.84	603.34
642.287	575.94
642.735	563.54
643.182	567.84
643.63	564.44
644.078	560.24
644.525	584.54
644.973	591.64
645.42	597.94
645.867	604.54
646.315	626.64
646.762	654.84
647.21	677.74
647.657	702.94
648.104	738.34
648.551	763.24
648.999	822.44
649.446	893.74
649.893	992.84
650.34	1137.44
650.787	1364.04
651.234	1691.34
651.682	2195.94
652.129	3025.14
652.576	4346.54
653.023	6414.04
653.47	8823.14
653.917	11062.64
654.363	12842.64
654.81	14244.74
655.257	13561.84
655.704	8881.94
656.151	5221.94
656.598	3405.04
657.044	2407.74
657.491	1844.94
657.938	1467.64
658.385	1232.14
658.831	1071.54
659.278	944.74
659.724	840.44
660.171	781.24
660.618	716.54
661.064	677.04
661.511	661.44
661.957	653.34
662.404	629.84
662.85	640.74
663.296	599.34
663.743	550.74
664.189	530.34
664.635	521.44
665.082	516.74
665.528	515.44
665.974	499.14
666.42	503.34
666.867	497.04
667.313	481.24
667.759	474.14
668.205	469.24
668.651	470.84
669.097	470.04
669.543	480.84
669.989	458.54
670.435	431.74
670.881	435.24
671.327	435.64
671.773	459.24
672.219	477.04
672.665	523.34
673.11	565.34
673.556	613.24
674.002	651.84
674.448	635.04
674.893	536.24
675.339	466.54
675.785	421.24
676.23	401.74
676.676	386.54
677.122	379.44
677.567	364.44
678.013	356.94
678.458	349.54
678.904	343.44
679.349	341.74
679.794	340.14
680.24	342.54
680.685	331.54
681.131	339.84
681.576	343.74
682.021	341.74
682.466	332.24
682.912	343.64
683.357	343.04
683.802	369.24
684.247	405.44
684.692	446.34
685.137	477.44
685.583	517.44
686.028	549.44
686.473	499.24
686.918	426.54
687.363	407.74
687.807	388.74
688.252	348.54
688.697	339.54
689.142	324.64
689.587	317.64
690.032	316.94
690.477	330.14
690.921	343.04
691.366	370.44
691.811	392.34
692.255	417.64
692.7	450.74
693.145	484.34
693.589	676.54
694.034	1079.74
694.478	1469.74
694.923	1698.24
695.367	2214.84
695.812	1172.74
696.256	483.64
696.701	367.94
697.145	328.44
697.59	324.24
698.034	304.34
698.478	318.34
698.922	312.94
699.367	314.44
699.811	320.64
700.255	338.14
700.699	377.04
701.143	409.34
701.588	459.74
702.032	507.44
702.476	491.74
702.92	486.34
703.364	469.54
703.808	602.34
704.252	981.44
704.696	1391.54
705.14	1621.44
705.584	2073.14
706.027	1032.84
706.471	504.44
706.915	387.34
707.359	341.14
707.803	307.74
708.246	294.34
708.69	304.94
709.134	300.24
709.577	303.94
710.021	304.54
710.465	293.54
710.908	292.74
711.352	291.24
711.795	295.44
712.239	338.44
712.682	367.24
713.126	403.54
713.569	452.74
714.012	367.64
714.456	315.44
714.899	287.94
715.342	264.34
715.786	252.44
716.229	248.24
716.672	251.54
717.115	245.54
717.558	249.54
718.002	246.34
718.445	251.34
718.888	276.14
719.331	277.64
719.774	305.94
720.217	294.34
720.66	276.54
721.103	261.44
721.546	247.74
721.989	238.44
722.432	224.94
722.874	228.94
723.317	219.24
723.76	220.44
724.203	246.14
724.645	307.34
725.088	429.34
725.531	555.44
725.974	631.44
726.416	527.14
726.859	295.34
727.301	229.64
727.744	231.54
728.187	228.04
728.629	231.64
729.071	226.14
729.514	242.24
729.956	264.84
730.399	276.54
730.841	275.04
731.283	265.14
731.726	253.94
732.168	248.34
732.61	255.34
733.053	274.54
733.495	301.74
733.937	334.04
734.379	385.24
734.821	412.34
735.263	511.94
735.705	781.24
736.148	1497.74
736.59	2470.94
737.032	2977.74
737.474	2413.04
737.916	778.94
738.357	412.74
738.799	315.04
739.241	287.64
739.683	272.44
740.125	284.14
740.567	290.54
741.008	300.74
741.45	303.84
741.892	300.44
742.334	327.84
742.775	344.74
743.217	324.34
743.658	253.04
744.1	244.54
744.542	251.64
744.983	302.14
745.425	335.44
745.866	337.54
746.307	277.34
746.749	271.34
747.19	311.94
747.632	440.44
748.073	827.14
748.514	1755.24
748.956	2728.64
749.397	3433.54
749.838	2853.14
750.279	2868.14
750.72	1463.04
751.162	532.94
751.603	310.04
752.044	236.04
752.485	204.64
752.926	198.04
753.367	192.54
753.808	184.44
754.249	179.94
754.69	175.84
755.131	176.84
755.572	180.64
756.013	168.04
756.453	175.34
756.894	182.14
757.335	175.84
757.776	188.24
758.216	187.74
758.657	190.44
759.098	195.44
759.538	219.74
759.979	261.74
760.42	359.94
760.86	665.94
761.301	1705.54
761.741	4180.44
762.182	6246.34
