Data from 20171114-ORNL-Ar_H_NY_Subt18_08-06-50-215.txt Node
Date: Tue Nov 14 08:06:50 EST 2017
User: Ender
Spectrometer: HR+D1039
Trigger mode: 0
Integration Time (sec): 2.730000E-2
Scans to average: 10
Electric dark correction enabled: true
Nonlinearity correction enabled: false
Boxcar width: 0
XAxis mode: Wavelengths
Number of Pixels in Spectrum: 2048
>>>>>Begin Spectral Data<<<<<
187.836	-7.08
188.309	-7.08
188.782	-7.08
189.255	4.62
189.728	-2.38
190.201	-3.58
190.674	-0.48
191.147	1.82
191.619	-7.58
192.092	3.92
192.565	7.92
193.038	3.62
193.511	1.82
193.984	0.42
194.456	-4.08
194.929	4.22
195.402	0.82
195.874	-3.98
196.347	-0.78
196.82	-12.88
197.292	7.32
197.765	-4.48
198.237	-6.88
198.71	3.62
199.182	0.22
199.655	5.82
200.127	2.92
200.6	0.32
201.072	-0.68
201.544	-4.98
202.017	0.72
202.489	0.62
202.961	-3.18
203.433	2.12
203.906	-3.48
204.378	-13.18
204.85	1.52
205.322	-5.28
205.794	0.22
206.266	-9.28
206.739	-8.78
207.211	-1.98
207.683	-8.38
208.155	-6.98
208.627	0.52
209.099	-3.48
209.57	-7.78
210.042	-6.28
210.514	-7.38
210.986	-1.38
211.458	-13.08
211.93	-3.28
212.402	-2.28
212.873	-6.18
213.345	-7.68
213.817	-7.28
214.288	-1.08
214.76	-12.28
215.232	-4.48
215.703	-2.48
216.175	0.42
216.646	-8.48
217.118	-6.98
217.589	-3.18
218.061	-1.78
218.532	-5.68
219.004	1.92
219.475	-1.78
219.946	-6.08
220.418	-5.98
220.889	2.62
221.36	-2.08
221.832	-2.58
222.303	-6.68
222.774	-1.98
223.245	-10.88
223.717	-6.18
224.188	-2.88
224.659	-6.18
225.13	-2.98
225.601	1.52
226.072	3.32
226.543	-3.68
227.014	-2.88
227.485	-2.18
227.956	-5.18
228.427	-5.28
228.898	-0.78
229.369	-3.48
229.839	-1.38
230.31	-6.68
230.781	1.62
231.252	-0.48
231.722	-4.08
232.193	-8.28
232.664	-3.58
233.135	-1.18
233.605	0.82
234.076	-9.48
234.546	-2.58
235.017	1.82
235.487	-2.78
235.958	2.92
236.428	-6.78
236.899	0.42
237.369	-2.38
237.84	-6.28
238.31	0.42
238.78	-0.98
239.251	-8.68
239.721	-2.28
240.191	-0.98
240.662	4.02
241.132	-2.38
241.602	-6.28
242.072	-2.08
242.542	3.12
243.013	-4.68
243.483	-1.68
243.953	1.42
244.423	-5.18
244.893	-10.98
245.363	1.12
245.833	0.32
246.303	-4.08
246.773	3.32
247.243	-0.88
247.712	-6.08
248.182	0.42
248.652	1.62
249.122	-12.58
249.592	0.62
250.061	4.22
250.531	10.92
251.001	-2.88
251.471	6.82
251.94	6.42
252.41	-4.48
252.879	-5.68
253.349	12.12
253.818	6.02
254.288	-0.58
254.757	-3.68
255.227	-7.68
255.696	-4.98
256.166	1.62
256.635	4.52
257.105	3.12
257.574	-0.98
258.043	6.92
258.513	-2.08
258.982	-0.18
259.451	-8.28
259.92	0.42
260.389	3.82
260.859	10.02
261.328	2.32
261.797	2.62
262.266	0.02
262.735	4.22
263.204	-0.58
263.673	-1.68
264.142	9.02
264.611	-1.28
265.08	3.42
265.549	-3.58
266.018	0.32
266.487	-0.18
266.955	-3.38
267.424	2.22
267.893	4.22
268.362	-2.48
268.83	-0.88
269.299	11.12
269.768	5.42
270.236	3.32
270.705	-0.58
271.174	3.62
271.642	4.52
272.111	5.52
272.579	8.02
273.048	1.42
273.516	4.82
273.985	6.72
274.453	9.72
274.922	7.72
275.39	7.92
275.858	-0.28
276.327	5.82
276.795	19.52
277.263	-1.48
277.731	8.62
278.2	6.72
278.668	10.32
279.136	7.92
279.604	-0.18
280.072	11.22
280.54	5.82
281.008	4.22
281.477	17.02
281.945	9.62
282.413	8.82
282.881	15.62
283.348	4.92
283.816	12.92
284.284	15.02
284.752	21.32
285.22	12.42
285.688	10.62
286.156	15.32
286.623	19.12
287.091	9.12
287.559	8.02
288.026	12.52
288.494	19.32
288.962	3.82
289.429	4.72
289.897	15.22
290.364	10.32
290.832	13.32
291.3	12.52
291.767	16.42
292.234	21.72
292.702	11.02
293.169	12.32
293.637	16.52
294.104	21.52
294.571	8.22
295.039	11.12
295.506	9.92
295.973	19.62
296.44	12.12
296.908	17.12
297.375	13.92
297.842	16.32
298.309	9.12
298.776	15.72
299.243	21.62
299.71	14.32
300.177	20.12
300.644	21.02
301.111	19.32
301.578	17.22
302.045	20.52
302.512	21.32
302.979	23.72
303.446	18.82
303.913	17.32
304.379	17.42
304.846	17.92
305.313	23.02
305.78	25.52
306.246	26.22
306.713	18.92
307.18	27.72
307.646	23.12
308.113	19.72
308.579	20.22
309.046	22.32
309.512	24.02
309.979	13.72
310.445	31.02
310.912	28.42
311.378	34.62
311.845	20.52
312.311	29.62
312.777	34.52
313.244	24.32
313.71	35.22
314.176	24.92
314.642	27.82
315.109	24.82
315.575	31.72
316.041	30.12
316.507	25.22
316.973	34.22
317.439	31.72
317.905	30.12
318.371	28.42
318.837	29.62
319.303	27.82
319.769	32.12
320.235	28.52
320.701	28.72
321.167	35.32
321.633	31.72
322.099	35.12
322.564	41.02
323.03	36.32
323.496	34.52
323.962	45.02
324.427	32.12
324.893	40.32
325.359	32.22
325.824	35.92
326.29	32.42
326.755	34.72
327.221	37.12
327.686	42.32
328.152	45.82
328.617	41.42
329.083	42.02
329.548	48.02
330.014	43.52
330.479	38.82
330.944	42.42
331.41	44.12
331.875	45.72
332.34	41.02
332.805	37.22
333.271	34.82
333.736	42.92
334.201	52.62
334.666	45.72
335.131	50.12
335.596	46.02
336.061	49.42
336.526	34.42
336.991	40.42
337.456	54.82
337.921	48.12
338.386	41.62
338.851	42.62
339.316	42.02
339.781	49.02
340.246	50.52
340.711	47.72
341.175	52.12
341.64	43.02
342.105	45.02
342.569	52.82
343.034	53.32
343.499	50.52
343.963	49.92
344.428	57.72
344.893	59.52
345.357	57.12
345.822	57.12
346.286	63.32
346.751	69.22
347.215	68.82
347.679	72.12
348.144	86.22
348.608	79.22
349.073	76.12
349.537	71.22
350.001	78.52
350.465	81.82
350.93	78.12
351.394	82.22
351.858	74.42
352.322	84.32
352.786	77.32
353.25	94.12
353.715	101.42
354.179	89.72
354.643	111.12
355.107	115.62
355.571	96.32
356.035	98.62
356.498	106.32
356.962	109.22
357.426	114.92
357.89	105.82
358.354	86.62
358.818	76.02
359.281	77.22
359.745	72.32
360.209	69.52
360.673	74.32
361.136	78.42
361.6	84.72
362.064	82.62
362.527	81.12
362.991	86.62
363.454	84.92
363.918	75.12
364.381	73.52
364.845	87.02
365.308	80.92
365.772	87.12
366.235	83.52
366.698	91.62
367.162	83.22
367.625	88.52
368.088	84.82
368.552	84.32
369.015	86.92
369.478	93.42
369.941	95.72
370.404	92.42
370.867	97.42
371.331	102.02
371.794	111.32
372.257	91.32
372.72	100.52
373.183	100.52
373.646	88.92
374.109	97.02
374.572	95.22
375.035	97.32
375.497	105.02
375.96	100.22
376.423	107.42
376.886	113.82
377.349	107.22
377.811	104.82
378.274	100.32
378.737	101.82
379.199	107.52
379.662	104.62
380.125	109.22
380.587	103.02
381.05	108.42
381.512	115.92
381.975	123.62
382.437	114.72
382.9	120.02
383.362	119.12
383.825	129.82
384.287	123.02
384.75	119.72
385.212	131.12
385.674	123.62
386.136	130.42
386.599	124.72
387.061	122.92
387.523	119.82
387.985	126.62
388.447	131.82
388.91	126.32
389.372	125.72
389.834	131.02
390.296	127.52
390.758	132.22
391.22	137.72
391.682	143.32
392.144	147.92
392.606	146.62
393.068	138.72
393.529	149.22
393.991	140.92
394.453	135.82
394.915	138.32
395.377	139.42
395.838	133.82
396.3	129.92
396.762	143.02
397.224	131.12
397.685	137.52
398.147	137.02
398.608	132.12
399.07	135.62
399.531	140.92
399.993	147.92
400.454	154.42
400.916	154.92
401.377	151.92
401.839	155.72
402.3	153.32
402.762	171.22
403.223	181.22
403.684	169.42
404.145	165.02
404.607	162.62
405.068	160.82
405.529	170.22
405.99	184.02
406.451	174.72
406.913	177.32
407.374	165.82
407.835	164.22
408.296	170.12
408.757	170.72
409.218	185.32
409.679	180.42
410.14	179.52
410.601	178.12
411.062	184.72
411.522	182.92
411.983	183.32
412.444	168.82
412.905	186.52
413.366	193.92
413.826	202.32
414.287	230.62
414.748	279.32
415.208	262.22
415.669	224.32
416.13	213.12
416.59	219.02
417.051	225.32
417.511	230.32
417.972	246.92
418.432	260.22
418.893	306.62
419.353	267.52
419.814	200.92
420.274	190.32
420.734	197.72
421.195	199.32
421.655	196.52
422.115	205.72
422.576	205.02
423.036	213.52
423.496	212.62
423.956	226.72
424.416	240.02
424.876	280.32
425.336	271.92
425.797	276.52
426.257	267.12
426.717	242.52
427.177	240.02
427.637	229.32
428.097	244.02
428.556	255.62
429.016	277.02
429.476	258.52
429.936	280.22
430.396	276.82
430.856	292.02
431.315	318.02
431.775	347.12
432.235	381.32
432.694	349.92
433.154	359.02
433.614	389.92
434.073	339.02
434.533	292.52
434.993	278.02
435.452	287.22
435.912	299.42
436.371	299.02
436.83	280.92
437.29	270.92
437.749	255.32
438.209	255.52
438.668	281.02
439.127	298.52
439.587	274.32
440.046	263.12
440.505	274.12
440.964	288.82
441.424	335.02
441.883	322.92
442.342	273.52
442.801	235.92
443.26	232.92
443.719	227.42
444.178	234.82
444.637	220.32
445.096	233.72
445.555	243.22
446.014	234.72
446.473	241.22
446.932	246.32
447.391	239.52
447.849	238.72
448.308	234.02
448.767	235.42
449.226	254.72
449.685	243.42
450.143	269.02
450.602	256.22
451.061	250.82
451.519	250.22
451.978	246.62
452.436	252.32
452.895	262.42
453.353	266.22
453.812	256.02
454.27	254.22
454.729	250.72
455.187	254.42
455.646	263.12
456.104	260.62
456.562	278.32
457.021	280.82
457.479	278.02
457.937	288.22
458.395	281.92
458.854	259.82
459.312	270.12
459.77	290.52
460.228	274.82
460.686	258.52
461.144	270.52
461.602	264.42
462.06	263.82
462.518	273.62
462.976	273.02
463.434	282.42
463.892	288.02
464.35	296.32
464.808	304.82
465.266	284.42
465.724	288.52
466.181	293.22
466.639	293.82
467.097	310.02
467.555	323.12
468.012	326.42
468.47	327.82
468.928	346.72
469.385	364.52
469.843	376.62
470.3	368.42
470.758	391.12
471.215	411.82
471.673	426.42
472.13	424.92
472.588	444.12
473.045	400.02
473.503	401.22
473.96	424.52
474.417	427.72
474.875	453.32
475.332	498.22
475.789	489.22
476.246	492.72
476.704	520.02
477.161	541.72
477.618	550.72
478.075	590.42
478.532	638.62
478.989	714.22
479.446	829.12
479.903	795.62
480.36	812.22
480.817	869.52
481.274	963.62
481.731	1054.62
482.188	1138.32
482.645	1255.02
483.102	1351.82
483.558	1472.52
484.015	1519.82
484.472	1504.62
484.929	1455.52
485.385	1404.12
485.842	1386.52
486.299	1328.72
486.755	1276.12
487.212	1087.02
487.668	934.82
488.125	870.12
488.582	803.52
489.038	772.42
489.494	746.02
489.951	716.12
490.407	703.92
490.864	674.22
491.32	671.32
491.776	671.72
492.233	680.02
492.689	646.62
493.145	642.32
493.602	639.92
494.058	658.62
494.514	653.42
494.97	672.52
495.426	687.42
495.882	665.62
496.338	644.32
496.794	651.72
497.251	664.52
497.707	673.22
498.163	669.42
498.618	685.52
499.074	683.02
499.53	711.72
499.986	715.42
500.442	685.72
500.898	657.82
501.354	644.82
501.809	656.32
502.265	664.62
502.721	671.82
503.177	672.72
503.632	685.82
504.088	687.22
504.543	713.32
504.999	725.62
505.455	705.12
505.91	681.22
506.366	673.72
506.821	681.72
507.277	673.22
507.732	672.62
508.187	684.92
508.643	683.22
509.098	688.12
509.553	704.92
510.009	711.42
510.464	719.02
510.919	745.02
511.375	750.52
511.83	763.22
512.285	770.12
512.74	814.82
513.195	842.32
513.65	823.62
514.105	808.42
514.56	825.72
515.015	842.62
515.47	850.32
515.925	832.22
516.38	837.52
516.835	847.42
517.29	840.02
517.745	834.02
518.2	813.42
518.655	796.72
519.109	793.32
519.564	782.22
520.019	776.02
520.474	771.22
520.928	778.22
521.383	763.92
521.838	756.72
522.292	759.32
522.747	776.42
523.201	753.02
523.656	746.02
524.11	742.72
524.565	733.92
525.019	738.02
525.474	748.82
525.928	738.02
526.382	748.22
526.837	747.52
527.291	758.52
527.745	756.02
528.2	748.52
528.654	736.22
529.108	733.12
529.562	734.92
530.016	736.92
530.47	735.82
530.925	737.72
531.379	737.62
531.833	751.72
532.287	744.22
532.741	753.12
533.195	759.52
533.649	761.22
534.103	764.12
534.556	763.82
535.01	755.02
535.464	756.82
535.918	760.42
536.372	765.02
536.826	756.92
537.279	756.12
537.733	760.22
538.187	766.82
538.64	766.02
539.094	776.62
539.548	774.12
540.001	762.02
540.455	766.92
540.908	790.52
541.362	791.02
541.815	797.82
542.269	819.22
542.722	821.22
543.175	826.22
543.629	824.42
544.082	833.12
544.536	847.62
544.989	844.92
545.442	844.52
545.895	850.42
546.349	848.02
546.802	847.12
547.255	861.62
547.708	863.82
548.161	876.52
548.614	878.82
549.067	885.12
549.52	883.62
549.973	873.32
550.426	867.02
550.879	860.92
551.332	863.82
551.785	863.52
552.238	871.82
552.691	880.22
553.144	897.22
553.596	922.82
554.049	928.72
554.502	963.02
554.955	975.42
555.407	972.32
555.86	959.92
556.313	958.72
556.765	942.12
557.218	943.62
557.67	940.02
558.123	934.32
558.576	925.92
559.028	948.82
559.48	950.02
559.933	933.92
560.385	894.82
560.838	870.92
561.29	855.02
561.742	841.02
562.195	828.92
562.647	823.22
563.099	827.42
563.551	826.42
564.004	844.42
564.456	831.52
564.908	813.92
565.36	796.72
565.812	779.62
566.264	781.22
566.716	769.12
567.168	757.02
567.62	758.02
568.072	743.72
568.524	753.62
568.976	732.52
569.428	731.42
569.88	714.02
570.332	732.12
570.784	738.62
571.235	729.92
571.687	742.62
572.139	751.82
572.59	760.42
573.042	762.82
573.494	755.92
573.945	757.72
574.397	726.02
574.849	739.32
575.3	735.82
575.752	735.12
576.203	730.82
576.655	737.22
577.106	715.22
577.557	716.42
578.009	712.82
578.46	712.82
578.912	712.72
579.363	719.82
579.814	722.72
580.265	710.72
580.717	720.62
581.168	722.22
581.619	730.72
582.07	734.92
582.521	717.52
582.972	713.52
583.423	723.92
583.875	729.62
584.326	732.62
584.777	750.42
585.227	767.02
585.678	779.22
586.129	792.62
586.58	815.62
587.031	835.72
587.482	866.72
587.933	890.42
588.384	861.92
588.834	839.22
589.285	822.92
589.736	820.92
590.186	818.02
590.637	806.42
591.088	794.62
591.538	783.72
591.989	776.42
592.439	772.62
592.89	767.32
593.34	753.62
593.791	753.82
594.241	736.12
594.692	751.82
595.142	737.12
595.593	733.52
596.043	740.42
596.493	759.22
596.943	745.92
597.394	769.32
597.844	762.32
598.294	778.92
598.744	809.92
599.195	823.82
599.645	869.82
600.095	917.02
600.545	972.62
600.995	1017.42
601.445	1089.52
601.895	1162.12
602.345	1191.82
602.795	1189.32
603.245	1138.12
603.695	1076.92
604.145	1023.12
604.594	976.02
605.044	921.62
605.494	841.92
605.944	809.72
606.393	797.02
606.843	768.52
607.293	774.02
607.743	763.82
608.192	782.92
608.642	795.22
609.091	803.62
609.541	800.72
609.99	805.02
610.44	799.82
610.889	765.42
611.339	743.42
611.788	726.12
612.238	732.42
612.687	747.32
613.136	735.72
613.586	752.72
614.035	737.62
614.484	751.52
614.933	744.62
615.383	751.42
615.832	738.52
616.281	739.22
616.73	707.42
617.179	690.32
617.628	682.52
618.077	671.22
618.526	661.12
618.975	654.32
619.424	647.92
619.873	649.02
620.322	643.72
620.771	639.02
621.22	634.32
621.669	624.42
622.118	619.62
622.567	622.32
623.015	606.32
623.464	600.82
623.913	595.92
624.361	593.52
624.81	582.62
625.259	581.32
625.707	589.52
626.156	594.22
626.604	599.62
627.053	601.92
627.501	600.42
627.95	603.32
628.398	616.32
628.847	604.02
629.295	599.72
629.744	604.52
630.192	600.62
630.64	588.22
631.089	581.52
631.537	570.92
631.985	562.02
632.433	563.02
632.881	553.12
633.33	555.22
633.778	542.12
634.226	554.52
634.674	571.62
635.122	561.42
635.57	583.12
636.018	598.32
636.466	590.92
636.914	588.02
637.362	598.12
637.81	605.12
638.258	612.82
638.705	614.82
639.153	644.22
639.601	658.52
640.049	677.62
640.497	718.62
640.944	730.02
641.392	685.12
641.84	643.82
642.287	616.72
642.735	596.82
643.182	589.42
643.63	584.62
644.078	580.32
644.525	604.82
644.973	617.12
645.42	627.02
645.867	649.72
646.315	653.42
646.762	681.52
647.21	709.82
647.657	736.42
648.104	767.52
648.551	787.22
648.999	853.72
649.446	925.42
649.893	1013.72
650.34	1150.22
650.787	1360.72
651.234	1685.12
651.682	2163.32
652.129	2922.22
652.576	4162.32
653.023	6059.52
653.47	8184.32
653.917	10158.12
654.363	11680.92
654.81	12939.52
655.257	12296.62
655.704	8103.92
656.151	4924.52
656.598	3232.52
657.044	2325.02
657.491	1814.72
657.938	1450.32
658.385	1228.12
658.831	1073.52
659.278	967.82
659.724	865.32
660.171	802.42
660.618	733.72
661.064	701.72
661.511	680.62
661.957	670.32
662.404	666.82
662.85	666.52
663.296	633.72
663.743	584.92
664.189	559.12
664.635	552.62
665.082	549.62
665.528	545.72
665.974	539.12
666.42	536.02
666.867	531.72
667.313	510.12
667.759	491.52
668.205	472.92
668.651	475.32
669.097	469.92
669.543	468.62
669.989	467.62
670.435	474.22
670.881	458.92
671.327	467.22
671.773	499.02
672.219	527.92
672.665	566.62
673.11	618.42
673.556	668.02
674.002	703.92
674.448	692.32
674.893	584.12
675.339	505.72
675.785	469.92
676.23	444.82
676.676	419.12
677.122	408.02
677.567	400.92
678.013	385.52
678.458	374.82
678.904	376.52
679.349	378.32
679.794	377.02
680.24	370.12
680.685	374.72
681.131	372.42
681.576	372.42
682.021	369.82
682.466	362.92
682.912	370.52
683.357	373.32
683.802	405.22
684.247	435.02
684.692	477.62
685.137	527.42
685.583	568.42
686.028	589.52
686.473	542.42
686.918	478.32
687.363	434.32
687.807	415.02
688.252	384.92
688.697	375.72
689.142	352.02
689.587	355.42
690.032	337.42
690.477	359.92
690.921	372.32
691.366	408.02
691.811	420.52
692.255	458.12
692.7	483.42
693.145	539.52
693.589	743.82
694.034	1212.92
694.478	1645.82
694.923	1843.62
695.367	2418.82
695.812	1283.12
696.256	534.92
696.701	392.12
697.145	358.42
697.59	356.82
698.034	344.12
698.478	345.32
698.922	345.32
699.367	346.72
699.811	354.62
700.255	375.12
700.699	397.52
701.143	445.82
701.588	495.82
702.032	544.62
702.476	544.32
702.92	521.42
703.364	524.52
703.808	682.02
704.252	1110.02
704.696	1552.12
705.14	1782.72
705.584	2263.72
706.027	1124.42
706.471	553.12
706.915	428.32
707.359	374.42
707.803	337.92
708.246	327.02
708.69	325.52
709.134	329.12
709.577	334.52
710.021	344.62
710.465	330.22
710.908	317.32
711.352	316.12
711.795	330.52
712.239	383.22
712.682	408.92
713.126	435.72
713.569	482.12
714.012	378.82
714.456	318.82
714.899	310.02
715.342	281.12
715.786	270.52
716.229	278.92
716.672	268.62
717.115	266.72
717.558	262.42
718.002	265.02
718.445	275.62
718.888	295.72
719.331	305.22
719.774	316.52
720.217	321.12
720.66	296.12
721.103	278.72
721.546	265.82
721.989	265.82
722.432	241.22
722.874	248.82
723.317	241.02
723.76	250.52
724.203	272.52
724.645	332.62
725.088	472.72
725.531	605.22
725.974	675.72
726.416	580.42
726.859	325.52
727.301	262.32
727.744	246.72
728.187	242.22
728.629	250.22
729.071	257.92
729.514	275.32
729.956	282.02
730.399	299.02
730.841	299.02
731.283	286.02
731.726	280.92
732.168	279.12
732.61	282.72
733.053	299.02
733.495	332.52
733.937	381.72
734.379	428.22
734.821	470.32
735.263	577.52
735.705	896.82
736.148	1683.42
736.59	2766.32
737.032	3258.52
737.474	2646.22
737.916	867.22
738.357	457.02
738.799	346.12
739.241	321.22
739.683	293.32
740.125	305.92
740.567	313.32
741.008	329.82
741.45	328.92
741.892	332.42
742.334	374.32
742.775	388.72
743.217	373.32
743.658	295.52
744.1	269.22
744.542	274.72
744.983	338.02
745.425	370.82
745.866	372.62
746.307	292.22
746.749	288.12
747.19	337.22
747.632	493.62
748.073	941.42
748.514	1989.52
748.956	3050.42
749.397	3823.42
749.838	3160.62
750.279	3142.32
750.72	1594.52
751.162	591.02
751.603	344.02
752.044	263.42
752.485	235.82
752.926	220.12
753.367	209.82
753.808	204.42
754.249	201.42
754.69	196.52
755.131	195.82
755.572	192.22
756.013	190.32
756.453	192.22
756.894	199.62
757.335	195.02
757.776	204.72
758.216	203.02
758.657	203.62
759.098	212.02
759.538	244.92
759.979	284.62
760.42	398.92
760.86	754.02
761.301	1965.22
761.741	4753.02
762.182	6850.42
762.622	4813.82
