Data from 20171114-ORNL-Ar_H_NY_Subt18_08-05-36-512.txt Node
Date: Tue Nov 14 08:05:36 EST 2017
User: Ender
Spectrometer: HR+D1039
Trigger mode: 0
Integration Time (sec): 2.730000E-2
Scans to average: 10
Electric dark correction enabled: true
Nonlinearity correction enabled: false
Boxcar width: 0
XAxis mode: Wavelengths
Number of Pixels in Spectrum: 2048
>>>>>Begin Spectral Data<<<<<
187.836	-4.26
188.309	-4.26
188.782	-4.26
189.255	-2.06
189.728	2.64
190.201	5.94
190.674	1.74
191.147	-0.46
191.619	-1.86
192.092	1.64
192.565	-0.16
193.038	-5.06
193.511	-3.66
193.984	9.84
194.456	-5.06
194.929	1.84
195.402	-2.26
195.874	1.24
196.347	-1.86
196.82	-5.76
197.292	5.54
197.765	-3.06
198.237	-8.66
198.71	0.04
199.182	-2.16
199.655	2.64
200.127	3.24
200.6	-4.16
201.072	-2.66
201.544	-8.96
202.017	-3.46
202.489	3.24
202.961	3.64
203.433	-5.16
203.906	-7.56
204.378	-10.16
204.85	-0.66
205.322	-8.26
205.794	1.54
206.266	2.54
206.739	-7.06
207.211	0.04
207.683	-5.86
208.155	-9.86
208.627	-3.36
209.099	-4.06
209.57	-4.96
210.042	-2.56
210.514	-0.66
210.986	-1.96
211.458	-1.96
211.93	-2.76
212.402	2.44
212.873	-4.76
213.345	-10.26
213.817	-14.66
214.288	-5.76
214.76	-9.46
215.232	-1.26
215.703	-0.76
216.175	-1.56
216.646	-7.36
217.118	-8.76
217.589	-3.46
218.061	0.64
218.532	-3.36
219.004	1.34
219.475	2.34
219.946	-1.06
220.418	0.64
220.889	5.54
221.36	4.04
221.832	-7.26
222.303	0.94
222.774	-3.06
223.245	-8.46
223.717	-4.76
224.188	2.14
224.659	-5.86
225.13	-1.16
225.601	-5.26
226.072	0.74
226.543	1.34
227.014	2.54
227.485	-0.16
227.956	-6.16
228.427	-2.36
228.898	-0.26
229.369	6.74
229.839	2.84
230.31	-8.46
230.781	4.84
231.252	0.34
231.722	2.34
232.193	-4.46
232.664	3.04
233.135	6.64
233.605	3.34
234.076	-2.66
234.546	2.94
235.017	5.24
235.487	-4.56
235.958	3.64
236.428	0.84
236.899	7.24
237.369	4.94
237.84	0.54
238.31	8.24
238.78	3.54
239.251	2.84
239.721	-2.46
240.191	2.44
240.662	-1.46
241.132	-0.86
241.602	-3.96
242.072	6.84
242.542	12.44
243.013	2.64
243.483	7.44
243.953	5.74
244.423	4.14
244.893	-0.06
245.363	3.24
245.833	4.64
246.303	1.64
246.773	6.84
247.243	8.24
247.712	10.34
248.182	12.34
248.652	7.84
249.122	2.54
249.592	11.24
250.061	23.94
250.531	34.74
251.001	15.44
251.471	22.54
251.94	24.34
252.41	10.94
252.879	7.54
253.349	15.14
253.818	10.34
254.288	2.44
254.757	6.94
255.227	5.84
255.696	2.04
256.166	7.94
256.635	7.54
257.105	9.34
257.574	4.44
258.043	6.84
258.513	11.14
258.982	19.54
259.451	7.24
259.92	21.34
260.389	15.44
260.859	22.24
261.328	18.74
261.797	17.54
262.266	15.64
262.735	10.34
263.204	7.24
263.673	3.04
264.142	6.04
264.611	2.64
265.08	-2.56
265.549	1.54
266.018	5.14
266.487	6.74
266.955	-2.26
267.424	-0.56
267.893	16.24
268.362	4.94
268.83	6.84
269.299	14.54
269.768	8.34
270.236	13.34
270.705	7.04
271.174	9.44
271.642	10.44
272.111	13.74
272.579	18.84
273.048	30.14
273.516	31.34
273.985	31.64
274.453	27.64
274.922	23.94
275.39	14.34
275.858	5.64
276.327	10.84
276.795	17.84
277.263	10.04
277.731	33.74
278.2	59.44
278.668	63.64
279.136	50.24
279.604	18.44
280.072	16.34
280.54	13.84
281.008	9.94
281.477	16.44
281.945	12.34
282.413	17.04
282.881	15.64
283.348	12.54
283.816	19.94
284.284	17.44
284.752	22.94
285.22	18.04
285.688	19.54
286.156	19.74
286.623	46.14
287.091	54.94
287.559	32.74
288.026	16.94
288.494	18.64
288.962	13.04
289.429	14.24
289.897	21.74
290.364	18.54
290.832	21.34
291.3	20.24
291.767	22.64
292.234	23.84
292.702	12.84
293.169	20.64
293.637	28.44
294.104	28.64
294.571	9.74
295.039	14.04
295.506	16.64
295.973	23.24
296.44	17.04
296.908	22.54
297.375	24.54
297.842	12.84
298.309	22.74
298.776	15.84
299.243	26.74
299.71	18.64
300.177	27.54
300.644	24.14
301.111	24.04
301.578	26.14
302.045	12.74
302.512	26.34
302.979	25.34
303.446	24.64
303.913	18.34
304.379	21.74
304.846	30.94
305.313	28.04
305.78	22.04
306.246	33.14
306.713	27.44
307.18	30.54
307.646	27.74
308.113	34.04
308.579	26.14
309.046	27.04
309.512	21.24
309.979	22.44
310.445	31.94
310.912	31.34
311.378	34.34
311.845	38.14
312.311	31.24
312.777	33.94
313.244	34.14
313.71	42.54
314.176	36.34
314.642	34.74
315.109	38.94
315.575	41.54
316.041	40.94
316.507	35.94
316.973	46.64
317.439	35.34
317.905	39.64
318.371	40.14
318.837	40.34
319.303	39.54
319.769	43.94
320.235	32.64
320.701	39.14
321.167	41.14
321.633	36.74
322.099	37.84
322.564	44.94
323.03	39.54
323.496	37.74
323.962	45.64
324.427	38.44
324.893	38.54
325.359	44.14
325.824	40.54
326.29	37.24
326.755	43.14
327.221	50.94
327.686	46.94
328.152	51.04
328.617	46.94
329.083	48.14
329.548	52.34
330.014	50.54
330.479	46.44
330.944	49.04
331.41	43.04
331.875	46.34
332.34	44.34
332.805	39.74
333.271	48.94
333.736	47.74
334.201	53.84
334.666	59.84
335.131	50.24
335.596	52.64
336.061	55.04
336.526	44.04
336.991	51.04
337.456	65.24
337.921	54.74
338.386	47.04
338.851	49.34
339.316	49.94
339.781	51.14
340.246	55.64
340.711	52.64
341.175	53.24
341.64	48.94
342.105	55.14
342.569	56.44
343.034	67.54
343.499	57.64
343.963	59.54
344.428	66.14
344.893	67.44
345.357	67.44
345.822	57.64
346.286	68.04
346.751	72.44
347.215	71.54
347.679	82.24
348.144	106.64
348.608	87.34
349.073	79.34
349.537	77.34
350.001	77.94
350.465	91.54
350.93	83.14
351.394	90.94
351.858	73.44
352.322	87.84
352.786	84.44
353.25	105.94
353.715	110.64
354.179	104.14
354.643	120.54
355.107	123.64
355.571	107.14
356.035	106.54
356.498	120.04
356.962	125.74
357.426	140.24
357.89	124.04
358.354	97.84
358.818	86.94
359.281	79.94
359.745	86.24
360.209	78.64
360.673	76.44
361.136	81.64
361.6	87.34
362.064	82.34
362.527	89.24
362.991	94.04
363.454	80.74
363.918	81.14
364.381	84.94
364.845	87.84
365.308	85.34
365.772	94.04
366.235	80.84
366.698	84.64
367.162	90.74
367.625	94.14
368.088	89.34
368.552	88.34
369.015	93.64
369.478	101.54
369.941	105.54
370.404	97.54
370.867	114.34
371.331	107.14
371.794	116.34
372.257	111.84
372.72	119.34
373.183	115.74
373.646	103.44
374.109	106.34
374.572	108.64
375.035	110.54
375.497	114.14
375.96	110.34
376.423	112.74
376.886	111.54
377.349	122.04
377.811	105.24
378.274	112.34
378.737	110.14
379.199	114.64
379.662	120.44
380.125	122.44
380.587	126.54
381.05	122.34
381.512	133.04
381.975	138.74
382.437	136.54
382.9	128.44
383.362	140.74
383.825	142.74
384.287	147.44
384.75	146.64
385.212	146.64
385.674	147.54
386.136	140.34
386.599	129.84
387.061	132.54
387.523	132.54
387.985	134.64
388.447	148.64
388.91	150.74
389.372	160.14
389.834	154.24
390.296	146.44
390.758	159.44
391.22	175.24
391.682	213.64
392.144	296.34
392.606	227.74
393.068	169.84
393.529	169.04
393.991	159.94
394.453	150.84
394.915	164.04
395.377	199.84
395.838	216.04
396.3	154.14
396.762	141.84
397.224	138.64
397.685	131.84
398.147	134.54
398.608	131.04
399.07	127.14
399.531	136.44
399.993	139.04
400.454	153.04
400.916	145.94
401.377	145.94
401.839	152.34
402.3	155.94
402.762	171.44
403.223	185.24
403.684	173.14
404.145	169.94
404.607	160.94
405.068	175.34
405.529	174.04
405.99	191.84
406.451	186.24
406.913	175.64
407.374	163.64
407.835	163.04
408.296	164.74
408.757	179.14
409.218	190.74
409.679	190.54
410.14	182.54
410.601	176.74
411.062	186.14
411.522	192.74
411.983	189.24
412.444	186.24
412.905	183.64
413.366	186.34
413.826	193.44
414.287	218.84
414.748	257.14
415.208	246.84
415.669	216.04
416.13	208.04
416.59	208.24
417.051	216.04
417.511	223.84
417.972	240.94
418.432	241.84
418.893	293.74
419.353	254.34
419.814	205.44
420.274	182.74
420.734	186.84
421.195	198.84
421.655	198.74
422.115	193.34
422.576	193.14
423.036	199.74
423.496	203.74
423.956	217.84
424.416	228.14
424.876	263.14
425.336	265.44
425.797	264.84
426.257	257.64
426.717	243.94
427.177	234.04
427.637	223.94
428.097	242.24
428.556	237.24
429.016	275.94
429.476	265.24
429.936	279.44
430.396	288.84
430.856	299.24
431.315	321.04
431.775	353.64
432.235	389.04
432.694	359.64
433.154	370.84
433.614	405.94
434.073	340.24
434.533	293.54
434.993	274.64
435.452	284.74
435.912	301.34
436.371	293.34
436.83	283.14
437.29	278.14
437.749	249.24
438.209	249.54
438.668	276.04
439.127	296.54
439.587	271.74
440.046	257.14
440.505	264.24
440.964	285.24
441.424	322.24
441.883	317.74
442.342	263.24
442.801	227.24
443.26	218.84
443.719	225.94
444.178	219.94
444.637	219.94
445.096	219.74
445.555	232.54
446.014	222.34
446.473	223.34
446.932	234.64
447.391	222.24
447.849	222.94
448.308	218.54
448.767	225.14
449.226	240.84
449.685	237.54
450.143	252.44
450.602	241.84
451.061	227.84
451.519	233.54
451.978	231.14
452.436	242.74
452.895	241.64
453.353	257.14
453.812	251.44
454.27	240.04
454.729	241.64
455.187	241.24
455.646	243.64
456.104	248.14
456.562	262.04
457.021	271.64
457.479	254.34
457.937	281.34
458.395	260.04
458.854	250.54
459.312	259.94
459.77	282.14
460.228	261.54
460.686	248.34
461.144	249.74
461.602	238.74
462.06	242.94
462.518	254.84
462.976	257.34
463.434	256.34
463.892	271.64
464.35	280.84
464.808	296.94
465.266	271.54
465.724	270.34
466.181	272.24
466.639	275.34
467.097	294.34
467.555	307.24
468.012	308.34
468.47	313.54
468.928	335.94
469.385	342.24
469.843	347.74
470.3	354.64
470.758	367.14
471.215	389.24
471.673	412.04
472.13	410.44
472.588	423.84
473.045	376.54
473.503	383.24
473.96	393.14
474.417	413.44
474.875	438.24
475.332	477.34
475.789	473.44
476.246	475.84
476.704	496.44
477.161	515.84
477.618	527.54
478.075	564.64
478.532	625.64
478.989	706.94
479.446	821.14
479.903	775.24
480.36	823.44
480.817	880.74
481.274	978.54
481.731	1088.24
482.188	1191.44
482.645	1321.94
483.102	1435.14
483.558	1568.94
484.015	1628.64
484.472	1586.94
484.929	1550.54
485.385	1496.14
485.842	1453.34
486.299	1383.34
486.755	1323.44
487.212	1100.34
487.668	928.94
488.125	862.14
488.582	792.84
489.038	753.14
489.494	723.64
489.951	698.14
490.407	678.64
490.864	655.74
491.32	653.84
491.776	648.84
492.233	651.44
492.689	615.14
493.145	617.94
493.602	610.04
494.058	620.54
494.514	627.04
494.97	644.84
495.426	652.54
495.882	643.64
496.338	626.64
496.794	639.84
497.251	623.74
497.707	644.84
498.163	650.84
498.618	652.34
499.074	658.54
499.53	685.94
499.986	673.94
500.442	656.54
500.898	631.64
501.354	627.64
501.809	636.94
502.265	645.84
502.721	673.64
503.177	675.54
503.632	668.44
504.088	682.54
504.543	719.14
504.999	710.84
505.455	670.04
505.91	645.34
506.366	633.04
506.821	625.04
507.277	632.14
507.732	634.04
508.187	626.84
508.643	637.24
509.098	638.44
509.553	653.14
510.009	676.14
510.464	673.04
510.919	696.94
511.375	695.44
511.83	713.94
512.285	724.64
512.74	767.34
513.195	786.74
513.65	788.04
514.105	768.94
514.56	772.84
515.015	800.04
515.47	821.04
515.925	789.74
516.38	801.44
516.835	806.34
517.29	790.14
517.745	787.14
518.2	778.54
518.655	743.84
519.109	750.14
519.564	747.94
520.019	734.14
520.474	734.04
520.928	722.24
521.383	723.54
521.838	730.74
522.292	730.24
522.747	719.64
523.201	711.54
523.656	705.54
524.11	694.14
524.565	703.24
525.019	698.54
525.474	710.04
525.928	706.64
526.382	698.74
526.837	700.94
527.291	714.64
527.745	710.54
528.2	701.64
528.654	692.34
529.108	690.44
529.562	704.24
530.016	693.84
530.47	707.04
530.925	691.24
531.379	703.94
531.833	706.34
532.287	706.94
532.741	709.74
533.195	711.44
533.649	719.04
534.103	727.14
534.556	708.44
535.01	720.54
535.464	711.94
535.918	720.04
536.372	738.44
536.826	722.84
537.279	709.74
537.733	718.44
538.187	718.24
538.64	719.44
539.094	731.44
539.548	734.74
540.001	721.94
540.455	721.34
540.908	738.74
541.362	736.74
541.815	751.24
542.269	758.14
542.722	763.34
543.175	770.64
543.629	780.44
544.082	786.04
544.536	789.64
544.989	793.24
545.442	802.54
545.895	802.14
546.349	792.24
546.802	795.44
547.255	796.64
547.708	811.54
548.161	824.14
548.614	825.14
549.067	836.84
549.52	819.74
549.973	815.04
550.426	814.64
550.879	794.14
551.332	801.84
551.785	807.14
552.238	811.54
552.691	820.34
553.144	835.64
553.596	859.44
554.049	860.94
554.502	900.84
554.955	920.44
555.407	913.74
555.86	899.14
556.313	899.34
556.765	894.34
557.218	879.14
557.67	886.04
558.123	871.64
558.576	872.94
559.028	877.44
559.48	883.84
559.933	872.54
560.385	837.94
560.838	811.84
561.29	769.74
561.742	786.14
562.195	760.54
562.647	762.34
563.099	772.44
563.551	767.44
564.004	792.24
564.456	774.94
564.908	760.74
565.36	749.14
565.812	740.74
566.264	736.14
566.716	730.54
567.168	719.44
567.62	722.44
568.072	698.04
568.524	689.94
568.976	681.54
569.428	673.64
569.88	680.04
570.332	680.34
570.784	688.94
571.235	679.24
571.687	691.14
572.139	698.14
572.59	711.44
573.042	711.24
573.494	703.94
573.945	703.24
574.397	683.04
574.849	694.44
575.3	690.54
575.752	672.84
576.203	672.64
576.655	684.54
577.106	673.94
577.557	666.24
578.009	663.24
578.46	650.14
578.912	657.24
579.363	666.94
579.814	658.54
580.265	652.44
580.717	663.94
581.168	662.64
581.619	670.14
582.07	672.44
582.521	666.44
582.972	664.64
583.423	668.74
583.875	680.44
584.326	697.54
584.777	733.54
585.227	816.94
585.678	911.44
586.129	991.64
586.58	1069.84
587.031	1148.64
587.482	1301.74
587.933	1488.14
588.384	1289.54
588.834	962.74
589.285	796.44
589.736	771.74
590.186	766.94
590.637	751.94
591.088	740.14
591.538	730.44
591.989	724.74
592.439	720.94
592.89	707.54
593.34	697.24
593.791	703.34
594.241	706.74
594.692	698.94
595.142	698.44
595.593	695.74
596.043	689.44
596.493	701.74
596.943	701.44
597.394	709.74
597.844	713.24
598.294	716.94
598.744	736.54
599.195	767.34
599.645	799.54
600.095	840.94
600.545	905.24
600.995	953.24
601.445	1008.94
601.895	1073.24
602.345	1114.64
602.795	1104.84
603.245	1047.94
603.695	993.34
604.145	950.44
604.594	899.74
605.044	844.34
605.494	782.54
605.944	735.54
606.393	735.14
606.843	716.14
607.293	720.54
607.743	717.24
608.192	727.84
608.642	746.04
609.091	754.94
609.541	757.44
609.99	756.14
610.44	751.54
610.889	703.84
611.339	688.94
611.788	677.54
612.238	692.34
612.687	709.74
613.136	701.04
613.586	726.04
614.035	722.74
614.484	742.34
614.933	743.34
615.383	739.64
615.832	723.34
616.281	711.34
616.73	677.04
617.179	657.14
617.628	638.34
618.077	622.94
618.526	612.14
618.975	613.14
619.424	602.34
619.873	599.44
620.322	604.14
620.771	584.84
621.22	592.54
621.669	594.54
622.118	579.14
622.567	576.04
623.015	560.94
623.464	555.34
623.913	568.34
624.361	542.34
624.81	545.94
625.259	549.94
625.707	540.24
626.156	547.14
626.604	551.64
627.053	544.64
627.501	549.54
627.95	559.84
628.398	569.64
628.847	558.44
629.295	555.44
629.744	558.44
630.192	550.64
630.64	558.54
631.089	555.54
631.537	568.24
631.985	571.34
632.433	590.34
632.881	586.74
633.33	637.14
633.778	617.24
634.226	554.74
634.674	558.94
635.122	566.94
635.57	575.84
636.018	603.94
636.466	569.74
636.914	542.44
637.362	548.04
637.81	557.14
638.258	557.44
638.705	560.74
639.153	596.64
639.601	606.94
640.049	614.84
640.497	654.74
640.944	665.24
641.392	625.24
641.84	590.24
642.287	563.64
642.735	551.74
643.182	554.64
643.63	559.64
644.078	561.14
644.525	573.14
644.973	581.94
645.42	587.14
645.867	611.34
646.315	621.64
646.762	641.64
647.21	677.04
647.657	701.04
648.104	727.14
648.551	744.34
648.999	813.64
649.446	891.04
649.893	978.84
650.34	1127.64
650.787	1348.44
651.234	1676.54
651.682	2166.14
652.129	2991.74
652.576	4309.54
653.023	6363.34
653.47	8742.74
653.917	10980.04
654.363	12710.34
654.81	14187.94
655.257	13460.34
655.704	8798.34
656.151	5188.24
656.598	3360.04
657.044	2376.54
657.491	1828.64
657.938	1460.34
658.385	1219.44
658.831	1048.54
659.278	940.74
659.724	826.94
660.171	766.14
660.618	698.94
661.064	660.04
661.511	653.04
661.957	636.64
662.404	630.64
662.85	621.94
663.296	598.24
663.743	548.84
664.189	521.64
664.635	522.14
665.082	512.44
665.528	519.44
665.974	504.94
666.42	497.44
666.867	490.74
667.313	477.14
667.759	470.24
668.205	459.04
668.651	463.04
669.097	467.04
669.543	478.14
669.989	454.54
670.435	437.24
670.881	428.84
671.327	429.04
671.773	448.54
672.219	470.04
672.665	526.54
673.11	561.94
673.556	611.64
674.002	642.44
674.448	635.44
674.893	529.94
675.339	462.44
675.785	429.84
676.23	411.64
676.676	368.64
677.122	362.44
677.567	357.74
678.013	360.94
678.458	341.74
678.904	340.54
679.349	337.14
679.794	339.34
680.24	340.04
680.685	342.84
681.131	333.84
681.576	336.74
682.021	336.34
682.466	338.34
682.912	335.64
683.357	335.04
683.802	364.44
684.247	397.14
684.692	444.54
685.137	468.24
685.583	513.74
686.028	537.54
686.473	495.74
686.918	419.24
687.363	398.84
687.807	379.24
688.252	351.34
688.697	339.24
689.142	323.64
689.587	318.54
690.032	313.14
690.477	334.64
690.921	337.94
691.366	368.04
691.811	380.14
692.255	415.64
692.7	439.04
693.145	477.04
693.589	652.34
694.034	1063.14
694.478	1461.84
694.923	1666.44
695.367	2186.24
695.812	1150.44
696.256	484.24
696.701	356.54
697.145	327.24
697.59	323.44
698.034	310.34
698.478	315.84
698.922	309.54
699.367	310.64
699.811	319.24
700.255	346.94
700.699	370.04
701.143	406.34
701.588	455.44
702.032	491.14
702.476	494.94
702.92	464.24
703.364	458.84
703.808	603.14
704.252	961.64
704.696	1387.84
705.14	1609.64
705.584	2040.84
706.027	1017.04
706.471	500.04
706.915	381.34
707.359	331.84
707.803	305.64
708.246	296.24
708.69	294.34
709.134	302.24
709.577	300.94
710.021	305.84
710.465	298.94
710.908	284.64
711.352	284.04
711.795	295.94
712.239	338.24
712.682	365.24
713.126	394.64
713.569	444.04
714.012	354.24
714.456	316.24
714.899	294.54
715.342	270.84
715.786	250.64
716.229	243.24
716.672	245.64
717.115	237.44
717.558	241.74
718.002	242.34
718.445	250.24
718.888	281.44
719.331	277.64
719.774	288.34
720.217	294.24
720.66	268.74
721.103	248.54
721.546	248.74
721.989	238.74
722.432	217.74
722.874	230.64
723.317	220.94
723.76	225.44
724.203	241.14
724.645	304.34
725.088	424.94
725.531	546.94
725.974	615.14
726.416	523.74
726.859	292.84
727.301	235.54
727.744	219.14
728.187	224.64
728.629	234.14
729.071	237.74
729.514	242.24
729.956	260.84
730.399	265.34
730.841	272.24
731.283	268.44
731.726	256.54
732.168	254.64
732.61	251.44
733.053	270.64
733.495	300.44
733.937	336.34
734.379	375.24
734.821	411.04
735.263	505.74
735.705	773.64
736.148	1469.14
736.59	2428.34
737.032	2934.84
737.474	2389.24
737.916	768.44
738.357	403.54
738.799	308.84
739.241	283.84
739.683	264.64
740.125	277.44
740.567	285.44
741.008	301.54
741.45	302.04
741.892	299.84
742.334	328.04
742.775	346.54
743.217	325.64
743.658	260.44
744.1	241.64
744.542	247.64
744.983	292.04
745.425	324.44
745.866	329.24
746.307	264.94
746.749	268.54
747.19	309.84
747.632	418.84
748.073	809.34
748.514	1735.94
748.956	2694.04
749.397	3380.14
749.838	2802.54
750.279	2847.24
750.72	1444.64
751.162	526.44
751.603	310.34
752.044	241.24
752.485	208.94
752.926	197.84
753.367	190.94
753.808	185.24
754.249	179.94
754.69	178.24
755.131	177.54
755.572	180.54
756.013	177.14
756.453	177.04
756.894	181.24
757.335	184.14
757.776	190.64
758.216	182.94
758.657	186.64
759.098	195.04
759.538	210.04
759.979	254.54
760.42	339.94
760.86	645.44
761.301	1673.24
761.741	4147.04
762.182	6167.14
762.622	4346.74
