Data from 20171114-ORNL-Ar_H_NY_Subt18_08-05-20-406.txt Node
Date: Tue Nov 14 08:05:20 EST 2017
User: Ender
Spectrometer: HR+D1039
Trigger mode: 0
Integration Time (sec): 2.730000E-2
Scans to average: 10
Electric dark correction enabled: true
Nonlinearity correction enabled: false
Boxcar width: 0
XAxis mode: Wavelengths
Number of Pixels in Spectrum: 2048
>>>>>Begin Spectral Data<<<<<
187.836	-6.26
188.309	-6.26
188.782	-6.26
189.255	-1.66
189.728	-4.16
190.201	7.14
190.674	-3.46
191.147	3.44
191.619	-4.26
192.092	1.44
192.565	6.44
193.038	-5.76
193.511	3.64
193.984	0.04
194.456	-4.36
194.929	2.14
195.402	4.64
195.874	0.94
196.347	-2.86
196.82	-12.26
197.292	1.94
197.765	1.74
198.237	-4.66
198.71	0.44
199.182	-1.86
199.655	2.14
200.127	2.94
200.6	-2.16
201.072	-2.36
201.544	-9.86
202.017	-9.66
202.489	-1.26
202.961	0.24
203.433	-6.06
203.906	-8.76
204.378	-5.76
204.85	-2.36
205.322	-11.66
205.794	0.24
206.266	-3.76
206.739	-7.26
207.211	1.54
207.683	-7.36
208.155	0.04
208.627	-4.96
209.099	-3.26
209.57	-12.06
210.042	-7.86
210.514	-8.16
210.986	-6.16
211.458	-7.46
211.93	-7.06
212.402	4.64
212.873	-5.86
213.345	-3.46
213.817	-12.26
214.288	-6.96
214.76	-8.96
215.232	-4.76
215.703	-6.76
216.175	-5.36
216.646	-5.86
217.118	-13.36
217.589	-7.26
218.061	-3.16
218.532	-6.36
219.004	-0.56
219.475	-5.76
219.946	-1.96
220.418	-6.16
220.889	3.74
221.36	-1.06
221.832	-5.66
222.303	-4.86
222.774	-4.06
223.245	-4.26
223.717	-6.46
224.188	-9.16
224.659	-10.46
225.13	-8.46
225.601	0.04
226.072	-7.06
226.543	-3.76
227.014	-0.26
227.485	-1.06
227.956	-7.06
228.427	0.44
228.898	0.84
229.369	8.54
229.839	-0.66
230.31	-9.46
230.781	2.64
231.252	-5.36
231.722	-5.06
232.193	-2.86
232.664	0.24
233.135	2.14
233.605	-0.16
234.076	-5.26
234.546	0.84
235.017	5.04
235.487	-2.36
235.958	0.44
236.428	-0.46
236.899	0.64
237.369	-0.96
237.84	2.94
238.31	6.14
238.78	2.64
239.251	-3.26
239.721	4.14
240.191	-3.36
240.662	-3.96
241.132	1.34
241.602	-2.36
242.072	0.44
242.542	3.14
243.013	0.74
243.483	5.54
243.953	2.14
244.423	1.14
244.893	-2.96
245.363	8.34
245.833	-1.36
246.303	2.74
246.773	6.14
247.243	7.64
247.712	-1.36
248.182	6.84
248.652	5.84
249.122	-5.76
249.592	12.04
250.061	17.74
250.531	37.14
251.001	10.94
251.471	19.14
251.94	19.04
252.41	5.84
252.879	5.64
253.349	14.54
253.818	13.04
254.288	2.04
254.757	7.34
255.227	4.64
255.696	6.44
256.166	8.64
256.635	14.74
257.105	13.84
257.574	1.84
258.043	7.74
258.513	11.34
258.982	11.34
259.451	10.24
259.92	12.34
260.389	12.64
260.859	19.34
261.328	14.24
261.797	19.14
262.266	9.94
262.735	7.04
263.204	7.14
263.673	3.54
264.142	9.84
264.611	-0.96
265.08	-0.06
265.549	4.84
266.018	9.04
266.487	3.14
266.955	-0.16
267.424	4.14
267.893	7.44
268.362	1.24
268.83	4.54
269.299	8.74
269.768	4.14
270.236	5.34
270.705	1.64
271.174	10.04
271.642	13.24
272.111	14.24
272.579	18.44
273.048	22.14
273.516	25.44
273.985	28.54
274.453	18.34
274.922	20.44
275.39	12.04
275.858	3.34
276.327	12.24
276.795	16.14
277.263	8.04
277.731	31.64
278.2	51.54
278.668	63.64
279.136	57.84
279.604	26.54
280.072	15.04
280.54	9.84
281.008	9.04
281.477	13.24
281.945	14.14
282.413	14.64
282.881	16.94
283.348	11.04
283.816	19.14
284.284	22.54
284.752	19.24
285.22	18.34
285.688	14.04
286.156	18.44
286.623	46.34
287.091	58.34
287.559	34.14
288.026	21.34
288.494	16.64
288.962	9.94
289.429	11.84
289.897	20.44
290.364	15.64
290.832	16.74
291.3	19.34
291.767	21.14
292.234	21.14
292.702	15.74
293.169	22.34
293.637	27.64
294.104	17.84
294.571	10.44
295.039	16.34
295.506	13.64
295.973	18.14
296.44	21.14
296.908	19.34
297.375	19.64
297.842	23.14
298.309	20.24
298.776	15.04
299.243	22.14
299.71	18.24
300.177	24.04
300.644	22.54
301.111	23.04
301.578	19.14
302.045	20.14
302.512	31.64
302.979	30.64
303.446	24.44
303.913	20.84
304.379	20.94
304.846	26.44
305.313	27.74
305.78	25.24
306.246	31.04
306.713	25.54
307.18	29.34
307.646	30.54
308.113	34.04
308.579	26.94
309.046	27.64
309.512	27.34
309.979	20.44
310.445	27.34
310.912	24.84
311.378	34.44
311.845	33.04
312.311	41.44
312.777	35.24
313.244	30.44
313.71	40.14
314.176	31.74
314.642	32.14
315.109	32.34
315.575	42.84
316.041	36.84
316.507	33.74
316.973	42.74
317.439	36.64
317.905	35.04
318.371	37.14
318.837	35.14
319.303	32.44
319.769	31.74
320.235	34.14
320.701	39.54
321.167	36.54
321.633	32.34
322.099	50.44
322.564	46.24
323.03	40.44
323.496	41.24
323.962	46.24
324.427	39.04
324.893	48.14
325.359	40.04
325.824	43.04
326.29	42.64
326.755	35.14
327.221	47.14
327.686	40.44
328.152	53.74
328.617	44.74
329.083	50.14
329.548	52.74
330.014	53.04
330.479	42.14
330.944	39.44
331.41	38.84
331.875	51.54
332.34	46.94
332.805	40.64
333.271	49.94
333.736	42.84
334.201	55.44
334.666	53.44
335.131	56.34
335.596	46.04
336.061	50.64
336.526	40.74
336.991	50.34
337.456	58.94
337.921	49.14
338.386	46.54
338.851	48.34
339.316	46.64
339.781	47.24
340.246	50.24
340.711	51.64
341.175	51.04
341.64	49.64
342.105	48.84
342.569	55.94
343.034	57.94
343.499	51.94
343.963	55.24
344.428	67.34
344.893	64.54
345.357	62.94
345.822	60.54
346.286	69.24
346.751	75.44
347.215	69.04
347.679	76.94
348.144	103.74
348.608	84.74
349.073	74.74
349.537	78.64
350.001	80.24
350.465	89.64
350.93	84.74
351.394	87.04
351.858	79.94
352.322	89.74
352.786	88.54
353.25	102.34
353.715	107.94
354.179	109.34
354.643	123.04
355.107	135.04
355.571	106.64
356.035	103.94
356.498	114.94
356.962	124.74
357.426	135.24
357.89	122.74
358.354	91.44
358.818	85.34
359.281	78.84
359.745	74.04
360.209	85.34
360.673	77.74
361.136	87.84
361.6	86.94
362.064	82.94
362.527	88.14
362.991	92.14
363.454	84.74
363.918	80.34
364.381	80.84
364.845	83.64
365.308	90.34
365.772	94.94
366.235	87.04
366.698	79.24
367.162	80.94
367.625	89.44
368.088	94.74
368.552	91.44
369.015	87.84
369.478	98.04
369.941	101.54
370.404	95.24
370.867	105.14
371.331	109.14
371.794	118.64
372.257	115.74
372.72	119.24
373.183	115.74
373.646	102.44
374.109	100.84
374.572	118.54
375.035	106.64
375.497	106.64
375.96	109.04
376.423	99.94
376.886	113.24
377.349	109.04
377.811	96.44
378.274	96.14
378.737	104.84
379.199	112.94
379.662	109.54
380.125	122.64
380.587	112.64
381.05	121.24
381.512	132.54
381.975	128.84
382.437	122.44
382.9	127.74
383.362	135.94
383.825	139.04
384.287	146.64
384.75	144.34
385.212	141.04
385.674	137.74
386.136	136.14
386.599	122.94
387.061	126.54
387.523	126.44
387.985	135.04
388.447	147.04
388.91	145.44
389.372	165.94
389.834	147.34
390.296	145.34
390.758	156.94
391.22	166.94
391.682	212.34
392.144	296.44
392.606	232.34
393.068	167.24
393.529	163.44
393.991	151.74
394.453	146.34
394.915	153.14
395.377	194.74
395.838	217.04
396.3	159.24
396.762	140.44
397.224	126.94
397.685	136.44
398.147	133.14
398.608	129.84
399.07	125.44
399.531	131.84
399.993	145.64
400.454	159.84
400.916	144.54
401.377	146.64
401.839	144.64
402.3	150.04
402.762	159.94
403.223	171.54
403.684	171.84
404.145	164.04
404.607	160.54
405.068	161.74
405.529	171.34
405.99	185.04
406.451	178.74
406.913	167.34
407.374	161.34
407.835	162.74
408.296	167.14
408.757	175.64
409.218	184.94
409.679	176.94
410.14	179.34
410.601	171.14
411.062	181.54
411.522	189.14
411.983	181.84
412.444	172.64
412.905	188.94
413.366	184.44
413.826	188.04
414.287	209.24
414.748	258.94
415.208	241.34
415.669	206.04
416.13	198.84
416.59	194.14
417.051	215.94
417.511	219.84
417.972	231.74
418.432	247.14
418.893	284.54
419.353	245.34
419.814	190.34
420.274	183.34
420.734	174.04
421.195	195.74
421.655	193.14
422.115	189.04
422.576	190.54
423.036	194.24
423.496	205.64
423.956	210.84
424.416	227.04
424.876	258.54
425.336	261.24
425.797	256.94
426.257	255.44
426.717	238.74
427.177	229.14
427.637	231.14
428.097	229.74
428.556	242.84
429.016	269.74
429.476	263.34
429.936	277.14
430.396	276.04
430.856	291.54
431.315	323.04
431.775	347.74
432.235	366.84
432.694	350.34
433.154	361.64
433.614	390.14
434.073	331.04
434.533	289.94
434.993	274.44
435.452	287.84
435.912	291.94
436.371	285.44
436.83	282.74
437.29	266.64
437.749	252.74
438.209	246.84
438.668	271.64
439.127	289.54
439.587	260.64
440.046	255.44
440.505	261.54
440.964	272.24
441.424	323.24
441.883	305.94
442.342	262.34
442.801	227.24
443.26	212.44
443.719	219.54
444.178	212.74
444.637	209.94
445.096	214.64
445.555	218.14
446.014	222.34
446.473	226.64
446.932	229.54
447.391	223.64
447.849	224.74
448.308	213.54
448.767	214.54
449.226	234.84
449.685	237.84
450.143	248.44
450.602	238.64
451.061	224.74
451.519	226.64
451.978	234.84
452.436	230.04
452.895	240.84
453.353	250.64
453.812	238.44
454.27	238.74
454.729	233.44
455.187	236.74
455.646	243.64
456.104	245.14
456.562	253.94
457.021	258.94
457.479	256.24
457.937	271.34
458.395	261.64
458.854	240.94
459.312	256.44
459.77	272.44
460.228	260.74
460.686	246.54
461.144	245.24
461.602	240.84
462.06	239.74
462.518	244.14
462.976	251.84
463.434	257.24
463.892	257.54
464.35	278.04
464.808	289.94
465.266	266.54
465.724	263.44
466.181	272.74
466.639	271.04
467.097	280.24
467.555	297.84
468.012	300.44
468.47	313.74
468.928	326.94
469.385	343.64
469.843	343.54
470.3	342.54
470.758	363.24
471.215	378.34
471.673	409.34
472.13	393.64
472.588	421.04
473.045	366.04
473.503	376.54
473.96	400.84
474.417	402.84
474.875	435.74
475.332	464.94
475.789	457.54
476.246	467.34
476.704	491.54
477.161	507.14
477.618	519.04
478.075	554.54
478.532	610.84
478.989	694.44
479.446	799.74
479.903	781.44
480.36	815.84
480.817	867.94
481.274	975.54
481.731	1066.84
482.188	1171.64
482.645	1307.84
483.102	1421.14
483.558	1546.34
484.015	1623.94
484.472	1588.34
484.929	1526.84
485.385	1479.94
485.842	1462.14
486.299	1384.64
486.755	1294.34
487.212	1114.44
487.668	923.54
488.125	840.64
488.582	780.44
489.038	751.14
489.494	706.24
489.951	687.24
490.407	670.44
490.864	651.24
491.32	640.14
491.776	636.94
492.233	636.94
492.689	607.24
493.145	605.44
493.602	590.24
494.058	611.24
494.514	616.74
494.97	636.54
495.426	639.14
495.882	614.54
496.338	610.84
496.794	618.04
497.251	614.94
497.707	640.54
498.163	642.54
498.618	641.44
499.074	655.14
499.53	678.14
499.986	672.24
500.442	657.34
500.898	629.24
501.354	628.24
501.809	632.04
502.265	635.74
502.721	658.04
503.177	664.24
503.632	663.04
504.088	677.64
504.543	714.14
504.999	712.04
505.455	657.44
505.91	620.44
506.366	621.04
506.821	622.14
507.277	615.74
507.732	629.54
508.187	621.64
508.643	632.24
509.098	631.44
509.553	646.24
510.009	653.34
510.464	666.34
510.919	683.64
511.375	675.84
511.83	690.24
512.285	717.94
512.74	752.94
513.195	781.24
513.65	770.84
514.105	760.74
514.56	777.34
515.015	793.64
515.47	804.24
515.925	781.84
516.38	784.44
516.835	789.44
517.29	779.14
517.745	777.34
518.2	752.24
518.655	752.24
519.109	745.54
519.564	746.74
520.019	732.64
520.474	722.14
520.928	715.34
521.383	712.64
521.838	707.94
522.292	712.04
522.747	705.44
523.201	696.54
523.656	688.94
524.11	698.54
524.565	682.34
525.019	679.44
525.474	697.74
525.928	697.04
526.382	686.04
526.837	685.24
527.291	699.74
527.745	694.64
528.2	691.34
528.654	683.04
529.108	687.64
529.562	679.04
530.016	686.44
530.47	679.64
530.925	681.84
531.379	689.74
531.833	703.84
532.287	698.14
532.741	702.24
533.195	708.54
533.649	706.04
534.103	715.14
534.556	707.74
535.01	713.84
535.464	704.54
535.918	713.24
536.372	717.34
536.826	709.94
537.279	694.94
537.733	708.54
538.187	711.64
538.64	709.84
539.094	723.74
539.548	720.24
540.001	723.04
540.455	714.74
540.908	712.54
541.362	726.54
541.815	739.94
542.269	742.34
542.722	742.24
543.175	764.74
543.629	765.24
544.082	785.54
544.536	780.24
544.989	775.44
545.442	776.54
545.895	779.34
546.349	773.24
546.802	779.84
547.255	788.94
547.708	788.74
548.161	803.84
548.614	801.14
549.067	818.34
549.52	815.34
549.973	794.34
550.426	793.84
550.879	777.24
551.332	798.84
551.785	789.04
552.238	795.54
552.691	804.54
553.144	823.84
553.596	830.84
554.049	847.54
554.502	880.44
554.955	900.64
555.407	895.64
555.86	880.94
556.313	875.44
556.765	874.94
557.218	866.74
557.67	875.14
558.123	862.54
558.576	869.24
559.028	872.34
559.48	877.74
559.933	862.44
560.385	822.04
560.838	791.64
561.29	776.64
561.742	770.24
562.195	757.34
562.647	751.14
563.099	755.74
563.551	755.44
564.004	771.74
564.456	755.54
564.908	749.94
565.36	736.24
565.812	718.74
566.264	722.14
566.716	712.64
567.168	700.44
567.62	710.54
568.072	690.24
568.524	680.04
568.976	673.54
569.428	663.44
569.88	654.84
570.332	669.34
570.784	668.14
571.235	668.54
571.687	679.24
572.139	692.64
572.59	709.54
573.042	692.14
573.494	688.54
573.945	693.24
574.397	676.34
574.849	685.44
575.3	679.44
575.752	687.34
576.203	661.24
576.655	670.74
577.106	650.04
577.557	645.84
578.009	654.54
578.46	653.44
578.912	646.44
579.363	656.04
579.814	653.14
580.265	637.44
580.717	648.94
581.168	654.54
581.619	662.64
582.07	671.34
582.521	656.94
582.972	659.14
583.423	650.34
583.875	669.74
584.326	684.44
584.777	728.44
585.227	811.04
585.678	897.44
586.129	978.24
586.58	1057.84
587.031	1153.14
587.482	1298.64
587.933	1485.44
588.384	1277.44
588.834	969.44
589.285	785.74
589.736	757.14
590.186	739.54
590.637	746.44
591.088	720.34
591.538	707.94
591.989	715.14
592.439	700.44
592.89	697.54
593.34	686.84
593.791	698.94
594.241	688.04
594.692	689.94
595.142	678.94
595.593	681.94
596.043	676.84
596.493	695.64
596.943	697.74
597.394	702.34
597.844	696.64
598.294	712.54
598.744	726.34
599.195	745.74
599.645	789.34
600.095	818.84
600.545	885.74
600.995	938.84
601.445	996.74
601.895	1050.44
602.345	1096.74
602.795	1079.34
603.245	1038.24
603.695	978.14
604.145	935.84
604.594	881.64
605.044	832.34
605.494	768.34
605.944	727.44
606.393	718.74
606.843	707.44
607.293	703.24
607.743	707.74
608.192	718.64
608.642	734.44
609.091	733.84
609.541	748.44
609.99	746.04
610.44	735.34
610.889	697.14
611.339	666.94
611.788	662.34
612.238	669.54
612.687	697.64
613.136	695.24
613.586	717.64
614.035	709.34
614.484	728.24
614.933	732.34
615.383	723.24
615.832	712.04
616.281	695.04
616.73	657.94
617.179	637.14
617.628	625.74
618.077	609.94
618.526	597.04
618.975	589.44
619.424	594.94
619.873	589.74
620.322	596.44
620.771	580.64
621.22	577.84
621.669	563.14
622.118	557.74
622.567	548.44
623.015	549.34
623.464	545.04
623.913	543.14
624.361	526.94
624.81	527.74
625.259	534.84
625.707	520.54
626.156	533.84
626.604	542.54
627.053	538.14
627.501	549.84
627.95	545.84
628.398	561.74
628.847	548.14
629.295	547.24
629.744	541.74
630.192	549.14
630.64	534.14
631.089	535.34
631.537	551.74
631.985	560.54
632.433	576.94
632.881	577.64
633.33	624.94
633.778	616.04
634.226	542.64
634.674	547.84
635.122	557.34
635.57	576.14
636.018	589.44
636.466	553.44
636.914	528.34
637.362	544.54
637.81	549.94
638.258	552.44
638.705	545.44
639.153	580.94
639.601	583.54
640.049	605.14
640.497	637.54
640.944	662.14
641.392	617.14
641.84	584.94
642.287	561.24
642.735	551.64
643.182	549.44
643.63	547.74
644.078	546.84
644.525	554.54
644.973	578.04
645.42	576.14
645.867	595.54
646.315	606.14
646.762	632.54
647.21	655.64
647.657	681.34
648.104	718.94
648.551	735.94
648.999	802.84
649.446	868.34
649.893	962.44
650.34	1094.54
650.787	1324.14
651.234	1649.84
651.682	2142.74
652.129	2943.94
652.576	4222.74
653.023	6267.34
653.47	8619.64
653.917	10828.14
654.363	12591.74
654.81	14019.54
655.257	13354.04
655.704	8704.24
656.151	5117.84
656.598	3297.24
657.044	2330.04
657.491	1793.24
657.938	1438.64
658.385	1208.24
658.831	1031.74
659.278	919.44
659.724	819.14
660.171	762.84
660.618	687.44
661.064	657.24
661.511	627.14
661.957	623.14
662.404	607.64
662.85	613.84
663.296	598.84
663.743	535.44
664.189	504.94
664.635	500.74
665.082	498.74
665.528	490.64
665.974	500.74
666.42	479.24
666.867	480.24
667.313	459.44
667.759	453.84
668.205	447.54
668.651	456.94
669.097	462.84
669.543	475.94
669.989	445.54
670.435	411.34
670.881	419.04
671.327	421.34
671.773	437.84
672.219	458.04
672.665	505.64
673.11	540.94
673.556	588.44
674.002	627.94
674.448	617.14
674.893	513.44
675.339	444.34
675.785	402.54
676.23	390.44
676.676	363.44
677.122	365.04
677.567	353.44
678.013	341.24
678.458	339.94
678.904	338.34
679.349	323.94
679.794	333.04
680.24	321.14
680.685	324.34
681.131	324.24
681.576	330.34
682.021	321.54
682.466	324.54
682.912	317.64
683.357	328.04
683.802	351.14
684.247	384.64
684.692	427.94
685.137	464.24
685.583	497.94
686.028	527.24
686.473	484.34
686.918	411.04
687.363	390.14
687.807	369.24
688.252	337.74
688.697	333.54
689.142	321.74
689.587	314.74
690.032	305.04
690.477	318.64
690.921	327.24
691.366	355.64
691.811	377.14
692.255	405.84
692.7	428.74
693.145	463.64
693.589	634.94
694.034	1033.14
694.478	1426.24
694.923	1626.94
695.367	2135.84
695.812	1133.04
696.256	467.54
696.701	339.04
697.145	324.44
697.59	304.64
698.034	296.34
698.478	306.94
698.922	309.04
699.367	308.74
699.811	315.14
700.255	325.94
700.699	353.24
701.143	399.34
701.588	444.54
702.032	486.24
702.476	474.44
702.92	454.14
703.364	451.84
703.808	577.74
704.252	944.64
704.696	1344.64
705.14	1564.84
705.584	2009.34
706.027	1004.34
706.471	485.04
706.915	371.24
707.359	327.94
707.803	297.04
708.246	286.04
708.69	289.44
709.134	297.24
709.577	284.24
710.021	292.14
710.465	279.74
710.908	283.74
711.352	278.64
711.795	294.04
712.239	324.24
712.682	356.94
713.126	393.14
713.569	437.34
714.012	342.64
714.456	304.14
714.899	291.64
715.342	253.84
715.786	237.34
716.229	243.64
716.672	238.84
717.115	229.74
717.558	232.14
718.002	235.64
718.445	240.94
718.888	263.34
719.331	275.44
719.774	290.54
720.217	292.24
720.66	266.64
721.103	250.44
721.546	237.34
721.989	226.84
722.432	214.24
722.874	219.04
723.317	211.74
723.76	217.04
724.203	244.34
724.645	292.34
725.088	416.74
725.531	525.84
725.974	613.74
726.416	513.74
726.859	286.54
727.301	231.64
727.744	221.14
728.187	214.54
728.629	219.84
729.071	222.64
729.514	243.74
729.956	255.14
730.399	263.94
730.841	273.54
731.283	253.34
731.726	245.94
732.168	240.84
732.61	250.94
733.053	260.34
733.495	288.44
733.937	326.64
734.379	364.74
734.821	396.64
735.263	500.74
735.705	761.34
736.148	1435.34
736.59	2378.24
737.032	2882.04
737.474	2333.04
737.916	749.04
738.357	403.94
738.799	302.44
739.241	271.94
739.683	266.74
740.125	266.94
740.567	276.64
741.008	294.64
741.45	292.94
741.892	294.54
742.334	323.84
742.775	331.54
743.217	316.84
743.658	250.44
744.1	232.34
744.542	245.04
744.983	287.04
745.425	316.64
745.866	324.24
746.307	258.44
746.749	260.04
747.19	295.74
747.632	413.14
748.073	782.84
748.514	1686.24
748.956	2634.54
749.397	3327.34
749.838	2735.54
750.279	2790.34
750.72	1400.34
751.162	504.44
751.603	294.14
752.044	226.54
752.485	200.34
752.926	194.94
753.367	190.54
753.808	172.24
754.249	177.84
754.69	167.74
755.131	171.44
755.572	170.24
756.013	163.94
756.453	172.24
756.894	171.74
757.335	184.04
757.776	181.44
758.216	180.24
758.657	195.14
759.098	189.04
759.538	212.24
759.979	243.14
760.42	342.54
760.86	631.94
761.301	1631.34
761.741	4014.84
762.182	6041.64
