Data from 20171114-ORNL-Ar_H_NY_Subt18_08-06-25-375.txt Node
Date: Tue Nov 14 08:06:25 EST 2017
User: Ender
Spectrometer: HR+D1039
Trigger mode: 0
Integration Time (sec): 2.730000E-2
Scans to average: 10
Electric dark correction enabled: true
Nonlinearity correction enabled: false
Boxcar width: 0
XAxis mode: Wavelengths
Number of Pixels in Spectrum: 2048
>>>>>Begin Spectral Data<<<<<
187.836	-4.18
188.309	-4.18
188.782	-4.18
189.255	-2.08
189.728	-8.78
190.201	3.92
190.674	-1.48
191.147	2.82
191.619	-3.48
192.092	3.72
192.565	2.82
193.038	2.72
193.511	2.02
193.984	0.32
194.456	-4.18
194.929	2.12
195.402	-0.08
195.874	3.82
196.347	-0.08
196.82	-2.38
197.292	2.72
197.765	0.92
198.237	-4.28
198.71	8.42
199.182	4.02
199.655	6.82
200.127	8.52
200.6	2.12
201.072	-2.58
201.544	-5.58
202.017	-1.88
202.489	1.82
202.961	-4.28
203.433	-3.48
203.906	-2.38
204.378	-4.88
204.85	-5.48
205.322	-11.08
205.794	-1.88
206.266	0.62
206.739	-13.28
207.211	2.52
207.683	-5.78
208.155	-3.68
208.627	-2.88
209.099	-7.48
209.57	-9.78
210.042	-2.58
210.514	1.52
210.986	-4.08
211.458	-4.08
211.93	-3.28
212.402	-0.08
212.873	0.02
213.345	-12.18
213.817	-11.48
214.288	-5.08
214.76	-10.48
215.232	-1.48
215.703	-1.28
216.175	-3.78
216.646	5.32
217.118	-6.08
217.589	-5.98
218.061	5.02
218.532	-6.48
219.004	-1.08
219.475	-4.68
219.946	0.82
220.418	-5.18
220.889	6.92
221.36	2.22
221.832	-0.58
222.303	-7.48
222.774	-2.38
223.245	-8.78
223.717	-7.88
224.188	-0.08
224.659	-4.38
225.13	-11.38
225.601	-6.58
226.072	-0.88
226.543	-1.78
227.014	6.12
227.485	-1.88
227.956	-9.88
228.427	-3.88
228.898	1.42
229.369	8.82
229.839	-1.48
230.31	-6.18
230.781	3.12
231.252	2.32
231.722	-2.48
232.193	3.32
232.664	2.62
233.135	0.72
233.605	2.52
234.076	-9.68
234.546	1.42
235.017	5.62
235.487	2.62
235.958	1.32
236.428	-1.68
236.899	7.72
237.369	0.62
237.84	-3.08
238.31	2.82
238.78	5.52
239.251	-1.98
239.721	3.22
240.191	1.72
240.662	-7.68
241.132	6.42
241.602	-0.88
242.072	0.72
242.542	10.72
243.013	4.12
243.483	5.02
243.953	3.12
244.423	1.32
244.893	-1.48
245.363	9.02
245.833	4.92
246.303	-3.28
246.773	9.02
247.243	7.72
247.712	8.82
248.182	14.32
248.652	9.92
249.122	-2.78
249.592	6.92
250.061	13.92
250.531	38.42
251.001	16.72
251.471	20.92
251.94	21.32
252.41	2.12
252.879	1.82
253.349	11.52
253.818	10.62
254.288	7.72
254.757	0.62
255.227	-1.38
255.696	5.62
256.166	7.52
256.635	9.02
257.105	8.12
257.574	11.82
258.043	9.12
258.513	12.02
258.982	20.22
259.451	10.72
259.92	21.12
260.389	11.72
260.859	18.02
261.328	14.22
261.797	13.82
262.266	6.62
262.735	10.02
263.204	3.12
263.673	0.72
264.142	8.02
264.611	-2.68
265.08	-3.38
265.549	-3.68
266.018	0.62
266.487	1.22
266.955	-0.08
267.424	1.72
267.893	7.32
268.362	4.62
268.83	5.92
269.299	15.52
269.768	6.02
270.236	9.32
270.705	2.02
271.174	9.42
271.642	14.42
272.111	7.42
272.579	22.92
273.048	19.62
273.516	26.32
273.985	28.42
274.453	23.92
274.922	17.92
275.39	12.12
275.858	4.62
276.327	13.02
276.795	25.82
277.263	10.02
277.731	32.52
278.2	54.12
278.668	54.42
279.136	46.62
279.604	18.62
280.072	17.62
280.54	9.12
281.008	16.12
281.477	17.52
281.945	14.42
282.413	18.52
282.881	17.32
283.348	4.72
283.816	19.22
284.284	15.72
284.752	22.02
285.22	15.42
285.688	18.22
286.156	22.22
286.623	48.32
287.091	55.32
287.559	31.22
288.026	16.52
288.494	20.62
288.962	5.32
289.429	15.32
289.897	23.02
290.364	15.42
290.832	19.12
291.3	16.92
291.767	19.02
292.234	19.72
292.702	15.62
293.169	19.72
293.637	25.22
294.104	25.22
294.571	10.62
295.039	15.12
295.506	12.92
295.973	25.52
296.44	17.72
296.908	22.42
297.375	20.12
297.842	23.42
298.309	23.42
298.776	19.02
299.243	22.52
299.71	19.42
300.177	19.02
300.644	20.62
301.111	20.52
301.578	24.72
302.045	17.62
302.512	23.42
302.979	27.12
303.446	23.92
303.913	18.82
304.379	25.82
304.846	28.12
305.313	28.92
305.78	26.52
306.246	28.22
306.713	27.62
307.18	29.82
307.646	28.82
308.113	31.02
308.579	27.82
309.046	25.22
309.512	26.82
309.979	19.52
310.445	31.42
310.912	28.32
311.378	35.62
311.845	27.82
312.311	33.52
312.777	32.72
313.244	30.42
313.71	34.82
314.176	26.92
314.642	35.82
315.109	37.12
315.575	35.92
316.041	35.62
316.507	36.32
316.973	38.02
317.439	34.82
317.905	41.12
318.371	38.62
318.837	38.72
319.303	36.72
319.769	36.62
320.235	32.92
320.701	36.12
321.167	30.82
321.633	41.52
322.099	42.62
322.564	44.82
323.03	41.92
323.496	42.82
323.962	38.82
324.427	35.32
324.893	45.92
325.359	43.42
325.824	43.02
326.29	41.42
326.755	38.12
327.221	44.72
327.686	40.32
328.152	47.52
328.617	42.02
329.083	51.02
329.548	58.42
330.014	48.42
330.479	44.52
330.944	52.52
331.41	35.92
331.875	46.22
332.34	49.52
332.805	47.32
333.271	48.22
333.736	48.72
334.201	52.02
334.666	60.22
335.131	60.42
335.596	52.32
336.061	47.82
336.526	46.32
336.991	48.82
337.456	51.82
337.921	49.82
338.386	50.32
338.851	49.22
339.316	50.02
339.781	44.62
340.246	51.12
340.711	44.22
341.175	53.52
341.64	47.32
342.105	49.32
342.569	56.82
343.034	56.42
343.499	59.22
343.963	55.02
344.428	69.22
344.893	60.32
345.357	66.52
345.822	66.02
346.286	63.62
346.751	72.72
347.215	72.92
347.679	78.72
348.144	103.12
348.608	86.22
349.073	71.02
349.537	69.82
350.001	78.62
350.465	89.12
350.93	86.02
351.394	88.52
351.858	71.32
352.322	85.72
352.786	86.12
353.25	104.22
353.715	112.62
354.179	102.82
354.643	125.52
355.107	130.52
355.571	107.22
356.035	104.02
356.498	122.02
356.962	128.42
357.426	131.62
357.89	117.52
358.354	96.42
358.818	86.32
359.281	77.22
359.745	81.72
360.209	82.52
360.673	80.72
361.136	86.32
361.6	91.22
362.064	87.12
362.527	89.22
362.991	89.82
363.454	78.12
363.918	84.42
364.381	84.12
364.845	86.82
365.308	86.32
365.772	84.32
366.235	88.92
366.698	85.32
367.162	89.32
367.625	89.72
368.088	89.32
368.552	93.52
369.015	90.02
369.478	99.82
369.941	103.52
370.404	97.92
370.867	110.22
371.331	108.62
371.794	118.22
372.257	113.72
372.72	117.72
373.183	117.52
373.646	113.92
374.109	102.52
374.572	111.52
375.035	112.52
375.497	119.82
375.96	111.82
376.423	111.62
376.886	118.92
377.349	114.62
377.811	98.02
378.274	108.22
378.737	104.42
379.199	116.32
379.662	112.52
380.125	121.92
380.587	118.42
381.05	120.42
381.512	130.02
381.975	142.22
382.437	138.22
382.9	136.12
383.362	134.32
383.825	148.92
384.287	153.72
384.75	148.12
385.212	140.42
385.674	147.12
386.136	141.12
386.599	133.82
387.061	124.82
387.523	123.92
387.985	141.22
388.447	153.62
388.91	150.12
389.372	160.12
389.834	152.82
390.296	150.92
390.758	162.02
391.22	175.12
391.682	216.12
392.144	304.52
392.606	238.72
393.068	174.42
393.529	165.12
393.991	158.22
394.453	150.22
394.915	168.12
395.377	200.92
395.838	220.42
396.3	157.82
396.762	145.32
397.224	135.62
397.685	133.12
398.147	133.42
398.608	136.52
399.07	129.12
399.531	139.62
399.993	143.32
400.454	153.92
400.916	150.62
401.377	150.62
401.839	155.32
402.3	154.82
402.762	178.02
403.223	187.72
403.684	179.52
404.145	168.42
404.607	163.72
405.068	169.62
405.529	179.32
405.99	193.72
406.451	178.42
406.913	175.72
407.374	171.72
407.835	179.32
408.296	173.92
408.757	178.72
409.218	196.62
409.679	183.42
410.14	184.02
410.601	195.22
411.062	188.72
411.522	194.72
411.983	192.42
412.444	178.72
412.905	187.52
413.366	190.12
413.826	203.72
414.287	228.22
414.748	270.82
415.208	247.62
415.669	217.02
416.13	211.02
416.59	207.92
417.051	221.42
417.511	225.02
417.972	246.02
418.432	253.52
418.893	298.62
419.353	253.82
419.814	203.42
420.274	196.32
420.734	187.02
421.195	203.72
421.655	207.02
422.115	201.62
422.576	201.02
423.036	207.62
423.496	206.42
423.956	223.12
424.416	238.22
424.876	271.02
425.336	264.02
425.797	278.12
426.257	261.52
426.717	249.02
427.177	240.22
427.637	231.82
428.097	243.52
428.556	250.62
429.016	283.12
429.476	272.42
429.936	281.32
430.396	292.92
430.856	298.62
431.315	326.12
431.775	362.42
432.235	392.82
432.694	365.42
433.154	374.42
433.614	394.02
434.073	345.82
434.533	294.02
434.993	278.82
435.452	293.62
435.912	307.22
436.371	298.02
436.83	299.92
437.29	275.62
437.749	255.62
438.209	258.72
438.668	275.82
439.127	301.82
439.587	277.42
440.046	261.22
440.505	274.52
440.964	287.32
441.424	340.52
441.883	323.52
442.342	267.72
442.801	230.42
443.26	231.22
443.719	227.12
444.178	223.02
444.637	214.72
445.096	225.52
445.555	236.72
446.014	230.52
446.473	236.92
446.932	247.82
447.391	230.22
447.849	237.22
448.308	225.52
448.767	226.12
449.226	249.62
449.685	241.72
450.143	250.72
450.602	241.42
451.061	232.82
451.519	246.12
451.978	242.82
452.436	244.32
452.895	246.02
453.353	257.52
453.812	253.82
454.27	245.22
454.729	242.12
455.187	242.22
455.646	257.92
456.104	261.32
456.562	262.02
457.021	281.12
457.479	265.52
457.937	282.82
458.395	267.12
458.854	256.42
459.312	267.32
459.77	281.92
460.228	265.22
460.686	249.12
461.144	252.82
461.602	249.72
462.06	252.02
462.518	264.02
462.976	267.22
463.434	267.92
463.892	269.72
464.35	287.22
464.808	299.02
465.266	270.82
465.724	282.72
466.181	291.62
466.639	283.92
467.097	298.52
467.555	312.52
468.012	306.32
468.47	322.22
468.928	336.42
469.385	355.02
469.843	357.22
470.3	359.72
470.758	366.52
471.215	398.92
471.673	418.72
472.13	412.62
472.588	436.02
473.045	386.12
473.503	388.12
473.96	408.02
474.417	418.62
474.875	455.82
475.332	493.32
475.789	474.12
476.246	484.32
476.704	499.02
477.161	521.52
477.618	542.32
478.075	582.92
478.532	635.32
478.989	706.22
479.446	835.42
479.903	798.92
480.36	840.92
480.817	899.32
481.274	1000.62
481.731	1107.42
482.188	1200.22
482.645	1334.32
483.102	1451.02
483.558	1598.42
484.015	1646.62
484.472	1618.52
484.929	1569.12
485.385	1529.12
485.842	1478.42
486.299	1407.32
486.755	1331.62
487.212	1126.32
487.668	956.02
488.125	881.12
488.582	806.12
489.038	773.42
489.494	730.32
489.951	713.72
490.407	683.42
490.864	670.62
491.32	670.32
491.776	665.62
492.233	671.92
492.689	640.52
493.145	625.02
493.602	621.82
494.058	631.52
494.514	632.82
494.97	661.62
495.426	675.22
495.882	637.32
496.338	630.92
496.794	642.22
497.251	639.22
497.707	653.32
498.163	654.52
498.618	663.22
499.074	667.02
499.53	688.42
499.986	699.12
500.442	676.92
500.898	645.02
501.354	639.82
501.809	656.42
502.265	659.62
502.721	674.62
503.177	685.72
503.632	689.22
504.088	695.32
504.543	735.12
504.999	736.72
505.455	679.72
505.91	656.42
506.366	652.22
506.821	646.42
507.277	646.62
507.732	643.32
508.187	641.02
508.643	640.92
509.098	638.02
509.553	666.12
510.009	685.12
510.464	690.82
510.919	709.22
511.375	718.12
511.83	730.72
512.285	740.02
512.74	778.42
513.195	802.02
513.65	794.72
514.105	778.22
514.56	795.62
515.015	816.52
515.47	836.12
515.925	811.62
516.38	809.52
516.835	814.42
517.29	808.62
517.745	802.32
518.2	785.42
518.655	773.32
519.109	769.52
519.564	768.12
520.019	759.02
520.474	744.42
520.928	745.82
521.383	735.22
521.838	726.12
522.292	730.42
522.747	732.02
523.201	714.32
523.656	717.62
524.11	713.92
524.565	714.82
525.019	715.52
525.474	722.82
525.928	719.12
526.382	713.02
526.837	713.92
527.291	718.92
527.745	716.02
528.2	713.82
528.654	714.52
529.108	711.62
529.562	704.62
530.016	711.32
530.47	705.02
530.925	704.12
531.379	709.82
531.833	726.92
532.287	711.52
532.741	722.02
533.195	727.22
533.649	736.62
534.103	746.42
534.556	726.72
535.01	725.32
535.464	714.92
535.918	742.22
536.372	737.12
536.826	740.02
537.279	728.42
537.733	733.32
538.187	732.92
538.64	731.42
539.094	745.82
539.548	746.42
540.001	742.32
540.455	744.52
540.908	752.22
541.362	754.22
541.815	766.82
542.269	783.42
542.722	779.82
543.175	793.32
543.629	788.32
544.082	812.92
544.536	816.32
544.989	816.92
545.442	812.62
545.895	806.72
546.349	810.12
546.802	817.02
547.255	819.22
547.708	825.52
548.161	843.62
548.614	836.92
549.067	846.82
549.52	845.42
549.973	833.42
550.426	820.92
550.879	804.92
551.332	818.32
551.785	825.42
552.238	830.22
552.691	835.82
553.144	855.62
553.596	871.82
554.049	888.22
554.502	912.82
554.955	937.52
555.407	936.62
555.86	919.82
556.313	920.22
556.765	907.62
557.218	903.52
557.67	905.62
558.123	906.12
558.576	896.72
559.028	914.32
559.48	913.12
559.933	896.22
560.385	867.92
560.838	832.82
561.29	811.42
561.742	808.02
562.195	795.12
562.647	785.62
563.099	802.92
563.551	806.52
564.004	806.02
564.456	801.72
564.908	780.82
565.36	776.02
565.812	762.82
566.264	748.52
566.716	746.22
567.168	733.22
567.62	741.62
568.072	721.72
568.524	720.32
568.976	706.72
569.428	698.42
569.88	688.72
570.332	700.02
570.784	698.82
571.235	707.72
571.687	714.32
572.139	719.82
572.59	729.52
573.042	735.22
573.494	737.22
573.945	728.32
574.397	706.82
574.849	707.62
575.3	709.62
575.752	705.32
576.203	697.82
576.655	706.92
577.106	692.82
577.557	681.42
578.009	681.72
578.46	677.82
578.912	679.42
579.363	682.92
579.814	688.02
580.265	678.92
580.717	683.52
581.168	689.52
581.619	699.12
582.07	697.72
582.521	687.12
582.972	684.02
583.423	700.92
583.875	696.82
584.326	715.22
584.777	755.82
585.227	849.62
585.678	937.32
586.129	1029.82
586.58	1095.32
587.031	1183.72
587.482	1327.92
587.933	1516.72
588.384	1314.42
588.834	990.32
589.285	823.42
589.736	810.62
590.186	794.52
590.637	780.22
591.088	760.02
591.538	754.82
591.989	746.92
592.439	738.12
592.89	741.82
593.34	740.72
593.791	728.72
594.241	723.52
594.692	735.92
595.142	721.72
595.593	723.82
596.043	724.12
596.493	740.82
596.943	741.62
597.394	735.42
597.844	741.02
598.294	745.52
598.744	767.12
599.195	794.62
599.645	833.32
600.095	875.12
600.545	931.32
600.995	985.62
601.445	1045.22
601.895	1110.22
602.345	1154.22
602.795	1146.72
603.245	1090.52
603.695	1040.12
604.145	980.12
604.594	937.52
605.044	870.32
605.494	815.62
605.944	767.82
606.393	758.12
606.843	746.42
607.293	750.42
607.743	757.22
608.192	755.92
608.642	775.92
609.091	782.92
609.541	782.92
609.99	791.92
610.44	782.82
610.889	740.22
611.339	720.92
611.788	700.42
612.238	716.12
612.687	738.12
613.136	742.62
613.586	757.92
614.035	753.12
614.484	770.42
614.933	775.12
615.383	755.92
615.832	752.22
616.281	743.22
616.73	719.72
617.179	680.52
617.628	665.12
618.077	643.62
618.526	639.32
618.975	632.02
619.424	626.12
619.873	635.02
620.322	622.62
620.771	622.22
621.22	622.62
621.669	612.92
622.118	602.52
622.567	594.72
623.015	589.72
623.464	586.22
623.913	575.72
624.361	565.12
624.81	564.72
625.259	562.02
625.707	577.62
626.156	562.22
626.604	586.92
627.053	571.02
627.501	579.42
627.95	582.82
628.398	596.12
628.847	586.92
629.295	578.92
629.744	589.92
630.192	580.52
630.64	578.92
631.089	581.72
631.537	581.82
631.985	591.42
632.433	609.72
632.881	616.42
633.33	662.42
633.778	654.52
634.226	570.72
634.674	586.82
635.122	593.52
635.57	604.82
636.018	636.72
636.466	585.32
636.914	571.52
637.362	585.12
637.81	580.62
638.258	583.62
638.705	591.52
639.153	621.72
639.601	629.52
640.049	648.42
640.497	683.62
640.944	713.82
641.392	662.92
641.84	624.62
642.287	604.82
642.735	573.32
643.182	584.12
643.63	585.92
644.078	585.92
644.525	599.42
644.973	607.22
645.42	624.72
645.867	633.92
646.315	657.62
646.762	682.12
647.21	710.62
647.657	738.02
648.104	765.32
648.551	792.82
648.999	857.82
649.446	934.12
649.893	1023.42
650.34	1195.52
650.787	1424.32
651.234	1751.62
651.682	2318.22
652.129	3171.32
652.576	4566.22
653.023	6740.32
653.47	9232.22
653.917	11484.42
654.363	13305.12
654.81	14662.82
655.257	13964.52
655.704	9155.52
656.151	5417.42
656.598	3518.72
657.044	2486.92
657.491	1919.02
657.938	1518.12
658.385	1278.02
658.831	1098.62
659.278	992.82
659.724	876.02
660.171	804.62
660.618	737.02
661.064	695.92
661.511	687.72
661.957	671.02
662.404	656.32
662.85	673.42
663.296	638.62
663.743	576.12
664.189	549.62
664.635	543.02
665.082	539.42
665.528	537.32
665.974	526.92
666.42	513.02
666.867	515.22
667.313	506.52
667.759	489.72
668.205	485.22
668.651	495.42
669.097	486.12
669.543	509.32
669.989	483.52
670.435	459.72
670.881	451.22
671.327	454.42
671.773	476.52
672.219	496.52
672.665	550.92
673.11	596.92
673.556	630.82
674.002	677.42
674.448	664.92
674.893	561.72
675.339	483.62
675.785	448.32
676.23	424.52
676.676	407.12
677.122	389.02
677.567	382.42
678.013	375.72
678.458	370.02
678.904	364.32
679.349	351.62
679.794	353.32
680.24	358.22
680.685	353.02
681.131	355.52
681.576	356.12
682.021	361.32
682.466	365.62
682.912	357.82
683.357	358.42
683.802	385.32
684.247	416.62
684.692	461.82
685.137	494.82
685.583	543.82
686.028	564.82
686.473	521.12
686.918	444.62
687.363	420.42
687.807	397.42
688.252	370.12
688.697	365.02
689.142	342.72
689.587	340.02
690.032	331.62
690.477	343.62
690.921	356.32
691.366	390.82
691.811	411.62
692.255	432.72
692.7	461.82
693.145	503.62
693.589	708.22
694.034	1128.52
694.478	1543.52
694.923	1741.82
695.367	2287.42
695.812	1195.42
696.256	506.02
696.701	374.72
697.145	350.02
697.59	335.12
698.034	320.12
698.478	336.72
698.922	329.92
699.367	334.02
699.811	341.72
700.255	360.12
700.699	387.62
701.143	436.02
701.588	485.22
702.032	529.62
702.476	524.22
702.92	499.82
703.364	504.82
703.808	646.22
704.252	1042.92
704.696	1452.02
705.14	1682.92
705.584	2150.22
706.027	1074.52
706.471	529.82
706.915	400.42
707.359	351.82
707.803	325.82
708.246	313.72
708.69	317.52
709.134	317.32
709.577	318.22
710.021	320.62
710.465	305.32
710.908	307.52
711.352	302.72
711.795	325.62
712.239	360.12
712.682	385.42
713.126	425.42
713.569	468.72
714.012	378.42
714.456	326.62
714.899	299.62
715.342	279.12
715.786	266.92
716.229	257.02
716.672	261.62
717.115	248.82
717.558	253.82
718.002	258.32
718.445	274.22
718.888	288.82
719.331	293.82
719.774	317.02
720.217	304.02
720.66	293.82
721.103	274.12
721.546	263.22
721.989	258.02
722.432	235.52
722.874	242.32
723.317	230.92
723.76	241.02
724.203	259.52
724.645	326.42
725.088	447.82
725.531	575.72
725.974	651.12
726.416	557.82
726.859	303.62
727.301	252.52
727.744	239.12
728.187	237.12
728.629	241.22
729.071	243.22
729.514	262.82
729.956	274.22
730.399	287.82
730.841	292.52
731.283	273.42
731.726	271.12
732.168	259.02
732.61	267.92
733.053	287.72
733.495	315.32
733.937	351.92
734.379	404.72
734.821	441.32
735.263	548.52
735.705	836.22
736.148	1570.62
736.59	2597.22
737.032	3070.72
737.474	2488.92
737.916	821.42
738.357	433.42
738.799	334.72
739.241	300.52
739.683	291.92
740.125	298.52
740.567	300.72
741.008	325.42
741.45	323.42
741.892	317.22
742.334	351.32
742.775	362.62
743.217	345.52
743.658	276.52
744.1	256.92
744.542	262.82
744.983	314.82
745.425	343.72
745.866	347.32
746.307	286.52
746.749	284.42
747.19	325.62
747.632	462.42
748.073	874.42
748.514	1868.42
748.956	2859.12
749.397	3571.82
749.838	2967.92
750.279	2975.62
750.72	1505.82
751.162	541.32
751.603	326.62
752.044	253.92
752.485	218.42
752.926	209.62
753.367	205.92
753.808	192.42
754.249	186.32
754.69	189.12
755.131	185.72
755.572	189.32
756.013	179.42
756.453	188.32
756.894	190.72
757.335	190.02
757.776	201.62
758.216	196.42
758.657	203.22
759.098	206.02
759.538	227.52
759.979	270.42
760.42	375.02
760.86	699.62
761.301	1820.42
761.741	4417.52
762.182	6447.82
