Data from 20171114-ORNL-Ar_H_NY_Subt18_08-06-56-767.txt Node
Date: Tue Nov 14 08:06:56 EST 2017
User: Ender
Spectrometer: HR+D1039
Trigger mode: 0
Integration Time (sec): 2.730000E-2
Scans to average: 10
Electric dark correction enabled: true
Nonlinearity correction enabled: false
Boxcar width: 0
XAxis mode: Wavelengths
Number of Pixels in Spectrum: 2048
>>>>>Begin Spectral Data<<<<<
187.836	-2.25
188.309	-2.25
188.782	-2.25
189.255	-0.05
189.728	1.45
190.201	8.15
190.674	-2.45
191.147	6.95
191.619	-9.85
192.092	-0.65
192.565	5.25
193.038	-0.75
193.511	4.05
193.984	-3.25
194.456	-0.15
194.929	2.55
195.402	-6.85
195.874	-2.15
196.347	1.45
196.82	-6.05
197.292	3.25
197.765	-3.75
198.237	-8.45
198.71	-0.45
199.182	-4.35
199.655	2.65
200.127	-0.05
200.6	-0.65
201.072	-4.05
201.544	-7.45
202.017	-5.95
202.489	3.45
202.961	0.25
203.433	-8.15
203.906	-6.45
204.378	-5.35
204.85	-4.85
205.322	-8.75
205.794	-5.25
206.266	-9.15
206.739	-14.05
207.211	0.15
207.683	-9.65
208.155	-0.95
208.627	-6.65
209.099	-1.05
209.57	-4.65
210.042	-1.15
210.514	-8.85
210.986	-6.25
211.458	-13.45
211.93	-2.75
212.402	4.55
212.873	-9.65
213.345	-10.05
213.817	-8.95
214.288	-4.05
214.76	-10.35
215.232	-1.55
215.703	-7.25
216.175	-5.25
216.646	1.15
217.118	-2.35
217.589	-3.45
218.061	-10.65
218.532	-4.45
219.004	-6.45
219.475	-1.75
219.946	-1.75
220.418	-2.35
220.889	1.05
221.36	-2.35
221.832	-4.75
222.303	-6.65
222.774	-4.85
223.245	-11.75
223.717	-4.85
224.188	-6.05
224.659	-4.35
225.13	-5.15
225.601	-0.15
226.072	1.15
226.543	-1.95
227.014	2.05
227.485	0.15
227.956	-4.35
228.427	-3.05
228.898	5.15
229.369	3.45
229.839	-2.35
230.31	-6.65
230.781	3.85
231.252	-8.15
231.722	-7.15
232.193	0.75
232.664	-2.65
233.135	-1.45
233.605	-5.85
234.076	-12.15
234.546	-5.25
235.017	-0.75
235.487	1.25
235.958	-6.05
236.428	-7.35
236.899	-2.65
237.369	-9.35
237.84	-4.05
238.31	-1.35
238.78	-7.45
239.251	-9.65
239.721	-3.75
240.191	-2.25
240.662	-4.15
241.132	-4.25
241.602	-9.95
242.072	1.25
242.542	-1.35
243.013	0.25
243.483	-3.65
243.953	2.45
244.423	-5.75
244.893	-8.45
245.363	3.05
245.833	-1.55
246.303	-3.95
246.773	2.55
247.243	-0.15
247.712	-4.55
248.182	2.35
248.652	2.25
249.122	-7.45
249.592	-0.95
250.061	-2.05
250.531	12.25
251.001	-5.45
251.471	3.45
251.94	6.25
252.41	0.45
252.879	-6.65
253.349	4.95
253.818	5.85
254.288	4.55
254.757	-5.35
255.227	-3.85
255.696	-2.25
256.166	1.25
256.635	1.95
257.105	5.15
257.574	0.75
258.043	-2.05
258.513	-3.45
258.982	0.95
259.451	-9.15
259.92	-0.35
260.389	-6.05
260.859	2.65
261.328	-2.75
261.797	0.85
262.266	1.55
262.735	8.85
263.204	3.15
263.673	-2.95
264.142	-0.45
264.611	-5.35
265.08	-2.35
265.549	-4.35
266.018	4.45
266.487	-5.75
266.955	-5.05
267.424	-2.45
267.893	4.45
268.362	-1.75
268.83	-2.55
269.299	10.25
269.768	-1.95
270.236	0.85
270.705	-1.65
271.174	0.15
271.642	3.25
272.111	0.55
272.579	1.75
273.048	-0.05
273.516	6.15
273.985	-3.55
274.453	10.75
274.922	7.35
275.39	3.85
275.858	0.25
276.327	-2.65
276.795	10.15
277.263	4.75
277.731	11.55
278.2	10.55
278.668	8.65
279.136	9.85
279.604	4.05
280.072	10.55
280.54	3.75
281.008	8.05
281.477	15.45
281.945	7.55
282.413	10.95
282.881	11.45
283.348	2.85
283.816	10.45
284.284	7.15
284.752	16.65
285.22	7.95
285.688	9.95
286.156	10.15
286.623	8.85
287.091	3.95
287.559	11.65
288.026	3.95
288.494	10.85
288.962	-2.15
289.429	4.45
289.897	9.05
290.364	15.55
290.832	16.45
291.3	11.05
291.767	11.65
292.234	9.25
292.702	0.65
293.169	15.05
293.637	15.55
294.104	11.25
294.571	7.55
295.039	8.45
295.506	9.25
295.973	8.85
296.44	12.55
296.908	7.15
297.375	11.75
297.842	14.75
298.309	8.65
298.776	10.95
299.243	11.15
299.71	9.55
300.177	18.55
300.644	14.75
301.111	14.95
301.578	14.05
302.045	12.25
302.512	20.95
302.979	19.45
303.446	19.85
303.913	12.95
304.379	10.75
304.846	20.65
305.313	18.95
305.78	16.75
306.246	17.05
306.713	19.85
307.18	21.95
307.646	22.05
308.113	21.05
308.579	11.55
309.046	11.15
309.512	16.55
309.979	17.95
310.445	22.85
310.912	17.95
311.378	23.45
311.845	26.85
312.311	25.95
312.777	18.45
313.244	26.05
313.71	33.95
314.176	24.65
314.642	23.35
315.109	21.85
315.575	31.25
316.041	28.35
316.507	26.05
316.973	31.05
317.439	23.75
317.905	29.45
318.371	25.75
318.837	30.45
319.303	32.45
319.769	30.55
320.235	24.65
320.701	31.55
321.167	29.35
321.633	27.95
322.099	32.75
322.564	36.05
323.03	23.15
323.496	34.35
323.962	32.35
324.427	32.75
324.893	35.45
325.359	28.05
325.824	26.25
326.29	29.35
326.755	28.35
327.221	35.45
327.686	36.85
328.152	39.15
328.617	39.55
329.083	45.25
329.548	43.35
330.014	42.15
330.479	33.25
330.944	40.55
331.41	35.95
331.875	36.25
332.34	38.35
332.805	33.05
333.271	37.15
333.736	30.95
334.201	45.55
334.666	43.05
335.131	42.45
335.596	46.35
336.061	41.35
336.526	34.65
336.991	44.05
337.456	51.25
337.921	44.25
338.386	40.75
338.851	38.15
339.316	46.35
339.781	39.85
340.246	43.95
340.711	40.65
341.175	43.55
341.64	42.55
342.105	42.45
342.569	47.15
343.034	45.65
343.499	51.25
343.963	48.85
344.428	57.65
344.893	54.25
345.357	53.45
345.822	58.45
346.286	55.05
346.751	65.95
347.215	60.05
347.679	66.85
348.144	84.55
348.608	69.05
349.073	64.35
349.537	69.55
350.001	69.55
350.465	79.45
350.93	69.65
351.394	76.15
351.858	70.35
352.322	74.35
352.786	75.55
353.25	85.85
353.715	90.55
354.179	93.25
354.643	106.25
355.107	112.45
355.571	94.05
356.035	83.75
356.498	101.65
356.962	99.65
357.426	116.75
357.89	104.75
358.354	86.05
358.818	70.45
359.281	74.25
359.745	72.05
360.209	65.35
360.673	69.95
361.136	68.65
361.6	76.95
362.064	66.75
362.527	76.65
362.991	82.25
363.454	77.55
363.918	65.85
364.381	72.35
364.845	80.85
365.308	87.75
365.772	80.45
366.235	82.55
366.698	75.65
367.162	76.85
367.625	76.45
368.088	85.55
368.552	85.25
369.015	85.45
369.478	86.85
369.941	90.05
370.404	87.35
370.867	92.65
371.331	91.65
371.794	98.35
372.257	86.25
372.72	102.05
373.183	91.35
373.646	82.15
374.109	91.95
374.572	94.05
375.035	94.75
375.497	93.15
375.96	98.05
376.423	100.75
376.886	106.35
377.349	102.75
377.811	99.75
378.274	96.55
378.737	101.65
379.199	98.85
379.662	100.35
380.125	102.45
380.587	100.35
381.05	106.65
381.512	109.95
381.975	118.35
382.437	110.35
382.9	107.95
383.362	115.85
383.825	125.65
384.287	121.05
384.75	108.35
385.212	120.15
385.674	128.65
386.136	129.25
386.599	119.15
387.061	115.55
387.523	116.45
387.985	123.25
388.447	127.15
388.91	122.75
389.372	121.75
389.834	126.65
390.296	136.25
390.758	129.75
391.22	134.15
391.682	142.45
392.144	154.25
392.606	145.45
393.068	137.25
393.529	141.55
393.991	138.05
394.453	128.45
394.915	128.15
395.377	134.45
395.838	134.85
396.3	133.25
396.762	137.55
397.224	129.75
397.685	133.15
398.147	130.05
398.608	127.75
399.07	134.15
399.531	142.35
399.993	148.35
400.454	150.85
400.916	152.15
401.377	143.25
401.839	142.35
402.3	150.85
402.762	164.15
403.223	169.55
403.684	163.35
404.145	160.95
404.607	165.75
405.068	166.05
405.529	162.05
405.99	181.85
406.451	172.05
406.913	178.15
407.374	163.75
407.835	168.45
408.296	170.15
408.757	167.45
409.218	177.95
409.679	169.65
410.14	174.45
410.601	171.85
411.062	174.65
411.522	180.85
411.983	182.05
412.444	175.95
412.905	187.75
413.366	189.55
413.826	208.25
414.287	220.55
414.748	266.15
415.208	242.75
415.669	220.95
416.13	209.85
416.59	204.05
417.051	222.35
417.511	231.05
417.972	240.35
418.432	246.75
418.893	296.95
419.353	257.75
419.814	206.55
420.274	188.95
420.734	183.55
421.195	200.45
421.655	193.35
422.115	204.45
422.576	196.15
423.036	195.25
423.496	208.25
423.956	213.75
424.416	238.45
424.876	277.95
425.336	267.35
425.797	265.75
426.257	257.65
426.717	246.85
427.177	234.45
427.637	226.75
428.097	235.75
428.556	246.55
429.016	270.85
429.476	261.75
429.936	270.25
430.396	278.15
430.856	284.75
431.315	313.65
431.775	350.55
432.235	380.35
432.694	350.25
433.154	360.55
433.614	385.35
434.073	331.35
434.533	280.05
434.993	265.95
435.452	278.45
435.912	291.05
436.371	281.05
436.83	275.45
437.29	269.85
437.749	251.25
438.209	248.15
438.668	267.65
439.127	286.95
439.587	271.95
440.046	253.65
440.505	267.95
440.964	280.85
441.424	320.65
441.883	307.05
442.342	267.45
442.801	230.55
443.26	230.75
443.719	228.45
444.178	229.45
444.637	219.45
445.096	231.75
445.555	233.25
446.014	235.85
446.473	239.65
446.932	239.75
447.391	236.55
447.849	238.15
448.308	229.95
448.767	235.05
449.226	249.05
449.685	241.45
450.143	257.85
450.602	242.35
451.061	240.05
451.519	239.15
451.978	244.35
452.436	243.95
452.895	247.15
453.353	265.55
453.812	249.95
454.27	249.55
454.729	245.15
455.187	248.65
455.646	252.65
456.104	259.35
456.562	274.15
457.021	267.15
457.479	269.35
457.937	281.65
458.395	275.75
458.854	260.35
459.312	269.05
459.77	283.45
460.228	266.55
460.686	251.15
461.144	260.85
461.602	256.75
462.06	257.35
462.518	264.15
462.976	266.45
463.434	274.35
463.892	282.15
464.35	297.25
464.808	302.05
465.266	288.05
465.724	285.75
466.181	286.75
466.639	284.35
467.097	301.55
467.555	313.35
468.012	315.65
468.47	327.55
468.928	345.35
469.385	361.55
469.843	359.05
470.3	368.25
470.758	381.95
471.215	389.95
471.673	424.55
472.13	426.15
472.588	429.65
473.045	387.55
473.503	395.95
473.96	421.45
474.417	415.25
474.875	447.35
475.332	491.65
475.789	476.85
476.246	485.45
476.704	506.35
477.161	522.25
477.618	548.25
478.075	579.55
478.532	622.05
478.989	706.55
479.446	813.65
479.903	771.25
480.36	808.65
480.817	857.55
481.274	956.35
481.731	1043.55
482.188	1122.95
482.645	1237.95
483.102	1343.95
483.558	1455.15
484.015	1498.15
484.472	1472.95
484.929	1426.05
485.385	1385.75
485.842	1354.05
486.299	1320.95
486.755	1259.45
487.212	1082.05
487.668	932.35
488.125	858.25
488.582	795.95
489.038	759.55
489.494	726.65
489.951	701.45
490.407	684.65
490.864	677.95
491.32	660.25
491.776	659.55
492.233	672.55
492.689	636.65
493.145	645.45
493.602	628.25
494.058	646.95
494.514	642.75
494.97	664.35
495.426	679.65
495.882	643.95
496.338	633.45
496.794	653.95
497.251	649.45
497.707	668.85
498.163	666.85
498.618	684.45
499.074	668.45
499.53	701.25
499.986	692.35
500.442	671.95
500.898	650.65
501.354	646.05
501.809	657.55
502.265	651.55
502.721	664.35
503.177	673.15
503.632	674.95
504.088	680.65
504.543	702.55
504.999	729.75
505.455	685.75
505.91	665.25
506.366	666.25
506.821	672.45
507.277	659.05
507.732	673.05
508.187	663.95
508.643	672.25
509.098	670.65
509.553	690.55
510.009	701.25
510.464	716.45
510.919	729.05
511.375	728.05
511.83	751.15
512.285	757.35
512.74	800.15
513.195	824.45
513.65	802.95
514.105	806.05
514.56	808.85
515.015	832.55
515.47	842.95
515.925	822.45
516.38	830.15
516.835	844.95
517.29	823.45
517.745	811.35
518.2	807.05
518.655	794.35
519.109	774.65
519.564	781.45
520.019	771.75
520.474	767.55
520.928	764.15
521.383	754.95
521.838	755.15
522.292	746.75
522.747	745.55
523.201	747.15
523.656	737.95
524.11	739.95
524.565	730.45
525.019	735.25
525.474	738.35
525.928	728.15
526.382	734.35
526.837	733.95
527.291	742.35
527.745	729.75
528.2	738.75
528.654	733.45
529.108	719.95
529.562	726.05
530.016	722.05
530.47	729.55
530.925	733.95
531.379	730.35
531.833	744.85
532.287	739.45
532.741	740.95
533.195	739.05
533.649	751.45
534.103	754.35
534.556	746.65
535.01	743.05
535.464	736.05
535.918	748.25
536.372	761.05
536.826	753.05
537.279	745.15
537.733	739.75
538.187	763.65
538.64	756.05
539.094	763.15
539.548	775.65
540.001	758.55
540.455	754.65
540.908	768.65
541.362	775.85
541.815	786.55
542.269	796.95
542.722	801.15
543.175	807.75
543.629	805.95
544.082	826.95
544.536	840.85
544.989	834.15
545.442	842.15
545.895	839.15
546.349	831.25
546.802	836.35
547.255	843.75
547.708	847.85
548.161	866.75
548.614	862.55
549.067	873.45
549.52	866.95
549.973	853.05
550.426	850.95
550.879	847.75
551.332	853.65
551.785	861.45
552.238	853.65
552.691	866.75
553.144	888.05
553.596	894.55
554.049	917.05
554.502	941.85
554.955	968.05
555.407	964.15
555.86	947.35
556.313	956.25
556.765	935.75
557.218	934.45
557.67	933.95
558.123	927.85
558.576	923.95
559.028	926.45
559.48	939.45
559.933	924.15
560.385	884.45
560.838	859.75
561.29	836.05
561.742	829.85
562.195	818.45
562.647	812.55
563.099	830.75
563.551	814.55
564.004	833.55
564.456	822.65
564.908	802.65
565.36	782.25
565.812	776.45
566.264	760.45
566.716	759.95
567.168	746.15
567.62	754.35
568.072	738.95
568.524	729.15
568.976	712.35
569.428	711.95
569.88	720.75
570.332	720.65
570.784	713.25
571.235	724.75
571.687	729.95
572.139	742.05
572.59	750.55
573.042	759.05
573.494	748.15
573.945	747.65
574.397	722.45
574.849	724.35
575.3	723.95
575.752	723.85
576.203	722.95
576.655	715.85
577.106	709.45
577.557	714.95
578.009	707.75
578.46	699.95
578.912	701.25
579.363	699.75
579.814	709.05
580.265	699.25
580.717	701.95
581.168	705.85
581.619	717.45
582.07	720.75
582.521	702.95
582.972	702.15
583.423	709.35
583.875	727.05
584.326	714.35
584.777	732.95
585.227	752.45
585.678	775.35
586.129	778.55
586.58	806.75
587.031	837.75
587.482	884.35
587.933	909.65
588.384	880.55
588.834	839.45
589.285	817.55
589.736	805.05
590.186	812.75
590.637	799.65
591.088	787.35
591.538	776.65
591.989	774.85
592.439	760.15
592.89	756.85
593.34	745.95
593.791	745.15
594.241	737.65
594.692	736.15
595.142	740.85
595.593	746.05
596.043	736.85
596.493	745.75
596.943	740.85
597.394	758.95
597.844	751.65
598.294	771.25
598.744	794.65
599.195	819.55
599.645	848.85
600.095	893.45
600.545	964.85
600.995	1024.35
601.445	1077.35
601.895	1149.05
602.345	1188.25
602.795	1168.35
603.245	1116.65
603.695	1068.15
604.145	1014.75
604.594	966.55
605.044	907.15
605.494	842.65
605.944	811.55
606.393	775.95
606.843	756.75
607.293	775.85
607.743	768.05
608.192	773.85
608.642	788.25
609.091	799.25
609.541	797.05
609.99	786.75
610.44	785.05
610.889	744.65
611.339	732.25
611.788	709.25
612.238	729.85
612.687	733.65
613.136	725.25
613.586	733.55
614.035	726.95
614.484	743.95
614.933	743.65
615.383	745.85
615.832	736.95
616.281	726.75
616.73	707.75
617.179	690.45
617.628	674.65
618.077	662.85
618.526	652.15
618.975	641.05
619.424	638.85
619.873	646.75
620.322	646.15
620.771	635.25
621.22	626.95
621.669	622.95
622.118	612.05
622.567	603.95
623.015	597.25
623.464	592.55
623.913	581.75
624.361	580.25
624.81	579.05
625.259	579.25
625.707	575.45
626.156	581.85
626.604	596.45
627.053	586.65
627.501	582.85
627.95	598.95
628.398	617.45
628.847	597.75
629.295	595.05
629.744	604.75
630.192	593.35
630.64	583.95
631.089	568.65
631.537	565.05
631.985	551.55
632.433	562.85
632.881	552.25
633.33	556.65
633.778	543.45
634.226	553.55
634.674	560.35
635.122	565.95
635.57	573.65
636.018	582.15
636.466	583.95
636.914	576.55
637.362	592.25
637.81	595.35
638.258	602.05
638.705	605.85
639.153	638.75
639.601	643.45
640.049	663.35
640.497	697.65
640.944	711.65
641.392	673.25
641.84	630.35
642.287	611.15
642.735	588.45
643.182	592.65
643.63	584.35
644.078	582.35
644.525	590.55
644.973	611.85
645.42	619.05
645.867	645.55
646.315	665.65
646.762	681.55
647.21	706.45
647.657	728.25
648.104	758.75
648.551	780.45
648.999	839.25
649.446	914.35
649.893	991.65
650.34	1150.95
650.787	1358.45
651.234	1677.95
651.682	2145.85
652.129	2911.25
652.576	4128.35
653.023	6010.45
653.47	8177.35
653.917	10138.75
654.363	11707.05
654.81	12898.85
655.257	12245.55
655.704	8087.85
656.151	4875.25
656.598	3207.45
657.044	2295.45
657.491	1783.75
657.938	1444.95
658.385	1210.75
658.831	1063.75
659.278	958.05
659.724	857.25
660.171	783.05
660.618	725.85
661.064	703.65
661.511	677.15
661.957	655.75
662.404	653.95
662.85	660.55
663.296	638.55
663.743	572.75
664.189	550.15
664.635	540.95
665.082	541.35
665.528	550.05
665.974	536.55
666.42	525.75
666.867	523.95
667.313	498.85
667.759	486.75
668.205	473.05
668.651	472.95
669.097	465.35
669.543	455.05
669.989	460.75
670.435	460.35
670.881	450.35
671.327	465.15
671.773	488.75
672.219	513.55
672.665	571.65
673.11	610.95
673.556	659.95
674.002	699.25
674.448	688.05
674.893	577.15
675.339	504.75
675.785	468.45
676.23	439.65
676.676	404.95
677.122	399.25
677.567	389.25
678.013	383.25
678.458	379.25
678.904	382.95
679.349	366.05
679.794	370.65
680.24	371.85
680.685	355.35
681.131	358.35
681.576	368.15
682.021	379.45
682.466	357.45
682.912	368.75
683.357	371.35
683.802	400.45
684.247	437.05
684.692	476.55
685.137	517.15
685.583	562.25
686.028	588.25
686.473	539.45
686.918	458.85
687.363	438.45
687.807	412.75
688.252	375.95
688.697	371.95
689.142	359.35
689.587	347.75
690.032	346.85
690.477	359.95
690.921	372.85
691.366	398.55
691.811	419.45
692.255	453.05
692.7	483.75
693.145	533.75
693.589	732.35
694.034	1202.15
694.478	1615.15
694.923	1818.85
695.367	2375.35
695.812	1262.85
696.256	525.85
696.701	392.75
697.145	365.45
697.59	351.75
698.034	327.35
698.478	343.65
698.922	332.05
699.367	335.45
699.811	357.45
700.255	374.35
700.699	398.85
701.143	438.45
701.588	494.35
702.032	536.45
702.476	532.35
702.92	516.75
703.364	521.75
703.808	681.05
704.252	1082.75
704.696	1545.95
705.14	1758.35
705.584	2239.25
706.027	1122.35
706.471	548.15
706.915	421.55
707.359	368.35
707.803	335.45
708.246	329.05
708.69	327.55
709.134	326.85
709.577	327.65
710.021	327.05
710.465	313.15
710.908	306.75
711.352	315.05
711.795	328.05
712.239	364.35
712.682	407.45
713.126	433.65
713.569	478.05
714.012	374.45
714.456	318.35
714.899	301.55
715.342	295.85
715.786	274.15
716.229	266.15
716.672	264.85
717.115	259.05
717.558	262.95
718.002	259.65
718.445	273.45
718.888	293.05
719.331	300.55
719.774	314.25
720.217	324.35
720.66	290.75
721.103	287.85
721.546	266.65
721.989	266.65
722.432	243.35
722.874	246.65
723.317	239.85
723.76	246.45
724.203	262.85
724.645	329.65
725.088	463.65
725.531	596.45
725.974	676.45
726.416	571.55
726.859	323.65
727.301	259.45
727.744	245.25
728.187	246.95
728.629	250.95
729.071	254.05
729.514	265.25
729.956	284.95
730.399	297.25
730.841	307.15
731.283	293.65
731.726	282.25
732.168	271.45
732.61	282.05
733.053	305.25
733.495	333.35
733.937	378.55
734.379	428.15
734.821	463.55
735.263	572.45
735.705	873.65
736.148	1679.25
736.59	2737.85
737.032	3227.95
737.474	2627.35
737.916	864.75
738.357	446.75
738.799	340.15
739.241	322.65
739.683	299.25
740.125	314.25
740.567	315.45
741.008	325.25
741.45	333.15
741.892	337.95
742.334	370.85
742.775	384.85
743.217	365.45
743.658	278.05
744.1	270.15
744.542	279.75
744.983	335.55
745.425	364.95
745.866	365.35
746.307	295.75
746.749	290.25
747.19	341.25
747.632	483.05
748.073	947.95
748.514	1980.75
748.956	3023.65
749.397	3776.65
749.838	3142.25
750.279	3110.85
750.72	1578.25
751.162	587.75
751.603	340.05
752.044	266.75
752.485	228.65
752.926	221.15
753.367	207.85
753.808	203.65
754.249	193.85
754.69	192.45
755.131	195.35
755.572	193.55
756.013	185.35
756.453	192.35
756.894	197.45
757.335	197.55
757.776	204.25
758.216	201.85
758.657	212.95
759.098	211.75
759.538	242.05
759.979	288.85
760.42	405.75
760.86	748.05
761.301	1941.65
761.741	4690.45
762.182	6773.65
762.622	4829.35
763.063	1392.55
