Data from 20171114-ORNL-Ar_H_NY_Subt18_08-06-00-807.txt Node
Date: Tue Nov 14 08:06:00 EST 2017
User: Ender
Spectrometer: HR+D1039
Trigger mode: 0
Integration Time (sec): 2.730000E-2
Scans to average: 10
Electric dark correction enabled: true
Nonlinearity correction enabled: false
Boxcar width: 0
XAxis mode: Wavelengths
Number of Pixels in Spectrum: 2048
>>>>>Begin Spectral Data<<<<<
187.836	-6.69
188.309	-6.69
188.782	-6.69
189.255	-0.49
189.728	-0.29
190.201	8.61
190.674	1.21
191.147	1.21
191.619	-7.09
192.092	-2.89
192.565	9.01
193.038	-1.79
193.511	0.21
193.984	4.81
194.456	-2.29
194.929	-3.89
195.402	0.01
195.874	0.41
196.347	-3.59
196.82	-9.09
197.292	2.61
197.765	0.01
198.237	-4.79
198.71	5.31
199.182	-4.79
199.655	1.31
200.127	5.11
200.6	-7.19
201.072	3.81
201.544	-2.19
202.017	-1.69
202.489	2.71
202.961	1.91
203.433	0.41
203.906	-3.29
204.378	-13.19
204.85	-3.49
205.322	-12.49
205.794	-1.69
206.266	-7.79
206.739	-13.89
207.211	2.21
207.683	-6.79
208.155	-6.69
208.627	-7.79
209.099	-6.39
209.57	-2.09
210.042	-2.59
210.514	-5.39
210.986	-2.39
211.458	-9.99
211.93	-2.99
212.402	4.21
212.873	-5.59
213.345	-9.19
213.817	-7.79
214.288	-5.49
214.76	-10.09
215.232	-5.09
215.703	-3.79
216.175	-3.69
216.646	-8.19
217.118	-9.39
217.589	-8.59
218.061	-2.29
218.532	-5.89
219.004	-1.79
219.475	-4.69
219.946	-1.79
220.418	-5.29
220.889	3.51
221.36	-1.39
221.832	-3.89
222.303	-8.19
222.774	6.31
223.245	-10.39
223.717	-6.89
224.188	-10.09
224.659	-7.49
225.13	-3.49
225.601	1.11
226.072	-1.29
226.543	-0.19
227.014	-0.79
227.485	-5.79
227.956	-6.49
228.427	-3.69
228.898	1.41
229.369	1.01
229.839	0.11
230.31	-5.29
230.781	5.91
231.252	-4.49
231.722	-7.19
232.193	-3.29
232.664	3.41
233.135	0.31
233.605	-3.79
234.076	-3.29
234.546	-1.89
235.017	2.51
235.487	1.71
235.958	-2.19
236.428	-6.49
236.899	2.31
237.369	4.41
237.84	-5.99
238.31	7.61
238.78	-0.29
239.251	0.51
239.721	3.31
240.191	-2.29
240.662	-2.19
241.132	-3.49
241.602	-3.79
242.072	5.21
242.542	6.41
243.013	-5.49
243.483	7.71
243.953	1.81
244.423	-1.19
244.893	-5.39
245.363	0.11
245.833	2.91
246.303	-3.29
246.773	8.51
247.243	0.61
247.712	2.81
248.182	9.01
248.652	5.31
249.122	1.41
249.592	19.31
250.061	26.51
250.531	37.01
251.001	16.11
251.471	24.51
251.94	20.31
252.41	5.51
252.879	-0.79
253.349	13.41
253.818	11.71
254.288	1.81
254.757	5.41
255.227	0.21
255.696	-0.59
256.166	-0.99
256.635	7.81
257.105	12.41
257.574	10.61
258.043	8.41
258.513	10.11
258.982	13.31
259.451	9.81
259.92	11.51
260.389	9.81
260.859	19.21
261.328	15.11
261.797	19.51
262.266	10.31
262.735	14.71
263.204	3.81
263.673	1.71
264.142	7.71
264.611	5.31
265.08	-2.39
265.549	1.71
266.018	4.81
266.487	-1.09
266.955	3.41
267.424	3.21
267.893	10.41
268.362	4.91
268.83	3.01
269.299	11.81
269.768	7.61
270.236	8.01
270.705	7.51
271.174	8.91
271.642	10.31
272.111	12.41
272.579	13.41
273.048	24.21
273.516	29.91
273.985	26.41
274.453	27.51
274.922	18.71
275.39	15.31
275.858	9.31
276.327	12.11
276.795	17.11
277.263	13.11
277.731	30.21
278.2	53.41
278.668	58.71
279.136	50.81
279.604	25.01
280.072	14.01
280.54	10.31
281.008	15.11
281.477	14.31
281.945	14.01
282.413	17.01
282.881	12.81
283.348	9.81
283.816	14.21
284.284	12.41
284.752	27.21
285.22	14.31
285.688	17.41
286.156	17.31
286.623	45.41
287.091	52.31
287.559	28.01
288.026	11.31
288.494	19.21
288.962	11.71
289.429	7.31
289.897	23.11
290.364	16.31
290.832	20.21
291.3	14.91
291.767	21.41
292.234	21.11
292.702	15.11
293.169	14.01
293.637	23.91
294.104	20.61
294.571	10.31
295.039	17.41
295.506	18.81
295.973	21.81
296.44	22.21
296.908	16.71
297.375	17.61
297.842	25.11
298.309	17.51
298.776	17.31
299.243	21.81
299.71	18.01
300.177	28.31
300.644	23.51
301.111	19.21
301.578	25.31
302.045	20.61
302.512	28.31
302.979	22.51
303.446	21.71
303.913	21.71
304.379	21.11
304.846	26.81
305.313	27.81
305.78	29.91
306.246	25.51
306.713	27.01
307.18	26.91
307.646	27.41
308.113	27.01
308.579	25.81
309.046	28.81
309.512	22.81
309.979	20.71
310.445	32.61
310.912	34.61
311.378	29.41
311.845	31.61
312.311	32.21
312.777	30.71
313.244	34.91
313.71	40.71
314.176	33.71
314.642	34.41
315.109	33.91
315.575	33.71
316.041	38.31
316.507	35.31
316.973	45.61
317.439	36.71
317.905	37.71
318.371	36.41
318.837	36.41
319.303	41.01
319.769	38.51
320.235	40.01
320.701	38.91
321.167	38.41
321.633	38.01
322.099	44.51
322.564	47.01
323.03	42.51
323.496	34.91
323.962	44.71
324.427	36.51
324.893	45.01
325.359	43.81
325.824	39.51
326.29	35.81
326.755	36.61
327.221	42.91
327.686	42.91
328.152	44.31
328.617	40.71
329.083	47.41
329.548	54.51
330.014	49.01
330.479	44.51
330.944	48.61
331.41	45.01
331.875	47.91
332.34	47.71
332.805	40.71
333.271	44.81
333.736	52.21
334.201	57.11
334.666	54.91
335.131	59.41
335.596	49.71
336.061	53.71
336.526	43.81
336.991	53.41
337.456	54.91
337.921	54.81
338.386	52.01
338.851	45.41
339.316	44.91
339.781	48.81
340.246	48.01
340.711	51.01
341.175	59.91
341.64	47.61
342.105	51.91
342.569	57.51
343.034	64.91
343.499	58.41
343.963	61.81
344.428	64.11
344.893	60.31
345.357	57.81
345.822	63.91
346.286	68.71
346.751	75.51
347.215	73.91
347.679	75.31
348.144	101.61
348.608	90.51
349.073	70.51
349.537	72.61
350.001	82.61
350.465	93.71
350.93	82.31
351.394	88.81
351.858	76.21
352.322	89.21
352.786	95.01
353.25	104.21
353.715	122.31
354.179	99.81
354.643	125.91
355.107	136.51
355.571	116.81
356.035	100.91
356.498	121.51
356.962	128.01
357.426	133.91
357.89	121.11
358.354	98.81
358.818	83.21
359.281	79.51
359.745	83.31
360.209	85.61
360.673	77.41
361.136	89.91
361.6	93.41
362.064	86.51
362.527	89.51
362.991	88.91
363.454	82.51
363.918	79.01
364.381	83.51
364.845	80.01
365.308	87.11
365.772	94.21
366.235	90.61
366.698	84.71
367.162	89.81
367.625	95.11
368.088	85.71
368.552	92.81
369.015	93.51
369.478	99.21
369.941	97.71
370.404	95.41
370.867	107.41
371.331	111.01
371.794	117.31
372.257	113.31
372.72	121.61
373.183	115.21
373.646	103.61
374.109	107.41
374.572	110.31
375.035	113.81
375.497	114.51
375.96	106.91
376.423	103.71
376.886	113.71
377.349	120.51
377.811	106.81
378.274	117.61
378.737	108.11
379.199	114.21
379.662	116.61
380.125	118.41
380.587	120.11
381.05	125.51
381.512	132.21
381.975	140.91
382.437	132.41
382.9	127.91
383.362	136.21
383.825	139.51
384.287	155.11
384.75	144.71
385.212	143.91
385.674	145.21
386.136	146.51
386.599	132.71
387.061	135.01
387.523	135.91
387.985	137.61
388.447	144.91
388.91	149.71
389.372	162.01
389.834	160.81
390.296	150.21
390.758	161.81
391.22	179.41
391.682	209.81
392.144	304.61
392.606	237.01
393.068	174.01
393.529	168.11
393.991	157.91
394.453	152.61
394.915	165.01
395.377	200.61
395.838	227.41
396.3	158.31
396.762	137.11
397.224	137.91
397.685	134.21
398.147	137.71
398.608	135.11
399.07	133.41
399.531	140.51
399.993	145.21
400.454	163.91
400.916	151.41
401.377	150.81
401.839	157.91
402.3	149.71
402.762	173.21
403.223	194.31
403.684	178.21
404.145	162.31
404.607	169.51
405.068	163.91
405.529	177.11
405.99	198.01
406.451	180.81
406.913	180.71
407.374	174.11
407.835	167.31
408.296	170.41
408.757	175.81
409.218	183.41
409.679	190.51
410.14	187.61
410.601	187.21
411.062	195.11
411.522	199.11
411.983	199.31
412.444	182.41
412.905	188.91
413.366	178.81
413.826	199.41
414.287	224.41
414.748	266.11
415.208	251.71
415.669	218.51
416.13	209.41
416.59	211.41
417.051	222.91
417.511	226.31
417.972	247.91
418.432	252.81
418.893	296.81
419.353	253.01
419.814	205.21
420.274	187.71
420.734	185.91
421.195	205.71
421.655	203.51
422.115	197.31
422.576	199.21
423.036	200.71
423.496	209.91
423.956	227.31
424.416	234.81
424.876	269.01
425.336	261.91
425.797	272.31
426.257	260.61
426.717	245.81
427.177	234.21
427.637	238.71
428.097	249.81
428.556	254.71
429.016	280.61
429.476	270.91
429.936	276.71
430.396	289.91
430.856	298.01
431.315	335.11
431.775	368.21
432.235	399.91
432.694	368.81
433.154	374.51
433.614	404.11
434.073	353.51
434.533	296.61
434.993	279.41
435.452	290.21
435.912	300.41
436.371	296.31
436.83	293.51
437.29	281.21
437.749	256.71
438.209	255.41
438.668	288.91
439.127	292.21
439.587	268.51
440.046	253.41
440.505	270.21
440.964	287.91
441.424	328.21
441.883	326.01
442.342	264.31
442.801	230.71
443.26	229.11
443.719	227.91
444.178	227.51
444.637	218.21
445.096	227.81
445.555	227.61
446.014	227.51
446.473	229.71
446.932	241.91
447.391	237.21
447.849	236.41
448.308	226.21
448.767	226.31
449.226	244.11
449.685	249.71
450.143	261.71
450.602	248.21
451.061	231.91
451.519	238.61
451.978	236.21
452.436	242.51
452.895	239.91
453.353	257.81
453.812	248.61
454.27	251.61
454.729	250.51
455.187	253.81
455.646	258.11
456.104	251.41
456.562	271.91
457.021	277.51
457.479	268.81
457.937	279.51
458.395	264.11
458.854	258.11
459.312	266.41
459.77	282.31
460.228	259.11
460.686	255.61
461.144	253.01
461.602	256.21
462.06	247.41
462.518	261.91
462.976	262.21
463.434	264.71
463.892	262.31
464.35	288.51
464.808	299.01
465.266	277.51
465.724	277.21
466.181	286.71
466.639	292.01
467.097	291.61
467.555	312.81
468.012	310.41
468.47	322.81
468.928	334.01
469.385	353.71
469.843	356.71
470.3	365.91
470.758	373.71
471.215	392.81
471.673	428.61
472.13	425.61
472.588	434.31
473.045	386.81
473.503	390.41
473.96	406.41
474.417	418.81
474.875	444.01
475.332	487.81
475.789	479.51
476.246	481.01
476.704	500.61
477.161	525.61
477.618	545.21
478.075	578.71
478.532	635.11
478.989	712.51
479.446	832.71
479.903	799.51
480.36	838.21
480.817	889.81
481.274	990.91
481.731	1111.31
482.188	1207.21
482.645	1340.31
483.102	1449.01
483.558	1585.61
484.015	1643.81
484.472	1619.91
484.929	1568.31
485.385	1519.31
485.842	1465.81
486.299	1412.71
486.755	1337.71
487.212	1126.81
487.668	960.41
488.125	867.11
488.582	806.71
489.038	775.11
489.494	740.11
489.951	713.21
490.407	694.91
490.864	663.41
491.32	661.01
491.776	665.11
492.233	664.31
492.689	633.81
493.145	616.41
493.602	611.91
494.058	632.81
494.514	636.91
494.97	655.31
495.426	672.31
495.882	643.11
496.338	636.61
496.794	644.91
497.251	631.71
497.707	653.61
498.163	653.41
498.618	674.91
499.074	665.01
499.53	700.41
499.986	702.91
500.442	665.31
500.898	651.91
501.354	647.61
501.809	655.51
502.265	651.81
502.721	674.11
503.177	690.61
503.632	689.51
504.088	704.71
504.543	729.51
504.999	735.21
505.455	683.41
505.91	654.41
506.366	649.21
506.821	642.51
507.277	637.41
507.732	645.01
508.187	645.61
508.643	646.11
509.098	648.41
509.553	664.51
510.009	687.01
510.464	691.61
510.919	716.11
511.375	718.41
511.83	723.51
512.285	744.81
512.74	782.71
513.195	810.01
513.65	791.31
514.105	791.31
514.56	790.91
515.015	816.31
515.47	833.01
515.925	819.71
516.38	806.71
516.835	811.71
517.29	804.21
517.745	808.11
518.2	785.41
518.655	771.51
519.109	751.21
519.564	761.91
520.019	758.51
520.474	744.81
520.928	748.51
521.383	735.91
521.838	729.71
522.292	727.31
522.747	716.01
523.201	720.41
523.656	718.41
524.11	705.91
524.565	705.31
525.019	707.41
525.474	719.51
525.928	721.61
526.382	714.11
526.837	713.71
527.291	724.71
527.745	713.91
528.2	718.21
528.654	721.61
529.108	708.31
529.562	712.31
530.016	711.01
530.47	705.51
530.925	711.11
531.379	715.71
531.833	731.81
532.287	706.31
532.741	722.41
533.195	717.21
533.649	731.11
534.103	742.11
534.556	723.51
535.01	735.81
535.464	723.01
535.918	734.31
536.372	737.01
536.826	734.21
537.279	733.41
537.733	728.31
538.187	732.21
538.64	735.61
539.094	742.31
539.548	748.51
540.001	736.51
540.455	731.41
540.908	746.51
541.362	761.31
541.815	765.81
542.269	780.81
542.722	782.41
543.175	783.11
543.629	796.31
544.082	806.41
544.536	808.81
544.989	802.01
545.442	809.91
545.895	807.91
546.349	802.51
546.802	804.61
547.255	805.01
547.708	825.61
548.161	841.91
548.614	834.41
549.067	853.11
549.52	832.11
549.973	820.41
550.426	817.11
550.879	810.61
551.332	816.11
551.785	825.11
552.238	833.41
552.691	831.51
553.144	850.41
553.596	868.41
554.049	868.21
554.502	917.21
554.955	939.51
555.407	923.61
555.86	914.91
556.313	913.01
556.765	894.41
557.218	896.91
557.67	906.01
558.123	894.91
558.576	888.21
559.028	890.51
559.48	889.31
559.933	889.31
560.385	867.01
560.838	821.11
561.29	801.71
561.742	791.51
562.195	779.41
562.647	775.01
563.099	788.21
563.551	784.51
564.004	797.71
564.456	782.91
564.908	777.41
565.36	769.21
565.812	747.81
566.264	743.91
566.716	727.41
567.168	728.61
567.62	731.21
568.072	720.91
568.524	717.21
568.976	706.11
569.428	689.51
569.88	685.21
570.332	695.21
570.784	692.61
571.235	687.31
571.687	709.71
572.139	721.61
572.59	730.61
573.042	724.31
573.494	720.51
573.945	723.01
574.397	703.11
574.849	701.31
575.3	697.91
575.752	687.91
576.203	696.01
576.655	690.81
577.106	687.81
577.557	681.71
578.009	667.01
578.46	672.51
578.912	675.01
579.363	678.71
579.814	677.21
580.265	669.41
580.717	683.81
581.168	684.81
581.619	688.31
582.07	688.51
582.521	679.81
582.972	678.11
583.423	689.01
583.875	691.01
584.326	717.61
584.777	751.81
585.227	820.71
585.678	915.21
586.129	993.21
586.58	1075.91
587.031	1153.51
587.482	1307.61
587.933	1487.41
588.384	1297.21
588.834	979.91
589.285	813.61
589.736	783.51
590.186	786.41
590.637	777.81
591.088	758.71
591.538	746.21
591.989	736.91
592.439	737.31
592.89	733.71
593.34	722.31
593.791	725.41
594.241	715.91
594.692	712.21
595.142	710.41
595.593	705.21
596.043	723.21
596.493	720.41
596.943	723.51
597.394	735.91
597.844	725.11
598.294	739.01
598.744	758.31
599.195	780.01
599.645	820.21
600.095	859.51
600.545	924.61
600.995	971.31
601.445	1027.91
601.895	1094.11
602.345	1128.31
602.795	1123.21
603.245	1076.01
603.695	1015.41
604.145	962.01
604.594	917.21
605.044	865.61
605.494	805.81
605.944	753.81
606.393	745.51
606.843	734.01
607.293	743.71
607.743	741.91
608.192	752.11
608.642	764.01
609.091	765.71
609.541	782.21
609.99	772.81
610.44	774.81
610.889	725.31
611.339	704.31
611.788	693.31
612.238	712.01
612.687	725.61
613.136	726.91
613.586	738.21
614.035	738.91
614.484	753.91
614.933	763.31
615.383	749.11
615.832	745.01
616.281	720.61
616.73	700.41
617.179	678.51
617.628	660.81
618.077	650.71
618.526	630.61
618.975	616.51
619.424	618.01
619.873	625.81
620.322	621.01
620.771	616.81
621.22	610.01
621.669	601.91
622.118	585.61
622.567	583.31
623.015	580.91
623.464	576.91
623.913	559.91
624.361	557.71
624.81	555.01
625.259	546.41
625.707	556.01
626.156	566.01
626.604	570.31
627.053	550.71
627.501	565.71
627.95	574.31
628.398	578.41
628.847	573.21
629.295	568.81
629.744	587.41
630.192	559.81
630.64	579.01
631.089	569.91
631.537	576.31
631.985	591.51
632.433	600.01
632.881	602.91
633.33	648.91
633.778	647.01
634.226	582.21
634.674	568.01
635.122	581.21
635.57	600.01
636.018	621.31
636.466	582.41
636.914	558.51
637.362	575.01
637.81	574.81
638.258	589.01
638.705	579.51
639.153	603.61
639.601	617.61
640.049	649.41
640.497	683.01
640.944	688.01
641.392	640.11
641.84	618.51
642.287	590.61
642.735	578.51
643.182	568.71
643.63	575.21
644.078	571.61
644.525	590.01
644.973	584.21
645.42	597.11
645.867	624.71
646.315	634.41
646.762	673.21
647.21	699.51
647.657	710.91
648.104	752.51
648.551	770.21
648.999	842.51
649.446	922.11
649.893	1006.11
650.34	1149.81
650.787	1383.51
651.234	1725.81
651.682	2241.21
652.129	3080.31
652.576	4454.11
653.023	6542.61
653.47	8959.91
653.917	11220.41
654.363	13034.21
654.81	14391.71
655.257	13686.91
655.704	8937.81
656.151	5293.01
656.598	3447.71
657.044	2438.71
657.491	1874.51
657.938	1491.41
658.385	1241.31
658.831	1084.91
659.278	973.61
659.724	850.41
660.171	788.81
660.618	723.11
661.064	686.31
661.511	660.01
661.957	652.01
662.404	652.11
662.85	640.71
663.296	628.81
663.743	569.01
664.189	543.11
664.635	532.01
665.082	525.81
665.528	535.11
665.974	517.71
666.42	513.01
666.867	505.21
667.313	494.01
667.759	469.31
668.205	470.21
668.651	482.11
669.097	481.01
669.543	499.51
669.989	469.71
670.435	448.51
670.881	447.71
671.327	453.31
671.773	471.91
672.219	482.41
672.665	546.31
673.11	578.31
673.556	634.01
674.002	658.41
674.448	640.21
674.893	543.81
675.339	466.41
675.785	431.81
676.23	419.51
676.676	389.21
677.122	376.61
677.567	375.31
678.013	369.61
678.458	354.81
678.904	354.21
679.349	349.91
679.794	354.71
680.24	344.21
680.685	341.91
681.131	357.61
681.576	348.01
682.021	347.01
682.466	339.51
682.912	355.91
683.357	348.91
683.802	374.31
684.247	406.31
684.692	451.71
685.137	485.31
685.583	528.11
686.028	557.51
686.473	514.21
686.918	437.61
687.363	412.31
687.807	398.01
688.252	365.31
688.697	353.61
689.142	337.21
689.587	322.71
690.032	317.11
690.477	343.51
690.921	351.61
691.366	378.21
691.811	389.41
692.255	424.81
692.7	463.81
693.145	492.31
693.589	678.81
694.034	1113.61
694.478	1517.01
694.923	1708.81
695.367	2229.31
695.812	1188.71
696.256	493.21
696.701	371.21
697.145	342.01
697.59	331.31
698.034	320.61
698.478	333.81
698.922	325.91
699.367	326.81
699.811	335.91
700.255	353.91
700.699	382.61
701.143	413.51
701.588	466.21
702.032	507.91
702.476	502.41
702.92	484.21
703.364	480.01
703.808	614.11
704.252	1004.11
704.696	1428.91
705.14	1653.61
705.584	2106.41
706.027	1058.01
706.471	518.01
706.915	391.11
707.359	344.81
707.803	317.51
708.246	296.81
708.69	312.71
709.134	309.21
709.577	308.01
710.021	315.71
710.465	303.91
710.908	303.51
711.352	292.71
711.795	309.51
712.239	338.61
712.682	379.61
713.126	411.21
713.569	463.81
714.012	366.21
714.456	322.41
714.899	292.91
715.342	272.41
715.786	254.71
716.229	249.61
716.672	249.01
717.115	252.01
717.558	245.41
718.002	255.01
718.445	253.41
718.888	276.51
719.331	293.01
719.774	301.41
720.217	296.51
720.66	287.31
721.103	260.91
721.546	246.81
721.989	235.11
722.432	230.41
722.874	234.51
723.317	225.81
723.76	241.21
724.203	255.01
724.645	316.31
725.088	431.31
725.531	557.01
725.974	633.11
726.416	539.51
726.859	308.51
727.301	243.91
727.744	232.91
728.187	235.51
728.629	238.41
729.071	243.61
729.514	254.61
729.956	268.41
730.399	275.71
730.841	281.01
731.283	262.31
731.726	264.11
732.168	258.31
732.61	260.61
733.053	278.61
733.495	307.11
733.937	348.71
734.379	390.31
734.821	431.11
735.263	525.71
735.705	802.81
736.148	1537.31
736.59	2528.41
737.032	3026.61
737.474	2442.01
737.916	797.71
738.357	430.11
738.799	325.01
739.241	295.81
739.683	278.51
740.125	295.21
740.567	292.61
741.008	310.11
741.45	309.71
741.892	310.11
742.334	338.41
742.775	352.81
743.217	333.91
743.658	269.61
744.1	252.21
744.542	260.41
744.983	302.31
745.425	341.51
745.866	328.01
746.307	280.81
746.749	280.61
747.19	320.11
747.632	447.91
748.073	855.21
748.514	1792.11
748.956	2797.91
749.397	3523.11
749.838	2911.51
750.279	2914.81
750.72	1479.61
751.162	529.61
751.603	317.91
752.044	241.41
752.485	210.21
752.926	203.01
753.367	204.91
753.808	195.21
754.249	190.01
754.69	183.51
755.131	184.01
755.572	184.11
756.013	179.41
756.453	187.51
756.894	190.01
757.335	191.51
757.776	192.11
758.216	191.01
758.657	190.21
759.098	197.21
759.538	219.11
759.979	257.01
760.42	367.11
760.86	679.41
761.301	1761.31
761.741	4295.61
762.182	6355.31
