Data from 20171114-ORNL-Ar_H_NY_Subt18_08-06-57-586.txt Node
Date: Tue Nov 14 08:06:57 EST 2017
User: Ender
Spectrometer: HR+D1039
Trigger mode: 0
Integration Time (sec): 2.730000E-2
Scans to average: 10
Electric dark correction enabled: true
Nonlinearity correction enabled: false
Boxcar width: 0
XAxis mode: Wavelengths
Number of Pixels in Spectrum: 2048
>>>>>Begin Spectral Data<<<<<
187.836	-7.56
188.309	-7.56
188.782	-7.56
189.255	1.84
189.728	-6.06
190.201	6.34
190.674	1.84
191.147	3.34
191.619	-1.56
192.092	-3.46
192.565	4.64
193.038	3.44
193.511	3.44
193.984	-1.06
194.456	-4.16
194.929	1.54
195.402	1.74
195.874	-4.36
196.347	-2.96
196.82	-2.56
197.292	6.44
197.765	0.54
198.237	-4.16
198.71	1.74
199.182	-1.86
199.655	2.84
200.127	-1.66
200.6	1.04
201.072	-3.46
201.544	0.64
202.017	-0.66
202.489	6.54
202.961	-0.56
203.433	-3.06
203.906	-3.16
204.378	-1.96
204.85	-5.76
205.322	-11.06
205.794	-6.86
206.266	-2.66
206.739	-11.76
207.211	3.94
207.683	-4.16
208.155	-2.16
208.627	-9.36
209.099	-0.06
209.57	-7.36
210.042	2.04
210.514	-5.26
210.986	-2.86
211.458	-10.16
211.93	-6.66
212.402	1.64
212.873	-6.06
213.345	-11.46
213.817	-11.46
214.288	-1.16
214.76	-7.76
215.232	-5.06
215.703	-2.86
216.175	-9.16
216.646	-10.16
217.118	-7.36
217.589	-2.96
218.061	3.04
218.532	-5.16
219.004	-7.16
219.475	-5.56
219.946	-1.66
220.418	-7.56
220.889	-6.76
221.36	-2.76
221.832	-4.56
222.303	-6.96
222.774	-0.46
223.245	-10.86
223.717	-3.56
224.188	-3.66
224.659	-3.16
225.13	-5.26
225.601	1.04
226.072	-0.56
226.543	0.94
227.014	4.34
227.485	-7.86
227.956	-4.66
228.427	-1.66
228.898	-1.66
229.369	5.14
229.839	-1.66
230.31	-5.36
230.781	5.24
231.252	-2.56
231.722	-6.66
232.193	1.04
232.664	-2.46
233.135	-1.46
233.605	-0.36
234.076	-0.16
234.546	-2.96
235.017	2.04
235.487	-4.46
235.958	-2.46
236.428	-9.06
236.899	-7.36
237.369	-3.56
237.84	-7.56
238.31	-0.26
238.78	1.24
239.251	-1.96
239.721	-3.36
240.191	1.64
240.662	-3.26
241.132	4.44
241.602	-5.16
242.072	-5.76
242.542	2.54
243.013	-2.86
243.483	0.14
243.953	-1.66
244.423	-3.46
244.893	-3.66
245.363	2.44
245.833	-7.46
246.303	-5.36
246.773	3.34
247.243	2.64
247.712	-5.26
248.182	7.04
248.652	-2.26
249.122	-7.96
249.592	-0.56
250.061	0.54
250.531	3.74
251.001	-3.06
251.471	-0.06
251.94	3.14
252.41	-4.26
252.879	-9.56
253.349	8.24
253.818	7.54
254.288	-0.26
254.757	-7.06
255.227	-0.86
255.696	-3.06
256.166	-3.36
256.635	6.24
257.105	3.74
257.574	-1.36
258.043	0.24
258.513	-1.26
258.982	2.14
259.451	-6.06
259.92	-4.36
260.389	0.44
260.859	8.84
261.328	1.84
261.797	4.14
262.266	-1.86
262.735	2.74
263.204	4.44
263.673	-1.16
264.142	1.94
264.611	-2.26
265.08	-9.46
265.549	-1.46
266.018	-1.16
266.487	-6.36
266.955	-4.96
267.424	-6.76
267.893	1.54
268.362	-6.26
268.83	2.74
269.299	9.54
269.768	3.34
270.236	1.14
270.705	-0.06
271.174	2.04
271.642	1.54
272.111	2.94
272.579	-0.26
273.048	-0.16
273.516	0.64
273.985	-1.06
274.453	4.84
274.922	14.44
275.39	-2.86
275.858	-2.16
276.327	2.14
276.795	10.14
277.263	2.54
277.731	9.34
278.2	5.14
278.668	7.04
279.136	11.34
279.604	-2.26
280.072	9.84
280.54	5.64
281.008	2.14
281.477	11.34
281.945	2.34
282.413	12.84
282.881	6.04
283.348	5.24
283.816	4.44
284.284	12.24
284.752	12.04
285.22	12.84
285.688	11.84
286.156	12.54
286.623	15.94
287.091	6.74
287.559	5.74
288.026	1.84
288.494	6.14
288.962	-0.76
289.429	5.54
289.897	16.04
290.364	11.94
290.832	10.64
291.3	5.34
291.767	12.54
292.234	15.74
292.702	8.94
293.169	13.84
293.637	12.44
294.104	10.34
294.571	4.14
295.039	6.14
295.506	5.64
295.973	11.14
296.44	12.74
296.908	11.34
297.375	7.84
297.842	9.84
298.309	11.94
298.776	8.94
299.243	16.34
299.71	10.04
300.177	18.64
300.644	13.04
301.111	16.14
301.578	13.54
302.045	8.94
302.512	20.14
302.979	18.44
303.446	16.74
303.913	8.84
304.379	18.14
304.846	24.64
305.313	12.34
305.78	15.64
306.246	13.14
306.713	17.54
307.18	20.74
307.646	20.34
308.113	21.34
308.579	18.34
309.046	15.44
309.512	23.44
309.979	16.84
310.445	20.94
310.912	24.54
311.378	24.54
311.845	23.44
312.311	21.94
312.777	26.34
313.244	28.94
313.71	30.54
314.176	22.34
314.642	19.94
315.109	19.14
315.575	25.34
316.041	35.74
316.507	27.24
316.973	30.14
317.439	24.44
317.905	28.94
318.371	23.34
318.837	24.84
319.303	24.64
319.769	26.84
320.235	26.04
320.701	24.44
321.167	29.14
321.633	23.94
322.099	25.84
322.564	36.84
323.03	30.54
323.496	28.74
323.962	29.54
324.427	32.04
324.893	35.64
325.359	23.84
325.824	29.04
326.29	36.24
326.755	28.84
327.221	37.44
327.686	32.94
328.152	35.24
328.617	37.24
329.083	40.94
329.548	43.44
330.014	37.84
330.479	33.14
330.944	39.14
331.41	35.14
331.875	35.44
332.34	30.64
332.805	34.04
333.271	41.24
333.736	34.04
334.201	37.04
334.666	47.24
335.131	48.04
335.596	43.24
336.061	43.14
336.526	36.04
336.991	35.84
337.456	44.64
337.921	39.64
338.386	30.74
338.851	34.44
339.316	41.84
339.781	47.84
340.246	42.94
340.711	41.14
341.175	37.04
341.64	35.74
342.105	44.54
342.569	41.34
343.034	51.94
343.499	50.14
343.963	43.54
344.428	56.84
344.893	54.74
345.357	51.64
345.822	51.84
346.286	56.74
346.751	57.14
347.215	58.54
347.679	66.24
348.144	76.34
348.608	71.44
349.073	59.54
349.537	70.04
350.001	69.14
350.465	78.04
350.93	71.94
351.394	71.64
351.858	66.04
352.322	77.54
352.786	67.44
353.25	84.44
353.715	96.44
354.179	79.64
354.643	103.24
355.107	103.54
355.571	82.54
356.035	83.84
356.498	93.84
356.962	99.04
357.426	105.74
357.89	99.34
358.354	81.34
358.818	74.24
359.281	65.44
359.745	71.04
360.209	69.04
360.673	66.84
361.136	71.44
361.6	77.44
362.064	74.14
362.527	79.14
362.991	78.94
363.454	72.54
363.918	70.84
364.381	70.24
364.845	77.14
365.308	75.34
365.772	79.64
366.235	77.44
366.698	72.94
367.162	77.04
367.625	74.94
368.088	79.84
368.552	80.74
369.015	82.04
369.478	84.94
369.941	92.64
370.404	92.04
370.867	87.14
371.331	92.54
371.794	97.74
372.257	87.84
372.72	98.04
373.183	88.94
373.646	82.14
374.109	94.74
374.572	95.14
375.035	97.44
375.497	97.24
375.96	92.44
376.423	100.84
376.886	95.34
377.349	99.64
377.811	88.04
378.274	96.04
378.737	99.54
379.199	99.74
379.662	105.34
380.125	104.14
380.587	99.04
381.05	101.94
381.512	110.64
381.975	113.44
382.437	105.94
382.9	103.84
383.362	120.44
383.825	115.64
384.287	121.34
384.75	112.24
385.212	117.24
385.674	123.24
386.136	120.44
386.599	106.74
387.061	117.04
387.523	113.24
387.985	117.14
388.447	119.04
388.91	115.04
389.372	122.84
389.834	123.34
390.296	117.34
390.758	122.94
391.22	129.04
391.682	138.04
392.144	138.64
392.606	135.84
393.068	131.24
393.529	143.54
393.991	130.94
394.453	125.04
394.915	127.04
395.377	124.74
395.838	126.54
396.3	122.94
396.762	135.94
397.224	124.34
397.685	128.04
398.147	121.94
398.608	124.44
399.07	124.64
399.531	129.94
399.993	136.94
400.454	152.34
400.916	142.94
401.377	143.24
401.839	151.64
402.3	141.94
402.762	154.34
403.223	171.14
403.684	162.04
404.145	157.44
404.607	155.24
405.068	157.64
405.529	160.74
405.99	173.74
406.451	165.94
406.913	166.54
407.374	164.44
407.835	158.44
408.296	164.34
408.757	168.44
409.218	175.04
409.679	168.94
410.14	170.94
410.601	173.64
411.062	174.14
411.522	172.14
411.983	171.74
412.444	166.44
412.905	177.64
413.366	180.14
413.826	190.84
414.287	215.94
414.748	266.74
415.208	251.24
415.669	215.84
416.13	212.04
416.59	204.94
417.051	219.64
417.511	223.34
417.972	242.44
418.432	241.94
418.893	285.04
419.353	251.24
419.814	200.34
420.274	189.34
420.734	186.44
421.195	193.94
421.655	184.94
422.115	189.14
422.576	189.74
423.036	197.84
423.496	208.54
423.956	215.44
424.416	224.84
424.876	269.94
425.336	262.04
425.797	257.54
426.257	251.04
426.717	236.64
427.177	231.04
427.637	218.54
428.097	235.04
428.556	241.44
429.016	265.54
429.476	251.44
429.936	265.94
430.396	270.94
430.856	287.54
431.315	310.44
431.775	330.24
432.235	371.74
432.694	340.04
433.154	344.74
433.614	378.84
434.073	318.44
434.533	272.04
434.993	265.74
435.452	276.24
435.912	284.54
436.371	283.24
436.83	270.64
437.29	262.44
437.749	237.84
438.209	249.54
438.668	267.24
439.127	287.74
439.587	263.44
440.046	244.64
440.505	266.44
440.964	277.94
441.424	317.24
441.883	308.74
442.342	270.44
442.801	228.84
443.26	221.84
443.719	226.54
444.178	224.04
444.637	223.64
445.096	227.14
445.555	228.74
446.014	225.74
446.473	227.94
446.932	231.94
447.391	228.84
447.849	227.84
448.308	221.44
448.767	224.04
449.226	234.24
449.685	242.84
450.143	262.94
450.602	241.14
451.061	235.44
451.519	235.84
451.978	240.44
452.436	232.84
452.895	244.94
453.353	254.24
453.812	242.34
454.27	244.94
454.729	243.14
455.187	248.24
455.646	254.34
456.104	257.64
456.562	262.64
457.021	272.94
457.479	262.04
457.937	278.84
458.395	274.74
458.854	253.04
459.312	258.84
459.77	272.94
460.228	267.24
460.686	251.44
461.144	254.04
461.602	246.74
462.06	245.34
462.518	262.24
462.976	266.44
463.434	266.04
463.892	274.54
464.35	284.14
464.808	298.14
465.266	271.94
465.724	276.24
466.181	283.14
466.639	275.84
467.097	305.24
467.555	311.14
468.012	325.24
468.47	310.34
468.928	330.94
469.385	352.94
469.843	360.54
470.3	352.84
470.758	368.44
471.215	386.74
471.673	413.94
472.13	417.64
472.588	428.84
473.045	378.34
473.503	389.34
473.96	399.14
474.417	416.44
474.875	443.04
475.332	480.24
475.789	471.34
476.246	479.24
476.704	494.94
477.161	514.64
477.618	529.34
478.075	562.34
478.532	613.04
478.989	685.84
479.446	788.94
479.903	757.34
480.36	799.64
480.817	827.14
481.274	925.64
481.731	1008.04
482.188	1093.14
482.645	1214.74
483.102	1298.44
483.558	1420.04
484.015	1469.34
484.472	1435.14
484.929	1389.54
485.385	1350.54
485.842	1328.24
486.299	1280.54
486.755	1241.94
487.212	1053.14
487.668	905.54
488.125	840.74
488.582	764.64
489.038	739.34
489.494	716.94
489.951	690.24
490.407	671.14
490.864	652.94
491.32	657.14
491.776	659.94
492.233	659.54
492.689	624.94
493.145	629.54
493.602	614.54
494.058	620.54
494.514	624.44
494.97	649.94
495.426	663.54
495.882	637.04
496.338	622.74
496.794	651.34
497.251	626.84
497.707	647.64
498.163	656.54
498.618	650.34
499.074	653.74
499.53	685.44
499.986	683.24
500.442	660.04
500.898	633.84
501.354	638.94
501.809	638.94
502.265	629.14
502.721	641.84
503.177	650.04
503.632	663.94
504.088	669.24
504.543	686.24
504.999	713.04
505.455	668.84
505.91	659.34
506.366	652.64
506.821	662.84
507.277	654.24
507.732	651.64
508.187	651.74
508.643	661.84
509.098	668.54
509.553	681.24
510.009	686.04
510.464	696.34
510.919	703.64
511.375	719.84
511.83	737.64
512.285	740.14
512.74	774.04
513.195	797.84
513.65	796.84
514.105	786.34
514.56	787.74
515.015	811.04
515.47	816.54
515.925	802.74
516.38	808.94
516.835	815.54
517.29	796.04
517.745	801.14
518.2	791.44
518.655	782.84
519.109	772.14
519.564	764.34
520.019	748.74
520.474	744.04
520.928	748.24
521.383	748.94
521.838	738.64
522.292	743.04
522.747	728.44
523.201	726.74
523.656	727.44
524.11	723.74
524.565	713.94
525.019	714.14
525.474	720.44
525.928	723.54
526.382	722.44
526.837	721.84
527.291	727.24
527.745	727.64
528.2	727.24
528.654	717.84
529.108	708.84
529.562	718.64
530.016	719.64
530.47	714.24
530.925	718.04
531.379	716.64
531.833	733.94
532.287	728.84
532.741	718.04
533.195	724.44
533.649	736.14
534.103	738.74
534.556	729.94
535.01	732.94
535.464	728.34
535.918	733.74
536.372	744.64
536.826	740.74
537.279	727.84
537.733	742.94
538.187	739.84
538.64	734.64
539.094	750.94
539.548	755.84
540.001	748.54
540.455	745.44
540.908	756.54
541.362	766.44
541.815	774.64
542.269	780.54
542.722	788.74
543.175	805.14
543.629	808.04
544.082	810.84
544.536	810.74
544.989	818.14
545.442	825.04
545.895	823.04
546.349	816.14
546.802	816.84
547.255	838.74
547.708	843.04
548.161	838.04
548.614	860.14
549.067	858.84
549.52	844.04
549.973	841.84
550.426	833.94
550.879	819.84
551.332	827.94
551.785	837.84
552.238	837.44
552.691	847.34
553.144	855.04
553.596	881.74
554.049	894.94
554.502	929.44
554.955	945.14
555.407	938.24
555.86	935.74
556.313	926.04
556.765	920.74
557.218	907.44
557.67	911.04
558.123	902.54
558.576	908.54
559.028	911.64
559.48	916.84
559.933	904.34
560.385	869.34
560.838	846.54
561.29	823.64
561.742	815.04
562.195	800.94
562.647	795.84
563.099	804.44
563.551	802.34
564.004	812.34
564.456	797.34
564.908	794.64
565.36	778.64
565.812	759.54
566.264	753.14
566.716	739.44
567.168	727.64
567.62	735.54
568.072	719.54
568.524	721.94
568.976	706.34
569.428	700.04
569.88	695.94
570.332	710.94
570.784	711.54
571.235	714.84
571.687	724.64
572.139	729.74
572.59	742.74
573.042	735.24
573.494	730.24
573.945	730.24
574.397	706.24
574.849	714.44
575.3	718.14
575.752	707.44
576.203	706.84
576.655	703.24
577.106	690.24
577.557	685.64
578.009	696.34
578.46	695.34
578.912	694.74
579.363	688.54
579.814	689.04
580.265	679.94
580.717	684.64
581.168	695.14
581.619	706.84
582.07	703.64
582.521	694.34
582.972	696.34
583.423	693.34
583.875	702.54
584.326	704.34
584.777	720.74
585.227	730.74
585.678	747.14
586.129	762.44
586.58	783.14
587.031	799.94
587.482	838.94
587.933	859.04
588.384	834.64
588.834	811.74
589.285	788.54
589.736	797.44
590.186	800.14
590.637	793.14
591.088	768.14
591.538	764.64
591.989	754.64
592.439	752.64
592.89	740.84
593.34	730.94
593.791	724.04
594.241	729.04
594.692	717.54
595.142	716.14
595.593	722.34
596.043	726.64
596.493	733.54
596.943	708.54
597.394	745.14
597.844	732.34
598.294	759.54
598.744	775.54
599.195	809.24
599.645	843.34
600.095	894.74
600.545	944.84
600.995	1004.34
601.445	1064.04
601.895	1117.74
602.345	1170.54
602.795	1149.24
603.245	1114.44
603.695	1051.94
604.145	983.74
604.594	943.84
605.044	883.64
605.494	828.64
605.944	781.54
606.393	774.44
606.843	745.54
607.293	748.84
607.743	749.84
608.192	762.84
608.642	761.54
609.091	766.54
609.541	784.94
609.99	781.44
610.44	780.54
610.889	732.44
611.339	716.94
611.788	705.64
612.238	708.54
612.687	713.14
613.136	707.34
613.586	727.04
614.035	713.94
614.484	728.74
614.933	725.84
615.383	722.14
615.832	718.84
616.281	716.14
616.73	690.94
617.179	676.44
617.628	665.54
618.077	652.54
618.526	635.14
618.975	631.74
619.424	622.84
619.873	624.54
620.322	639.14
620.771	614.44
621.22	620.04
621.669	610.74
622.118	603.74
622.567	599.84
623.015	573.54
623.464	581.74
623.913	571.24
624.361	567.04
624.81	563.44
625.259	569.54
625.707	565.94
626.156	574.64
626.604	572.94
627.053	579.14
627.501	573.34
627.95	581.14
628.398	594.34
628.847	584.34
629.295	580.64
629.744	582.24
630.192	586.04
630.64	574.64
631.089	559.64
631.537	550.54
631.985	543.24
632.433	549.04
632.881	534.34
633.33	544.54
633.778	536.44
634.226	528.44
634.674	547.54
635.122	557.44
635.57	563.94
636.018	571.94
636.466	575.94
636.914	572.04
637.362	584.74
637.81	585.94
638.258	599.34
638.705	597.14
639.153	623.54
639.601	634.34
640.049	657.84
640.497	681.54
640.944	705.64
641.392	657.14
641.84	623.94
642.287	599.34
642.735	573.94
643.182	575.84
643.63	580.34
644.078	583.84
644.525	587.64
644.973	593.64
645.42	590.64
645.867	630.04
646.315	649.24
646.762	658.84
647.21	678.64
647.657	708.14
648.104	739.24
648.551	757.44
648.999	827.24
649.446	899.84
649.893	988.94
650.34	1114.04
650.787	1319.64
651.234	1625.94
651.682	2104.94
652.129	2837.94
652.576	4012.24
653.023	5871.34
653.47	7939.84
653.917	9893.64
654.363	11348.84
654.81	12561.24
655.257	11901.54
655.704	7885.54
656.151	4747.04
656.598	3132.84
657.044	2237.24
657.491	1751.04
657.938	1410.34
658.385	1196.04
658.831	1043.04
659.278	933.14
659.724	841.84
660.171	777.84
660.618	706.14
661.064	676.74
661.511	658.54
661.957	645.64
662.404	641.04
662.85	649.84
663.296	628.44
663.743	561.44
664.189	548.64
664.635	533.34
665.082	526.84
665.528	534.24
665.974	522.64
666.42	515.54
666.867	519.94
667.313	495.44
667.759	472.84
668.205	459.14
668.651	454.14
669.097	448.54
669.543	452.94
669.989	449.64
670.435	459.34
670.881	456.64
671.327	456.94
671.773	475.74
672.219	503.54
672.665	554.54
673.11	598.94
673.556	642.94
674.002	685.14
674.448	678.04
674.893	569.94
675.339	494.34
675.785	447.14
676.23	431.84
676.676	403.44
677.122	389.54
677.567	389.04
678.013	372.54
678.458	371.24
678.904	367.74
679.349	353.34
679.794	361.24
680.24	363.64
680.685	355.74
681.131	350.94
681.576	351.64
682.021	364.84
682.466	354.14
682.912	360.94
683.357	355.34
683.802	392.24
684.247	418.84
684.692	467.64
685.137	508.64
685.583	557.24
686.028	581.74
686.473	531.54
686.918	459.34
687.363	420.34
687.807	401.04
688.252	376.34
688.697	365.84
689.142	346.04
689.587	347.44
690.032	343.24
690.477	357.24
690.921	363.54
691.366	387.24
691.811	409.54
692.255	448.04
692.7	472.04
693.145	521.34
693.589	724.14
694.034	1167.74
694.478	1590.44
694.923	1785.84
695.367	2338.04
695.812	1232.24
696.256	520.54
696.701	385.34
697.145	352.94
697.59	340.94
698.034	330.54
698.478	338.84
698.922	333.94
699.367	330.44
699.811	342.44
700.255	360.54
700.699	388.84
701.143	430.64
701.588	485.44
702.032	525.84
702.476	526.74
702.92	509.64
703.364	502.24
703.808	663.04
704.252	1075.24
704.696	1490.34
705.14	1730.54
705.584	2211.14
706.027	1098.64
706.471	532.34
706.915	405.64
707.359	362.64
707.803	330.34
708.246	315.84
708.69	313.24
709.134	320.14
709.577	319.84
710.021	323.94
710.465	311.64
710.908	307.64
711.352	305.74
711.795	312.04
712.239	364.54
712.682	394.84
713.126	420.74
713.569	470.84
714.012	363.44
714.456	311.14
714.899	298.44
715.342	272.74
715.786	264.74
716.229	262.54
716.672	260.34
717.115	255.04
717.558	264.94
718.002	262.64
718.445	262.64
718.888	289.54
719.331	301.94
719.774	321.74
720.217	308.64
720.66	289.14
721.103	270.44
721.546	262.24
721.989	261.44
722.432	236.84
722.874	242.34
723.317	236.74
723.76	238.94
724.203	266.74
724.645	320.24
725.088	464.14
725.531	588.54
725.974	653.34
726.416	557.94
726.859	315.24
727.301	255.24
727.744	237.24
728.187	237.64
728.629	245.04
729.071	245.64
729.514	270.44
729.956	274.44
730.399	293.14
730.841	292.64
731.283	280.74
731.726	275.54
732.168	269.94
732.61	282.04
733.053	296.54
733.495	323.54
733.937	363.24
734.379	408.54
734.821	446.64
735.263	560.84
735.705	871.04
736.148	1645.34
736.59	2677.94
737.032	3176.84
737.474	2550.14
737.916	841.44
738.357	438.74
738.799	334.54
739.241	310.14
739.683	296.54
740.125	290.24
740.567	303.14
741.008	321.44
741.45	320.84
741.892	322.04
742.334	367.04
742.775	371.14
743.217	351.34
743.658	279.04
744.1	261.24
744.542	263.34
744.983	320.74
745.425	364.14
745.866	350.74
746.307	285.74
746.749	290.94
747.19	337.44
747.632	479.34
748.073	926.34
748.514	1920.94
748.956	2973.24
749.397	3710.24
749.838	3083.84
750.279	3043.84
750.72	1560.04
751.162	567.34
751.603	332.54
752.044	262.74
752.485	228.24
752.926	216.54
753.367	210.54
753.808	194.04
754.249	195.74
754.69	190.84
755.131	183.94
755.572	191.04
756.013	187.14
756.453	189.84
756.894	193.04
757.335	189.34
757.776	199.34
758.216	198.04
758.657	203.74
759.098	206.14
759.538	233.84
759.979	268.74
760.42	384.84
760.86	734.24
761.301	1897.44
761.741	4619.34
762.182	6656.24
762.622	4687.14
763.063	1359.04
763.503	556.44
