Data from 20171114-ORNL-Ar_H_NY_Subt18_08-09-17-409.txt Node
Date: Tue Nov 14 08:09:17 EST 2017
User: Ender
Spectrometer: HR+D1039
Trigger mode: 0
Integration Time (sec): 2.730000E-2
Scans to average: 10
Electric dark correction enabled: true
Nonlinearity correction enabled: false
Boxcar width: 0
XAxis mode: Wavelengths
Number of Pixels in Spectrum: 2048
>>>>>Begin Spectral Data<<<<<
187.836	4.35
188.309	4.35
188.782	4.35
189.255	0.95
189.728	-4.95
190.201	-5.25
190.674	-1.05
191.147	8.35
191.619	-5.25
192.092	2.25
192.565	3.35
193.038	-1.05
193.511	3.55
193.984	6.05
194.456	-5.15
194.929	-1.05
195.402	-5.95
195.874	0.85
196.347	-4.65
196.82	-10.25
197.292	10.05
197.765	-2.65
198.237	-10.05
198.71	-2.55
199.182	-0.85
199.655	-0.65
200.127	-4.45
200.6	-7.25
201.072	-0.25
201.544	-5.05
202.017	-8.35
202.489	2.85
202.961	2.15
203.433	-5.85
203.906	-9.35
204.378	-11.85
204.85	-6.65
205.322	-13.85
205.794	-6.95
206.266	-3.35
206.739	-10.85
207.211	-1.85
207.683	-16.05
208.155	-4.25
208.627	-4.25
209.099	-4.75
209.57	-12.15
210.042	-1.65
210.514	-0.35
210.986	-1.65
211.458	-8.35
211.93	-1.95
212.402	2.65
212.873	-9.95
213.345	-9.65
213.817	-12.45
214.288	-4.75
214.76	-20.65
215.232	-8.15
215.703	-1.95
216.175	-8.55
216.646	-6.95
217.118	-13.25
217.589	-7.05
218.061	-8.25
218.532	-6.95
219.004	-9.45
219.475	-7.35
219.946	-6.55
220.418	-5.05
220.889	-2.55
221.36	-4.85
221.832	-6.25
222.303	-10.55
222.774	-7.95
223.245	-15.95
223.717	-5.35
224.188	-5.95
224.659	-8.55
225.13	-9.65
225.601	-2.45
226.072	-2.85
226.543	-3.55
227.014	-6.85
227.485	-4.95
227.956	-9.05
228.427	-8.45
228.898	-5.15
229.369	-0.95
229.839	-10.75
230.31	-10.15
230.781	0.45
231.252	-8.65
231.722	-11.45
232.193	-6.75
232.664	-5.75
233.135	-5.85
233.605	-6.55
234.076	-6.35
234.546	-7.75
235.017	-5.45
235.487	0.55
235.958	-10.45
236.428	-5.65
236.899	-5.35
237.369	-7.35
237.84	-9.35
238.31	-2.15
238.78	-9.15
239.251	-7.85
239.721	-5.35
240.191	-3.95
240.662	-3.05
241.132	-6.65
241.602	-3.45
242.072	-6.65
242.542	0.15
243.013	-7.15
243.483	-2.55
243.953	-4.45
244.423	-7.25
244.893	-7.85
245.363	-4.45
245.833	-1.85
246.303	-13.05
246.773	-3.45
247.243	-3.55
247.712	-3.25
248.182	-2.25
248.652	1.45
249.122	-13.45
249.592	-3.25
250.061	-0.25
250.531	4.85
251.001	-5.25
251.471	-1.95
251.94	6.45
252.41	-1.15
252.879	-13.45
253.349	7.35
253.818	6.45
254.288	-2.75
254.757	-8.95
255.227	-8.75
255.696	-4.05
256.166	0.45
256.635	3.45
257.105	-2.85
257.574	-5.45
258.043	-5.15
258.513	-2.95
258.982	2.45
259.451	-9.45
259.92	4.45
260.389	-3.35
260.859	8.45
261.328	-1.15
261.797	-1.35
262.266	-5.75
262.735	2.15
263.204	-4.55
263.673	-7.35
264.142	2.75
264.611	-3.35
265.08	-7.55
265.549	-13.35
266.018	-1.75
266.487	-7.35
266.955	-8.95
267.424	-9.55
267.893	2.15
268.362	-9.05
268.83	-7.95
269.299	2.85
269.768	-5.45
270.236	-0.35
270.705	-10.95
271.174	-3.15
271.642	-0.85
272.111	-8.65
272.579	-2.25
273.048	-0.25
273.516	0.55
273.985	-0.05
274.453	-2.15
274.922	4.35
275.39	0.25
275.858	-5.25
276.327	-0.35
276.795	5.05
277.263	7.65
277.731	14.15
278.2	0.05
278.668	4.55
279.136	2.55
279.604	1.05
280.072	-4.25
280.54	2.35
281.008	6.55
281.477	8.55
281.945	8.55
282.413	3.95
282.881	8.05
283.348	-1.65
283.816	10.95
284.284	9.95
284.752	13.15
285.22	4.45
285.688	3.85
286.156	4.15
286.623	10.05
287.091	2.45
287.559	2.35
288.026	6.15
288.494	6.05
288.962	-1.55
289.429	-2.55
289.897	5.95
290.364	10.35
290.832	8.65
291.3	9.55
291.767	6.75
292.234	8.55
292.702	5.25
293.169	8.65
293.637	7.85
294.104	10.85
294.571	-7.85
295.039	0.85
295.506	4.95
295.973	6.85
296.44	6.65
296.908	7.85
297.375	2.65
297.842	10.65
298.309	11.45
298.776	3.95
299.243	8.65
299.71	5.15
300.177	11.05
300.644	12.05
301.111	8.35
301.578	10.95
302.045	6.85
302.512	16.25
302.979	11.45
303.446	11.75
303.913	9.75
304.379	9.15
304.846	12.85
305.313	13.05
305.78	10.25
306.246	20.15
306.713	20.45
307.18	14.05
307.646	12.95
308.113	12.65
308.579	10.95
309.046	20.35
309.512	15.95
309.979	13.95
310.445	19.25
310.912	21.05
311.378	20.35
311.845	22.05
312.311	18.35
312.777	17.65
313.244	23.05
313.71	21.65
314.176	20.55
314.642	16.35
315.109	20.45
315.575	20.15
316.041	25.65
316.507	13.95
316.973	20.95
317.439	23.65
317.905	21.95
318.371	19.25
318.837	15.35
319.303	23.55
319.769	26.75
320.235	23.65
320.701	22.75
321.167	23.65
321.633	17.25
322.099	26.75
322.564	29.15
323.03	24.75
323.496	25.85
323.962	23.85
324.427	22.65
324.893	32.85
325.359	20.65
325.824	24.75
326.29	21.05
326.755	23.05
327.221	26.15
327.686	24.15
328.152	30.85
328.617	30.45
329.083	33.55
329.548	34.95
330.014	28.05
330.479	23.75
330.944	28.95
331.41	27.05
331.875	22.85
332.34	32.25
332.805	27.85
333.271	33.25
333.736	23.95
334.201	36.55
334.666	36.15
335.131	46.45
335.596	39.85
336.061	39.35
336.526	24.25
336.991	34.75
337.456	36.45
337.921	32.45
338.386	30.55
338.851	27.05
339.316	33.15
339.781	30.75
340.246	42.45
340.711	35.15
341.175	35.15
341.64	41.85
342.105	42.25
342.569	44.15
343.034	43.55
343.499	41.35
343.963	37.05
344.428	48.45
344.893	40.65
345.357	47.25
345.822	45.35
346.286	49.05
346.751	56.85
347.215	45.05
347.679	54.75
348.144	68.45
348.608	61.15
349.073	44.05
349.537	59.15
350.001	61.95
350.465	72.25
350.93	55.35
351.394	62.75
351.858	55.05
352.322	59.15
352.786	63.65
353.25	73.65
353.715	78.85
354.179	72.45
354.643	90.45
355.107	90.45
355.571	75.45
356.035	76.95
356.498	88.85
356.962	84.85
357.426	94.65
357.89	83.75
358.354	72.25
358.818	65.05
359.281	56.95
359.745	55.55
360.209	58.95
360.673	62.35
361.136	56.45
361.6	66.25
362.064	67.15
362.527	67.65
362.991	71.25
363.454	65.35
363.918	54.75
364.381	61.55
364.845	70.35
365.308	74.25
365.772	67.85
366.235	74.15
366.698	63.55
367.162	68.75
367.625	70.45
368.088	71.95
368.552	71.15
369.015	66.75
369.478	80.55
369.941	76.75
370.404	70.25
370.867	80.35
371.331	82.15
371.794	89.05
372.257	80.15
372.72	81.55
373.183	85.15
373.646	76.15
374.109	76.35
374.572	89.15
375.035	85.35
375.497	89.65
375.96	89.65
376.423	88.75
376.886	96.35
377.349	97.45
377.811	89.45
378.274	84.95
378.737	94.65
379.199	91.95
379.662	85.15
380.125	94.15
380.587	84.55
381.05	88.85
381.512	99.05
381.975	106.65
382.437	104.75
382.9	101.15
383.362	100.25
383.825	108.55
384.287	111.65
384.75	109.05
385.212	111.85
385.674	110.65
386.136	114.45
386.599	114.85
387.061	108.75
387.523	100.75
387.985	106.95
388.447	109.15
388.91	109.25
389.372	112.05
389.834	116.75
390.296	108.25
390.758	112.85
391.22	117.45
391.682	129.15
392.144	135.05
392.606	127.45
393.068	127.45
393.529	132.95
393.991	119.65
394.453	110.75
394.915	117.65
395.377	124.05
395.838	128.75
396.3	125.05
396.762	130.35
397.224	124.55
397.685	124.15
398.147	119.55
398.608	124.65
399.07	119.15
399.531	130.65
399.993	127.55
400.454	135.05
400.916	134.25
401.377	138.25
401.839	139.25
402.3	131.35
402.762	153.25
403.223	156.75
403.684	152.85
404.145	143.15
404.607	143.65
405.068	146.65
405.529	156.55
405.99	162.05
406.451	159.75
406.913	159.35
407.374	144.25
407.835	144.25
408.296	157.35
408.757	159.35
409.218	157.55
409.679	161.35
410.14	160.95
410.601	160.25
411.062	161.45
411.522	163.15
411.983	164.25
412.444	167.75
412.905	171.95
413.366	173.85
413.826	187.65
414.287	212.35
414.748	251.55
415.208	237.45
415.669	206.95
416.13	198.85
416.59	189.25
417.051	206.25
417.511	206.55
417.972	225.75
418.432	240.95
418.893	275.25
419.353	246.55
419.814	185.95
420.274	174.05
420.734	170.95
421.195	190.25
421.655	177.55
422.115	189.25
422.576	184.45
423.036	189.95
423.496	200.75
423.956	205.55
424.416	229.85
424.876	262.65
425.336	250.45
425.797	247.95
426.257	245.75
426.717	234.05
427.177	220.95
427.637	210.45
428.097	216.95
428.556	232.45
429.016	258.15
429.476	248.55
429.936	257.35
430.396	256.65
430.856	265.75
431.315	287.75
431.775	326.25
432.235	355.05
432.694	322.55
433.154	341.75
433.614	361.75
434.073	309.45
434.533	274.85
434.993	256.15
435.452	263.85
435.912	273.35
436.371	262.45
436.83	267.95
437.29	247.55
437.749	238.95
438.209	231.75
438.668	263.15
439.127	268.65
439.587	251.65
440.046	239.95
440.505	247.05
440.964	265.95
441.424	304.75
441.883	292.45
442.342	251.25
442.801	222.25
443.26	220.65
443.719	216.55
444.178	217.35
444.637	202.55
445.096	220.35
445.555	223.85
446.014	226.25
446.473	221.75
446.932	229.35
447.391	223.05
447.849	219.05
448.308	217.55
448.767	221.75
449.226	239.15
449.685	239.15
450.143	245.45
450.602	232.45
451.061	231.15
451.519	233.65
451.978	230.95
452.436	235.65
452.895	239.65
453.353	256.45
453.812	240.85
454.27	239.95
454.729	232.35
455.187	233.95
455.646	239.85
456.104	231.65
456.562	262.55
457.021	260.35
457.479	256.55
457.937	271.75
458.395	270.35
458.854	245.45
459.312	249.85
459.77	270.85
460.228	255.35
460.686	245.15
461.144	250.55
461.602	254.55
462.06	246.55
462.518	260.85
462.976	253.95
463.434	253.05
463.892	263.05
464.35	270.85
464.808	286.95
465.266	259.75
465.724	269.75
466.181	269.65
466.639	276.35
467.097	281.35
467.555	300.95
468.012	293.55
468.47	308.95
468.928	331.65
469.385	339.45
469.843	343.55
470.3	347.35
470.758	360.45
471.215	376.95
471.673	399.55
472.13	396.85
472.588	407.35
473.045	374.45
473.503	370.65
473.96	394.25
474.417	407.35
474.875	425.15
475.332	465.65
475.789	457.25
476.246	460.05
476.704	480.15
477.161	504.75
477.618	510.05
478.075	557.65
478.532	589.95
478.989	665.75
479.446	768.65
479.903	741.85
480.36	770.65
480.817	817.55
481.274	901.75
481.731	974.95
482.188	1064.35
482.645	1194.85
483.102	1253.35
483.558	1382.25
484.015	1427.25
484.472	1405.15
484.929	1349.35
485.385	1307.15
485.842	1279.75
486.299	1245.85
486.755	1196.85
487.212	1014.65
487.668	871.85
488.125	805.45
488.582	740.95
489.038	723.55
489.494	682.15
489.951	666.75
490.407	659.85
490.864	628.55
491.32	634.25
491.776	642.15
492.233	644.95
492.689	609.75
493.145	594.85
493.602	591.35
494.058	606.35
494.514	609.15
494.97	627.85
495.426	639.65
495.882	617.75
496.338	606.25
496.794	622.25
497.251	613.25
497.707	625.15
498.163	625.95
498.618	632.95
499.074	639.85
499.53	660.95
499.986	663.85
500.442	641.75
500.898	613.55
501.354	609.45
501.809	619.35
502.265	628.05
502.721	628.25
503.177	641.25
503.632	644.05
504.088	643.35
504.543	668.25
504.999	694.75
505.455	656.75
505.91	638.25
506.366	643.55
506.821	629.35
507.277	628.95
507.732	629.25
508.187	631.85
508.643	643.75
509.098	641.15
509.553	664.85
510.009	677.25
510.464	676.15
510.919	698.55
511.375	703.25
511.83	713.85
512.285	731.15
512.74	761.45
513.195	792.75
513.65	765.95
514.105	771.05
514.56	765.75
515.015	784.25
515.47	799.65
515.925	781.45
516.38	780.85
516.835	787.95
517.29	772.25
517.745	783.45
518.2	771.85
518.655	758.15
519.109	751.65
519.564	744.55
520.019	736.95
520.474	721.05
520.928	737.05
521.383	732.75
521.838	715.15
522.292	718.75
522.747	715.35
523.201	720.95
523.656	711.05
524.11	698.05
524.565	695.55
525.019	694.75
525.474	704.15
525.928	698.15
526.382	699.25
526.837	703.75
527.291	707.85
527.745	704.65
528.2	709.25
528.654	697.25
529.108	692.15
529.562	691.65
530.016	702.55
530.47	689.35
530.925	701.25
531.379	691.95
531.833	698.75
532.287	713.35
532.741	698.45
533.195	705.45
533.649	710.55
534.103	715.45
534.556	714.25
535.01	714.85
535.464	710.05
535.918	729.75
536.372	733.15
536.826	721.15
537.279	719.35
537.733	719.15
538.187	714.95
538.64	727.35
539.094	724.55
539.548	731.95
540.001	729.85
540.455	736.55
540.908	743.75
541.362	750.15
541.815	761.25
542.269	765.45
542.722	769.35
543.175	779.05
543.629	784.95
544.082	794.95
544.536	809.25
544.989	792.05
545.442	813.65
545.895	806.55
546.349	807.95
546.802	808.25
547.255	796.05
547.708	832.05
548.161	828.15
548.614	838.15
549.067	838.65
549.52	837.25
549.973	834.05
550.426	815.85
550.879	809.25
551.332	814.15
551.785	824.45
552.238	824.55
552.691	848.25
553.144	849.95
553.596	859.35
554.049	876.25
554.502	901.25
554.955	925.35
555.407	929.85
555.86	926.95
556.313	916.05
556.765	911.35
557.218	900.95
557.67	906.05
558.123	895.65
558.576	890.75
559.028	888.85
559.48	903.05
559.933	898.45
560.385	857.75
560.838	832.45
561.29	807.25
561.742	804.35
562.195	782.55
562.647	787.45
563.099	801.35
563.551	799.85
564.004	809.85
564.456	791.45
564.908	769.95
565.36	752.35
565.812	743.75
566.264	730.95
566.716	723.05
567.168	721.85
567.62	724.35
568.072	712.35
568.524	714.65
568.976	699.95
569.428	687.85
569.88	699.75
570.332	699.35
570.784	699.95
571.235	704.95
571.687	713.85
572.139	722.25
572.59	725.55
573.042	734.35
573.494	736.35
573.945	717.85
574.397	709.25
574.849	713.05
575.3	701.05
575.752	707.75
576.203	697.65
576.655	701.35
577.106	696.65
577.557	685.35
578.009	684.85
578.46	685.95
578.912	679.15
579.363	682.75
579.814	678.35
580.265	678.15
580.717	677.45
581.168	684.65
581.619	689.55
582.07	695.15
582.521	682.05
582.972	692.65
583.423	699.55
583.875	686.05
584.326	695.15
584.777	715.05
585.227	729.85
585.678	741.75
586.129	755.95
586.58	770.25
587.031	789.65
587.482	816.75
587.933	847.55
588.384	826.95
588.834	797.85
589.285	791.05
589.736	786.65
590.186	790.45
590.637	785.15
591.088	768.15
591.538	762.75
591.989	752.65
592.439	743.25
592.89	734.65
593.34	722.95
593.791	719.05
594.241	716.15
594.692	710.85
595.142	715.85
595.593	719.85
596.043	721.05
596.493	723.25
596.943	718.05
597.394	734.45
597.844	733.95
598.294	748.25
598.744	776.85
599.195	811.95
599.645	844.75
600.095	888.85
600.545	931.75
600.995	996.35
601.445	1058.15
601.895	1122.75
602.345	1170.95
602.795	1129.25
603.245	1097.85
603.695	1044.15
604.145	985.05
604.594	939.45
605.044	878.35
605.494	832.25
605.944	777.45
606.393	759.75
606.843	747.75
607.293	748.85
607.743	743.45
608.192	766.35
608.642	774.45
609.091	783.65
609.541	789.15
609.99	774.05
610.44	779.45
610.889	731.55
611.339	716.45
611.788	699.35
612.238	707.75
612.687	735.05
613.136	717.15
613.586	729.25
614.035	720.05
614.484	731.25
614.933	719.85
615.383	721.25
615.832	733.15
616.281	724.25
616.73	688.85
617.179	674.45
617.628	664.55
618.077	651.65
618.526	643.15
618.975	635.95
619.424	622.65
619.873	629.25
620.322	645.55
620.771	626.15
621.22	622.55
621.669	605.45
622.118	593.65
622.567	595.45
623.015	577.25
623.464	590.45
623.913	574.05
624.361	570.85
624.81	566.25
625.259	566.35
625.707	571.45
626.156	565.65
626.604	588.75
627.053	589.15
627.501	578.95
627.95	589.95
628.398	597.35
628.847	585.15
629.295	591.45
629.744	591.65
630.192	575.15
630.64	578.35
631.089	566.15
631.537	551.35
631.985	543.25
632.433	547.15
632.881	534.75
633.33	542.35
633.778	540.35
634.226	531.55
634.674	547.25
635.122	553.75
635.57	576.15
636.018	579.25
636.466	580.55
636.914	574.05
637.362	598.55
637.81	584.85
638.258	599.45
638.705	598.95
639.153	633.65
639.601	638.35
640.049	671.55
640.497	696.35
640.944	720.45
641.392	672.15
641.84	632.55
642.287	592.75
642.735	584.45
643.182	578.55
643.63	575.75
644.078	580.15
644.525	590.35
644.973	588.45
645.42	614.45
645.867	625.25
646.315	649.05
646.762	680.95
647.21	693.95
647.657	722.85
648.104	753.15
648.551	767.55
648.999	830.45
649.446	899.65
649.893	987.05
650.34	1134.25
650.787	1363.45
651.234	1663.25
651.682	2160.15
652.129	2922.85
652.576	4171.65
653.023	6092.35
653.47	8202.75
653.917	10064.25
654.363	11534.15
654.81	12646.55
655.257	11976.95
655.704	7939.15
656.151	4773.05
656.598	3142.85
657.044	2263.65
657.491	1755.35
657.938	1406.05
658.385	1197.15
658.831	1041.45
659.278	939.85
659.724	841.75
660.171	781.55
660.618	724.05
661.064	688.65
661.511	666.25
661.957	666.25
662.404	644.95
662.85	652.85
663.296	626.05
663.743	567.85
664.189	549.35
664.635	549.65
665.082	537.35
665.528	551.05
665.974	522.45
666.42	525.95
666.867	518.15
667.313	494.35
667.759	480.65
668.205	464.45
668.651	464.75
669.097	462.65
669.543	455.55
669.989	459.95
670.435	466.05
670.881	464.35
671.327	466.45
671.773	491.65
672.219	515.35
672.665	570.75
673.11	606.35
673.556	665.55
674.002	686.15
674.448	686.15
674.893	565.55
675.339	493.35
675.785	461.35
676.23	442.55
676.676	413.05
677.122	402.15
677.567	390.85
678.013	379.95
678.458	375.85
678.904	375.45
679.349	365.15
679.794	370.55
680.24	364.55
680.685	362.45
681.131	364.35
681.576	369.95
682.021	366.75
682.466	364.85
682.912	362.55
683.357	362.85
683.802	404.15
684.247	428.05
684.692	482.15
685.137	520.35
685.583	556.25
686.028	590.55
686.473	550.45
686.918	473.55
687.363	431.65
687.807	405.45
688.252	382.85
688.697	371.75
689.142	354.95
689.587	344.95
690.032	338.05
690.477	359.25
690.921	365.85
691.366	408.95
691.811	425.45
692.255	451.35
692.7	484.95
693.145	531.25
693.589	760.05
694.034	1232.25
694.478	1662.35
694.923	1812.15
695.367	2362.65
695.812	1262.15
696.256	529.45
696.701	392.15
697.145	360.05
697.59	350.85
698.034	329.25
698.478	336.65
698.922	337.15
699.367	332.45
699.811	349.85
700.255	364.75
700.699	400.25
701.143	444.75
701.588	497.35
702.032	537.55
702.476	535.85
702.92	519.55
703.364	526.65
703.808	701.05
704.252	1134.45
704.696	1574.65
705.14	1759.05
705.584	2233.35
706.027	1125.75
706.471	553.35
706.915	423.85
707.359	376.85
707.803	336.55
708.246	318.05
708.69	327.35
709.134	321.25
709.577	330.65
710.021	332.55
710.465	324.95
710.908	313.75
711.352	309.65
711.795	333.85
712.239	370.55
712.682	408.25
713.126	430.05
713.569	476.25
714.012	378.05
714.456	310.05
714.899	295.75
715.342	289.15
715.786	276.15
716.229	269.65
716.672	270.35
717.115	255.45
717.558	268.55
718.002	261.65
718.445	274.45
718.888	299.35
719.331	309.35
719.774	322.25
720.217	310.45
720.66	299.25
721.103	280.35
721.546	266.25
721.989	259.85
722.432	245.85
722.874	244.55
723.317	236.65
723.76	237.15
724.203	269.55
724.645	343.25
725.088	475.85
725.531	608.45
725.974	662.65
726.416	576.85
726.859	319.05
727.301	261.25
727.744	245.25
728.187	239.75
728.629	246.65
729.071	261.85
729.514	271.95
729.956	291.65
730.399	295.05
730.841	306.45
731.283	288.65
731.726	279.35
732.168	272.65
732.61	277.95
733.053	302.75
733.495	336.35
733.937	377.75
734.379	430.35
734.821	470.55
735.263	584.85
735.705	929.65
736.148	1762.25
736.59	2814.75
737.032	3188.95
737.474	2621.95
737.916	872.85
738.357	460.35
738.799	348.95
739.241	311.95
739.683	298.65
740.125	307.15
740.567	309.45
741.008	322.35
741.45	347.35
741.892	334.55
742.334	377.45
742.775	391.25
743.217	368.75
743.658	288.65
744.1	270.45
744.542	280.75
744.983	336.65
745.425	361.35
745.866	357.95
746.307	290.75
746.749	292.95
747.19	353.45
747.632	502.75
748.073	1000.35
748.514	2083.15
748.956	3060.85
749.397	3873.75
749.838	3185.75
750.279	3114.85
750.72	1589.45
751.162	586.45
751.603	345.95
752.044	270.05
752.485	236.55
752.926	220.65
753.367	211.45
753.808	204.15
754.249	203.45
754.69	193.55
755.131	186.85
755.572	187.65
756.013	193.45
756.453	189.95
756.894	194.95
757.335	206.25
757.776	202.35
758.216	205.05
758.657	205.15
759.098	213.15
759.538	241.15
759.979	286.75
760.42	421.95
760.86	808.55
761.301	2103.75
761.741	4919.55
762.182	6757.05
762.622	4778.85
