Data from 20171114-ORNL-Ar_H_NY_Subt18_08-08-30-943.txt Node
Date: Tue Nov 14 08:08:30 EST 2017
User: Ender
Spectrometer: HR+D1039
Trigger mode: 0
Integration Time (sec): 2.730000E-2
Scans to average: 10
Electric dark correction enabled: true
Nonlinearity correction enabled: false
Boxcar width: 0
XAxis mode: Wavelengths
Number of Pixels in Spectrum: 2048
>>>>>Begin Spectral Data<<<<<
187.836	0.84
188.309	0.84
188.782	0.84
189.255	5.34
189.728	-1.56
190.201	2.74
190.674	-0.96
191.147	1.54
191.619	-7.86
192.092	-0.86
192.565	9.44
193.038	-2.26
193.511	-0.76
193.984	-0.56
194.456	-3.46
194.929	-2.26
195.402	0.44
195.874	0.14
196.347	-0.26
196.82	-3.56
197.292	3.74
197.765	1.74
198.237	-6.26
198.71	9.04
199.182	-0.96
199.655	4.94
200.127	7.44
200.6	-2.86
201.072	0.94
201.544	-1.86
202.017	-2.56
202.489	-2.76
202.961	-1.06
203.433	3.64
203.906	-1.36
204.378	-3.26
204.85	-4.96
205.322	-11.06
205.794	-4.86
206.266	-0.86
206.739	-6.66
207.211	6.44
207.683	-10.16
208.155	-4.66
208.627	-6.06
209.099	-1.86
209.57	-6.86
210.042	-3.66
210.514	-2.16
210.986	2.44
211.458	-11.66
211.93	-5.76
212.402	-0.66
212.873	-7.46
213.345	-6.86
213.817	-11.06
214.288	-3.76
214.76	-8.86
215.232	-5.66
215.703	-1.66
216.175	0.34
216.646	-2.96
217.118	-5.16
217.589	-4.26
218.061	-1.46
218.532	-2.86
219.004	-1.06
219.475	-3.46
219.946	-1.06
220.418	-1.56
220.889	3.34
221.36	0.64
221.832	-3.16
222.303	-4.96
222.774	-0.56
223.245	-8.66
223.717	-3.16
224.188	-5.06
224.659	-5.26
225.13	-7.36
225.601	-3.26
226.072	-3.76
226.543	1.64
227.014	-2.06
227.485	-3.36
227.956	-9.16
228.427	-2.96
228.898	-2.36
229.369	2.14
229.839	-0.36
230.31	-5.46
230.781	2.34
231.252	-3.96
231.722	-2.66
232.193	-4.36
232.664	-3.36
233.135	-1.66
233.605	-3.66
234.076	-8.86
234.546	2.74
235.017	5.54
235.487	-2.96
235.958	-2.46
236.428	-6.46
236.899	0.24
237.369	-3.76
237.84	-4.56
238.31	2.84
238.78	0.44
239.251	-3.86
239.721	1.04
240.191	-3.76
240.662	-7.36
241.132	-5.26
241.602	-3.66
242.072	-3.06
242.542	5.44
243.013	-1.76
243.483	3.84
243.953	2.74
244.423	-4.06
244.893	-6.86
245.363	1.64
245.833	1.04
246.303	-5.16
246.773	2.84
247.243	-3.16
247.712	-1.96
248.182	2.54
248.652	5.24
249.122	-16.76
249.592	-0.76
250.061	-0.26
250.531	9.94
251.001	1.64
251.471	6.54
251.94	7.44
252.41	0.24
252.879	4.04
253.349	10.74
253.818	3.04
254.288	5.34
254.757	-3.66
255.227	-7.26
255.696	-1.16
256.166	6.74
256.635	4.84
257.105	0.34
257.574	-2.66
258.043	3.04
258.513	-2.66
258.982	-0.76
259.451	-7.06
259.92	2.84
260.389	8.64
260.859	5.94
261.328	3.74
261.797	5.14
262.266	-0.16
262.735	9.44
263.204	1.94
263.673	-0.86
264.142	2.74
264.611	2.94
265.08	-0.96
265.549	2.04
266.018	7.94
266.487	-0.86
266.955	-2.26
267.424	-2.36
267.893	3.94
268.362	-3.16
268.83	-3.46
269.299	8.64
269.768	4.54
270.236	4.74
270.705	-5.26
271.174	-0.66
271.642	3.94
272.111	4.24
272.579	1.44
273.048	0.04
273.516	1.44
273.985	10.54
274.453	6.14
274.922	11.54
275.39	7.74
275.858	3.64
276.327	9.94
276.795	11.14
277.263	2.04
277.731	8.74
278.2	13.24
278.668	11.84
279.136	12.54
279.604	6.14
280.072	10.94
280.54	5.74
281.008	5.74
281.477	12.74
281.945	10.24
282.413	13.84
282.881	14.64
283.348	3.24
283.816	3.84
284.284	8.24
284.752	23.14
285.22	10.24
285.688	18.24
286.156	10.84
286.623	19.74
287.091	13.44
287.559	16.14
288.026	19.84
288.494	14.34
288.962	5.24
289.429	4.44
289.897	13.84
290.364	11.04
290.832	16.94
291.3	14.44
291.767	13.44
292.234	18.84
292.702	10.14
293.169	22.14
293.637	19.64
294.104	13.44
294.571	8.14
295.039	12.04
295.506	10.84
295.973	14.84
296.44	18.74
296.908	14.14
297.375	14.34
297.842	18.74
298.309	19.54
298.776	12.54
299.243	19.14
299.71	12.34
300.177	13.84
300.644	19.44
301.111	17.94
301.578	21.24
302.045	13.74
302.512	21.44
302.979	23.44
303.446	22.54
303.913	16.04
304.379	15.74
304.846	24.34
305.313	24.64
305.78	22.64
306.246	23.44
306.713	24.64
307.18	25.54
307.646	26.44
308.113	25.64
308.579	27.64
309.046	23.34
309.512	29.74
309.979	19.44
310.445	24.44
310.912	28.34
311.378	27.44
311.845	31.34
312.311	30.04
312.777	34.94
313.244	28.54
313.71	34.24
314.176	26.24
314.642	27.14
315.109	22.54
315.575	34.34
316.041	42.14
316.507	28.84
316.973	31.84
317.439	28.74
317.905	30.54
318.371	33.94
318.837	36.04
319.303	37.84
319.769	31.54
320.235	35.14
320.701	31.34
321.167	30.74
321.633	32.14
322.099	36.84
322.564	38.24
323.03	37.74
323.496	38.24
323.962	39.44
324.427	36.74
324.893	38.14
325.359	33.94
325.824	35.14
326.29	35.14
326.755	43.14
327.221	41.94
327.686	39.44
328.152	48.64
328.617	39.14
329.083	46.34
329.548	53.24
330.014	42.04
330.479	37.84
330.944	40.64
331.41	38.14
331.875	45.34
332.34	43.24
332.805	44.24
333.271	35.74
333.736	44.64
334.201	45.24
334.666	49.94
335.131	51.74
335.596	49.44
336.061	45.54
336.526	34.24
336.991	50.64
337.456	55.84
337.921	47.24
338.386	40.24
338.851	41.64
339.316	48.24
339.781	48.64
340.246	51.64
340.711	46.14
341.175	55.94
341.64	42.64
342.105	50.74
342.569	56.54
343.034	56.34
343.499	55.54
343.963	53.34
344.428	65.54
344.893	53.74
345.357	62.04
345.822	57.84
346.286	63.14
346.751	72.44
347.215	68.94
347.679	79.24
348.144	99.74
348.608	81.14
349.073	71.14
349.537	78.64
350.001	79.54
350.465	91.54
350.93	76.64
351.394	86.94
351.858	74.64
352.322	85.54
352.786	84.74
353.25	96.74
353.715	117.14
354.179	99.04
354.643	120.64
355.107	128.04
355.571	102.64
356.035	95.34
356.498	115.04
356.962	117.14
357.426	121.44
357.89	111.04
358.354	92.44
358.818	85.74
359.281	86.24
359.745	77.84
360.209	81.94
360.673	77.64
361.136	80.64
361.6	87.04
362.064	85.74
362.527	91.74
362.991	91.34
363.454	82.74
363.918	74.24
364.381	85.44
364.845	83.04
365.308	84.64
365.772	93.94
366.235	91.14
366.698	88.04
367.162	88.24
367.625	91.44
368.088	93.54
368.552	92.44
369.015	89.54
369.478	103.44
369.941	100.34
370.404	99.94
370.867	104.24
371.331	106.44
371.794	113.04
372.257	110.54
372.72	108.94
373.183	102.74
373.646	101.64
374.109	104.04
374.572	108.14
375.035	108.04
375.497	112.24
375.96	111.24
376.423	111.04
376.886	112.04
377.349	113.24
377.811	101.34
378.274	115.34
378.737	107.94
379.199	108.24
379.662	112.04
380.125	113.64
380.587	110.04
381.05	113.14
381.512	123.24
381.975	129.54
382.437	126.34
382.9	123.04
383.362	129.74
383.825	129.24
384.287	132.44
384.75	125.54
385.212	128.64
385.674	135.84
386.136	139.74
386.599	123.94
387.061	125.14
387.523	124.04
387.985	136.14
388.447	138.64
388.91	130.34
389.372	134.04
389.834	138.94
390.296	144.44
390.758	140.34
391.22	142.74
391.682	151.24
392.144	163.94
392.606	150.24
393.068	151.94
393.529	161.64
393.991	152.14
394.453	137.44
394.915	136.34
395.377	143.24
395.838	145.54
396.3	145.14
396.762	145.04
397.224	142.74
397.685	137.64
398.147	140.74
398.608	138.04
399.07	142.44
399.531	145.74
399.993	158.54
400.454	166.24
400.916	156.54
401.377	162.54
401.839	162.74
402.3	163.84
402.762	179.64
403.223	191.54
403.684	182.74
404.145	171.34
404.607	173.04
405.068	164.64
405.529	179.54
405.99	198.14
406.451	189.94
406.913	180.34
407.374	177.04
407.835	170.24
408.296	180.24
408.757	186.44
409.218	202.04
409.679	193.44
410.14	183.34
410.601	189.24
411.062	194.54
411.522	192.94
411.983	193.84
412.444	189.64
412.905	196.34
413.366	200.64
413.826	216.94
414.287	244.04
414.748	288.04
415.208	268.54
415.669	232.14
416.13	217.84
416.59	227.04
417.051	239.34
417.511	233.64
417.972	260.84
418.432	268.64
418.893	320.04
419.353	274.34
419.814	220.84
420.274	196.74
420.734	199.24
421.195	212.94
421.655	207.34
422.115	223.34
422.576	215.84
423.036	222.04
423.496	229.04
423.956	235.94
424.416	251.34
424.876	289.14
425.336	280.04
425.797	283.54
426.257	274.44
426.717	256.24
427.177	260.14
427.637	246.44
428.097	254.74
428.556	261.54
429.016	286.14
429.476	283.04
429.936	294.34
430.396	296.84
430.856	308.34
431.315	333.04
431.775	365.64
432.235	406.24
432.694	368.04
433.154	392.44
433.614	421.24
434.073	352.44
434.533	301.44
434.993	290.74
435.452	300.04
435.912	312.84
436.371	304.44
436.83	302.94
437.29	281.34
437.749	272.14
438.209	262.54
438.668	298.34
439.127	312.54
439.587	287.74
440.046	265.94
440.505	283.34
440.964	300.94
441.424	341.64
441.883	336.34
442.342	280.54
442.801	249.24
443.26	242.94
443.719	244.04
444.178	242.24
444.637	230.54
445.096	243.84
445.555	239.64
446.014	247.74
446.473	246.34
446.932	247.14
447.391	251.94
447.849	251.14
448.308	243.64
448.767	253.64
449.226	264.74
449.685	270.14
450.143	273.44
450.602	267.74
451.061	252.94
451.519	256.94
451.978	256.14
452.436	255.64
452.895	263.54
453.353	277.54
453.812	267.24
454.27	264.04
454.729	266.74
455.187	254.64
455.646	264.74
456.104	284.74
456.562	278.84
457.021	293.54
457.479	290.04
457.937	297.34
458.395	290.44
458.854	281.04
459.312	277.34
459.77	304.94
460.228	289.74
460.686	268.04
461.144	280.24
461.602	269.14
462.06	265.64
462.518	273.64
462.976	283.84
463.434	285.54
463.892	285.24
464.35	308.54
464.808	313.64
465.266	293.24
465.724	296.84
466.181	304.04
466.639	299.74
467.097	317.84
467.555	324.74
468.012	333.34
468.47	344.04
468.928	361.74
469.385	378.14
469.843	381.14
470.3	383.54
470.758	392.44
471.215	420.84
471.673	447.24
472.13	448.94
472.588	461.44
473.045	417.74
473.503	417.04
473.96	428.64
474.417	443.04
474.875	466.64
475.332	509.74
475.789	495.54
476.246	504.64
476.704	525.54
477.161	545.64
477.618	570.94
478.075	602.34
478.532	659.24
478.989	729.44
479.446	859.04
479.903	801.44
480.36	839.94
480.817	889.84
481.274	979.34
481.731	1076.84
482.188	1152.74
482.645	1276.74
483.102	1373.44
483.558	1501.84
484.015	1530.74
484.472	1510.44
484.929	1474.44
485.385	1427.04
485.842	1389.04
486.299	1342.94
486.755	1303.34
487.212	1118.44
487.668	946.24
488.125	888.04
488.582	821.84
489.038	784.54
489.494	748.14
489.951	730.84
490.407	708.84
490.864	696.24
491.32	687.44
491.776	687.14
492.233	693.14
492.689	655.94
493.145	652.44
493.602	645.84
494.058	657.74
494.514	669.94
494.97	678.94
495.426	700.84
495.882	666.34
496.338	660.04
496.794	666.54
497.251	656.24
497.707	675.64
498.163	683.24
498.618	690.74
499.074	692.64
499.53	713.34
499.986	719.64
500.442	688.44
500.898	665.84
501.354	660.74
501.809	674.04
502.265	664.84
502.721	683.44
503.177	687.04
503.632	690.24
504.088	698.84
504.543	716.04
504.999	750.94
505.455	706.84
505.91	684.04
506.366	690.64
506.821	679.24
507.277	691.24
507.732	688.64
508.187	682.54
508.643	695.44
509.098	694.64
509.553	709.64
510.009	718.34
510.464	729.04
510.919	750.44
511.375	746.64
511.83	758.84
512.285	780.34
512.74	815.14
513.195	838.14
513.65	820.84
514.105	827.94
514.56	826.64
515.015	837.84
515.47	857.44
515.925	846.24
516.38	844.04
516.835	848.94
517.29	830.64
517.745	823.34
518.2	816.54
518.655	812.24
519.109	802.04
519.564	797.84
520.019	788.14
520.474	783.24
520.928	779.34
521.383	768.94
521.838	768.74
522.292	760.54
522.747	761.64
523.201	758.04
523.656	758.44
524.11	752.04
524.565	751.64
525.019	739.84
525.474	753.84
525.928	757.34
526.382	744.24
526.837	762.74
527.291	760.54
527.745	745.74
528.2	754.54
528.654	747.44
529.108	745.24
529.562	746.74
530.016	744.64
530.47	739.14
530.925	745.04
531.379	751.64
531.833	761.14
532.287	750.84
532.741	754.44
533.195	748.24
533.649	756.54
534.103	758.54
534.556	756.14
535.01	763.24
535.464	756.14
535.918	763.74
536.372	778.94
536.826	769.84
537.279	758.84
537.733	755.64
538.187	762.34
538.64	754.24
539.094	780.14
539.548	783.94
540.001	774.74
540.455	778.14
540.908	774.74
541.362	785.74
541.815	803.44
542.269	811.84
542.722	809.34
543.175	833.54
543.629	826.14
544.082	846.74
544.536	841.54
544.989	853.14
545.442	855.74
545.895	851.84
546.349	847.14
546.802	855.04
547.255	861.44
547.708	862.24
548.161	879.84
548.614	895.24
549.067	887.44
549.52	876.04
549.973	875.24
550.426	868.44
550.879	851.24
551.332	867.84
551.785	876.14
552.238	874.74
552.691	878.54
553.144	905.54
553.596	913.74
554.049	932.84
554.502	964.14
554.955	983.84
555.407	969.74
555.86	962.54
556.313	960.64
556.765	946.34
557.218	951.44
557.67	943.94
558.123	934.34
558.576	938.44
559.028	941.64
559.48	953.24
559.933	931.84
560.385	904.34
560.838	874.14
561.29	846.04
561.742	847.14
562.195	831.24
562.647	834.64
563.099	821.14
563.551	827.04
564.004	834.64
564.456	826.74
564.908	821.54
565.36	795.84
565.812	785.74
566.264	775.34
566.716	773.64
567.168	755.94
567.62	764.84
568.072	749.84
568.524	747.74
568.976	748.84
569.428	730.04
569.88	727.64
570.332	735.94
570.784	741.64
571.235	727.34
571.687	753.34
572.139	759.04
572.59	764.44
573.042	766.64
573.494	760.84
573.945	749.34
574.397	737.14
574.849	741.84
575.3	742.34
575.752	739.44
576.203	726.04
576.655	723.74
577.106	721.94
577.557	717.44
578.009	712.84
578.46	718.64
578.912	709.54
579.363	712.34
579.814	716.54
580.265	715.94
580.717	715.94
581.168	721.04
581.619	720.04
582.07	725.24
582.521	728.34
582.972	714.84
583.423	728.74
583.875	724.54
584.326	734.74
584.777	755.74
585.227	766.24
585.678	790.84
586.129	805.34
586.58	829.94
587.031	857.94
587.482	894.04
587.933	929.14
588.384	905.34
588.834	842.64
589.285	832.44
589.736	831.74
590.186	830.94
590.637	819.94
591.088	797.84
591.538	799.74
591.989	780.44
592.439	775.24
592.89	771.64
593.34	755.54
593.791	755.14
594.241	747.34
594.692	752.74
595.142	744.64
595.593	747.54
596.043	756.34
596.493	758.54
596.943	759.44
597.394	771.64
597.844	775.54
598.294	797.74
598.744	812.44
599.195	844.44
599.645	890.94
600.095	926.64
600.545	975.14
600.995	1022.54
601.445	1099.94
601.895	1171.84
602.345	1199.34
602.795	1176.44
603.245	1146.04
603.695	1086.74
604.145	1017.94
604.594	986.74
605.044	930.14
605.494	867.44
605.944	813.24
606.393	794.84
606.843	792.64
607.293	780.74
607.743	780.84
608.192	798.24
608.642	810.94
609.091	820.44
609.541	818.54
609.99	817.84
610.44	809.84
610.889	763.44
611.339	746.74
611.788	729.34
612.238	729.14
612.687	750.64
613.136	742.54
613.586	753.94
614.035	758.84
614.484	766.74
614.933	759.14
615.383	757.64
615.832	754.74
616.281	747.44
616.73	723.44
617.179	700.94
617.628	685.94
618.077	664.64
618.526	668.14
618.975	661.04
619.424	654.54
619.873	655.84
620.322	656.84
620.771	651.24
621.22	644.24
621.669	624.54
622.118	628.44
622.567	618.24
623.015	617.14
623.464	608.24
623.913	598.84
624.361	589.94
624.81	583.04
625.259	591.74
625.707	600.04
626.156	597.14
626.604	611.94
627.053	604.24
627.501	614.44
627.95	614.74
628.398	619.04
628.847	621.54
629.295	615.54
629.744	614.14
630.192	614.24
630.64	600.34
631.089	582.54
631.537	585.14
631.985	565.64
632.433	573.84
632.881	565.24
633.33	564.74
633.778	564.64
634.226	564.24
634.674	582.54
635.122	580.74
635.57	585.24
636.018	598.04
636.466	599.04
636.914	601.94
637.362	597.84
637.81	623.54
638.258	626.74
638.705	620.14
639.153	656.34
639.601	665.94
640.049	690.94
640.497	717.54
640.944	734.64
641.392	688.24
641.84	652.94
642.287	630.64
642.735	599.54
643.182	603.04
643.63	592.34
644.078	602.74
644.525	612.84
644.973	621.04
645.42	635.74
645.867	656.74
646.315	675.24
646.762	702.84
647.21	718.34
647.657	752.24
648.104	786.04
648.551	791.74
648.999	876.84
649.446	942.94
649.893	1029.64
650.34	1179.34
650.787	1412.64
651.234	1728.04
651.682	2239.84
652.129	3029.84
652.576	4305.84
653.023	6262.24
653.47	8409.44
653.917	10397.44
654.363	11895.84
654.81	13033.14
655.257	12395.04
655.704	8229.24
656.151	4957.04
656.598	3279.34
657.044	2355.24
657.491	1830.34
657.938	1477.34
658.385	1242.44
658.831	1085.04
659.278	985.94
659.724	885.94
660.171	817.04
660.618	749.84
661.064	719.74
661.511	700.74
661.957	687.44
662.404	677.84
662.85	681.24
663.296	664.54
663.743	599.04
664.189	578.24
664.635	568.24
665.082	567.74
665.528	562.94
665.974	550.84
666.42	539.84
666.867	537.34
667.313	517.54
667.759	494.84
668.205	481.94
668.651	484.44
669.097	486.14
669.543	474.74
669.989	480.24
670.435	480.84
670.881	483.74
671.327	487.84
671.773	498.04
672.219	532.84
672.665	596.54
673.11	637.34
673.556	683.54
674.002	720.94
674.448	713.94
674.893	590.04
675.339	519.44
675.785	473.44
676.23	453.54
676.676	411.24
677.122	419.54
677.567	409.84
678.013	400.84
678.458	388.64
678.904	386.34
679.349	380.64
679.794	387.64
680.24	385.74
680.685	379.74
681.131	377.64
681.576	377.94
682.021	388.64
682.466	370.34
682.912	370.14
683.357	390.04
683.802	415.64
684.247	449.14
684.692	497.64
685.137	540.04
685.583	583.04
686.028	609.24
686.473	556.84
686.918	478.64
687.363	448.84
687.807	426.14
688.252	396.94
688.697	387.74
689.142	369.34
689.587	361.34
690.032	358.84
690.477	370.44
690.921	382.84
691.366	411.64
691.811	427.44
692.255	465.14
692.7	499.44
693.145	551.14
693.589	771.04
694.034	1266.94
694.478	1691.24
694.923	1853.54
695.367	2422.94
695.812	1302.54
696.256	545.34
696.701	401.14
697.145	382.34
697.59	349.84
698.034	339.64
698.478	350.54
698.922	350.04
699.367	353.14
699.811	356.14
700.255	382.14
700.699	411.74
701.143	452.64
701.588	507.74
702.032	553.34
702.476	554.54
702.92	533.14
703.364	535.54
703.808	712.64
704.252	1145.24
704.696	1591.64
705.14	1795.34
705.584	2269.34
706.027	1158.74
706.471	567.34
706.915	432.24
707.359	382.54
707.803	348.14
708.246	340.74
708.69	334.34
709.134	338.64
709.577	336.84
710.021	349.34
710.465	323.24
710.908	325.74
711.352	313.44
711.795	337.94
712.239	384.44
712.682	414.14
713.126	440.04
713.569	481.84
714.012	386.54
714.456	331.74
714.899	315.54
715.342	304.54
715.786	286.84
716.229	283.34
716.672	281.44
717.115	267.94
717.558	274.44
718.002	268.54
718.445	280.54
718.888	303.84
719.331	314.04
719.774	329.04
720.217	321.44
720.66	309.74
721.103	295.54
721.546	272.44
721.989	263.54
722.432	255.54
722.874	255.34
723.317	240.84
723.76	249.94
724.203	276.34
724.645	352.14
725.088	487.74
725.531	615.34
725.974	690.94
726.416	587.54
726.859	333.24
727.301	264.74
727.744	254.64
728.187	252.64
728.629	264.34
729.071	268.84
729.514	275.84
729.956	292.54
730.399	304.34
730.841	313.04
731.283	293.44
731.726	282.84
732.168	285.24
732.61	292.44
733.053	316.34
733.495	346.34
733.937	386.24
734.379	431.64
734.821	480.94
735.263	605.74
735.705	942.54
736.148	1776.14
736.59	2821.94
737.032	3264.54
737.474	2666.84
737.916	882.94
738.357	464.04
738.799	363.34
739.241	327.54
739.683	307.44
740.125	318.84
740.567	319.94
741.008	336.84
741.45	346.14
741.892	349.74
742.334	385.14
742.775	384.54
743.217	376.94
743.658	300.64
744.1	279.64
744.542	293.94
744.983	345.74
745.425	388.74
745.866	375.54
746.307	298.74
746.749	305.04
747.19	354.84
747.632	509.64
748.073	997.74
748.514	2083.14
748.956	3107.44
749.397	3926.94
749.838	3225.74
750.279	3165.54
750.72	1623.84
751.162	606.54
751.603	346.84
752.044	276.44
752.485	228.54
752.926	227.34
753.367	221.44
753.808	211.64
754.249	196.94
754.69	203.24
755.131	203.94
755.572	195.34
756.013	200.34
756.453	200.24
756.894	205.54
757.335	206.44
757.776	216.74
758.216	205.04
758.657	218.74
759.098	223.24
759.538	249.44
759.979	301.54
760.42	419.94
760.86	804.34
761.301	2073.24
761.741	4920.44
762.182	6832.54
762.622	4879.84
