Data from 20171114-ORNL-Ar_H_NY_Subt18_08-03-48-140.txt Node
Date: Tue Nov 14 08:03:48 EST 2017
User: Ender
Spectrometer: HR+D1039
Trigger mode: 0
Integration Time (sec): 2.730000E-2
Scans to average: 10
Electric dark correction enabled: true
Nonlinearity correction enabled: false
Boxcar width: 0
XAxis mode: Wavelengths
Number of Pixels in Spectrum: 2048
>>>>>Begin Spectral Data<<<<<
187.836	-6.85
188.309	-6.85
188.782	-6.85
189.255	-2.35
189.728	-5.55
190.201	8.15
190.674	-1.65
191.147	2.55
191.619	-5.05
192.092	2.75
192.565	5.85
193.038	-1.95
193.511	-2.05
193.984	3.25
194.456	2.75
194.929	5.65
195.402	-3.55
195.874	-1.95
196.347	-5.15
196.82	-4.45
197.292	2.35
197.765	-3.35
198.237	-3.05
198.71	-0.95
199.182	-4.35
199.655	-3.75
200.127	1.75
200.6	-4.25
201.072	-1.55
201.544	-5.75
202.017	-5.05
202.489	4.25
202.961	-3.75
203.433	-9.35
203.906	-8.55
204.378	-7.35
204.85	-6.15
205.322	-11.15
205.794	-2.95
206.266	-4.05
206.739	-7.75
207.211	0.15
207.683	-10.65
208.155	-12.15
208.627	-6.05
209.099	-3.75
209.57	-7.95
210.042	-5.35
210.514	-13.05
210.986	-5.25
211.458	-14.95
211.93	-0.55
212.402	-0.85
212.873	-8.55
213.345	-8.55
213.817	-7.15
214.288	-2.05
214.76	-9.65
215.232	-3.75
215.703	-6.15
216.175	-5.05
216.646	-7.15
217.118	-14.15
217.589	-4.75
218.061	-5.05
218.532	-7.25
219.004	-6.75
219.475	-4.85
219.946	-4.45
220.418	-6.75
220.889	5.05
221.36	2.65
221.832	-5.85
222.303	-4.75
222.774	9.25
223.245	-10.05
223.717	-10.25
224.188	0.65
224.659	-7.65
225.13	-6.15
225.601	-10.65
226.072	-0.35
226.543	7.45
227.014	-5.15
227.485	-8.25
227.956	-10.35
228.427	0.35
228.898	-1.45
229.369	2.25
229.839	-9.25
230.31	-6.15
230.781	0.45
231.252	-3.95
231.722	-6.85
232.193	-1.15
232.664	-2.45
233.135	-3.55
233.605	-6.35
234.076	-7.65
234.546	-3.45
235.017	0.35
235.487	-0.45
235.958	-3.55
236.428	-6.85
236.899	-3.25
237.369	3.75
237.84	-8.45
238.31	-1.55
238.78	-5.85
239.251	-5.65
239.721	1.05
240.191	-7.75
240.662	-5.15
241.132	0.75
241.602	-12.25
242.072	-8.85
242.542	-3.05
243.013	-8.65
243.483	-0.75
243.953	1.25
244.423	3.55
244.893	-8.45
245.363	-5.25
245.833	-4.35
246.303	-4.55
246.773	3.95
247.243	3.45
247.712	-2.55
248.182	2.45
248.652	1.05
249.122	-12.65
249.592	-3.65
250.061	4.05
250.531	9.05
251.001	-7.45
251.471	3.75
251.94	1.45
252.41	-5.35
252.879	-3.95
253.349	7.35
253.818	2.45
254.288	0.85
254.757	-6.55
255.227	-3.85
255.696	-1.05
256.166	-0.65
256.635	1.75
257.105	-4.25
257.574	-0.65
258.043	-4.45
258.513	-3.55
258.982	0.55
259.451	-4.85
259.92	-2.45
260.389	-2.65
260.859	6.85
261.328	-3.45
261.797	1.05
262.266	-0.05
262.735	2.35
263.204	-1.55
263.673	4.85
264.142	2.85
264.611	-8.65
265.08	-2.65
265.549	-7.35
266.018	0.05
266.487	-4.45
266.955	-6.05
267.424	-3.05
267.893	-0.55
268.362	-0.05
268.83	-3.85
269.299	4.85
269.768	0.95
270.236	0.05
270.705	1.25
271.174	3.35
271.642	5.35
272.111	-3.45
272.579	2.85
273.048	6.25
273.516	2.85
273.985	1.75
274.453	3.35
274.922	6.85
275.39	0.35
275.858	-4.65
276.327	1.55
276.795	5.55
277.263	0.85
277.731	11.75
278.2	3.95
278.668	11.85
279.136	5.25
279.604	-4.65
280.072	4.25
280.54	5.25
281.008	6.95
281.477	6.15
281.945	6.25
282.413	2.75
282.881	10.35
283.348	-1.15
283.816	3.45
284.284	4.05
284.752	12.05
285.22	3.75
285.688	6.75
286.156	6.75
286.623	12.95
287.091	6.35
287.559	12.25
288.026	5.75
288.494	10.75
288.962	-8.85
289.429	4.45
289.897	11.65
290.364	6.95
290.832	7.25
291.3	6.25
291.767	13.85
292.234	10.65
292.702	8.05
293.169	5.45
293.637	12.85
294.104	13.85
294.571	3.85
295.039	4.95
295.506	5.25
295.973	10.55
296.44	7.85
296.908	8.85
297.375	6.15
297.842	15.85
298.309	12.25
298.776	6.95
299.243	11.55
299.71	6.45
300.177	13.45
300.644	15.25
301.111	16.05
301.578	15.95
302.045	7.35
302.512	16.25
302.979	15.65
303.446	9.65
303.913	7.65
304.379	14.65
304.846	15.05
305.313	16.25
305.78	7.75
306.246	13.05
306.713	17.75
307.18	14.05
307.646	17.25
308.113	17.95
308.579	15.05
309.046	17.95
309.512	20.55
309.979	12.65
310.445	25.65
310.912	22.75
311.378	22.85
311.845	21.15
312.311	21.15
312.777	20.15
313.244	21.25
313.71	26.75
314.176	22.55
314.642	18.45
315.109	14.85
315.575	24.25
316.041	29.95
316.507	25.35
316.973	26.15
317.439	24.05
317.905	23.25
318.371	25.45
318.837	21.65
319.303	17.35
319.769	24.65
320.235	19.65
320.701	21.55
321.167	25.35
321.633	28.65
322.099	29.85
322.564	29.95
323.03	27.65
323.496	27.75
323.962	29.55
324.427	28.25
324.893	34.75
325.359	30.35
325.824	26.75
326.29	23.75
326.755	26.85
327.221	28.65
327.686	27.25
328.152	41.35
328.617	34.45
329.083	37.95
329.548	37.05
330.014	41.15
330.479	34.45
330.944	41.05
331.41	35.25
331.875	29.75
332.34	36.75
332.805	31.35
333.271	40.15
333.736	27.15
334.201	37.45
334.666	34.15
335.131	44.65
335.596	39.35
336.061	42.15
336.526	37.15
336.991	36.25
337.456	48.55
337.921	43.55
338.386	37.65
338.851	42.35
339.316	37.65
339.781	40.85
340.246	47.75
340.711	41.35
341.175	44.75
341.64	32.45
342.105	42.15
342.569	45.45
343.034	49.55
343.499	45.15
343.963	48.65
344.428	57.05
344.893	59.15
345.357	51.75
345.822	51.05
346.286	54.25
346.751	55.95
347.215	53.65
347.679	57.45
348.144	75.65
348.608	68.95
349.073	64.65
349.537	68.05
350.001	65.05
350.465	70.15
350.93	70.45
351.394	73.45
351.858	69.85
352.322	75.15
352.786	67.25
353.25	78.25
353.715	90.65
354.179	90.75
354.643	95.95
355.107	98.95
355.571	90.35
356.035	85.95
356.498	91.05
356.962	95.95
357.426	103.45
357.89	99.25
358.354	84.95
358.818	75.45
359.281	75.95
359.745	68.15
360.209	75.95
360.673	65.05
361.136	73.15
361.6	77.55
362.064	73.55
362.527	78.45
362.991	83.25
363.454	74.15
363.918	74.15
364.381	75.75
364.845	79.55
365.308	86.85
365.772	84.35
366.235	87.85
366.698	77.15
367.162	88.15
367.625	79.05
368.088	83.95
368.552	84.15
369.015	80.75
369.478	94.45
369.941	93.35
370.404	89.45
370.867	95.05
371.331	95.05
371.794	100.05
372.257	101.65
372.72	108.15
373.183	99.35
373.646	104.05
374.109	90.45
374.572	100.35
375.035	100.35
375.497	99.65
375.96	99.35
376.423	100.05
376.886	109.15
377.349	101.05
377.811	101.65
378.274	98.75
378.737	106.35
379.199	105.55
379.662	105.95
380.125	114.35
380.587	102.25
381.05	108.15
381.512	114.55
381.975	126.75
382.437	120.95
382.9	114.35
383.362	119.55
383.825	131.95
384.287	124.15
384.75	117.45
385.212	119.45
385.674	131.05
386.136	131.95
386.599	123.45
387.061	128.95
387.523	122.75
387.985	132.65
388.447	130.85
388.91	127.75
389.372	129.35
389.834	127.15
390.296	135.05
390.758	134.95
391.22	131.45
391.682	140.85
392.144	143.15
392.606	137.15
393.068	138.95
393.529	149.05
393.991	142.15
394.453	132.25
394.915	137.15
395.377	139.35
395.838	138.55
396.3	143.75
396.762	149.35
397.224	136.85
397.685	138.05
398.147	138.25
398.608	132.85
399.07	135.85
399.531	143.25
399.993	145.75
400.454	154.25
400.916	150.85
401.377	149.95
401.839	153.95
402.3	157.15
402.762	174.95
403.223	185.25
403.684	175.45
404.145	166.65
404.607	169.45
405.068	168.05
405.529	169.75
405.99	179.35
406.451	176.15
406.913	179.95
407.374	172.35
407.835	175.05
408.296	173.35
408.757	174.65
409.218	183.25
409.679	177.75
410.14	178.65
410.601	180.85
411.062	191.95
411.522	186.05
411.983	186.65
412.444	184.75
412.905	191.35
413.366	197.25
413.826	206.65
414.287	227.65
414.748	276.45
415.208	261.75
415.669	227.15
416.13	219.75
416.59	216.75
417.051	234.25
417.511	240.65
417.972	257.95
418.432	271.85
418.893	305.65
419.353	277.55
419.814	206.05
420.274	197.55
420.734	189.75
421.195	202.05
421.655	195.85
422.115	207.65
422.576	207.45
423.036	206.15
423.496	218.35
423.956	221.55
424.416	248.05
424.876	272.55
425.336	268.95
425.797	267.45
426.257	267.15
426.717	245.05
427.177	238.15
427.637	225.75
428.097	246.65
428.556	247.45
429.016	269.35
429.476	269.55
429.936	275.45
430.396	278.45
430.856	279.55
431.315	309.05
431.775	335.95
432.235	379.85
432.694	356.05
433.154	356.25
433.614	364.85
434.073	327.35
434.533	285.45
434.993	269.95
435.452	276.15
435.912	282.75
436.371	279.45
436.83	272.85
437.29	271.05
437.749	244.55
438.209	248.35
438.668	272.35
439.127	273.55
439.587	258.35
440.046	247.75
440.505	255.45
440.964	266.65
441.424	296.65
441.883	291.35
442.342	254.15
442.801	230.15
443.26	229.95
443.719	232.75
444.178	231.55
444.637	222.85
445.096	240.45
445.555	229.35
446.014	235.45
446.473	238.35
446.932	236.35
447.391	236.95
447.849	233.25
448.308	228.15
448.767	235.05
449.226	243.05
449.685	245.35
450.143	255.65
450.602	243.15
451.061	231.25
451.519	234.55
451.978	238.05
452.436	235.35
452.895	232.75
453.353	247.15
453.812	240.95
454.27	241.55
454.729	251.25
455.187	238.95
455.646	248.75
456.104	245.95
456.562	257.15
457.021	267.45
457.479	259.15
457.937	270.75
458.395	264.05
458.854	246.65
459.312	263.45
459.77	268.15
460.228	258.55
460.686	244.95
461.144	264.95
461.602	256.55
462.06	252.95
462.518	255.45
462.976	259.55
463.434	261.65
463.892	262.65
464.35	274.75
464.808	280.15
465.266	265.65
465.724	273.75
466.181	276.75
466.639	275.05
467.097	294.55
467.555	300.25
468.012	299.25
468.47	303.95
468.928	321.15
469.385	337.75
469.843	337.85
470.3	337.95
470.758	360.75
471.215	366.45
471.673	382.05
472.13	391.05
472.588	397.95
473.045	369.85
473.503	375.55
473.96	395.65
474.417	398.15
474.875	416.35
475.332	453.25
475.789	452.95
476.246	451.85
476.704	463.05
477.161	486.65
477.618	502.95
478.075	535.35
478.532	575.25
478.989	637.65
479.446	722.25
479.903	705.85
480.36	746.65
480.817	791.65
481.274	876.65
481.731	960.95
482.188	1025.55
482.645	1148.85
483.102	1230.65
483.558	1324.75
484.015	1396.75
484.472	1352.25
484.929	1328.45
485.385	1284.85
485.842	1259.85
486.299	1219.05
486.755	1156.65
487.212	1005.55
487.668	872.05
488.125	801.95
488.582	741.55
489.038	713.65
489.494	677.35
489.951	649.25
490.407	638.45
490.864	615.05
491.32	613.25
491.776	610.25
492.233	610.95
492.689	582.35
493.145	574.55
493.602	568.75
494.058	585.85
494.514	585.25
494.97	603.45
495.426	594.95
495.882	576.15
496.338	570.45
496.794	580.55
497.251	571.25
497.707	594.55
498.163	588.75
498.618	594.85
499.074	590.25
499.53	609.95
499.986	613.45
500.442	587.65
500.898	581.95
501.354	577.95
501.809	577.95
502.265	579.65
502.721	591.95
503.177	599.85
503.632	599.95
504.088	607.25
504.543	618.55
504.999	637.95
505.455	614.15
505.91	593.35
506.366	601.75
506.821	600.55
507.277	586.15
507.732	595.55
508.187	605.35
508.643	594.35
509.098	597.95
509.553	609.45
510.009	626.45
510.464	618.95
510.919	647.45
511.375	642.35
511.83	654.45
512.285	653.05
512.74	694.75
513.195	705.55
513.65	694.65
514.105	696.55
514.56	700.65
515.015	722.65
515.47	722.25
515.925	711.95
516.38	719.35
516.835	728.45
517.29	718.25
517.745	705.55
518.2	696.25
518.655	691.75
519.109	676.15
519.564	677.75
520.019	664.55
520.474	668.05
520.928	656.85
521.383	656.15
521.838	638.15
522.292	645.55
522.747	648.45
523.201	640.45
523.656	630.85
524.11	634.75
524.565	629.35
525.019	629.15
525.474	628.75
525.928	635.05
526.382	626.95
526.837	630.85
527.291	636.75
527.745	625.45
528.2	623.85
528.654	617.35
529.108	614.05
529.562	616.85
530.016	618.55
530.47	615.45
530.925	606.65
531.379	607.95
531.833	626.95
532.287	619.85
532.741	618.25
533.195	616.35
533.649	627.75
534.103	629.45
534.556	625.35
535.01	620.35
535.464	617.35
535.918	629.35
536.372	627.25
536.826	628.95
537.279	625.85
537.733	631.65
538.187	625.65
538.64	628.15
539.094	629.15
539.548	626.85
540.001	633.25
540.455	626.45
540.908	639.85
541.362	642.15
541.815	652.15
542.269	660.25
542.722	659.35
543.175	669.05
543.629	673.55
544.082	684.25
544.536	676.65
544.989	678.85
545.442	692.05
545.895	679.75
546.349	685.75
546.802	690.65
547.255	684.65
547.708	696.55
548.161	705.75
548.614	713.25
549.067	713.25
549.52	704.85
549.973	703.85
550.426	684.65
550.879	682.35
551.332	695.65
551.785	697.75
552.238	693.55
552.691	694.15
553.144	707.95
553.596	707.95
554.049	731.05
554.502	762.15
554.955	779.05
555.407	762.45
555.86	756.95
556.313	740.55
556.765	729.35
557.218	736.95
557.67	737.65
558.123	733.85
558.576	732.95
559.028	741.15
559.48	731.85
559.933	731.85
560.385	706.05
560.838	689.15
561.29	658.75
561.742	662.15
562.195	644.65
562.647	644.75
563.099	651.05
563.551	649.45
564.004	651.25
564.456	641.05
564.908	626.95
565.36	612.45
565.812	609.05
566.264	593.05
566.716	589.15
567.168	581.45
567.62	590.55
568.072	564.65
568.524	578.05
568.976	571.65
569.428	555.05
569.88	561.55
570.332	559.85
570.784	567.75
571.235	559.95
571.687	569.95
572.139	575.35
572.59	588.25
573.042	580.85
573.494	583.15
573.945	579.15
574.397	557.25
574.849	561.15
575.3	567.05
575.752	554.05
576.203	538.15
576.655	556.15
577.106	537.55
577.557	529.75
578.009	544.15
578.46	547.15
578.912	535.95
579.363	532.75
579.814	537.85
580.265	530.75
580.717	540.45
581.168	537.15
581.619	544.55
582.07	540.85
582.521	533.25
582.972	531.35
583.423	548.95
583.875	536.65
584.326	539.15
584.777	556.75
585.227	578.45
585.678	593.95
586.129	609.15
586.58	628.75
587.031	645.95
587.482	685.75
587.933	719.65
588.384	700.15
588.834	640.75
589.285	615.75
589.736	611.45
590.186	613.55
590.637	606.65
591.088	591.75
591.538	594.15
591.989	579.95
592.439	579.85
592.89	569.75
593.34	564.65
593.791	553.85
594.241	536.95
594.692	549.75
595.142	554.65
595.593	540.65
596.043	538.85
596.493	552.25
596.943	547.45
597.394	559.45
597.844	557.55
598.294	569.05
598.744	596.25
599.195	599.45
599.645	633.85
600.095	657.65
600.545	711.85
600.995	743.15
601.445	790.75
601.895	836.45
602.345	878.65
602.795	857.85
603.245	829.75
603.695	784.65
604.145	737.85
604.594	705.65
605.044	667.45
605.494	619.75
605.944	580.45
606.393	567.65
606.843	554.65
607.293	566.25
607.743	553.15
608.192	562.55
608.642	572.05
609.091	572.75
609.541	578.05
609.99	574.15
610.44	574.65
610.889	538.65
611.339	524.25
611.788	518.65
612.238	526.25
612.687	537.45
613.136	527.35
613.586	534.95
614.035	519.95
614.484	539.65
614.933	528.75
615.383	534.45
615.832	526.85
616.281	519.15
616.73	508.65
617.179	500.75
617.628	486.95
618.077	477.05
618.526	463.95
618.975	461.35
619.424	461.75
619.873	452.85
620.322	463.25
620.771	453.45
621.22	444.95
621.669	441.65
622.118	441.75
622.567	440.75
623.015	428.25
623.464	423.25
623.913	407.65
624.361	407.35
624.81	414.35
625.259	408.65
625.707	410.65
626.156	414.65
626.604	423.65
627.053	415.65
627.501	416.25
627.95	423.75
628.398	424.45
628.847	414.55
629.295	423.35
629.744	421.85
630.192	424.95
630.64	420.15
631.089	400.35
631.537	390.35
631.985	382.25
632.433	386.45
632.881	386.35
633.33	393.35
633.778	383.65
634.226	385.45
634.674	394.65
635.122	382.95
635.57	394.15
636.018	410.15
636.466	412.75
636.914	407.25
637.362	420.05
637.81	422.95
638.258	417.85
638.705	422.15
639.153	445.45
639.601	445.45
640.049	465.95
640.497	488.25
640.944	510.75
641.392	465.85
641.84	461.55
642.287	417.75
642.735	412.35
643.182	409.55
643.63	405.95
644.078	410.25
644.525	423.35
644.973	424.95
645.42	429.55
645.867	446.05
646.315	458.65
646.762	466.35
647.21	492.25
647.657	497.35
648.104	525.65
648.551	534.95
648.999	582.25
649.446	625.15
649.893	676.35
650.34	771.65
650.787	916.95
651.234	1120.45
651.682	1421.25
652.129	1912.45
652.576	2695.15
653.023	3947.25
653.47	5476.45
653.917	6941.15
654.363	8148.75
654.81	9189.55
655.257	8751.25
655.704	5793.45
656.151	3423.85
656.598	2260.35
657.044	1613.25
657.491	1246.25
657.938	1004.95
658.385	841.75
658.831	740.25
659.278	662.45
659.724	587.05
660.171	549.25
660.618	497.25
661.064	468.85
661.511	459.25
661.957	441.35
662.404	433.35
662.85	441.45
663.296	419.35
663.743	398.55
664.189	377.65
664.635	376.55
665.082	371.75
665.528	368.05
665.974	359.25
666.42	356.75
666.867	356.05
667.313	336.85
667.759	330.45
668.205	316.75
668.651	324.15
669.097	319.25
669.543	309.35
669.989	313.85
670.435	318.35
670.881	318.35
671.327	320.45
671.773	340.95
672.219	344.95
672.665	392.45
673.11	416.85
673.556	448.75
674.002	483.95
674.448	469.55
674.893	394.15
675.339	340.35
675.785	314.25
676.23	298.05
676.676	276.75
677.122	274.85
677.567	264.55
678.013	255.35
678.458	254.55
678.904	254.45
679.349	237.65
679.794	256.55
680.24	244.15
680.685	245.45
681.131	250.85
681.576	250.95
682.021	248.45
682.466	244.55
682.912	241.45
683.357	249.45
683.802	266.15
684.247	285.25
684.692	321.95
685.137	340.65
685.583	382.85
686.028	409.75
686.473	371.55
686.918	312.65
687.363	293.65
687.807	282.45
688.252	261.55
688.697	252.05
689.142	239.95
689.587	239.15
690.032	229.05
690.477	240.95
690.921	243.45
691.366	264.85
691.811	274.75
692.255	300.05
692.7	328.25
693.145	356.25
693.589	485.15
694.034	765.05
694.478	1069.95
694.923	1271.45
695.367	1710.15
695.812	871.85
696.256	357.35
696.701	262.35
697.145	239.15
697.59	232.85
698.034	222.05
698.478	228.85
698.922	222.95
699.367	223.35
699.811	227.95
700.255	246.45
700.699	263.15
701.143	284.45
701.588	330.25
702.032	358.65
702.476	367.85
702.92	360.05
703.364	341.25
703.808	442.05
704.252	697.35
704.696	1017.55
705.14	1217.15
705.584	1578.25
706.027	788.15
706.471	376.75
706.915	277.65
707.359	255.95
707.803	220.25
708.246	216.45
708.69	213.25
709.134	216.85
709.577	223.25
710.021	223.05
710.465	215.85
710.908	213.65
711.352	205.65
711.795	220.05
712.239	242.55
712.682	264.35
713.126	287.75
713.569	322.85
714.012	256.25
714.456	219.15
714.899	206.65
715.342	189.85
715.786	176.85
716.229	179.15
716.672	177.15
717.115	175.75
717.558	173.65
718.002	175.25
718.445	185.65
718.888	196.95
719.331	203.75
719.774	216.45
720.217	208.45
720.66	199.65
721.103	187.45
721.546	182.25
721.989	166.25
722.432	155.65
722.874	170.35
723.317	159.45
723.76	161.45
724.203	173.85
724.645	207.85
725.088	300.75
725.531	392.95
725.974	454.35
726.416	390.15
726.859	212.45
727.301	169.45
727.744	161.75
728.187	160.45
728.629	166.65
729.071	164.95
729.514	176.35
729.956	193.35
730.399	193.05
730.841	200.55
731.283	189.05
731.726	189.35
732.168	180.05
732.61	185.45
733.053	196.55
733.495	214.85
733.937	241.85
734.379	281.05
734.821	302.55
735.263	369.15
735.705	561.65
736.148	1064.85
736.59	1802.35
737.032	2282.85
737.474	1842.25
737.916	586.75
738.357	302.25
738.799	229.65
739.241	209.05
739.683	200.65
740.125	205.05
740.567	211.55
741.008	229.85
741.45	225.15
741.892	221.45
742.334	256.95
742.775	265.95
743.217	250.35
743.658	194.45
744.1	179.15
744.542	177.75
744.983	228.65
745.425	264.55
745.866	264.15
746.307	200.15
746.749	192.45
747.19	223.35
747.632	302.15
748.073	570.35
748.514	1252.95
748.956	2023.95
749.397	2557.65
749.838	2138.85
750.279	2212.25
750.72	1110.85
751.162	396.95
751.603	225.75
752.044	174.05
752.485	147.85
752.926	147.05
753.367	142.55
753.808	135.65
754.249	130.15
754.69	130.75
755.131	124.15
755.572	124.05
756.013	124.85
756.453	122.95
756.894	128.85
757.335	136.15
757.776	130.95
758.216	138.65
758.657	138.15
759.098	134.75
759.538	151.95
759.979	181.65
760.42	246.75
760.86	469.55
761.301	1234.35
761.741	3085.65
762.182	4927.75
762.622	3506.95
763.063	974.05
763.503	389.25
