Data from 20171114-ORNL-Ar_H_NY_Subt18_08-06-00-534.txt Node
Date: Tue Nov 14 08:06:00 EST 2017
User: Ender
Spectrometer: HR+D1039
Trigger mode: 0
Integration Time (sec): 2.730000E-2
Scans to average: 10
Electric dark correction enabled: true
Nonlinearity correction enabled: false
Boxcar width: 0
XAxis mode: Wavelengths
Number of Pixels in Spectrum: 2048
>>>>>Begin Spectral Data<<<<<
187.836	-5.26
188.309	-5.26
188.782	-5.26
189.255	5.24
189.728	2.44
190.201	4.94
190.674	0.74
191.147	8.04
191.619	-10.06
192.092	1.44
192.565	1.74
193.038	-0.16
193.511	1.14
193.984	0.54
194.456	-2.66
194.929	-0.86
195.402	-9.36
195.874	2.04
196.347	4.04
196.82	-5.66
197.292	7.64
197.765	3.74
198.237	-5.36
198.71	1.34
199.182	-2.56
199.655	3.64
200.127	2.24
200.6	-0.16
201.072	-4.06
201.544	-6.96
202.017	-7.26
202.489	9.54
202.961	-4.86
203.433	1.14
203.906	-1.86
204.378	-8.36
204.85	-6.06
205.322	-6.76
205.794	-0.26
206.266	2.44
206.739	-6.66
207.211	0.64
207.683	-7.26
208.155	-2.56
208.627	-8.96
209.099	-2.96
209.57	-8.56
210.042	-3.06
210.514	-0.06
210.986	-1.76
211.458	-3.46
211.93	-2.46
212.402	-0.36
212.873	-0.76
213.345	-0.96
213.817	-5.06
214.288	-8.26
214.76	-6.96
215.232	-3.66
215.703	-2.86
216.175	-0.06
216.646	-6.06
217.118	-6.06
217.589	-8.06
218.061	-3.76
218.532	-2.06
219.004	2.04
219.475	-0.76
219.946	-2.06
220.418	-7.56
220.889	5.84
221.36	1.84
221.832	-0.86
222.303	-7.96
222.774	-0.06
223.245	-12.56
223.717	-4.16
224.188	-0.96
224.659	-6.86
225.13	-7.66
225.601	-5.06
226.072	1.54
226.543	3.14
227.014	-1.26
227.485	3.04
227.956	-3.26
228.427	-5.06
228.898	-0.36
229.369	3.74
229.839	-4.56
230.31	-8.56
230.781	-2.36
231.252	1.64
231.722	-0.36
232.193	1.24
232.664	-2.36
233.135	0.74
233.605	-2.56
234.076	-1.86
234.546	1.44
235.017	6.84
235.487	3.64
235.958	-3.66
236.428	-0.46
236.899	3.44
237.369	9.54
237.84	3.24
238.31	7.34
238.78	4.84
239.251	1.74
239.721	-1.86
240.191	7.54
240.662	-0.06
241.132	2.44
241.602	-2.96
242.072	5.74
242.542	6.34
243.013	2.14
243.483	8.34
243.953	1.54
244.423	-1.76
244.893	0.64
245.363	8.54
245.833	-0.96
246.303	4.84
246.773	11.94
247.243	5.74
247.712	2.14
248.182	7.64
248.652	10.94
249.122	1.14
249.592	16.84
250.061	24.54
250.531	33.24
251.001	14.54
251.471	26.34
251.94	24.84
252.41	9.54
252.879	6.04
253.349	11.14
253.818	11.64
254.288	8.14
254.757	6.74
255.227	7.74
255.696	1.74
256.166	4.24
256.635	4.34
257.105	7.44
257.574	5.94
258.043	13.64
258.513	14.64
258.982	14.94
259.451	7.64
259.92	8.44
260.389	14.24
260.859	16.04
261.328	8.34
261.797	15.14
262.266	5.24
262.735	9.94
263.204	10.44
263.673	7.44
264.142	5.84
264.611	4.34
265.08	3.74
265.549	0.34
266.018	3.44
266.487	-2.76
266.955	1.74
267.424	4.44
267.893	9.54
268.362	8.94
268.83	5.54
269.299	14.04
269.768	7.74
270.236	14.04
270.705	7.44
271.174	7.24
271.642	13.44
272.111	12.94
272.579	21.34
273.048	24.64
273.516	28.34
273.985	24.54
274.453	26.04
274.922	24.24
275.39	10.04
275.858	7.44
276.327	8.54
276.795	17.94
277.263	9.54
277.731	37.44
278.2	60.44
278.668	59.74
279.136	50.94
279.604	24.84
280.072	14.14
280.54	15.84
281.008	11.34
281.477	14.14
281.945	12.34
282.413	18.04
282.881	19.34
283.348	10.84
283.816	13.54
284.284	21.44
284.752	20.94
285.22	20.14
285.688	13.94
286.156	22.44
286.623	52.04
287.091	52.44
287.559	30.14
288.026	22.64
288.494	21.84
288.962	7.94
289.429	19.44
289.897	13.34
290.364	18.14
290.832	19.94
291.3	10.64
291.767	20.34
292.234	21.24
292.702	16.04
293.169	21.04
293.637	27.94
294.104	22.84
294.571	9.14
295.039	12.84
295.506	15.04
295.973	19.84
296.44	19.44
296.908	25.14
297.375	19.44
297.842	21.54
298.309	18.94
298.776	13.64
299.243	24.04
299.71	17.14
300.177	20.84
300.644	23.44
301.111	18.84
301.578	22.54
302.045	18.94
302.512	33.24
302.979	25.64
303.446	26.04
303.913	16.54
304.379	20.64
304.846	32.14
305.313	26.44
305.78	20.94
306.246	29.54
306.713	26.64
307.18	30.74
307.646	21.34
308.113	27.04
308.579	33.44
309.046	27.64
309.512	27.34
309.979	18.54
310.445	29.04
310.912	27.24
311.378	33.74
311.845	31.94
312.311	32.44
312.777	37.64
313.244	32.94
313.71	39.64
314.176	31.54
314.642	39.64
315.109	31.14
315.575	41.64
316.041	44.44
316.507	38.14
316.973	41.94
317.439	36.04
317.905	40.84
318.371	41.24
318.837	43.74
319.303	33.64
319.769	34.34
320.235	31.44
320.701	40.54
321.167	32.74
321.633	37.54
322.099	42.24
322.564	48.74
323.03	41.74
323.496	36.34
323.962	46.34
324.427	39.44
324.893	47.34
325.359	40.94
325.824	38.54
326.29	36.64
326.755	39.54
327.221	40.14
327.686	41.24
328.152	50.44
328.617	41.04
329.083	52.44
329.548	59.54
330.014	52.24
330.479	42.24
330.944	44.54
331.41	51.84
331.875	47.24
332.34	46.34
332.805	49.34
333.271	48.84
333.736	45.44
334.201	56.04
334.666	54.14
335.131	59.54
335.596	51.34
336.061	55.94
336.526	47.64
336.991	54.74
337.456	57.04
337.921	46.94
338.386	42.94
338.851	49.74
339.316	50.44
339.781	47.54
340.246	52.14
340.711	48.94
341.175	54.04
341.64	47.64
342.105	49.54
342.569	58.14
343.034	62.54
343.499	56.54
343.963	55.44
344.428	67.94
344.893	69.14
345.357	57.94
345.822	65.84
346.286	64.04
346.751	76.14
347.215	69.44
347.679	79.34
348.144	101.94
348.608	87.64
349.073	72.14
349.537	72.94
350.001	86.64
350.465	99.04
350.93	85.44
351.394	87.14
351.858	81.84
352.322	95.24
352.786	86.24
353.25	102.44
353.715	116.04
354.179	103.24
354.643	123.94
355.107	130.54
355.571	112.74
356.035	110.14
356.498	124.64
356.962	130.94
357.426	138.64
357.89	122.24
358.354	95.24
358.818	90.94
359.281	85.54
359.745	80.24
360.209	82.84
360.673	80.94
361.136	86.84
361.6	89.14
362.064	93.44
362.527	90.24
362.991	88.04
363.454	86.34
363.918	80.64
364.381	82.94
364.845	86.64
365.308	94.14
365.772	88.44
366.235	95.74
366.698	85.94
367.162	97.74
367.625	91.64
368.088	89.94
368.552	89.44
369.015	94.14
369.478	97.74
369.941	104.84
370.404	100.94
370.867	106.84
371.331	109.74
371.794	119.24
372.257	113.64
372.72	121.14
373.183	111.14
373.646	108.34
374.109	106.84
374.572	115.84
375.035	113.94
375.497	118.54
375.96	105.74
376.423	112.54
376.886	116.24
377.349	118.34
377.811	108.84
378.274	106.44
378.737	112.24
379.199	112.24
379.662	113.34
380.125	122.34
380.587	125.74
381.05	132.04
381.512	134.74
381.975	135.84
382.437	133.34
382.9	124.04
383.362	138.84
383.825	146.54
384.287	152.74
384.75	141.64
385.212	139.34
385.674	146.74
386.136	144.54
386.599	137.04
387.061	128.64
387.523	130.84
387.985	142.44
388.447	154.74
388.91	156.34
389.372	160.74
389.834	164.14
390.296	150.84
390.758	161.24
391.22	169.34
391.682	217.44
392.144	309.04
392.606	237.44
393.068	165.14
393.529	179.34
393.991	162.24
394.453	155.44
394.915	160.84
395.377	199.44
395.838	222.94
396.3	162.14
396.762	153.04
397.224	137.14
397.685	133.74
398.147	137.74
398.608	137.34
399.07	133.64
399.531	140.84
399.993	149.74
400.454	158.14
400.916	151.54
401.377	153.44
401.839	159.84
402.3	155.44
402.762	175.54
403.223	188.54
403.684	175.84
404.145	163.54
404.607	164.44
405.068	171.14
405.529	178.54
405.99	202.14
406.451	183.44
406.913	175.04
407.374	171.94
407.835	171.44
408.296	177.04
408.757	169.94
409.218	198.64
409.679	185.94
410.14	181.64
410.601	187.64
411.062	191.14
411.522	203.24
411.983	197.74
412.444	182.74
412.905	189.14
413.366	185.94
413.826	198.54
414.287	227.64
414.748	272.84
415.208	254.44
415.669	215.24
416.13	217.54
416.59	215.24
417.051	224.74
417.511	227.34
417.972	242.14
418.432	255.24
418.893	296.84
419.353	256.44
419.814	203.54
420.274	191.14
420.734	188.44
421.195	199.24
421.655	205.44
422.115	202.14
422.576	200.54
423.036	201.64
423.496	214.64
423.956	213.04
424.416	247.44
424.876	282.64
425.336	268.44
425.797	263.44
426.257	264.24
426.717	248.64
427.177	239.74
427.637	234.64
428.097	247.94
428.556	252.24
429.016	277.54
429.476	271.74
429.936	273.54
430.396	290.84
430.856	304.64
431.315	324.94
431.775	364.14
432.235	396.44
432.694	364.94
433.154	375.64
433.614	403.34
434.073	349.34
434.533	295.74
434.993	282.04
435.452	295.64
435.912	310.94
436.371	297.04
436.83	300.24
437.29	284.14
437.749	254.64
438.209	256.24
438.668	285.24
439.127	297.64
439.587	267.94
440.046	253.94
440.505	276.84
440.964	288.34
441.424	339.84
441.883	325.64
442.342	267.74
442.801	233.34
443.26	234.04
443.719	230.24
444.178	228.14
444.637	220.84
445.096	222.94
445.555	231.54
446.014	227.64
446.473	237.64
446.932	242.34
447.391	238.44
447.849	238.54
448.308	225.14
448.767	227.34
449.226	251.64
449.685	241.14
450.143	255.64
450.602	247.74
451.061	241.74
451.519	239.74
451.978	235.54
452.436	238.14
452.895	243.14
453.353	259.74
453.812	246.14
454.27	256.44
454.729	248.44
455.187	244.14
455.646	254.54
456.104	258.24
456.562	266.94
457.021	276.24
457.479	271.64
457.937	279.94
458.395	272.74
458.854	253.64
459.312	258.84
459.77	288.14
460.228	267.44
460.686	248.44
461.144	260.54
461.602	251.14
462.06	250.34
462.518	263.04
462.976	261.74
463.434	263.34
463.892	275.74
464.35	287.04
464.808	293.94
465.266	269.84
465.724	283.64
466.181	282.94
466.639	273.24
467.097	298.04
467.555	300.64
468.012	306.74
468.47	317.84
468.928	344.64
469.385	354.04
469.843	359.24
470.3	360.94
470.758	379.94
471.215	402.64
471.673	419.84
472.13	423.54
472.588	433.04
473.045	386.94
473.503	388.54
473.96	414.64
474.417	412.64
474.875	444.64
475.332	496.34
475.789	483.74
476.246	484.34
476.704	512.64
477.161	521.44
477.618	541.74
478.075	587.74
478.532	638.84
478.989	712.34
479.446	829.04
479.903	800.04
480.36	832.74
480.817	891.44
481.274	991.34
481.731	1114.34
482.188	1205.84
482.645	1350.84
483.102	1449.64
483.558	1595.64
484.015	1655.44
484.472	1624.24
484.929	1568.24
485.385	1516.74
485.842	1469.74
486.299	1409.94
486.755	1346.44
487.212	1136.94
487.668	952.94
488.125	881.24
488.582	800.94
489.038	773.44
489.494	736.04
489.951	705.44
490.407	689.24
490.864	672.54
491.32	665.04
491.776	669.44
492.233	664.74
492.689	618.94
493.145	627.24
493.602	619.24
494.058	632.54
494.514	635.34
494.97	659.94
495.426	674.64
495.882	646.44
496.338	635.14
496.794	643.64
497.251	639.64
497.707	652.74
498.163	659.94
498.618	673.24
499.074	669.34
499.53	710.54
499.986	704.94
500.442	670.24
500.898	655.94
501.354	642.74
501.809	658.44
502.265	658.34
502.721	677.84
503.177	686.44
503.632	685.84
504.088	693.34
504.543	737.04
504.999	733.74
505.455	680.94
505.91	652.34
506.366	647.54
506.821	657.64
507.277	643.14
507.732	653.54
508.187	637.94
508.643	647.14
509.098	650.74
509.553	667.24
510.009	679.94
510.464	690.84
510.919	719.24
511.375	715.34
511.83	733.74
512.285	742.54
512.74	779.84
513.195	818.24
513.65	802.04
514.105	786.24
514.56	799.84
515.015	818.34
515.47	834.04
515.925	819.44
516.38	803.74
516.835	809.54
517.29	805.04
517.745	798.54
518.2	792.94
518.655	766.34
519.109	762.64
519.564	758.44
520.019	763.54
520.474	751.44
520.928	743.34
521.383	736.24
521.838	741.04
522.292	735.64
522.747	719.14
523.201	726.04
523.656	704.84
524.11	720.44
524.565	706.94
525.019	707.64
525.474	717.14
525.928	724.04
526.382	707.94
526.837	715.54
527.291	712.04
527.745	719.44
528.2	720.74
528.654	708.74
529.108	705.74
529.562	702.64
530.016	706.34
530.47	712.34
530.925	704.54
531.379	719.54
531.833	721.34
532.287	730.44
532.741	726.24
533.195	716.14
533.649	732.14
534.103	741.14
534.556	723.24
535.01	740.34
535.464	728.54
535.918	739.14
536.372	742.24
536.826	738.04
537.279	724.14
537.733	731.04
538.187	734.34
538.64	729.44
539.094	746.44
539.548	762.94
540.001	742.44
540.455	740.94
540.908	743.94
541.362	756.04
541.815	757.24
542.269	774.64
542.722	777.84
543.175	784.04
543.629	796.44
544.082	811.04
544.536	808.14
544.989	797.94
545.442	807.44
545.895	799.74
546.349	810.44
546.802	818.34
547.255	819.84
547.708	814.64
548.161	849.84
548.614	845.64
549.067	849.94
549.52	835.94
549.973	830.34
550.426	835.74
550.879	803.84
551.332	824.84
551.785	831.94
552.238	817.84
552.691	838.44
553.144	859.04
553.596	863.84
554.049	878.54
554.502	919.94
554.955	934.44
555.407	938.74
555.86	917.04
556.313	909.24
556.765	900.44
557.218	897.54
557.67	906.34
558.123	892.54
558.576	889.84
559.028	901.14
559.48	892.74
559.933	883.14
560.385	849.94
560.838	825.24
561.29	804.74
561.742	796.74
562.195	787.74
562.647	784.74
563.099	794.54
563.551	789.34
564.004	796.84
564.456	789.54
564.908	774.04
565.36	767.94
565.812	753.34
566.264	738.04
566.716	736.34
567.168	729.94
567.62	735.94
568.072	721.44
568.524	719.54
568.976	702.84
569.428	698.14
569.88	692.94
570.332	703.64
570.784	690.94
571.235	693.74
571.687	719.14
572.139	710.14
572.59	729.24
573.042	733.74
573.494	718.04
573.945	714.64
574.397	696.74
574.849	703.04
575.3	700.14
575.752	701.04
576.203	696.74
576.655	693.94
577.106	695.04
577.557	674.64
578.009	684.24
578.46	678.74
578.912	673.54
579.363	674.14
579.814	680.34
580.265	674.54
580.717	680.14
581.168	684.44
581.619	679.24
582.07	689.44
582.521	689.24
582.972	679.34
583.423	693.74
583.875	689.44
584.326	719.64
584.777	756.84
585.227	838.34
585.678	914.44
586.129	1011.94
586.58	1089.24
587.031	1160.04
587.482	1308.14
587.933	1493.14
588.384	1309.04
588.834	986.14
589.285	817.44
589.736	798.64
590.186	796.24
590.637	777.24
591.088	755.34
591.538	747.34
591.989	741.84
592.439	736.04
592.89	729.94
593.34	717.94
593.791	726.84
594.241	715.44
594.692	723.14
595.142	703.34
595.593	706.04
596.043	731.14
596.493	727.94
596.943	730.54
597.394	727.34
597.844	728.34
598.294	728.44
598.744	760.94
599.195	786.54
599.645	820.04
600.095	864.74
600.545	922.34
600.995	978.94
601.445	1037.34
601.895	1093.34
602.345	1141.94
602.795	1130.14
603.245	1074.44
603.695	1026.54
604.145	970.34
604.594	918.64
605.044	872.14
605.494	805.74
605.944	753.94
606.393	748.04
606.843	745.04
607.293	740.84
607.743	740.14
608.192	750.54
608.642	767.34
609.091	773.34
609.541	777.54
609.99	787.24
610.44	781.64
610.889	722.74
611.339	707.94
611.788	691.14
612.238	708.64
612.687	731.44
613.136	720.14
613.586	749.34
614.035	732.74
614.484	759.84
614.933	759.74
615.383	744.24
615.832	744.64
616.281	740.54
616.73	701.04
617.179	671.84
617.628	651.74
618.077	640.44
618.526	631.94
618.975	619.84
619.424	618.44
619.873	622.24
620.322	621.44
620.771	610.34
621.22	603.64
621.669	598.84
622.118	591.94
622.567	586.74
623.015	575.94
623.464	575.14
623.913	568.54
624.361	556.34
624.81	546.44
625.259	558.94
625.707	562.14
626.156	561.94
626.604	568.54
627.053	564.84
627.501	568.44
627.95	572.34
628.398	585.04
628.847	568.74
629.295	578.34
629.744	577.54
630.192	568.14
630.64	562.44
631.089	576.74
631.537	573.74
631.985	589.34
632.433	598.34
632.881	607.04
633.33	655.94
633.778	634.04
634.226	568.54
634.674	568.64
635.122	582.54
635.57	595.64
636.018	631.84
636.466	583.24
636.914	563.04
637.362	574.84
637.81	586.64
638.258	582.74
638.705	580.44
639.153	604.84
639.601	624.34
640.049	640.34
640.497	677.34
640.944	692.94
641.392	645.74
641.84	616.54
642.287	587.14
642.735	565.84
643.182	574.04
643.63	574.34
644.078	576.44
644.525	589.64
644.973	594.74
645.42	605.54
645.867	626.34
646.315	635.94
646.762	657.44
647.21	693.34
647.657	714.24
648.104	747.24
648.551	775.04
648.999	844.14
649.446	924.24
649.893	1002.14
650.34	1164.64
650.787	1392.34
651.234	1724.54
651.682	2237.54
652.129	3081.44
652.576	4423.24
653.023	6553.44
653.47	8979.64
653.917	11248.44
654.363	13010.84
654.81	14384.24
655.257	13708.94
655.704	8983.74
656.151	5300.34
656.598	3454.24
657.044	2425.14
657.491	1868.94
657.938	1495.04
658.385	1249.24
658.831	1086.44
659.278	965.94
659.724	853.54
660.171	785.84
660.618	722.24
661.064	679.74
661.511	670.84
661.957	662.34
662.404	642.84
662.85	655.44
663.296	633.34
663.743	563.04
664.189	538.24
664.635	535.14
665.082	526.14
665.528	523.34
665.974	518.24
666.42	512.54
666.867	498.74
667.313	492.64
667.759	480.14
668.205	472.84
668.651	484.44
669.097	482.04
669.543	498.64
669.989	461.44
670.435	446.44
670.881	445.44
671.327	444.84
671.773	462.74
672.219	491.64
672.665	535.84
673.11	583.74
673.556	617.74
674.002	667.14
674.448	662.44
674.893	545.74
675.339	479.74
675.785	433.44
676.23	420.24
676.676	395.54
677.122	388.54
677.567	364.74
678.013	372.84
678.458	363.24
678.904	355.24
679.349	348.74
679.794	351.64
680.24	345.44
680.685	346.04
681.131	347.84
681.576	357.34
682.021	349.34
682.466	343.94
682.912	346.54
683.357	354.34
683.802	381.14
684.247	410.74
684.692	448.24
685.137	487.24
685.583	538.24
686.028	567.94
686.473	515.04
686.918	450.04
687.363	412.94
687.807	390.64
688.252	366.64
688.697	355.94
689.142	339.94
689.587	330.44
690.032	320.04
690.477	338.54
690.921	353.04
691.366	375.14
691.811	401.54
692.255	434.24
692.7	456.04
693.145	490.94
693.589	680.64
694.034	1105.64
694.478	1522.44
694.923	1728.94
695.367	2251.34
695.812	1181.24
696.256	493.44
696.701	361.24
697.145	346.54
697.59	329.84
698.034	314.64
698.478	325.84
698.922	328.44
699.367	321.34
699.811	340.94
700.255	355.74
700.699	371.14
701.143	412.44
701.588	469.94
702.032	512.74
702.476	509.14
702.92	478.94
703.364	485.54
703.808	626.14
704.252	1014.24
704.696	1433.44
705.14	1665.84
705.584	2127.54
706.027	1055.54
706.471	516.94
706.915	384.24
707.359	347.34
707.803	318.24
708.246	308.44
708.69	316.34
709.134	317.24
709.577	304.14
710.021	309.44
710.465	308.04
710.908	294.84
711.352	298.94
711.795	308.44
712.239	350.64
712.682	379.54
713.126	410.24
713.569	464.54
714.012	372.44
714.456	316.04
714.899	296.84
715.342	274.24
715.786	262.14
716.229	256.74
716.672	254.14
717.115	242.94
717.558	252.94
718.002	253.14
718.445	264.44
718.888	279.24
719.331	292.74
719.774	300.84
720.217	307.94
720.66	282.34
721.103	266.84
721.546	253.94
721.989	248.54
722.432	231.14
722.874	227.44
723.317	222.34
723.76	233.54
724.203	259.44
724.645	315.94
725.088	436.24
725.531	559.74
725.974	640.24
726.416	541.84
726.859	305.34
727.301	238.74
727.744	236.84
728.187	233.54
728.629	236.94
729.071	243.74
729.514	256.94
729.956	263.84
730.399	278.84
730.841	278.34
731.283	274.84
731.726	261.44
732.168	256.34
732.61	267.04
733.053	279.34
733.495	304.24
733.937	346.84
734.379	393.84
734.821	426.14
735.263	518.34
735.705	809.34
736.148	1513.24
736.59	2520.24
737.032	3047.84
737.474	2448.44
737.916	799.44
738.357	425.94
738.799	324.34
739.241	289.84
739.683	284.44
740.125	286.34
740.567	287.64
741.008	310.94
741.45	308.94
741.892	316.44
742.334	345.54
742.775	354.04
743.217	339.64
743.658	269.64
744.1	260.14
744.542	254.74
744.983	306.24
745.425	335.54
745.866	334.14
746.307	282.54
746.749	282.24
747.19	324.54
747.632	437.74
748.073	849.74
748.514	1814.64
748.956	2800.94
749.397	3485.34
749.838	2902.44
750.279	2924.94
750.72	1470.84
751.162	530.84
751.603	315.84
752.044	247.84
752.485	217.44
752.926	214.64
753.367	199.34
753.808	199.64
754.249	192.84
754.69	185.44
755.131	181.14
755.572	185.14
756.013	179.04
756.453	182.54
756.894	185.74
757.335	188.04
757.776	196.24
758.216	191.64
758.657	199.14
759.098	197.64
759.538	219.04
759.979	266.14
760.42	363.54
760.86	684.34
761.301	1754.04
761.741	4310.44
762.182	6352.04
762.622	4469.64
