Data from 20171114-ORNL-Ar_H_NY_Subt18_08-08-55-844.txt Node
Date: Tue Nov 14 08:08:55 EST 2017
User: Ender
Spectrometer: HR+D1039
Trigger mode: 0
Integration Time (sec): 2.730000E-2
Scans to average: 10
Electric dark correction enabled: true
Nonlinearity correction enabled: false
Boxcar width: 0
XAxis mode: Wavelengths
Number of Pixels in Spectrum: 2048
>>>>>Begin Spectral Data<<<<<
187.836	-7.36
188.309	-7.36
188.782	-7.36
189.255	1.44
189.728	-2.06
190.201	2.64
190.674	0.94
191.147	5.54
191.619	-5.16
192.092	4.04
192.565	4.64
193.038	1.74
193.511	1.04
193.984	-0.46
194.456	0.94
194.929	-1.76
195.402	-5.46
195.874	-0.76
196.347	-0.46
196.82	-5.86
197.292	4.84
197.765	-2.56
198.237	-8.46
198.71	4.24
199.182	-0.46
199.655	-0.86
200.127	2.54
200.6	0.44
201.072	-0.16
201.544	-4.16
202.017	-0.56
202.489	-0.26
202.961	-3.06
203.433	-9.86
203.906	-10.06
204.378	-12.76
204.85	-1.36
205.322	-6.06
205.794	-3.26
206.266	-6.86
206.739	-3.06
207.211	4.14
207.683	-10.16
208.155	-3.16
208.627	-9.06
209.099	-2.36
209.57	-6.96
210.042	-9.36
210.514	-1.86
210.986	-3.66
211.458	-11.06
211.93	-5.26
212.402	-2.96
212.873	-2.26
213.345	-7.76
213.817	-4.86
214.288	-3.96
214.76	-12.46
215.232	-5.96
215.703	-1.96
216.175	-5.86
216.646	-4.76
217.118	-12.76
217.589	-7.86
218.061	-1.16
218.532	-8.36
219.004	-2.36
219.475	-11.56
219.946	-0.96
220.418	-5.96
220.889	-2.16
221.36	1.34
221.832	-4.46
222.303	-2.56
222.774	-1.16
223.245	-9.26
223.717	-6.56
224.188	-1.46
224.659	-8.86
225.13	-10.46
225.601	-2.26
226.072	3.04
226.543	-1.76
227.014	-4.46
227.485	-2.06
227.956	-8.06
228.427	-2.76
228.898	1.34
229.369	-5.36
229.839	-4.16
230.31	-11.46
230.781	5.54
231.252	-4.16
231.722	-6.26
232.193	-5.76
232.664	-5.66
233.135	-4.96
233.605	-3.16
234.076	-6.46
234.546	2.14
235.017	1.14
235.487	3.84
235.958	-5.86
236.428	-10.36
236.899	-1.06
237.369	0.24
237.84	-3.66
238.31	-2.56
238.78	-3.76
239.251	-3.86
239.721	-9.36
240.191	-5.36
240.662	-3.26
241.132	-4.16
241.602	-11.16
242.072	-7.36
242.542	2.04
243.013	-0.76
243.483	-3.46
243.953	-1.66
244.423	-4.26
244.893	-3.26
245.363	4.94
245.833	-3.16
246.303	-1.76
246.773	0.64
247.243	-3.86
247.712	-6.16
248.182	0.04
248.652	6.84
249.122	-4.76
249.592	7.94
250.061	10.94
250.531	17.04
251.001	3.84
251.471	1.74
251.94	9.34
252.41	1.24
252.879	-10.16
253.349	8.14
253.818	6.24
254.288	0.84
254.757	0.64
255.227	-6.06
255.696	-1.76
256.166	3.14
256.635	4.64
257.105	6.04
257.574	-2.06
258.043	2.84
258.513	-0.76
258.982	15.04
259.451	-1.56
259.92	9.24
260.389	-0.06
260.859	9.54
261.328	0.84
261.797	-0.06
262.266	-2.26
262.735	6.24
263.204	2.44
263.673	-3.86
264.142	1.34
264.611	-7.86
265.08	-0.86
265.549	2.04
266.018	0.44
266.487	-2.76
266.955	-9.96
267.424	-3.66
267.893	1.24
268.362	-2.16
268.83	2.74
269.299	8.94
269.768	1.34
270.236	3.14
270.705	0.24
271.174	-3.76
271.642	5.64
272.111	-0.26
272.579	1.64
273.048	11.04
273.516	12.84
273.985	9.74
274.453	8.34
274.922	12.34
275.39	1.34
275.858	1.44
276.327	3.04
276.795	8.54
277.263	0.74
277.731	25.44
278.2	29.54
278.668	27.84
279.136	25.24
279.604	5.34
280.072	9.74
280.54	6.04
281.008	2.74
281.477	14.44
281.945	7.34
282.413	5.34
282.881	9.34
283.348	5.54
283.816	5.54
284.284	9.04
284.752	11.44
285.22	5.84
285.688	7.94
286.156	14.84
286.623	30.44
287.091	29.24
287.559	7.94
288.026	7.34
288.494	10.74
288.962	0.64
289.429	8.54
289.897	15.64
290.364	14.94
290.832	11.54
291.3	8.94
291.767	13.24
292.234	11.74
292.702	4.24
293.169	4.24
293.637	15.14
294.104	11.24
294.571	1.74
295.039	5.04
295.506	6.64
295.973	9.84
296.44	5.14
296.908	7.04
297.375	8.44
297.842	10.54
298.309	14.94
298.776	7.34
299.243	15.84
299.71	8.34
300.177	15.94
300.644	10.94
301.111	13.44
301.578	19.54
302.045	9.24
302.512	9.24
302.979	16.34
303.446	10.84
303.913	14.44
304.379	13.04
304.846	14.94
305.313	17.64
305.78	11.04
306.246	20.24
306.713	20.34
307.18	16.94
307.646	17.74
308.113	18.84
308.579	15.74
309.046	21.74
309.512	15.64
309.979	11.84
310.445	22.14
310.912	21.44
311.378	24.14
311.845	28.14
312.311	26.74
312.777	23.14
313.244	25.14
313.71	30.74
314.176	22.64
314.642	18.04
315.109	26.54
315.575	24.64
316.041	32.64
316.507	18.94
316.973	27.34
317.439	20.74
317.905	25.94
318.371	20.24
318.837	29.44
319.303	21.64
319.769	25.54
320.235	14.94
320.701	26.24
321.167	25.64
321.633	23.64
322.099	30.34
322.564	31.14
323.03	32.24
323.496	25.84
323.962	27.14
324.427	21.44
324.893	32.14
325.359	29.44
325.824	27.04
326.29	32.04
326.755	30.64
327.221	29.14
327.686	28.24
328.152	37.34
328.617	32.44
329.083	36.54
329.548	42.64
330.014	36.74
330.479	25.24
330.944	29.84
331.41	37.24
331.875	30.04
332.34	40.04
332.805	31.84
333.271	34.14
333.736	34.34
334.201	36.24
334.666	43.04
335.131	38.94
335.596	42.14
336.061	43.24
336.526	31.34
336.991	38.04
337.456	49.54
337.921	38.84
338.386	34.14
338.851	32.54
339.316	34.94
339.781	29.74
340.246	43.54
340.711	39.44
341.175	40.64
341.64	36.04
342.105	43.84
342.569	46.54
343.034	44.94
343.499	43.64
343.963	41.94
344.428	49.34
344.893	49.74
345.357	49.34
345.822	47.14
346.286	54.64
346.751	53.74
347.215	53.24
347.679	57.74
348.144	83.14
348.608	61.84
349.073	54.74
349.537	63.64
350.001	67.44
350.465	69.24
350.93	61.84
351.394	67.14
351.858	58.74
352.322	67.84
352.786	67.74
353.25	84.04
353.715	86.04
354.179	83.84
354.643	98.54
355.107	97.24
355.571	85.94
356.035	78.34
356.498	93.44
356.962	93.54
357.426	100.54
357.89	97.34
358.354	78.64
358.818	61.74
359.281	62.34
359.745	61.54
360.209	62.04
360.673	58.64
361.136	66.04
361.6	69.84
362.064	69.14
362.527	72.74
362.991	76.54
363.454	68.44
363.918	60.54
364.381	67.04
364.845	72.24
365.308	74.24
365.772	71.24
366.235	69.64
366.698	73.34
367.162	80.54
367.625	71.74
368.088	75.64
368.552	74.74
369.015	79.04
369.478	80.74
369.941	89.44
370.404	84.44
370.867	89.84
371.331	90.44
371.794	96.94
372.257	91.44
372.72	95.54
373.183	98.04
373.646	86.24
374.109	87.24
374.572	91.14
375.035	89.94
375.497	93.14
375.96	94.84
376.423	95.34
376.886	98.04
377.349	97.74
377.811	87.64
378.274	96.44
378.737	98.24
379.199	101.44
379.662	96.44
380.125	104.64
380.587	100.84
381.05	101.84
381.512	110.74
381.975	114.14
382.437	109.34
382.9	105.24
383.362	111.94
383.825	124.14
384.287	128.14
384.75	117.04
385.212	125.14
385.674	123.94
386.136	118.84
386.599	114.84
387.061	114.84
387.523	118.44
387.985	119.04
388.447	128.24
388.91	130.34
389.372	136.54
389.834	136.04
390.296	126.24
390.758	135.84
391.22	138.44
391.682	177.64
392.144	229.14
392.606	183.24
393.068	146.34
393.529	140.44
393.991	136.14
394.453	128.74
394.915	144.94
395.377	160.64
395.838	178.84
396.3	137.14
396.762	129.54
397.224	125.94
397.685	118.44
398.147	127.74
398.608	118.84
399.07	119.14
399.531	128.54
399.993	123.44
400.454	138.74
400.916	135.74
401.377	139.34
401.839	137.24
402.3	140.84
402.762	152.94
403.223	165.34
403.684	160.64
404.145	152.44
404.607	154.94
405.068	154.14
405.529	154.94
405.99	172.24
406.451	158.54
406.913	154.94
407.374	150.24
407.835	152.34
408.296	157.04
408.757	154.44
409.218	173.74
409.679	164.64
410.14	166.94
410.601	162.94
411.062	174.44
411.522	174.14
411.983	178.14
412.444	170.74
412.905	175.54
413.366	180.14
413.826	190.64
414.287	208.94
414.748	253.94
415.208	237.84
415.669	203.84
416.13	204.34
416.59	198.84
417.051	211.24
417.511	213.44
417.972	229.54
418.432	238.44
418.893	280.84
419.353	243.94
419.814	195.74
420.274	175.54
420.734	171.44
421.195	187.84
421.655	193.54
422.115	188.14
422.576	185.24
423.036	195.34
423.496	200.24
423.956	211.54
424.416	222.14
424.876	260.74
425.336	251.24
425.797	245.24
426.257	251.04
426.717	230.04
427.177	228.74
427.637	219.54
428.097	228.14
428.556	226.64
429.016	264.14
429.476	257.54
429.936	266.64
430.396	263.34
430.856	269.04
431.315	300.54
431.775	329.24
432.235	365.94
432.694	339.24
433.154	342.14
433.614	370.54
434.073	328.04
434.533	278.44
434.993	253.94
435.452	266.84
435.912	274.84
436.371	270.14
436.83	269.34
437.29	257.64
437.749	237.74
438.209	241.14
438.668	255.74
439.127	280.54
439.587	251.14
440.046	239.44
440.505	251.24
440.964	261.94
441.424	304.74
441.883	292.64
442.342	253.64
442.801	224.14
443.26	212.24
443.719	220.04
444.178	215.54
444.637	203.74
445.096	214.24
445.555	225.44
446.014	220.44
446.473	228.14
446.932	228.44
447.391	226.54
447.849	234.14
448.308	217.14
448.767	217.04
449.226	232.14
449.685	235.04
450.143	241.94
450.602	237.14
451.061	223.14
451.519	230.24
451.978	225.34
452.436	230.84
452.895	231.84
453.353	248.24
453.812	229.44
454.27	238.74
454.729	240.24
455.187	232.14
455.646	235.54
456.104	244.84
456.562	256.94
457.021	259.44
457.479	258.54
457.937	267.04
458.395	255.94
458.854	246.74
459.312	252.54
459.77	274.34
460.228	251.54
460.686	244.74
461.144	255.84
461.602	251.24
462.06	246.44
462.518	255.84
462.976	255.54
463.434	256.94
463.892	258.14
464.35	271.64
464.808	284.64
465.266	263.74
465.724	267.94
466.181	277.54
466.639	263.84
467.097	291.44
467.555	289.44
468.012	293.34
468.47	301.64
468.928	321.54
469.385	341.94
469.843	344.44
470.3	340.24
470.758	361.64
471.215	377.34
471.673	400.04
472.13	398.24
472.588	417.74
473.045	371.54
473.503	374.44
473.96	385.24
474.417	399.14
474.875	418.44
475.332	460.04
475.789	450.64
476.246	462.74
476.704	480.94
477.161	495.14
477.618	514.94
478.075	557.64
478.532	605.84
478.989	679.14
479.446	774.84
479.903	747.84
480.36	789.54
480.817	839.84
481.274	919.84
481.731	1015.74
482.188	1107.14
482.645	1233.14
483.102	1311.84
483.558	1441.74
484.015	1487.24
484.472	1457.54
484.929	1424.84
485.385	1370.24
485.842	1338.14
486.299	1287.74
486.755	1235.14
487.212	1049.54
487.668	904.14
488.125	826.44
488.582	758.04
489.038	733.64
489.494	686.44
489.951	671.74
490.407	648.64
490.864	631.84
491.32	626.54
491.776	628.84
492.233	636.64
492.689	601.54
493.145	600.34
493.602	590.14
494.058	605.14
494.514	603.74
494.97	631.84
495.426	637.54
495.882	622.44
496.338	605.64
496.794	609.04
497.251	610.44
497.707	624.24
498.163	621.74
498.618	618.44
499.074	633.84
499.53	657.04
499.986	659.84
500.442	640.84
500.898	624.24
501.354	615.14
501.809	622.14
502.265	637.54
502.721	653.34
503.177	649.74
503.632	650.74
504.088	660.74
504.543	685.74
504.999	694.34
505.455	654.44
505.91	631.04
506.366	628.44
506.821	624.24
507.277	628.04
507.732	639.74
508.187	627.64
508.643	635.64
509.098	639.74
509.553	659.84
510.009	667.34
510.464	673.54
510.919	692.64
511.375	687.04
511.83	700.14
512.285	720.84
512.74	754.74
513.195	774.34
513.65	765.84
514.105	764.14
514.56	766.54
515.015	776.44
515.47	797.54
515.925	773.24
516.38	780.34
516.835	792.14
517.29	783.74
517.745	769.64
518.2	756.54
518.655	743.44
519.109	736.74
519.564	739.34
520.019	714.34
520.474	717.34
520.928	717.24
521.383	712.34
521.838	710.94
522.292	715.74
522.747	701.14
523.201	705.34
523.656	696.94
524.11	696.04
524.565	686.84
525.019	683.94
525.474	693.44
525.928	700.04
526.382	688.74
526.837	702.44
527.291	697.14
527.745	696.54
528.2	699.94
528.654	684.74
529.108	685.74
529.562	691.54
530.016	689.04
530.47	695.84
530.925	692.24
531.379	688.04
531.833	695.04
532.287	692.64
532.741	696.34
533.195	696.34
533.649	700.64
534.103	703.64
534.556	690.64
535.01	706.64
535.464	705.14
535.918	703.84
536.372	714.64
536.826	713.14
537.279	702.04
537.733	708.54
538.187	714.24
538.64	710.94
539.094	711.74
539.548	733.74
540.001	725.74
540.455	729.74
540.908	734.84
541.362	733.34
541.815	747.14
542.269	755.14
542.722	761.44
543.175	770.44
543.629	768.44
544.082	784.24
544.536	791.64
544.989	787.24
545.442	796.24
545.895	792.54
546.349	795.14
546.802	797.34
547.255	802.14
547.708	799.64
548.161	828.04
548.614	827.44
549.067	831.64
549.52	823.14
549.973	816.64
550.426	807.34
550.879	797.34
551.332	796.24
551.785	811.94
552.238	815.64
552.691	818.94
553.144	838.74
553.596	848.74
554.049	867.54
554.502	889.54
554.955	909.04
555.407	907.94
555.86	901.24
556.313	894.74
556.765	889.74
557.218	884.84
557.67	878.54
558.123	876.84
558.576	887.54
559.028	876.74
559.48	875.54
559.933	873.64
560.385	835.84
560.838	806.64
561.29	799.64
561.742	788.94
562.195	772.64
562.647	770.54
563.099	790.54
563.551	778.24
564.004	783.34
564.456	772.84
564.908	755.54
565.36	744.54
565.812	727.04
566.264	732.04
566.716	730.44
567.168	715.04
567.62	724.94
568.072	694.84
568.524	704.24
568.976	702.44
569.428	681.24
569.88	685.04
570.332	686.94
570.784	690.44
571.235	685.14
571.687	695.84
572.139	713.84
572.59	711.54
573.042	719.04
573.494	724.54
573.945	703.64
574.397	690.64
574.849	701.94
575.3	686.44
575.752	691.04
576.203	677.94
576.655	700.44
577.106	673.24
577.557	664.94
578.009	676.94
578.46	678.94
578.912	661.74
579.363	674.24
579.814	673.24
580.265	666.24
580.717	672.04
581.168	675.34
581.619	673.04
582.07	686.04
582.521	688.14
582.972	672.04
583.423	697.64
583.875	680.64
584.326	698.94
584.777	742.14
585.227	794.54
585.678	855.64
586.129	918.14
586.58	959.94
587.031	1013.74
587.482	1129.34
587.933	1248.74
588.384	1126.54
588.834	905.94
589.285	807.04
589.736	797.54
590.186	786.94
590.637	783.54
591.088	748.64
591.538	751.34
591.989	741.04
592.439	738.54
592.89	724.94
593.34	710.54
593.791	715.04
594.241	697.44
594.692	710.94
595.142	708.84
595.593	714.84
596.043	709.04
596.493	716.94
596.943	722.54
597.394	731.34
597.844	725.64
598.294	743.84
598.744	760.64
599.195	787.04
599.645	826.84
600.095	869.84
600.545	929.74
600.995	980.84
601.445	1044.64
601.895	1107.54
602.345	1148.44
602.795	1134.84
603.245	1076.54
603.695	1015.74
604.145	976.44
604.594	912.74
605.044	864.04
605.494	817.84
605.944	762.14
606.393	748.04
606.843	745.94
607.293	747.54
607.743	735.24
608.192	742.04
608.642	757.44
609.091	762.44
609.541	774.34
609.99	777.74
610.44	774.74
610.889	723.24
611.339	706.64
611.788	696.14
612.238	701.34
612.687	719.94
613.136	717.94
613.586	734.14
614.035	730.94
614.484	739.64
614.933	751.74
615.383	740.34
615.832	736.14
616.281	734.24
616.73	692.84
617.179	665.44
617.628	657.04
618.077	641.64
618.526	636.84
618.975	628.64
619.424	622.34
619.873	617.84
620.322	631.74
620.771	615.64
621.22	613.14
621.669	607.34
622.118	596.64
622.567	577.84
623.015	586.34
623.464	579.34
623.913	568.74
624.361	560.84
624.81	557.84
625.259	556.94
625.707	570.94
626.156	560.64
626.604	571.64
627.053	571.24
627.501	574.14
627.95	585.94
628.398	589.34
628.847	576.34
629.295	582.94
629.744	577.74
630.192	574.34
630.64	574.34
631.089	566.74
631.537	574.34
631.985	579.04
632.433	585.14
632.881	592.44
633.33	626.74
633.778	602.44
634.226	563.04
634.674	569.24
635.122	578.44
635.57	584.64
636.018	610.64
636.466	586.94
636.914	566.74
637.362	580.34
637.81	583.84
638.258	593.14
638.705	594.54
639.153	619.44
639.601	629.74
640.049	661.64
640.497	685.94
640.944	712.64
641.392	660.34
641.84	628.44
642.287	593.84
642.735	578.64
643.182	574.94
643.63	573.24
644.078	571.24
644.525	586.74
644.973	600.54
645.42	606.34
645.867	627.94
646.315	644.14
646.762	666.84
647.21	698.54
647.657	722.14
648.104	750.84
648.551	767.54
648.999	841.24
649.446	912.74
649.893	1008.24
650.34	1144.84
650.787	1396.94
651.234	1732.34
651.682	2231.04
652.129	3070.14
652.576	4392.54
653.023	6445.34
653.47	8713.14
653.917	10723.74
654.363	12300.94
654.81	13490.74
655.257	12802.14
655.704	8469.74
656.151	5051.04
656.598	3294.14
657.044	2331.74
657.491	1794.44
657.938	1466.54
658.385	1230.74
658.831	1074.04
659.278	962.24
659.724	846.24
660.171	788.24
660.618	720.64
661.064	697.54
661.511	670.14
661.957	661.24
662.404	646.94
662.85	662.24
663.296	630.64
663.743	566.44
664.189	547.84
664.635	542.94
665.082	536.94
665.528	530.34
665.974	536.64
666.42	521.94
666.867	510.54
667.313	497.64
667.759	476.34
668.205	472.54
668.651	480.94
669.097	476.74
669.543	481.44
669.989	469.24
670.435	457.74
670.881	453.84
671.327	462.14
671.773	481.74
672.219	499.34
672.665	560.84
673.11	599.84
673.556	644.64
674.002	680.14
674.448	669.54
674.893	558.54
675.339	490.94
675.785	453.14
676.23	430.34
676.676	402.04
677.122	387.44
677.567	384.24
678.013	380.94
678.458	368.94
678.904	368.84
679.349	357.74
679.794	361.74
680.24	362.64
680.685	356.24
681.131	363.24
681.576	352.84
682.021	363.84
682.466	353.64
682.912	356.04
683.357	362.44
683.802	394.64
684.247	417.84
684.692	472.34
685.137	505.64
685.583	550.94
686.028	579.74
686.473	537.24
686.918	461.74
687.363	425.24
687.807	399.44
688.252	376.94
688.697	366.24
689.142	348.64
689.587	343.24
690.032	342.94
690.477	350.74
690.921	366.44
691.366	393.34
691.811	409.24
692.255	448.24
692.7	487.14
693.145	525.44
693.589	744.34
694.034	1210.44
694.478	1597.94
694.923	1777.94
695.367	2304.24
695.812	1232.94
696.256	517.84
696.701	379.64
697.145	363.84
697.59	335.84
698.034	332.14
698.478	340.04
698.922	330.24
699.367	326.34
699.811	341.44
700.255	358.94
700.699	395.74
701.143	442.24
701.588	495.84
702.032	529.54
702.476	522.24
702.92	503.44
703.364	519.84
703.808	688.64
704.252	1096.14
704.696	1529.94
705.14	1728.04
705.584	2170.44
706.027	1102.24
706.471	533.14
706.915	419.14
707.359	362.64
707.803	337.54
708.246	321.94
708.69	319.64
709.134	321.24
709.577	316.64
710.021	328.74
710.465	321.84
710.908	306.54
711.352	309.64
711.795	316.24
712.239	368.34
712.682	399.84
713.126	428.74
713.569	477.44
714.012	382.64
714.456	322.04
714.899	297.64
715.342	285.74
715.786	267.44
716.229	269.54
716.672	269.84
717.115	257.54
717.558	256.54
718.002	254.04
718.445	272.34
718.888	298.24
719.331	307.84
719.774	314.04
720.217	313.14
720.66	290.74
721.103	274.04
721.546	259.64
721.989	250.74
722.432	236.44
722.874	243.84
723.317	245.84
723.76	246.94
724.203	262.14
724.645	337.94
725.088	464.14
725.531	586.04
725.974	655.54
726.416	558.24
726.859	317.04
727.301	253.54
727.744	240.54
728.187	238.74
728.629	249.34
729.071	254.04
729.514	268.34
729.956	287.54
730.399	287.64
730.841	291.54
731.283	279.24
731.726	271.14
732.168	268.34
732.61	274.14
733.053	294.84
733.495	325.64
733.937	367.54
734.379	418.04
734.821	462.04
735.263	571.04
735.705	897.74
736.148	1696.84
736.59	2721.64
737.032	3130.34
737.474	2549.24
737.916	849.34
738.357	442.94
738.799	334.74
739.241	310.14
739.683	290.54
740.125	313.44
740.567	304.24
741.008	331.84
741.45	324.94
741.892	338.14
742.334	365.64
742.775	371.24
743.217	346.74
743.658	282.64
744.1	261.04
744.542	274.04
744.983	330.94
745.425	354.24
745.866	350.34
746.307	289.74
746.749	290.04
747.19	352.94
747.632	499.24
748.073	975.64
748.514	2005.74
748.956	2989.04
749.397	3768.04
749.838	3122.34
750.279	3029.04
750.72	1542.44
751.162	571.34
751.603	335.14
752.044	257.34
752.485	218.04
752.926	209.84
753.367	210.54
753.808	200.54
754.249	198.74
754.69	195.34
755.131	191.14
755.572	188.54
756.013	186.04
756.453	199.34
756.894	192.34
757.335	191.44
757.776	204.74
758.216	200.84
758.657	208.94
759.098	207.64
759.538	237.04
759.979	279.44
760.42	402.54
760.86	774.64
761.301	2009.84
761.741	4740.54
762.182	6553.04
762.622	4613.24
763.063	1361.34
