Data from 20171114-ORNL-Ar_H_NY_Subt18_08-07-27-613.txt Node
Date: Tue Nov 14 08:07:27 EST 2017
User: Ender
Spectrometer: HR+D1039
Trigger mode: 0
Integration Time (sec): 2.730000E-2
Scans to average: 10
Electric dark correction enabled: true
Nonlinearity correction enabled: false
Boxcar width: 0
XAxis mode: Wavelengths
Number of Pixels in Spectrum: 2048
>>>>>Begin Spectral Data<<<<<
187.836	-3.9
188.309	-3.9
188.782	-3.9
189.255	1.3
189.728	-0.6
190.201	5.3
190.674	2.1
191.147	2.6
191.619	-6.6
192.092	2.7
192.565	-0.1
193.038	6.4
193.511	3.1
193.984	3.1
194.456	-7
194.929	-6.2
195.402	-3
195.874	0.8
196.347	-7
196.82	-10.6
197.292	-1.3
197.765	-5.4
198.237	-5.2
198.71	0.1
199.182	-3.1
199.655	3
200.127	0.4
200.6	-3.7
201.072	-6.3
201.544	-4.4
202.017	-8.4
202.489	0.4
202.961	-6.4
203.433	-7.3
203.906	-9.6
204.378	-12.1
204.85	-5.7
205.322	-10.2
205.794	-3.9
206.266	-5.3
206.739	-7.2
207.211	1.6
207.683	-3.1
208.155	-5.8
208.627	-6.6
209.099	-7.2
209.57	-10.9
210.042	-6.5
210.514	-2.4
210.986	-3.7
211.458	-7.8
211.93	-5.5
212.402	3.2
212.873	-8.5
213.345	-10.8
213.817	-15.8
214.288	-3.2
214.76	-10.8
215.232	0.9
215.703	-6.7
216.175	-2
216.646	-0.3
217.118	-8.7
217.589	-3.8
218.061	-1.1
218.532	-4.8
219.004	-5.7
219.475	-8.7
219.946	-1.8
220.418	-5.5
220.889	1.4
221.36	-4
221.832	-6
222.303	-12.8
222.774	-0.5
223.245	-14.2
223.717	-8.2
224.188	-6.1
224.659	-9.4
225.13	-4.3
225.601	-0.1
226.072	-0.5
226.543	-5.1
227.014	-2.7
227.485	-10.6
227.956	-10.1
228.427	-5.2
228.898	-1.7
229.369	2.4
229.839	-7.2
230.31	-8.6
230.781	1.3
231.252	-2.1
231.722	-6.7
232.193	-5.4
232.664	-5.7
233.135	1.1
233.605	2
234.076	-6.6
234.546	-4.3
235.017	2.8
235.487	2.2
235.958	-5.9
236.428	-1.3
236.899	-0.8
237.369	2.6
237.84	-6.1
238.31	2.7
238.78	-1.2
239.251	-5.9
239.721	-4.9
240.191	-2.7
240.662	-4.4
241.132	-1.9
241.602	3.2
242.072	1.2
242.542	4.1
243.013	-4.8
243.483	0.1
243.953	-1.3
244.423	-0.9
244.893	-8.5
245.363	-1.8
245.833	5.5
246.303	-4.1
246.773	5.8
247.243	-0.5
247.712	-6.1
248.182	7
248.652	4.5
249.122	-2.2
249.592	6.8
250.061	16.5
250.531	23.9
251.001	3.5
251.471	8.6
251.94	7.7
252.41	-0.7
252.879	-7.4
253.349	6.8
253.818	1.1
254.288	-1.5
254.757	-2.1
255.227	-2.5
255.696	-6
256.166	-1
256.635	3.6
257.105	10.5
257.574	-1.2
258.043	3.1
258.513	9.5
258.982	9.6
259.451	4.5
259.92	6.2
260.389	4.6
260.859	17.5
261.328	2.8
261.797	6.2
262.266	0.5
262.735	5.8
263.204	-1.7
263.673	-9.3
264.142	0.9
264.611	-5.9
265.08	-10.2
265.549	-7.6
266.018	-0.9
266.487	-5.6
266.955	-8.3
267.424	-5.1
267.893	-0.5
268.362	0.2
268.83	-3.7
269.299	8
269.768	1.5
270.236	6.6
270.705	-2.1
271.174	2.9
271.642	2.8
272.111	2.5
272.579	12.4
273.048	11.9
273.516	20.1
273.985	10.2
274.453	13.6
274.922	7.4
275.39	5.9
275.858	-2.8
276.327	10.6
276.795	3.4
277.263	1.2
277.731	19.5
278.2	33.6
278.668	40.4
279.136	28.2
279.604	10.4
280.072	11.5
280.54	5.6
281.008	2.6
281.477	6.9
281.945	10.9
282.413	5.5
282.881	7.2
283.348	3.7
283.816	5.4
284.284	13.7
284.752	11.9
285.22	6.7
285.688	9.1
286.156	12.2
286.623	30.8
287.091	39.9
287.559	12.5
288.026	16.7
288.494	9.9
288.962	-0.6
289.429	3.7
289.897	7.6
290.364	7.7
290.832	9.8
291.3	7.6
291.767	13.6
292.234	18.4
292.702	2.3
293.169	9.5
293.637	9.9
294.104	16.3
294.571	0.6
295.039	11.7
295.506	7
295.973	13.3
296.44	8
296.908	9.5
297.375	9.8
297.842	10.3
298.309	10.4
298.776	4.2
299.243	10.2
299.71	4.6
300.177	8.8
300.644	15.9
301.111	11.9
301.578	9.5
302.045	10.4
302.512	15.8
302.979	15.9
303.446	11.1
303.913	13.3
304.379	9
304.846	15.6
305.313	12.3
305.78	15
306.246	16.6
306.713	17.3
307.18	15.5
307.646	16.6
308.113	14.2
308.579	13.4
309.046	18.8
309.512	17.1
309.979	12
310.445	21
310.912	21
311.378	20.9
311.845	14.5
312.311	21.8
312.777	24.8
313.244	21.2
313.71	25.6
314.176	21.3
314.642	25.4
315.109	25.2
315.575	26.3
316.041	25.2
316.507	19.9
316.973	23.4
317.439	25.1
317.905	23.6
318.371	27.2
318.837	22.7
319.303	28
319.769	21.7
320.235	22.9
320.701	23.7
321.167	23.7
321.633	25.3
322.099	28.6
322.564	34.5
323.03	24.7
323.496	26.9
323.962	33.6
324.427	25.7
324.893	34.5
325.359	26
325.824	28.7
326.29	21.3
326.755	24.9
327.221	26.8
327.686	32.4
328.152	32.9
328.617	34
329.083	35.8
329.548	36.3
330.014	34.5
330.479	28.9
330.944	34
331.41	31.8
331.875	37
332.34	28.9
332.805	30.8
333.271	32.3
333.736	33.9
334.201	40.8
334.666	35.5
335.131	43.9
335.596	38.6
336.061	37.8
336.526	29.2
336.991	37.3
337.456	39.5
337.921	36.8
338.386	32.4
338.851	35.9
339.316	34.9
339.781	31.1
340.246	39.8
340.711	36.7
341.175	33.6
341.64	29.2
342.105	39
342.569	43.9
343.034	44.1
343.499	44.1
343.963	41.1
344.428	54.4
344.893	44.3
345.357	50.5
345.822	46
346.286	56.1
346.751	52.7
347.215	47.8
347.679	54.7
348.144	69.8
348.608	60
349.073	51.3
349.537	58.3
350.001	60.7
350.465	66.1
350.93	63.9
351.394	60.7
351.858	49.9
352.322	68
352.786	64.4
353.25	70.7
353.715	92.8
354.179	77.5
354.643	93.6
355.107	99.2
355.571	84.9
356.035	85
356.498	88.2
356.962	94.2
357.426	98.2
357.89	88.6
358.354	72.8
358.818	67.3
359.281	59
359.745	59.2
360.209	60.5
360.673	57.7
361.136	65
361.6	66.9
362.064	69.5
362.527	70.2
362.991	79.8
363.454	61.3
363.918	63.8
364.381	61.2
364.845	66.6
365.308	71.1
365.772	67.4
366.235	67.4
366.698	63.1
367.162	67.7
367.625	70.7
368.088	70.5
368.552	77.9
369.015	66.1
369.478	81.4
369.941	86.7
370.404	76.3
370.867	90.9
371.331	84.9
371.794	96.3
372.257	92.1
372.72	99.2
373.183	92.8
373.646	87.4
374.109	86.5
374.572	91
375.035	91.1
375.497	90.1
375.96	85.7
376.423	88.3
376.886	94.6
377.349	91.3
377.811	84.3
378.274	91.6
378.737	88.5
379.199	99.1
379.662	96.3
380.125	102.9
380.587	97.8
381.05	103.8
381.512	103.9
381.975	107.4
382.437	109.1
382.9	111.6
383.362	108.9
383.825	120.4
384.287	123.4
384.75	122.2
385.212	120.6
385.674	117.5
386.136	114.3
386.599	110.9
387.061	110.3
387.523	115.6
387.985	117.1
388.447	124.1
388.91	122.3
389.372	136.3
389.834	124.3
390.296	125.8
390.758	132.5
391.22	146.6
391.682	180
392.144	252.7
392.606	197.5
393.068	145.3
393.529	148
393.991	127.8
394.453	125.6
394.915	132.5
395.377	172.1
395.838	181.6
396.3	132.4
396.762	129.4
397.224	116.3
397.685	111.2
398.147	111.8
398.608	113.9
399.07	109.4
399.531	115.2
399.993	120
400.454	126.4
400.916	125.3
401.377	131.6
401.839	129.6
402.3	132.7
402.762	146.1
403.223	160.7
403.684	150.6
404.145	131.7
404.607	144.1
405.068	146.7
405.529	154.8
405.99	162.8
406.451	154.7
406.913	152.4
407.374	149.7
407.835	148.5
408.296	152.2
408.757	150.9
409.218	164.5
409.679	160.9
410.14	154.9
410.601	160.8
411.062	160.5
411.522	176.2
411.983	166.4
412.444	154.9
412.905	156.6
413.366	159.2
413.826	178.9
414.287	189.9
414.748	235.3
415.208	218.9
415.669	189.6
416.13	179.7
416.59	178
417.051	193.4
417.511	202.1
417.972	216.8
418.432	219.2
418.893	262
419.353	229.1
419.814	180.8
420.274	170.9
420.734	166.6
421.195	178.9
421.655	179.9
422.115	172.8
422.576	174.7
423.036	185.3
423.496	188.9
423.956	198.2
424.416	210.9
424.876	245.1
425.336	230.3
425.797	239.4
426.257	230.1
426.717	215.7
427.177	208.8
427.637	198.9
428.097	215.3
428.556	220
429.016	245.5
429.476	238.7
429.936	250.6
430.396	249.3
430.856	271.1
431.315	294.7
431.775	324.2
432.235	352.9
432.694	319.7
433.154	333.5
433.614	355.1
434.073	310.4
434.533	258.6
434.993	244.6
435.452	248.6
435.912	267.4
436.371	261
436.83	259.1
437.29	245.2
437.749	225.6
438.209	226.4
438.668	239.3
439.127	258.4
439.587	241.8
440.046	224.5
440.505	236
440.964	248.4
441.424	292.4
441.883	285.3
442.342	237.6
442.801	209.6
443.26	204.9
443.719	206.2
444.178	207.6
444.637	195.6
445.096	198.9
445.555	204.6
446.014	207.2
446.473	210.5
446.932	219.2
447.391	207.2
447.849	215.8
448.308	200.6
448.767	203.1
449.226	215.6
449.685	218.8
450.143	225.6
450.602	217.4
451.061	206.3
451.519	212.1
451.978	221.1
452.436	219.1
452.895	220.1
453.353	225.6
453.812	222
454.27	220
454.729	220.2
455.187	221.6
455.646	226.9
456.104	230.3
456.562	238.4
457.021	247.9
457.479	236.8
457.937	245.4
458.395	237.6
458.854	232.4
459.312	234.4
459.77	253.6
460.228	236.8
460.686	225.2
461.144	234.5
461.602	231.1
462.06	225
462.518	237.8
462.976	233.6
463.434	242
463.892	244.1
464.35	256.5
464.808	262.9
465.266	248.9
465.724	253.7
466.181	250
466.639	253.3
467.097	270.6
467.555	280.3
468.012	277.5
468.47	286.3
468.928	300.4
469.385	313.1
469.843	321.2
470.3	317.5
470.758	329
471.215	360.2
471.673	384.7
472.13	390.7
472.588	394.9
473.045	344.8
473.503	357.4
473.96	362.4
474.417	376.6
474.875	405.7
475.332	441.7
475.789	433.8
476.246	442.2
476.704	450
477.161	474.4
477.618	491.6
478.075	527.9
478.532	568.6
478.989	648.5
479.446	754.7
479.903	725.1
480.36	757.1
480.817	807.8
481.274	907
481.731	1015.6
482.188	1094.4
482.645	1228
483.102	1326
483.558	1454.2
484.015	1505.9
484.472	1478.8
484.929	1438
485.385	1386.9
485.842	1348.4
486.299	1293.2
486.755	1213
487.212	1025.2
487.668	866.9
488.125	798
488.582	728
489.038	700.5
489.494	665.9
489.951	641.9
490.407	629.6
490.864	595.7
491.32	601.8
491.776	599.1
492.233	607.9
492.689	571.5
493.145	563.8
493.602	562.6
494.058	575.6
494.514	579.3
494.97	597.5
495.426	607.6
495.882	586.5
496.338	573.5
496.794	589.9
497.251	581.4
497.707	606.5
498.163	596
498.618	603.5
499.074	607.5
499.53	640.7
499.986	632.9
500.442	608.9
500.898	593.9
501.354	586.6
501.809	602.3
502.265	601.5
502.721	607.8
503.177	633.1
503.632	625.6
504.088	630
504.543	665.6
504.999	660.1
505.455	617.8
505.91	601.7
506.366	594.8
506.821	596.4
507.277	601.7
507.732	594.3
508.187	592.1
508.643	600.2
509.098	594.5
509.553	617.3
510.009	625.4
510.464	640
510.919	648.7
511.375	647.8
511.83	663.2
512.285	686.7
512.74	718.9
513.195	737.9
513.65	723.3
514.105	725.4
514.56	729.3
515.015	744.3
515.47	759.6
515.925	738
516.38	749.6
516.835	754.3
517.29	737.7
517.745	735.5
518.2	722.8
518.655	714.3
519.109	699
519.564	701
520.019	698.6
520.474	688.6
520.928	695.9
521.383	685.3
521.838	670.3
522.292	668.4
522.747	667.4
523.201	669
523.656	663.7
524.11	661.7
524.565	655.1
525.019	651.2
525.474	658.1
525.928	664.9
526.382	658.4
526.837	664.5
527.291	660.4
527.745	658.6
528.2	658.3
528.654	658.3
529.108	656.9
529.562	646.8
530.016	666.8
530.47	657.4
530.925	651.1
531.379	656.2
531.833	671.5
532.287	673.2
532.741	661.2
533.195	671.6
533.649	681.1
534.103	682.9
534.556	674.7
535.01	675.3
535.464	677.6
535.918	675.2
536.372	682.5
536.826	683.3
537.279	673
537.733	680.4
538.187	682.9
538.64	680.5
539.094	695.8
539.548	696.7
540.001	684.4
540.455	691.1
540.908	695.3
541.362	710.8
541.815	712.3
542.269	734.4
542.722	720.3
543.175	721.5
543.629	732.3
544.082	744.7
544.536	752.2
544.989	750.3
545.442	754.6
545.895	755.3
546.349	751.9
546.802	752.7
547.255	770.4
547.708	773
548.161	771.5
548.614	793
549.067	787.6
549.52	782.5
549.973	775.5
550.426	778.1
550.879	765.2
551.332	763.1
551.785	771.9
552.238	783.5
552.691	790.5
553.144	805.8
553.596	809.4
554.049	822
554.502	847.7
554.955	878.8
555.407	866.9
555.86	855.8
556.313	844.2
556.765	838.4
557.218	845.8
557.67	848.1
558.123	831
558.576	832.5
559.028	832
559.48	849.1
559.933	831.4
560.385	795.8
560.838	767.6
561.29	760
561.742	746.9
562.195	732.3
562.647	731.2
563.099	739.2
563.551	741.2
564.004	749
564.456	745.6
564.908	735.2
565.36	718.1
565.812	705.3
566.264	691.2
566.716	700.8
567.168	683.6
567.62	691
568.072	674
568.524	662.1
568.976	665.8
569.428	654.4
569.88	642.9
570.332	651.7
570.784	657.7
571.235	655.2
571.687	661.7
572.139	671.7
572.59	692.2
573.042	686.7
573.494	680
573.945	676.4
574.397	655
574.849	658.8
575.3	656.1
575.752	656.5
576.203	646.6
576.655	655
577.106	642.4
577.557	640.4
578.009	644.9
578.46	637.6
578.912	629.1
579.363	639.3
579.814	645.2
580.265	643.1
580.717	635.2
581.168	645.7
581.619	647.6
582.07	644.6
582.521	650.7
582.972	637
583.423	646.3
583.875	655
584.326	680.6
584.777	719.4
585.227	780.4
585.678	863.7
586.129	942.5
586.58	1013
587.031	1093.8
587.482	1222
587.933	1396.3
588.384	1231.2
588.834	913.9
589.285	774.6
589.736	753.5
590.186	750.4
590.637	741.9
591.088	719.7
591.538	708.4
591.989	703.6
592.439	695.7
592.89	697.5
593.34	673.9
593.791	684.6
594.241	674.3
594.692	673.8
595.142	678
595.593	666.3
596.043	674.2
596.493	683.1
596.943	686.2
597.394	694.5
597.844	696.5
598.294	707.7
598.744	729.8
599.195	749.3
599.645	787.8
600.095	829.8
600.545	889
600.995	939.7
601.445	996.2
601.895	1055.7
602.345	1092.2
602.795	1075.9
603.245	1021.6
603.695	975.9
604.145	914
604.594	870.3
605.044	822.2
605.494	764
605.944	728.1
606.393	712.4
606.843	707.4
607.293	710.4
607.743	702.2
608.192	717.7
608.642	733
609.091	745.3
609.541	745
609.99	736.6
610.44	741.6
610.889	690.6
611.339	677.8
611.788	664
612.238	683.8
612.687	699.1
613.136	686.2
613.586	707.6
614.035	712.5
614.484	728.7
614.933	723.1
615.383	720.7
615.832	700.9
616.281	703
616.73	671.3
617.179	643.5
617.628	624.7
618.077	611.5
618.526	596.7
618.975	585.1
619.424	588.5
619.873	581.7
620.322	586.2
620.771	588.8
621.22	576
621.669	567.8
622.118	563.8
622.567	559.5
623.015	539.7
623.464	545.7
623.913	543.8
624.361	528.9
624.81	533.2
625.259	525.4
625.707	537.3
626.156	532.4
626.604	550.2
627.053	544.2
627.501	546.2
627.95	550.1
628.398	556.1
628.847	542.5
629.295	549.4
629.744	545.3
630.192	539.1
630.64	541.3
631.089	546.1
631.537	547.8
631.985	551.8
632.433	557.7
632.881	568.2
633.33	614.9
633.778	599.8
634.226	540.5
634.674	546.9
635.122	547.1
635.57	564.9
636.018	593.3
636.466	556.4
636.914	536.9
637.362	542.8
637.81	548.1
638.258	562.1
638.705	567.2
639.153	590.2
639.601	587.2
640.049	617.2
640.497	638.8
640.944	671.6
641.392	612.8
641.84	591
642.287	565.3
642.735	544.5
643.182	560.5
643.63	545.5
644.078	554.3
644.525	574.8
644.973	579.1
645.42	572.8
645.867	601.7
646.315	622.6
646.762	629.5
647.21	674
647.657	686.8
648.104	717.6
648.551	744.7
648.999	806.5
649.446	872.5
649.893	979.2
650.34	1118.9
650.787	1338.9
651.234	1676.4
651.682	2187
652.129	3005.3
652.576	4366.3
653.023	6436.7
653.47	8809.9
653.917	10948.4
654.363	12644.8
654.81	13964.1
655.257	13216.8
655.704	8598.1
656.151	5036.5
656.598	3281.6
657.044	2333.6
657.491	1788.6
657.938	1430.9
658.385	1188.6
658.831	1036.7
659.278	928.4
659.724	815.8
660.171	757.3
660.618	679
661.064	659.7
661.511	638.6
661.957	624.5
662.404	619.9
662.85	624.1
663.296	594.1
663.743	538.4
664.189	523.9
664.635	515.1
665.082	503.9
665.528	502.6
665.974	502.8
666.42	485.2
666.867	488
667.313	475.6
667.759	465.1
668.205	459
668.651	459.1
669.097	454.4
669.543	474.1
669.989	454.6
670.435	428.1
670.881	431
671.327	431.3
671.773	455.5
672.219	470.1
672.665	525.3
673.11	559.7
673.556	608.3
674.002	652.7
674.448	635.5
674.893	531.1
675.339	457.3
675.785	418.1
676.23	403.8
676.676	374.6
677.122	364.4
677.567	354.9
678.013	351.9
678.458	345
678.904	344.6
679.349	335.3
679.794	342.5
680.24	344.8
680.685	329.4
681.131	333.5
681.576	334.6
682.021	346.4
682.466	335
682.912	326.5
683.357	346.8
683.802	366.6
684.247	392.7
684.692	444.1
685.137	473.8
685.583	524
686.028	544.5
686.473	493.9
686.918	415.9
687.363	399.8
687.807	383.6
688.252	345.9
688.697	341.1
689.142	321.5
689.587	321.5
690.032	309.5
690.477	332.8
690.921	337.5
691.366	365.7
691.811	388.7
692.255	414.6
692.7	441.9
693.145	485.1
693.589	683.9
694.034	1113.3
694.478	1494.9
694.923	1668.5
695.367	2194.7
695.812	1143.1
696.256	476.5
696.701	358.5
697.145	331.9
697.59	314
698.034	311.5
698.478	323.8
698.922	319
699.367	310.7
699.811	335.7
700.255	348.6
700.699	377.1
701.143	415.5
701.588	466.5
702.032	504.9
702.476	494.6
702.92	473.8
703.364	479.2
703.808	622.6
704.252	1006.7
704.696	1422.3
705.14	1616.3
705.584	2072.5
706.027	1027.6
706.471	507
706.915	385.4
707.359	342.7
707.803	312.3
708.246	298.2
708.69	300.3
709.134	295.3
709.577	298.3
710.021	308.2
710.465	297.6
710.908	289.5
711.352	287.9
711.795	297.4
712.239	337.7
712.682	365.9
713.126	400.7
713.569	441.4
714.012	355.1
714.456	309.3
714.899	286.1
715.342	261.2
715.786	251.3
716.229	248.4
716.672	253.9
717.115	236.4
717.558	231.1
718.002	240
718.445	247.9
718.888	274.4
719.331	282.3
719.774	300.2
720.217	305.1
720.66	276.5
721.103	258.4
721.546	246.8
721.989	238
722.432	221
722.874	230.4
723.317	221
723.76	229.4
724.203	247
724.645	312.2
725.088	436.1
725.531	554.4
725.974	625.7
726.416	532.7
726.859	290.3
727.301	233
727.744	226.3
728.187	226.3
728.629	225.1
729.071	238.8
729.514	247.9
729.956	261.7
730.399	266.2
730.841	273.3
731.283	269.9
731.726	253.8
732.168	248.2
732.61	254.1
733.053	279.9
733.495	299.4
733.937	341.8
734.379	383.1
734.821	429.1
735.263	529.4
735.705	817.7
736.148	1553.7
736.59	2525.6
737.032	2945.6
737.474	2379.7
737.916	783
738.357	412.2
738.799	310.6
739.241	287
739.683	277.5
740.125	276.8
740.567	280.7
741.008	306.1
741.45	299.1
741.892	307.1
742.334	333.6
742.775	345.7
743.217	334
743.658	261.8
744.1	244.4
744.542	256.8
744.983	302.8
745.425	331.4
745.866	332.2
746.307	278.1
746.749	269.5
747.19	323.2
747.632	442.2
748.073	868.7
748.514	1824.9
748.956	2768.3
749.397	3468.2
749.838	2901.7
750.279	2862.5
750.72	1440.1
751.162	528.8
751.603	303.3
752.044	239.2
752.485	202.2
752.926	201.2
753.367	195.3
753.808	184.7
754.249	181.9
754.69	181.6
755.131	176.7
755.572	177.4
756.013	167.8
756.453	178.7
756.894	182.8
757.335	182.3
757.776	194.9
758.216	192.5
758.657	194
759.098	191.8
759.538	215.2
759.979	258
760.42	362.3
760.86	703.8
761.301	1834.8
761.741	4379.9
762.182	6209.1
762.622	4367.4
763.063	1269
763.503	527
763.943	333.9
764.384	326
764.824	373.1
765.264	402.3
765.705	286.2
766.145	201.1
766.585	182.9
767.025	179
767.465	182.7
767.906	232.4
768.346	287
768.786	319.2
769.226	246.4
769.666	319.2
770.106	614.1
770.546	1544.1
770.986	2569.3
771.426	2273.9
771.866	771.8
772.306	311.4
772.745	202.2
773.185	168.6
773.625	166.8
774.065	160
774.505	193
774.944	300.4
775.384	646.6
775.824	1149.4
776.263	1103.7
776.703	472.8
777.142	212.2
777.582	147.7
778.021	130.5
778.461	132.4
778.9	134.2
779.34	125.1
779.779	112.7
780.219	106.5
780.658	99.8
781.097	107.7
781.537	107.7
781.976	98.5
782.415	100.1
782.855	98.6
783.294	103.7
783.733	98.5
784.172	99.2
784.611	107
785.05	110.8
785.489	107.9
785.928	112.3
786.367	123.1
786.806	111.6
787.245	120.6
787.684	128.4
788.123	141.7
788.562	124.7
789.001	123.1
789.44	120.7
789.879	114.7
790.317	118.1
790.756	117.1
791.195	125.7
791.634	143.3
792.072	200.3
792.511	359.4
792.95	1004.6
793.388	2082.8
793.827	1862.1
794.265	654.5
794.704	274.5
795.142	179
795.581	143.3
796.019	138.3
796.458	123
796.896	116.2
797.334	124.2
797.773	144.5
798.211	218.1
798.649	427.8
799.087	1003.5
799.526	1566.6
799.964	1975.7
800.402	1947.3
800.84	740.3
801.278	294.3
801.716	181.6
802.154	150.3
802.592	142.2
803.03	135.3
803.468	129.4
803.906	134.4
804.344	146
804.782	134.1
805.22	126.5
805.658	128.6
806.096	142.7
806.533	152.1
806.971	168.2
807.409	208.1
