Data from 20171114-ORNL-Ar_H_NY_Subt18_08-04-37-276.txt Node
Date: Tue Nov 14 08:04:37 EST 2017
User: Ender
Spectrometer: HR+D1039
Trigger mode: 0
Integration Time (sec): 2.730000E-2
Scans to average: 10
Electric dark correction enabled: true
Nonlinearity correction enabled: false
Boxcar width: 0
XAxis mode: Wavelengths
Number of Pixels in Spectrum: 2048
>>>>>Begin Spectral Data<<<<<
187.836	-4.91
188.309	-4.91
188.782	-4.91
189.255	-1.11
189.728	-1.21
190.201	9.59
190.674	3.29
191.147	3.39
191.619	-9.61
192.092	-0.21
192.565	5.09
193.038	0.99
193.511	-1.01
193.984	-1.71
194.456	-1.41
194.929	3.29
195.402	1.49
195.874	-5.91
196.347	-2.51
196.82	-2.31
197.292	5.69
197.765	-0.81
198.237	-11.21
198.71	4.09
199.182	-8.01
199.655	3.09
200.127	-0.31
200.6	-1.01
201.072	-4.01
201.544	-4.61
202.017	-4.51
202.489	3.99
202.961	-5.31
203.433	-4.71
203.906	0.49
204.378	-2.11
204.85	-1.21
205.322	-4.81
205.794	-3.51
206.266	-6.31
206.739	-10.41
207.211	-2.61
207.683	-10.11
208.155	-1.51
208.627	-3.81
209.099	-3.91
209.57	-7.11
210.042	-6.01
210.514	-0.71
210.986	-7.71
211.458	-3.41
211.93	0.49
212.402	4.29
212.873	-6.71
213.345	-10.81
213.817	-10.51
214.288	-4.71
214.76	-14.41
215.232	-0.41
215.703	-4.81
216.175	-3.31
216.646	-5.41
217.118	-9.71
217.589	-6.91
218.061	-3.51
218.532	-6.31
219.004	-3.01
219.475	-8.91
219.946	0.49
220.418	-7.41
220.889	5.49
221.36	0.99
221.832	-4.21
222.303	-4.61
222.774	-0.91
223.245	-4.01
223.717	-5.41
224.188	-2.31
224.659	-9.21
225.13	-6.21
225.601	-5.81
226.072	-3.91
226.543	-6.01
227.014	1.09
227.485	-3.51
227.956	-11.71
228.427	-3.81
228.898	-3.21
229.369	2.59
229.839	-5.81
230.31	-11.61
230.781	0.99
231.252	-9.21
231.722	-4.31
232.193	-5.61
232.664	-1.31
233.135	4.59
233.605	5.89
234.076	-5.61
234.546	1.09
235.017	4.19
235.487	2.49
235.958	-0.51
236.428	-4.11
236.899	1.59
237.369	8.09
237.84	-1.71
238.31	7.09
238.78	1.29
239.251	-1.51
239.721	0.19
240.191	-0.51
240.662	1.29
241.132	4.99
241.602	1.69
242.072	-3.71
242.542	10.99
243.013	4.49
243.483	6.89
243.953	6.49
244.423	4.69
244.893	-4.81
245.363	4.99
245.833	2.79
246.303	-2.71
246.773	12.59
247.243	5.39
247.712	1.69
248.182	7.29
248.652	10.79
249.122	-0.51
249.592	12.89
250.061	26.59
250.531	38.09
251.001	15.79
251.471	24.79
251.94	24.09
252.41	14.69
252.879	5.89
253.349	10.79
253.818	12.99
254.288	3.59
254.757	0.39
255.227	-2.71
255.696	4.59
256.166	9.49
256.635	6.59
257.105	11.19
257.574	11.29
258.043	14.99
258.513	15.29
258.982	17.79
259.451	11.59
259.92	14.39
260.389	13.19
260.859	24.19
261.328	13.59
261.797	21.39
262.266	12.59
262.735	12.69
263.204	13.39
263.673	5.29
264.142	6.79
264.611	3.39
265.08	7.79
265.549	3.79
266.018	5.09
266.487	2.09
266.955	0.59
267.424	4.09
267.893	8.39
268.362	8.79
268.83	7.69
269.299	8.49
269.768	2.19
270.236	3.49
270.705	4.19
271.174	3.99
271.642	7.69
272.111	13.09
272.579	13.79
273.048	23.49
273.516	27.89
273.985	31.29
274.453	25.39
274.922	26.59
275.39	8.99
275.858	3.49
276.327	16.59
276.795	21.59
277.263	13.39
277.731	31.89
278.2	57.49
278.668	61.59
279.136	52.89
279.604	19.29
280.072	17.89
280.54	10.29
281.008	8.69
281.477	15.59
281.945	11.59
282.413	29.59
282.881	15.29
283.348	15.69
283.816	20.99
284.284	19.19
284.752	18.69
285.22	16.79
285.688	21.39
286.156	15.99
286.623	42.59
287.091	54.29
287.559	27.49
288.026	14.39
288.494	19.09
288.962	11.49
289.429	11.29
289.897	19.19
290.364	18.79
290.832	21.69
291.3	20.39
291.767	19.39
292.234	24.19
292.702	16.29
293.169	20.39
293.637	25.39
294.104	19.29
294.571	15.19
295.039	16.89
295.506	16.19
295.973	22.19
296.44	17.09
296.908	22.19
297.375	16.59
297.842	21.99
298.309	21.49
298.776	13.59
299.243	20.59
299.71	17.29
300.177	19.29
300.644	22.39
301.111	23.19
301.578	22.09
302.045	15.29
302.512	22.69
302.979	28.89
303.446	21.29
303.913	19.69
304.379	21.19
304.846	23.89
305.313	29.49
305.78	28.49
306.246	33.69
306.713	33.49
307.18	28.09
307.646	27.29
308.113	29.69
308.579	21.79
309.046	29.29
309.512	27.99
309.979	24.69
310.445	34.69
310.912	28.29
311.378	37.49
311.845	28.99
312.311	29.29
312.777	31.89
313.244	33.79
313.71	37.19
314.176	32.19
314.642	30.09
315.109	30.99
315.575	30.59
316.041	41.49
316.507	34.49
316.973	35.69
317.439	35.59
317.905	36.99
318.371	32.19
318.837	36.89
319.303	34.89
319.769	41.19
320.235	33.89
320.701	37.09
321.167	34.19
321.633	36.89
322.099	41.99
322.564	44.39
323.03	42.79
323.496	40.39
323.962	41.79
324.427	33.29
324.893	45.19
325.359	38.99
325.824	42.69
326.29	38.69
326.755	40.69
327.221	42.39
327.686	44.79
328.152	42.59
328.617	45.19
329.083	48.89
329.548	57.29
330.014	50.19
330.479	43.79
330.944	41.09
331.41	45.49
331.875	47.19
332.34	46.29
332.805	47.49
333.271	49.29
333.736	45.59
334.201	55.69
334.666	50.29
335.131	55.69
335.596	51.09
336.061	50.59
336.526	48.09
336.991	52.49
337.456	56.59
337.921	49.49
338.386	41.29
338.851	40.59
339.316	42.89
339.781	49.49
340.246	50.69
340.711	51.49
341.175	49.99
341.64	48.69
342.105	57.19
342.569	58.29
343.034	58.49
343.499	60.69
343.963	49.79
344.428	66.19
344.893	62.09
345.357	63.19
345.822	61.69
346.286	63.99
346.751	72.99
347.215	64.29
347.679	71.99
348.144	90.39
348.608	81.89
349.073	69.79
349.537	73.19
350.001	84.29
350.465	91.89
350.93	79.59
351.394	79.09
351.858	73.09
352.322	86.19
352.786	80.29
353.25	95.99
353.715	107.99
354.179	95.99
354.643	124.49
355.107	118.59
355.571	101.59
356.035	105.29
356.498	110.69
356.962	127.69
357.426	131.49
357.89	117.89
358.354	84.99
358.818	82.19
359.281	81.69
359.745	75.09
360.209	74.69
360.673	73.19
361.136	82.59
361.6	84.19
362.064	76.89
362.527	83.69
362.991	87.59
363.454	82.19
363.918	76.79
364.381	80.89
364.845	80.99
365.308	83.19
365.772	87.69
366.235	84.79
366.698	79.19
367.162	89.09
367.625	85.89
368.088	83.49
368.552	93.39
369.015	85.69
369.478	91.99
369.941	97.49
370.404	92.79
370.867	100.19
371.331	99.09
371.794	111.09
372.257	111.19
372.72	112.39
373.183	106.69
373.646	99.79
374.109	107.69
374.572	108.39
375.035	101.59
375.497	107.09
375.96	102.49
376.423	100.79
376.886	106.49
377.349	111.09
377.811	101.99
378.274	101.59
378.737	107.99
379.199	110.49
379.662	105.99
380.125	112.19
380.587	115.79
381.05	117.19
381.512	120.59
381.975	125.59
382.437	120.89
382.9	122.79
383.362	128.49
383.825	133.99
384.287	145.19
384.75	133.89
385.212	132.09
385.674	135.09
386.136	125.59
386.599	114.59
387.061	122.59
387.523	122.69
387.985	131.29
388.447	139.59
388.91	135.39
389.372	150.09
389.834	142.79
390.296	139.39
390.758	146.19
391.22	157.59
391.682	194.89
392.144	275.19
392.606	219.79
393.068	150.59
393.529	161.39
393.991	142.19
394.453	133.09
394.915	149.39
395.377	180.09
395.838	204.09
396.3	146.19
396.762	129.89
397.224	126.39
397.685	116.59
398.147	121.69
398.608	125.59
399.07	122.09
399.531	121.89
399.993	131.29
400.454	148.29
400.916	140.69
401.377	135.99
401.839	149.19
402.3	143.49
402.762	155.79
403.223	171.19
403.684	164.09
404.145	155.89
404.607	148.59
405.068	157.19
405.529	159.89
405.99	171.19
406.451	155.89
406.913	159.69
407.374	156.19
407.835	150.09
408.296	156.09
408.757	167.39
409.218	177.59
409.679	170.69
410.14	163.39
410.601	162.89
411.062	173.69
411.522	181.49
411.983	179.29
412.444	162.29
412.905	163.99
413.366	171.79
413.826	182.49
414.287	207.39
414.748	247.29
415.208	232.59
415.669	201.09
416.13	201.89
416.59	191.09
417.051	206.19
417.511	213.39
417.972	217.19
418.432	233.99
418.893	269.89
419.353	233.59
419.814	186.49
420.274	165.29
420.734	170.09
421.195	183.19
421.655	183.69
422.115	176.19
422.576	174.79
423.036	184.19
423.496	195.49
423.956	207.09
424.416	212.09
424.876	251.59
425.336	248.69
425.797	247.69
426.257	235.59
426.717	223.89
427.177	217.19
427.637	212.39
428.097	219.99
428.556	229.59
429.016	244.89
429.476	250.19
429.936	258.09
430.396	258.39
430.856	272.39
431.315	293.49
431.775	321.89
432.235	349.19
432.694	327.19
433.154	333.99
433.614	363.19
434.073	313.29
434.533	270.69
434.993	250.49
435.452	265.79
435.912	276.79
436.371	269.89
436.83	270.99
437.29	247.89
437.749	229.09
438.209	229.09
438.668	252.29
439.127	263.39
439.587	249.79
440.046	225.49
440.505	234.19
440.964	268.69
441.424	292.19
441.883	291.29
442.342	235.79
442.801	214.19
443.26	213.39
443.719	204.39
444.178	195.79
444.637	193.39
445.096	206.99
445.555	206.29
446.014	211.59
446.473	211.79
446.932	221.09
447.391	209.39
447.849	214.99
448.308	198.49
448.767	204.99
449.226	223.49
449.685	220.69
450.143	232.39
450.602	216.79
451.061	214.19
451.519	222.39
451.978	214.99
452.436	208.69
452.895	221.69
453.353	228.69
453.812	222.69
454.27	224.29
454.729	223.09
455.187	224.59
455.646	228.09
456.104	232.19
456.562	251.29
457.021	247.19
457.479	239.69
457.937	259.99
458.395	239.89
458.854	225.79
459.312	238.39
459.77	253.99
460.228	237.39
460.686	222.09
461.144	235.79
461.602	224.69
462.06	223.69
462.518	238.49
462.976	238.99
463.434	245.19
463.892	240.69
464.35	256.39
464.808	270.79
465.266	247.59
465.724	251.79
466.181	252.59
466.639	251.49
467.097	266.39
467.555	284.19
468.012	274.79
468.47	293.39
468.928	307.39
469.385	319.49
469.843	322.99
470.3	331.29
470.758	339.09
471.215	353.59
471.673	376.89
472.13	373.19
472.588	389.79
473.045	341.59
473.503	349.29
473.96	362.59
474.417	379.29
474.875	404.59
475.332	443.59
475.789	427.09
476.246	425.19
476.704	444.59
477.161	477.19
477.618	483.89
478.075	513.49
478.532	577.69
478.989	643.69
479.446	733.79
479.903	717.99
480.36	754.09
480.817	806.99
481.274	909.29
481.731	1008.09
482.188	1088.09
482.645	1227.69
483.102	1310.59
483.558	1448.39
484.015	1506.89
484.472	1475.69
484.929	1436.19
485.385	1387.79
485.842	1355.39
486.299	1286.39
486.755	1226.59
487.212	1029.19
487.668	862.49
488.125	799.69
488.582	733.19
489.038	702.39
489.494	670.19
489.951	643.19
490.407	627.59
490.864	613.39
491.32	601.39
491.776	595.99
492.233	604.49
492.689	562.79
493.145	563.49
493.602	554.99
494.058	574.29
494.514	572.79
494.97	598.49
495.426	604.39
495.882	584.39
496.338	577.89
496.794	591.29
497.251	581.69
497.707	590.09
498.163	606.89
498.618	606.29
499.074	604.79
499.53	635.89
499.986	638.09
500.442	607.79
500.898	590.39
501.354	582.59
501.809	597.49
502.265	605.09
502.721	612.49
503.177	618.49
503.632	621.29
504.088	633.79
504.543	667.89
504.999	660.79
505.455	619.49
505.91	591.49
506.366	589.29
506.821	581.19
507.277	582.09
507.732	583.39
508.187	575.69
508.643	592.39
509.098	582.89
509.553	610.79
510.009	613.79
510.464	625.19
510.919	639.79
511.375	647.69
511.83	659.79
512.285	672.39
512.74	715.09
513.195	731.79
513.65	717.09
514.105	726.19
514.56	723.29
515.015	746.79
515.47	758.59
515.925	736.39
516.38	743.59
516.835	745.59
517.29	739.59
517.745	729.39
518.2	713.09
518.655	695.19
519.109	694.79
519.564	697.79
520.019	679.79
520.474	679.29
520.928	675.29
521.383	673.29
521.838	661.69
522.292	666.69
522.747	670.09
523.201	657.29
523.656	644.89
524.11	643.89
524.565	644.59
525.019	625.09
525.474	644.39
525.928	648.89
526.382	642.39
526.837	644.69
527.291	650.69
527.745	649.09
528.2	645.09
528.654	644.19
529.108	641.19
529.562	633.29
530.016	641.69
530.47	635.79
530.925	643.49
531.379	642.79
531.833	661.99
532.287	649.19
532.741	648.79
533.195	650.19
533.649	672.49
534.103	680.19
534.556	660.39
535.01	663.49
535.464	663.19
535.918	669.89
536.372	675.19
536.826	662.79
537.279	653.29
537.733	668.29
538.187	663.89
538.64	654.79
539.094	667.09
539.548	666.89
540.001	669.79
540.455	668.89
540.908	672.89
541.362	680.19
541.815	692.89
542.269	701.29
542.722	695.99
543.175	711.89
543.629	707.29
544.082	731.79
544.536	726.79
544.989	734.09
545.442	731.69
545.895	735.69
546.349	730.59
546.802	725.29
547.255	734.09
547.708	740.69
548.161	748.09
548.614	747.49
549.067	767.19
549.52	742.29
549.973	748.39
550.426	745.79
550.879	732.29
551.332	724.49
551.785	732.69
552.238	736.49
552.691	736.99
553.144	751.69
553.596	776.99
554.049	792.29
554.502	824.29
554.955	831.79
555.407	837.49
555.86	827.99
556.313	811.29
556.765	805.59
557.218	820.89
557.67	805.79
558.123	808.89
558.576	794.69
559.028	799.39
559.48	798.99
559.933	793.29
560.385	760.19
560.838	733.79
561.29	712.29
561.742	720.49
562.195	701.59
562.647	701.29
563.099	707.79
563.551	705.49
564.004	715.69
564.456	704.59
564.908	692.39
565.36	682.99
565.812	678.59
566.264	658.59
566.716	667.89
567.168	654.19
567.62	657.29
568.072	636.79
568.524	628.79
568.976	622.49
569.428	605.89
569.88	606.39
570.332	620.39
570.784	611.29
571.235	618.59
571.687	621.09
572.139	634.79
572.59	650.69
573.042	642.89
573.494	646.89
573.945	639.49
574.397	609.29
574.849	614.99
575.3	618.89
575.752	623.39
576.203	612.59
576.655	609.09
577.106	604.89
577.557	596.89
578.009	605.99
578.46	602.49
578.912	590.59
579.363	602.29
579.814	604.39
580.265	599.99
580.717	594.89
581.168	606.69
581.619	609.69
582.07	620.19
582.521	611.79
582.972	608.09
583.423	614.99
583.875	618.29
584.326	634.69
584.777	678.29
585.227	729.59
585.678	826.79
586.129	904.59
586.58	972.09
587.031	1053.49
587.482	1198.79
587.933	1380.49
588.384	1183.79
588.834	873.59
589.285	720.29
589.736	709.59
590.186	690.09
590.637	683.99
591.088	670.79
591.538	668.29
591.989	657.69
592.439	646.09
592.89	641.39
593.34	637.89
593.791	638.29
594.241	627.39
594.692	630.69
595.142	611.09
595.593	623.69
596.043	634.29
596.493	637.99
596.943	632.89
597.394	641.79
597.844	632.79
598.294	643.89
598.744	666.19
599.195	686.49
599.645	725.39
600.095	750.39
600.545	804.89
600.995	863.09
601.445	908.39
601.895	968.69
602.345	1017.59
602.795	993.49
603.245	953.89
603.695	895.69
604.145	851.59
604.594	796.39
605.044	762.49
605.494	708.29
605.944	675.59
606.393	655.79
606.843	649.39
607.293	647.89
607.743	654.49
608.192	655.69
608.642	669.69
609.091	681.09
609.541	693.39
609.99	677.49
610.44	669.09
610.889	636.09
611.339	612.29
611.788	596.79
612.238	616.19
612.687	629.79
613.136	633.89
613.586	646.89
614.035	647.89
614.484	670.19
614.933	670.39
615.383	652.09
615.832	652.09
616.281	630.69
616.73	610.09
617.179	581.49
617.628	570.79
618.077	554.79
618.526	539.89
618.975	550.29
619.424	542.29
619.873	537.59
620.322	535.09
620.771	522.59
621.22	529.39
621.669	519.89
622.118	515.99
622.567	508.39
623.015	504.29
623.464	494.49
623.913	486.39
624.361	482.69
624.81	476.29
625.259	478.39
625.707	484.29
626.156	479.59
626.604	496.19
627.053	479.89
627.501	481.59
627.95	491.59
628.398	505.19
628.847	497.79
629.295	494.59
629.744	499.19
630.192	493.49
630.64	495.89
631.089	484.99
631.537	502.49
631.985	504.99
632.433	517.39
632.881	522.79
633.33	567.09
633.778	553.09
634.226	494.19
634.674	499.09
635.122	500.49
635.57	510.39
636.018	540.29
636.466	500.19
636.914	481.79
637.362	489.49
637.81	494.49
638.258	498.29
638.705	503.19
639.153	528.89
639.601	535.09
640.049	550.79
640.497	582.29
640.944	605.49
641.392	556.59
641.84	527.29
642.287	494.29
642.735	487.79
643.182	487.59
643.63	490.39
644.078	491.09
644.525	505.69
644.973	518.39
645.42	510.89
645.867	536.79
646.315	544.39
646.762	573.89
647.21	595.49
647.657	610.99
648.104	645.29
648.551	668.49
648.999	727.79
649.446	787.09
649.893	868.29
650.34	983.39
650.787	1183.69
651.234	1466.19
651.682	1920.09
652.129	2599.69
652.576	3743.79
653.023	5556.69
653.47	7663.09
653.917	9707.49
654.363	11335.09
654.81	12714.29
655.257	12093.39
655.704	7853.99
656.151	4632.09
656.598	2989.39
657.044	2115.59
657.491	1620.39
657.938	1289.99
658.385	1084.99
658.831	943.29
659.278	825.99
659.724	731.49
660.171	678.09
660.618	624.49
661.064	590.99
661.511	565.29
661.957	563.49
662.404	546.49
662.85	557.99
663.296	535.19
663.743	472.39
664.189	462.39
664.635	462.99
665.082	458.29
665.528	451.69
665.974	445.29
666.42	437.19
666.867	444.89
667.313	415.29
667.759	411.69
668.205	405.29
668.651	409.59
669.097	421.39
669.543	435.29
669.989	405.89
670.435	380.99
670.881	375.79
671.327	379.09
671.773	400.19
672.219	409.19
672.665	458.69
673.11	484.89
673.556	525.69
674.002	568.69
674.448	560.89
674.893	467.19
675.339	401.39
675.785	380.99
676.23	352.29
676.676	328.69
677.122	322.69
677.567	317.69
678.013	317.69
678.458	307.29
678.904	304.99
679.349	299.49
679.794	301.19
680.24	300.29
680.685	289.89
681.131	295.79
681.576	296.09
682.021	301.19
682.466	299.19
682.912	293.89
683.357	292.69
683.802	318.59
684.247	347.49
684.692	386.49
685.137	418.39
685.583	453.39
686.028	481.99
686.473	444.09
686.918	379.09
687.363	350.99
687.807	335.09
688.252	311.79
688.697	295.29
689.142	280.29
689.587	280.49
690.032	282.69
690.477	284.69
690.921	299.39
691.366	330.29
691.811	337.29
692.255	369.69
692.7	393.69
693.145	422.79
693.589	570.69
694.034	943.39
694.478	1286.49
694.923	1493.59
695.367	1963.79
695.812	1024.39
696.256	422.19
696.701	314.19
697.145	278.09
697.59	283.19
698.034	269.99
698.478	279.69
698.922	272.99
699.367	273.79
699.811	290.29
700.255	304.09
700.699	321.39
701.143	349.59
701.588	397.99
702.032	433.89
702.476	431.29
702.92	421.99
703.364	414.79
703.808	527.29
704.252	848.09
704.696	1209.39
705.14	1428.49
705.584	1850.39
706.027	908.39
706.471	443.69
706.915	331.29
707.359	294.09
707.803	270.19
708.246	259.59
708.69	267.19
709.134	269.29
709.577	260.99
710.021	270.49
710.465	253.49
710.908	255.49
711.352	250.19
711.795	259.99
712.239	294.99
712.682	319.19
713.126	345.19
713.569	386.29
714.012	310.29
714.456	271.19
714.899	251.79
715.342	227.69
715.786	220.59
716.229	220.09
716.672	216.59
717.115	200.69
717.558	202.49
718.002	207.29
718.445	219.19
718.888	238.49
719.331	243.19
719.774	264.49
720.217	250.09
720.66	242.39
721.103	220.49
721.546	205.29
721.989	202.79
722.432	196.49
722.874	197.29
723.317	197.09
723.76	202.29
724.203	218.19
724.645	264.49
725.088	370.69
725.531	473.49
725.974	547.19
726.416	466.99
726.859	256.79
727.301	206.19
727.744	199.29
728.187	193.39
728.629	196.79
729.071	203.49
729.514	212.59
729.956	226.99
730.399	237.69
730.841	242.59
731.283	234.99
731.726	221.49
732.168	213.39
732.61	220.39
733.053	239.99
733.495	269.89
733.937	297.99
734.379	325.79
734.821	363.89
735.263	439.19
735.705	677.99
736.148	1279.59
736.59	2155.99
737.032	2634.79
737.474	2155.99
737.916	682.79
738.357	364.19
738.799	275.09
739.241	258.29
739.683	229.89
740.125	242.29
740.567	252.99
741.008	258.19
741.45	264.69
741.892	261.29
742.334	292.99
742.775	303.79
743.217	293.29
743.658	224.39
744.1	219.79
744.542	219.29
744.983	266.39
745.425	298.79
745.866	288.09
746.307	235.49
746.749	228.59
747.19	272.09
747.632	378.59
748.073	704.69
748.514	1509.39
748.956	2395.39
749.397	2988.19
749.838	2497.69
750.279	2554.89
750.72	1284.69
751.162	464.39
751.603	267.99
752.044	209.19
752.485	176.59
752.926	171.19
753.367	170.59
753.808	160.19
754.249	162.79
754.69	155.69
755.131	144.89
755.572	149.99
756.013	146.59
756.453	150.09
756.894	154.09
757.335	156.09
757.776	161.29
758.216	164.79
758.657	169.59
759.098	169.19
759.538	191.99
759.979	211.59
760.42	305.89
760.86	561.99
761.301	1463.69
761.741	3653.59
762.182	5621.09
