Data from 20171114-ORNL-Ar_H_NY_Subt18_08-04-30-998.txt Node
Date: Tue Nov 14 08:04:30 EST 2017
User: Ender
Spectrometer: HR+D1039
Trigger mode: 0
Integration Time (sec): 2.730000E-2
Scans to average: 10
Electric dark correction enabled: true
Nonlinearity correction enabled: false
Boxcar width: 0
XAxis mode: Wavelengths
Number of Pixels in Spectrum: 2048
>>>>>Begin Spectral Data<<<<<
187.836	-2.35
188.309	-2.35
188.782	-2.35
189.255	-2.55
189.728	-4.85
190.201	4.65
190.674	1.65
191.147	2.75
191.619	-4.25
192.092	1.65
192.565	2.85
193.038	1.65
193.511	-2.05
193.984	1.15
194.456	1.65
194.929	4.45
195.402	-7.15
195.874	0.75
196.347	-4.95
196.82	-6.25
197.292	6.75
197.765	-5.25
198.237	-4.15
198.71	3.95
199.182	2.95
199.655	0.25
200.127	1.55
200.6	-1.55
201.072	-5.75
201.544	-6.65
202.017	0.25
202.489	-1.15
202.961	-5.15
203.433	-4.25
203.906	-3.65
204.378	-13.45
204.85	-3.55
205.322	-9.45
205.794	-4.55
206.266	-5.25
206.739	-6.95
207.211	5.05
207.683	-9.45
208.155	-6.35
208.627	-3.55
209.099	-3.95
209.57	-4.05
210.042	-5.35
210.514	-6.65
210.986	-1.25
211.458	-7.05
211.93	-5.95
212.402	3.35
212.873	-5.25
213.345	-12.55
213.817	-10.45
214.288	-7.45
214.76	-15.15
215.232	-2.75
215.703	-3.55
216.175	-6.15
216.646	-3.95
217.118	-5.75
217.589	-3.55
218.061	-3.35
218.532	-3.25
219.004	-5.25
219.475	-9.65
219.946	-8.45
220.418	-5.75
220.889	2.35
221.36	0.15
221.832	-4.05
222.303	-15.25
222.774	2.85
223.245	-11.05
223.717	-9.85
224.188	-6.35
224.659	-6.85
225.13	-8.65
225.601	-4.35
226.072	2.95
226.543	0.05
227.014	-5.45
227.485	-1.65
227.956	-8.55
228.427	0.55
228.898	4.55
229.369	-1.05
229.839	-7.45
230.31	-1.55
230.781	-4.65
231.252	0.85
231.722	-10.75
232.193	-3.55
232.664	-1.65
233.135	-2.15
233.605	2.05
234.076	0.65
234.546	3.65
235.017	4.25
235.487	0.75
235.958	-1.75
236.428	-2.05
236.899	6.75
237.369	1.65
237.84	-0.05
238.31	6.95
238.78	-0.05
239.251	-3.65
239.721	2.75
240.191	-1.45
240.662	2.05
241.132	2.65
241.602	-2.15
242.072	1.75
242.542	5.85
243.013	-5.25
243.483	3.15
243.953	1.55
244.423	1.65
244.893	-3.25
245.363	2.95
245.833	5.95
246.303	-1.45
246.773	7.05
247.243	7.55
247.712	6.25
248.182	7.65
248.652	7.25
249.122	2.15
249.592	12.35
250.061	24.35
250.531	37.95
251.001	21.35
251.471	18.75
251.94	21.55
252.41	6.35
252.879	-3.95
253.349	10.35
253.818	9.95
254.288	6.65
254.757	2.35
255.227	3.45
255.696	4.65
256.166	5.25
256.635	9.15
257.105	6.85
257.574	8.95
258.043	10.65
258.513	18.55
258.982	18.05
259.451	9.25
259.92	18.35
260.389	11.45
260.859	14.55
261.328	8.35
261.797	15.95
262.266	7.25
262.735	13.15
263.204	4.55
263.673	0.05
264.142	6.85
264.611	-2.65
265.08	-0.15
265.549	-1.25
266.018	3.15
266.487	1.45
266.955	1.65
267.424	6.35
267.893	5.65
268.362	6.85
268.83	3.25
269.299	10.75
269.768	9.35
270.236	13.45
270.705	0.35
271.174	6.85
271.642	7.45
272.111	8.05
272.579	17.65
273.048	21.65
273.516	28.45
273.985	26.95
274.453	25.75
274.922	18.75
275.39	7.55
275.858	6.85
276.327	14.35
276.795	13.05
277.263	8.75
277.731	33.75
278.2	50.35
278.668	62.45
279.136	50.45
279.604	19.35
280.072	15.15
280.54	7.75
281.008	9.55
281.477	15.75
281.945	10.05
282.413	13.45
282.881	10.85
283.348	8.45
283.816	23.15
284.284	18.25
284.752	22.45
285.22	13.95
285.688	17.05
286.156	15.25
286.623	50.25
287.091	54.55
287.559	34.15
288.026	20.25
288.494	16.65
288.962	3.95
289.429	10.95
289.897	16.05
290.364	17.25
290.832	22.65
291.3	18.65
291.767	16.85
292.234	19.85
292.702	14.85
293.169	15.75
293.637	20.95
294.104	21.45
294.571	6.05
295.039	13.85
295.506	16.85
295.973	19.35
296.44	12.45
296.908	26.15
297.375	20.15
297.842	25.45
298.309	21.75
298.776	19.55
299.243	24.25
299.71	14.75
300.177	22.35
300.644	26.85
301.111	28.95
301.578	25.05
302.045	18.05
302.512	25.05
302.979	23.55
303.446	21.95
303.913	17.85
304.379	24.75
304.846	30.75
305.313	24.55
305.78	21.25
306.246	21.65
306.713	26.05
307.18	28.95
307.646	28.55
308.113	28.05
308.579	20.75
309.046	22.55
309.512	27.15
309.979	21.05
310.445	30.15
310.912	26.45
311.378	33.15
311.845	26.05
312.311	36.35
312.777	29.75
313.244	28.35
313.71	38.25
314.176	34.35
314.642	28.05
315.109	35.75
315.575	39.05
316.041	37.15
316.507	30.15
316.973	35.85
317.439	33.15
317.905	35.15
318.371	38.65
318.837	36.65
319.303	35.25
319.769	28.95
320.235	32.65
320.701	38.55
321.167	40.65
321.633	34.65
322.099	32.65
322.564	46.65
323.03	42.55
323.496	37.25
323.962	40.15
324.427	41.55
324.893	41.05
325.359	39.45
325.824	40.35
326.29	37.35
326.755	37.85
327.221	36.65
327.686	38.35
328.152	44.15
328.617	36.55
329.083	46.45
329.548	49.35
330.014	47.15
330.479	37.25
330.944	41.15
331.41	39.15
331.875	49.15
332.34	47.05
332.805	43.45
333.271	45.45
333.736	44.65
334.201	52.85
334.666	47.45
335.131	50.85
335.596	55.75
336.061	51.35
336.526	40.05
336.991	44.25
337.456	57.95
337.921	44.05
338.386	47.45
338.851	42.95
339.316	48.15
339.781	43.05
340.246	45.55
340.711	43.45
341.175	55.15
341.64	35.85
342.105	47.35
342.569	54.75
343.034	46.95
343.499	52.65
343.963	49.45
344.428	58.75
344.893	55.95
345.357	57.95
345.822	63.15
346.286	69.85
346.751	71.15
347.215	66.35
347.679	69.15
348.144	90.85
348.608	81.35
349.073	66.85
349.537	69.75
350.001	69.05
350.465	77.85
350.93	81.35
351.394	82.85
351.858	67.95
352.322	79.95
352.786	82.85
353.25	94.45
353.715	110.65
354.179	92.75
354.643	115.45
355.107	120.65
355.571	108.75
356.035	98.35
356.498	112.45
356.962	113.25
357.426	124.65
357.89	106.75
358.354	78.25
358.818	75.45
359.281	76.85
359.745	75.85
360.209	70.85
360.673	66.65
361.136	68.35
361.6	81.45
362.064	81.75
362.527	80.95
362.991	84.55
363.454	70.65
363.918	81.25
364.381	75.75
364.845	79.25
365.308	80.95
365.772	82.65
366.235	80.35
366.698	80.55
367.162	79.65
367.625	82.85
368.088	86.05
368.552	82.95
369.015	81.05
369.478	84.45
369.941	93.05
370.404	85.65
370.867	89.95
371.331	97.25
371.794	108.85
372.257	105.85
372.72	113.05
373.183	98.75
373.646	90.05
374.109	91.45
374.572	102.25
375.035	99.85
375.497	95.75
375.96	103.15
376.423	88.45
376.886	103.75
377.349	98.95
377.811	91.55
378.274	100.25
378.737	97.45
379.199	99.85
379.662	93.75
380.125	109.95
380.587	108.75
381.05	113.95
381.512	125.25
381.975	121.45
382.437	119.85
382.9	115.05
383.362	115.75
383.825	130.65
384.287	139.95
384.75	133.75
385.212	125.75
385.674	135.55
386.136	123.55
386.599	120.95
387.061	118.35
387.523	123.85
387.985	120.15
388.447	140.75
388.91	129.85
389.372	142.05
389.834	138.55
390.296	123.15
390.758	145.15
391.22	155.95
391.682	194.25
392.144	278.85
392.606	212.55
393.068	154.35
393.529	155.25
393.991	135.85
394.453	145.45
394.915	144.45
395.377	176.05
395.838	201.55
396.3	144.65
396.762	133.35
397.224	122.65
397.685	109.75
398.147	115.05
398.608	119.95
399.07	115.75
399.531	119.35
399.993	133.75
400.454	137.75
400.916	136.95
401.377	128.85
401.839	138.25
402.3	134.35
402.762	148.35
403.223	162.05
403.684	155.35
404.145	147.45
404.607	145.15
405.068	148.65
405.529	144.75
405.99	171.25
406.451	162.45
406.913	160.75
407.374	146.55
407.835	146.15
408.296	157.35
408.757	152.15
409.218	172.55
409.679	161.05
410.14	160.75
410.601	158.55
411.062	171.95
411.522	165.95
411.983	171.05
412.444	158.25
412.905	164.65
413.366	167.95
413.826	172.55
414.287	198.45
414.748	239.55
415.208	227.45
415.669	188.65
416.13	186.65
416.59	178.95
417.051	187.65
417.511	197.25
417.972	217.35
418.432	226.45
418.893	256.45
419.353	225.25
419.814	181.45
420.274	162.75
420.734	163.35
421.195	174.15
421.655	172.35
422.115	175.05
422.576	180.35
423.036	168.15
423.496	185.15
423.956	194.85
424.416	204.35
424.876	239.95
425.336	235.95
425.797	240.05
426.257	231.15
426.717	218.15
427.177	213.75
427.637	208.65
428.097	208.45
428.556	220.35
429.016	246.75
429.476	243.95
429.936	249.05
430.396	250.75
430.856	266.15
431.315	285.95
431.775	316.15
432.235	341.25
432.694	315.35
433.154	325.05
433.614	349.35
434.073	307.45
434.533	259.15
434.993	239.05
435.452	249.95
435.912	263.75
436.371	258.05
436.83	256.45
437.29	242.85
437.749	222.15
438.209	223.45
438.668	247.05
439.127	253.65
439.587	241.95
440.046	227.45
440.505	229.15
440.964	252.35
441.424	288.05
441.883	280.25
442.342	233.75
442.801	196.25
443.26	198.75
443.719	200.45
444.178	198.25
444.637	192.05
445.096	193.45
445.555	205.25
446.014	204.45
446.473	208.25
446.932	207.15
447.391	205.75
447.849	209.75
448.308	191.15
448.767	199.95
449.226	205.05
449.685	214.45
450.143	222.05
450.602	212.55
451.061	211.55
451.519	209.95
451.978	211.55
452.436	212.65
452.895	212.85
453.353	224.25
453.812	215.25
454.27	211.85
454.729	219.35
455.187	220.15
455.646	215.95
456.104	219.85
456.562	232.45
457.021	243.15
457.479	235.05
457.937	239.05
458.395	234.25
458.854	213.45
459.312	227.65
459.77	240.35
460.228	230.75
460.686	215.05
461.144	217.75
461.602	219.45
462.06	219.25
462.518	226.65
462.976	232.25
463.434	231.85
463.892	240.15
464.35	249.75
464.808	254.65
465.266	236.25
465.724	243.75
466.181	247.25
466.639	244.65
467.097	262.35
467.555	273.95
468.012	274.85
468.47	280.05
468.928	293.85
469.385	313.65
469.843	317.05
470.3	309.65
470.758	325.85
471.215	351.95
471.673	362.15
472.13	356.05
472.588	370.55
473.045	327.55
473.503	334.15
473.96	350.95
474.417	362.75
474.875	387.35
475.332	421.45
475.789	412.85
476.246	421.45
476.704	433.65
477.161	461.15
477.618	479.45
478.075	499.65
478.532	551.85
478.989	615.45
479.446	729.15
479.903	701.15
480.36	737.55
480.817	787.85
481.274	888.25
481.731	995.65
482.188	1083.25
482.645	1194.55
483.102	1303.05
483.558	1421.85
484.015	1489.15
484.472	1468.95
484.929	1416.75
485.385	1351.75
485.842	1326.75
486.299	1272.95
486.755	1184.45
487.212	992.35
487.668	848.25
488.125	779.75
488.582	708.25
489.038	684.55
489.494	644.85
489.951	621.65
490.407	608.85
490.864	589.55
491.32	581.35
491.776	573.15
492.233	586.95
492.689	554.05
493.145	544.85
493.602	548.75
494.058	549.05
494.514	557.05
494.97	578.35
495.426	589.65
495.882	564.35
496.338	561.75
496.794	566.65
497.251	568.55
497.707	576.55
498.163	588.35
498.618	589.15
499.074	595.75
499.53	618.35
499.986	614.15
500.442	594.95
500.898	569.25
501.354	563.35
501.809	584.05
502.265	586.55
502.721	598.25
503.177	609.35
503.632	600.85
504.088	599.75
504.543	653.85
504.999	639.25
505.455	597.15
505.91	576.85
506.366	573.75
506.821	574.25
507.277	575.55
507.732	569.15
508.187	561.25
508.643	567.15
509.098	566.55
509.553	589.55
510.009	610.45
510.464	601.95
510.919	623.45
511.375	634.25
511.83	639.85
512.285	655.55
512.74	689.15
513.195	717.45
513.65	706.85
514.105	702.45
514.56	711.75
515.015	729.95
515.47	729.25
515.925	724.65
516.38	714.25
516.835	735.25
517.29	717.15
517.745	716.85
518.2	698.05
518.655	686.45
519.109	674.05
519.564	674.15
520.019	664.35
520.474	657.25
520.928	660.55
521.383	655.45
521.838	640.85
522.292	651.85
522.747	642.25
523.201	637.25
523.656	629.95
524.11	622.65
524.565	623.35
525.019	624.85
525.474	642.25
525.928	638.15
526.382	633.25
526.837	634.25
527.291	635.55
527.745	626.45
528.2	624.95
528.654	623.95
529.108	624.85
529.562	623.25
530.016	627.65
530.47	629.45
530.925	626.65
531.379	625.45
531.833	639.95
532.287	653.95
532.741	628.95
533.195	643.65
533.649	644.95
534.103	650.85
534.556	649.05
535.01	645.15
535.464	648.15
535.918	655.95
536.372	650.55
536.826	656.25
537.279	633.85
537.733	637.75
538.187	636.65
538.64	645.35
539.094	646.25
539.548	654.25
540.001	646.15
540.455	654.15
540.908	660.95
541.362	652.25
541.815	670.75
542.269	688.05
542.722	681.95
543.175	688.05
543.629	693.45
544.082	711.25
544.536	703.85
544.989	702.85
545.442	715.75
545.895	710.55
546.349	709.95
546.802	710.75
547.255	719.65
547.708	717.95
548.161	719.55
548.614	730.25
549.067	746.05
549.52	743.95
549.973	732.15
550.426	732.25
550.879	706.25
551.332	711.05
551.785	725.05
552.238	726.55
552.691	736.15
553.144	742.45
553.596	753.65
554.049	778.75
554.502	795.55
554.955	821.15
555.407	808.75
555.86	807.45
556.313	810.35
556.765	787.05
557.218	796.55
557.67	788.95
558.123	776.65
558.576	776.25
559.028	789.25
559.48	786.25
559.933	775.65
560.385	741.05
560.838	707.35
561.29	695.15
561.742	690.85
562.195	675.75
562.647	681.95
563.099	680.75
563.551	683.45
564.004	695.55
564.456	690.65
564.908	691.05
565.36	662.65
565.812	654.05
566.264	637.05
566.716	647.45
567.168	635.85
567.62	641.95
568.072	615.55
568.524	616.45
568.976	610.75
569.428	592.15
569.88	594.55
570.332	605.65
570.784	602.85
571.235	599.15
571.687	605.25
572.139	613.35
572.59	637.55
573.042	633.95
573.494	626.05
573.945	623.65
574.397	604.25
574.849	610.05
575.3	602.85
575.752	594.95
576.203	597.75
576.655	605.55
577.106	590.25
577.557	586.85
578.009	583.65
578.46	593.85
578.912	583.85
579.363	585.65
579.814	580.45
580.265	586.05
580.717	591.95
581.168	584.55
581.619	596.35
582.07	602.75
582.521	597.35
582.972	590.45
583.423	595.75
583.875	600.75
584.326	614.45
584.777	651.85
585.227	740.45
585.678	807.45
586.129	894.25
586.58	967.95
587.031	1054.55
587.482	1200.25
587.933	1371.85
588.384	1186.65
588.834	869.05
589.285	702.85
589.736	683.65
590.186	677.25
590.637	668.15
591.088	641.15
591.538	635.55
591.989	633.35
592.439	620.25
592.89	628.65
593.34	623.85
593.791	615.25
594.241	618.65
594.692	615.15
595.142	603.95
595.593	609.35
596.043	611.95
596.493	627.35
596.943	626.25
597.394	617.75
597.844	616.65
598.294	631.95
598.744	652.05
599.195	679.75
599.645	708.65
600.095	739.65
600.545	788.15
600.995	829.35
601.445	883.35
601.895	945.65
602.345	989.75
602.795	978.25
603.245	926.25
603.695	881.25
604.145	828.75
604.594	795.85
605.044	739.95
605.494	689.85
605.944	642.75
606.393	638.55
606.843	625.45
607.293	628.35
607.743	635.95
608.192	642.85
608.642	660.65
609.091	663.15
609.541	659.65
609.99	663.45
610.44	659.85
610.889	615.45
611.339	603.15
611.788	587.95
612.238	601.95
612.687	615.35
613.136	615.35
613.586	631.25
614.035	637.95
614.484	653.15
614.933	655.75
615.383	647.95
615.832	629.45
616.281	621.35
616.73	602.15
617.179	573.55
617.628	548.35
618.077	537.45
618.526	528.55
618.975	533.55
619.424	521.25
619.873	528.85
620.322	529.35
620.771	519.85
621.22	520.65
621.669	500.75
622.118	506.75
622.567	496.85
623.015	496.25
623.464	489.25
623.913	482.85
624.361	467.45
624.81	464.95
625.259	477.05
625.707	476.85
626.156	471.45
626.604	481.95
627.053	475.25
627.501	481.05
627.95	482.05
628.398	489.95
628.847	479.55
629.295	473.75
629.744	487.65
630.192	482.65
630.64	477.75
631.089	478.25
631.537	490.15
631.985	488.75
632.433	497.85
632.881	514.75
633.33	564.25
633.778	535.05
634.226	472.25
634.674	478.45
635.122	491.95
635.57	501.35
636.018	528.95
636.466	499.65
636.914	467.85
637.362	474.55
637.81	490.25
638.258	492.25
638.705	487.45
639.153	511.05
639.601	520.45
640.049	544.65
640.497	560.65
640.944	578.75
641.392	544.25
641.84	512.55
642.287	492.65
642.735	483.35
643.182	489.85
643.63	489.05
644.078	493.85
644.525	499.65
644.973	500.85
645.42	508.85
645.867	517.25
646.315	544.75
646.762	546.75
647.21	578.05
647.657	594.55
648.104	629.75
648.551	652.95
648.999	708.65
649.446	764.15
649.893	843.95
650.34	973.45
650.787	1168.55
651.234	1456.05
651.682	1885.15
652.129	2573.35
652.576	3699.35
653.023	5495.95
653.47	7609.55
653.917	9642.05
654.363	11286.55
654.81	12725.05
655.257	12060.15
655.704	7821.75
656.151	4567.55
656.598	2946.85
657.044	2078.75
657.491	1597.25
657.938	1271.95
658.385	1053.25
658.831	918.65
659.278	817.65
659.724	726.15
660.171	670.25
660.618	607.35
661.064	561.75
661.511	548.35
661.957	546.75
662.404	533.45
662.85	538.85
663.296	516.55
663.743	470.55
664.189	459.85
664.635	448.65
665.082	440.95
665.528	435.55
665.974	433.05
666.42	424.35
666.867	418.15
667.313	415.75
667.759	396.75
668.205	396.35
668.651	404.65
669.097	408.55
669.543	420.65
669.989	393.05
670.435	370.35
670.881	368.35
671.327	375.05
671.773	391.75
672.219	405.95
672.665	450.85
673.11	478.65
673.556	515.15
674.002	564.45
674.448	547.15
674.893	459.55
675.339	398.55
675.785	364.85
676.23	346.85
676.676	331.95
677.122	321.65
677.567	308.85
678.013	308.25
678.458	298.45
678.904	290.85
679.349	283.75
679.794	290.35
680.24	287.35
680.685	288.65
681.131	281.55
681.576	286.55
682.021	292.65
682.466	287.95
682.912	289.65
683.357	288.05
683.802	317.75
684.247	340.65
684.692	373.65
685.137	408.95
685.583	442.45
686.028	460.45
686.473	438.15
686.918	367.95
687.363	338.35
687.807	326.65
688.252	299.45
688.697	291.65
689.142	277.25
689.587	277.55
690.032	266.95
690.477	281.45
690.921	283.55
691.366	306.45
691.811	330.35
692.255	360.85
692.7	376.55
693.145	412.15
693.589	553.75
694.034	900.65
694.478	1260.45
694.923	1459.85
695.367	1922.45
695.812	999.95
696.256	405.15
696.701	310.65
697.145	279.25
697.59	273.55
698.034	262.25
698.478	271.55
698.922	265.65
699.367	277.55
699.811	274.65
700.255	289.85
700.699	309.65
701.143	350.75
701.588	392.55
702.032	425.25
702.476	426.95
702.92	407.15
703.364	395.35
703.808	507.55
704.252	811.15
704.696	1178.75
705.14	1401.45
705.584	1800.55
706.027	893.25
706.471	422.65
706.915	324.25
707.359	295.15
707.803	268.25
708.246	253.35
708.69	258.65
709.134	260.95
709.577	246.45
710.021	261.15
710.465	246.85
710.908	247.75
711.352	247.95
711.795	262.75
712.239	288.95
712.682	316.55
713.126	352.95
713.569	397.65
714.012	309.85
714.456	264.85
714.899	239.95
715.342	227.75
715.786	213.85
716.229	210.75
716.672	213.85
717.115	204.85
717.558	209.45
718.002	206.65
718.445	216.05
718.888	231.25
719.331	245.85
719.774	253.15
720.217	254.25
720.66	228.85
721.103	218.05
721.546	210.35
721.989	204.05
722.432	184.75
722.874	189.55
723.317	193.05
723.76	191.85
724.203	210.95
724.645	257.85
725.088	358.75
725.531	457.65
725.974	532.45
726.416	461.75
726.859	243.55
727.301	201.55
727.744	191.65
728.187	192.65
728.629	194.55
729.071	194.85
729.514	208.75
729.956	226.95
730.399	230.75
730.841	236.35
731.283	217.25
731.726	222.05
732.168	216.75
732.61	211.35
733.053	234.45
733.495	256.25
733.937	285.85
734.379	325.05
734.821	347.05
735.263	439.95
735.705	660.55
736.148	1248.45
736.59	2082.15
737.032	2565.05
737.474	2099.35
737.916	670.95
738.357	346.85
738.799	268.35
739.241	243.45
739.683	223.35
740.125	232.35
740.567	244.95
741.008	257.15
741.45	259.65
741.892	266.65
742.334	284.65
742.775	290.55
743.217	289.45
743.658	216.55
744.1	208.25
744.542	213.05
744.983	257.55
745.425	288.45
745.866	284.65
746.307	234.85
746.749	228.25
747.19	257.75
747.632	361.45
748.073	693.85
748.514	1481.95
748.956	2333.75
749.397	2944.05
749.838	2437.95
750.279	2494.35
750.72	1254.65
751.162	450.15
751.603	262.45
752.044	202.85
752.485	172.65
752.926	167.95
753.367	169.75
753.808	159.85
754.249	160.45
754.69	152.55
755.131	150.85
755.572	143.55
756.013	135.85
756.453	152.45
756.894	152.75
757.335	160.75
757.776	157.25
758.216	156.25
758.657	159.95
759.098	156.85
759.538	177.15
759.979	213.85
760.42	296.95
760.86	545.25
761.301	1437.05
761.741	3556.25
762.182	5485.25
762.622	3841.45
763.063	1083.35
763.503	438.25
