Data from 20171114-ORNL-Ar_H_NY_Subt18_08-09-27-782.txt Node
Date: Tue Nov 14 08:09:27 EST 2017
User: Ender
Spectrometer: HR+D1039
Trigger mode: 0
Integration Time (sec): 2.730000E-2
Scans to average: 10
Electric dark correction enabled: true
Nonlinearity correction enabled: false
Boxcar width: 0
XAxis mode: Wavelengths
Number of Pixels in Spectrum: 2048
>>>>>Begin Spectral Data<<<<<
187.836	-7.13
188.309	-7.13
188.782	-7.13
189.255	3.37
189.728	-1.23
190.201	1.17
190.674	0.67
191.147	8.47
191.619	-10.83
192.092	1.47
192.565	4.97
193.038	7.17
193.511	-2.23
193.984	1.47
194.456	-3.73
194.929	0.07
195.402	-3.53
195.874	-0.13
196.347	-0.83
196.82	-2.03
197.292	3.37
197.765	-4.93
198.237	-2.33
198.71	0.87
199.182	0.47
199.655	4.87
200.127	1.67
200.6	-4.23
201.072	-2.23
201.544	-1.23
202.017	-0.63
202.489	7.87
202.961	-5.93
203.433	-5.33
203.906	-2.53
204.378	-7.93
204.85	-2.83
205.322	-11.63
205.794	1.97
206.266	-2.23
206.739	-10.83
207.211	4.37
207.683	-5.63
208.155	-7.03
208.627	-5.13
209.099	-9.43
209.57	-1.13
210.042	-6.03
210.514	0.67
210.986	-3.33
211.458	-13.03
211.93	-4.63
212.402	-0.83
212.873	-11.13
213.345	-9.53
213.817	-17.73
214.288	0.47
214.76	-7.73
215.232	0.77
215.703	-4.33
216.175	-4.73
216.646	-3.63
217.118	-4.43
217.589	-7.93
218.061	0.27
218.532	-7.93
219.004	-4.63
219.475	-3.13
219.946	-4.63
220.418	-6.03
220.889	1.07
221.36	0.17
221.832	-1.53
222.303	-5.23
222.774	0.37
223.245	-7.63
223.717	0.27
224.188	-5.93
224.659	-8.53
225.13	-7.53
225.601	-4.83
226.072	2.17
226.543	-2.13
227.014	1.47
227.485	0.07
227.956	-6.33
228.427	-4.63
228.898	4.97
229.369	3.97
229.839	-2.43
230.31	-6.53
230.781	5.17
231.252	-5.93
231.722	-10.43
232.193	1.57
232.664	-2.53
233.135	-4.23
233.605	-3.83
234.076	-9.13
234.546	-2.33
235.017	3.47
235.487	-9.53
235.958	-8.83
236.428	-8.33
236.899	-0.33
237.369	-6.53
237.84	-10.03
238.31	6.47
238.78	-5.93
239.251	-7.63
239.721	-10.33
240.191	2.27
240.662	-4.33
241.132	-3.03
241.602	-0.13
242.072	-3.73
242.542	-2.63
243.013	-4.43
243.483	-2.33
243.953	3.57
244.423	-5.83
244.893	-3.23
245.363	-4.53
245.833	-0.33
246.303	-7.53
246.773	2.87
247.243	-4.63
247.712	-2.73
248.182	-1.23
248.652	0.27
249.122	-6.93
249.592	-3.33
250.061	5.67
250.531	6.27
251.001	-4.73
251.471	2.47
251.94	8.57
252.41	-0.23
252.879	-6.83
253.349	13.87
253.818	2.67
254.288	0.77
254.757	-7.13
255.227	-6.83
255.696	0.07
256.166	3.97
256.635	2.37
257.105	-2.23
257.574	-3.93
258.043	-2.63
258.513	-0.53
258.982	-0.43
259.451	-0.73
259.92	-2.83
260.389	-3.03
260.859	2.67
261.328	1.27
261.797	5.97
262.266	-2.43
262.735	4.77
263.204	-3.83
263.673	-5.03
264.142	-0.53
264.611	-4.23
265.08	-1.13
265.549	-5.83
266.018	3.17
266.487	-9.83
266.955	-4.43
267.424	-2.93
267.893	-1.43
268.362	1.87
268.83	6.87
269.299	7.97
269.768	0.87
270.236	2.07
270.705	-4.73
271.174	2.67
271.642	0.47
272.111	-2.43
272.579	1.87
273.048	-0.43
273.516	-6.13
273.985	3.07
274.453	0.77
274.922	2.27
275.39	4.97
275.858	-5.33
276.327	-2.03
276.795	7.07
277.263	0.77
277.731	8.57
278.2	1.27
278.668	-1.03
279.136	5.37
279.604	9.27
280.072	7.17
280.54	3.57
281.008	0.67
281.477	6.77
281.945	3.07
282.413	11.47
282.881	10.57
283.348	0.47
283.816	8.67
284.284	3.67
284.752	8.27
285.22	-2.83
285.688	5.97
286.156	8.47
286.623	5.27
287.091	6.97
287.559	4.47
288.026	5.27
288.494	2.77
288.962	0.27
289.429	6.47
289.897	14.67
290.364	7.77
290.832	7.07
291.3	5.77
291.767	4.67
292.234	12.37
292.702	-2.93
293.169	8.27
293.637	12.17
294.104	14.97
294.571	5.77
295.039	-0.63
295.506	2.97
295.973	10.67
296.44	3.47
296.908	6.87
297.375	7.27
297.842	9.77
298.309	7.17
298.776	-1.73
299.243	10.57
299.71	8.57
300.177	6.77
300.644	10.57
301.111	11.47
301.578	13.37
302.045	14.67
302.512	19.07
302.979	18.07
303.446	13.47
303.913	10.47
304.379	6.07
304.846	19.67
305.313	10.97
305.78	15.87
306.246	11.47
306.713	20.57
307.18	17.57
307.646	15.87
308.113	21.37
308.579	11.07
309.046	19.17
309.512	14.17
309.979	10.27
310.445	13.47
310.912	14.27
311.378	27.57
311.845	20.07
312.311	21.17
312.777	21.87
313.244	23.37
313.71	28.87
314.176	16.47
314.642	16.07
315.109	24.07
315.575	28.67
316.041	22.17
316.507	20.07
316.973	23.97
317.439	23.57
317.905	21.37
318.371	22.77
318.837	23.97
319.303	27.17
319.769	22.47
320.235	21.87
320.701	22.87
321.167	18.57
321.633	20.67
322.099	20.87
322.564	28.27
323.03	26.37
323.496	32.77
323.962	28.27
324.427	18.67
324.893	29.77
325.359	27.27
325.824	28.37
326.29	23.87
326.755	32.37
327.221	29.77
327.686	21.67
328.152	31.97
328.617	34.77
329.083	33.67
329.548	38.07
330.014	37.47
330.479	31.37
330.944	28.67
331.41	25.27
331.875	32.57
332.34	36.67
332.805	30.57
333.271	38.47
333.736	26.67
334.201	36.67
334.666	35.77
335.131	41.57
335.596	35.87
336.061	39.57
336.526	30.37
336.991	26.07
337.456	37.67
337.921	32.07
338.386	32.77
338.851	34.07
339.316	36.07
339.781	37.17
340.246	39.77
340.711	37.97
341.175	39.27
341.64	28.17
342.105	36.67
342.569	44.57
343.034	40.77
343.499	43.17
343.963	42.27
344.428	52.37
344.893	45.67
345.357	44.27
345.822	46.87
346.286	49.47
346.751	55.17
347.215	48.07
347.679	50.67
348.144	66.47
348.608	65.87
349.073	51.07
349.537	54.47
350.001	57.57
350.465	62.47
350.93	56.87
351.394	61.87
351.858	56.27
352.322	65.67
352.786	55.47
353.25	66.77
353.715	84.77
354.179	73.37
354.643	89.17
355.107	86.97
355.571	74.77
356.035	75.77
356.498	78.87
356.962	79.07
357.426	93.17
357.89	83.27
358.354	70.37
358.818	65.87
359.281	64.17
359.745	61.87
360.209	63.47
360.673	57.87
361.136	61.67
361.6	64.37
362.064	64.27
362.527	66.77
362.991	71.27
363.454	65.37
363.918	60.27
364.381	66.57
364.845	63.67
365.308	72.97
365.772	75.97
366.235	69.57
366.698	65.17
367.162	65.67
367.625	69.07
368.088	71.77
368.552	71.17
369.015	69.97
369.478	81.87
369.941	75.27
370.404	67.07
370.867	77.07
371.331	78.67
371.794	89.47
372.257	80.37
372.72	79.27
373.183	87.97
373.646	79.67
374.109	76.47
374.572	83.87
375.035	81.87
375.497	81.77
375.96	87.77
376.423	82.57
376.886	93.97
377.349	94.07
377.811	88.37
378.274	87.67
378.737	91.47
379.199	90.17
379.662	82.37
380.125	90.67
380.587	92.07
381.05	94.37
381.512	92.07
381.975	104.97
382.437	101.97
382.9	96.37
383.362	103.97
383.825	110.97
384.287	103.17
384.75	99.67
385.212	103.27
385.674	113.27
386.136	115.77
386.599	110.07
387.061	107.67
387.523	100.27
387.985	101.97
388.447	119.47
388.91	103.97
389.372	109.87
389.834	111.57
390.296	105.57
390.758	111.87
391.22	119.17
391.682	124.77
392.144	129.67
392.606	131.37
393.068	124.87
393.529	139.37
393.991	127.77
394.453	111.77
394.915	116.07
395.377	120.17
395.838	117.37
396.3	116.27
396.762	126.87
397.224	123.67
397.685	116.07
398.147	117.37
398.608	123.07
399.07	118.47
399.531	125.07
399.993	132.57
400.454	134.57
400.916	126.97
401.377	131.17
401.839	139.77
402.3	132.87
402.762	154.67
403.223	161.27
403.684	151.07
404.145	149.17
404.607	141.97
405.068	151.97
405.529	141.97
405.99	161.07
406.451	148.97
406.913	158.97
407.374	147.87
407.835	148.67
408.296	147.97
408.757	157.87
409.218	169.37
409.679	156.27
410.14	158.57
410.601	160.47
411.062	171.17
411.522	161.07
411.983	169.07
412.444	159.57
412.905	169.37
413.366	169.87
413.826	187.27
414.287	209.67
414.748	241.77
415.208	229.57
415.669	200.97
416.13	198.87
416.59	195.87
417.051	199.07
417.511	214.57
417.972	225.57
418.432	235.97
418.893	267.47
419.353	242.17
419.814	191.17
420.274	169.97
420.734	179.37
421.195	183.87
421.655	179.97
422.115	178.27
422.576	187.77
423.036	187.27
423.496	200.27
423.956	206.97
424.416	218.67
424.876	249.37
425.336	240.07
425.797	248.97
426.257	238.37
426.717	231.27
427.177	222.07
427.637	213.97
428.097	218.07
428.556	234.57
429.016	248.27
429.476	249.47
429.936	257.07
430.396	250.47
430.856	267.07
431.315	285.67
431.775	314.57
432.235	347.77
432.694	320.07
433.154	326.37
433.614	356.77
434.073	306.87
434.533	261.57
434.993	248.47
435.452	253.37
435.912	273.37
436.371	264.87
436.83	258.67
437.29	242.37
437.749	233.47
438.209	231.97
438.668	257.77
439.127	267.97
439.587	243.87
440.046	231.17
440.505	243.57
440.964	265.27
441.424	295.77
441.883	287.87
442.342	248.97
442.801	211.97
443.26	217.67
443.719	216.87
444.178	212.87
444.637	206.67
445.096	219.57
445.555	216.87
446.014	226.47
446.473	220.07
446.932	226.37
447.391	221.07
447.849	225.67
448.308	224.77
448.767	217.77
449.226	231.97
449.685	236.37
450.143	248.57
450.602	231.87
451.061	222.47
451.519	226.37
451.978	221.57
452.436	230.07
452.895	235.67
453.353	249.07
453.812	228.87
454.27	235.07
454.729	234.47
455.187	232.37
455.646	237.17
456.104	236.67
456.562	247.57
457.021	252.37
457.479	249.47
457.937	252.67
458.395	258.17
458.854	247.37
459.312	259.27
459.77	270.17
460.228	252.37
460.686	235.37
461.144	245.37
461.602	246.77
462.06	250.37
462.518	247.77
462.976	251.37
463.434	256.47
463.892	252.27
464.35	266.07
464.808	279.47
465.266	262.27
465.724	262.87
466.181	273.47
466.639	270.57
467.097	289.47
467.555	290.77
468.012	297.37
468.47	296.17
468.928	322.77
469.385	332.37
469.843	336.77
470.3	335.87
470.758	340.07
471.215	376.77
471.673	395.17
472.13	385.27
472.588	395.87
473.045	362.87
473.503	371.77
473.96	389.97
474.417	387.77
474.875	422.07
475.332	466.27
475.789	445.87
476.246	457.07
476.704	469.07
477.161	492.37
477.618	504.97
478.075	544.27
478.532	580.37
478.989	644.57
479.446	757.77
479.903	722.97
480.36	752.97
480.817	798.77
481.274	881.47
481.731	966.87
482.188	1046.67
482.645	1156.57
483.102	1229.97
483.558	1353.27
484.015	1376.17
484.472	1371.07
484.929	1335.37
485.385	1294.77
485.842	1267.97
486.299	1212.47
486.755	1170.87
487.212	1017.27
487.668	856.37
488.125	793.27
488.582	741.57
489.038	716.37
489.494	678.87
489.951	650.57
490.407	633.57
490.864	619.07
491.32	616.67
491.776	615.47
492.233	620.27
492.689	596.07
493.145	595.07
493.602	580.57
494.058	595.17
494.514	596.47
494.97	610.37
495.426	631.37
495.882	609.57
496.338	591.87
496.794	602.37
497.251	596.37
497.707	617.57
498.163	615.97
498.618	621.77
499.074	620.67
499.53	646.47
499.986	645.17
500.442	629.87
500.898	598.67
501.354	602.47
501.809	598.87
502.265	610.47
502.721	617.37
503.177	630.97
503.632	621.97
504.088	626.87
504.543	658.27
504.999	671.87
505.455	640.17
505.91	632.97
506.366	625.77
506.821	630.57
507.277	625.57
507.732	620.67
508.187	625.47
508.643	635.27
509.098	637.37
509.553	650.27
510.009	652.67
510.464	667.57
510.919	679.27
511.375	685.07
511.83	696.77
512.285	708.37
512.74	750.87
513.195	766.97
513.65	752.27
514.105	759.47
514.56	744.17
515.015	760.77
515.47	778.97
515.925	771.17
516.38	774.37
516.835	769.37
517.29	765.77
517.745	760.77
518.2	760.77
518.655	741.07
519.109	732.87
519.564	736.97
520.019	719.07
520.474	703.07
520.928	714.47
521.383	717.37
521.838	708.07
522.292	709.07
522.747	697.37
523.201	710.97
523.656	690.27
524.11	689.87
524.565	692.77
525.019	688.07
525.474	694.57
525.928	688.47
526.382	680.17
526.837	689.07
527.291	698.77
527.745	691.27
528.2	695.17
528.654	671.07
529.108	678.37
529.562	680.37
530.016	674.07
530.47	680.57
530.925	679.47
531.379	680.17
531.833	685.37
532.287	692.97
532.741	690.57
533.195	695.27
533.649	707.37
534.103	706.57
534.556	690.07
535.01	698.17
535.464	687.07
535.918	703.17
536.372	708.47
536.826	700.57
537.279	695.47
537.733	700.37
538.187	706.47
538.64	700.67
539.094	710.97
539.548	725.87
540.001	720.07
540.455	710.07
540.908	723.27
541.362	732.17
541.815	738.77
542.269	746.57
542.722	743.67
543.175	762.27
543.629	758.07
544.082	780.07
544.536	778.37
544.989	772.27
545.442	788.87
545.895	788.57
546.349	786.97
546.802	783.27
547.255	799.47
547.708	803.37
548.161	812.67
548.614	825.57
549.067	819.87
549.52	817.97
549.973	799.97
550.426	808.17
550.879	787.87
551.332	794.57
551.785	812.07
552.238	814.57
552.691	820.77
553.144	823.27
553.596	846.17
554.049	867.27
554.502	889.17
554.955	907.87
555.407	905.37
555.86	909.97
556.313	876.97
556.765	877.77
557.218	871.57
557.67	870.67
558.123	876.07
558.576	871.77
559.028	874.57
559.48	880.87
559.933	870.27
560.385	836.17
560.838	808.07
561.29	785.17
561.742	782.37
562.195	772.07
562.647	769.17
563.099	779.17
563.551	771.47
564.004	780.47
564.456	772.47
564.908	742.07
565.36	730.37
565.812	727.47
566.264	725.07
566.716	720.57
567.168	710.67
567.62	713.97
568.072	691.57
568.524	695.27
568.976	690.77
569.428	674.77
569.88	675.57
570.332	679.17
570.784	685.27
571.235	685.57
571.687	693.97
572.139	700.77
572.59	712.27
573.042	718.07
573.494	705.67
573.945	703.57
574.397	689.77
574.849	696.47
575.3	691.27
575.752	681.27
576.203	687.17
576.655	684.77
577.106	665.27
577.557	669.87
578.009	666.57
578.46	670.77
578.912	666.97
579.363	660.37
579.814	660.87
580.265	654.47
580.717	663.37
581.168	669.37
581.619	675.57
582.07	677.17
582.521	677.07
582.972	673.17
583.423	677.77
583.875	682.17
584.326	679.27
584.777	699.67
585.227	712.27
585.678	713.57
586.129	728.27
586.58	755.57
587.031	770.97
587.482	791.17
587.933	817.67
588.384	800.47
588.834	772.57
589.285	771.97
589.736	772.37
590.186	774.67
590.637	758.67
591.088	754.77
591.538	743.77
591.989	733.37
592.439	729.07
592.89	733.17
593.34	696.17
593.791	708.27
594.241	693.27
594.692	697.57
595.142	692.17
595.593	705.37
596.043	704.27
596.493	713.07
596.943	706.57
597.394	718.77
597.844	711.27
598.294	737.57
598.744	758.77
599.195	781.27
599.645	832.87
600.095	871.17
600.545	936.57
600.995	974.67
601.445	1039.37
601.895	1092.37
602.345	1140.27
602.795	1116.97
603.245	1074.77
603.695	1014.07
604.145	964.27
604.594	929.77
605.044	855.87
605.494	801.37
605.944	765.87
606.393	745.97
606.843	726.47
607.293	745.67
607.743	728.87
608.192	733.27
608.642	745.07
609.091	755.47
609.541	766.77
609.99	766.07
610.44	764.57
610.889	725.97
611.339	703.57
611.788	677.27
612.238	688.07
612.687	716.47
613.136	695.27
613.586	711.67
614.035	694.57
614.484	709.37
614.933	715.57
615.383	711.27
615.832	713.47
616.281	703.07
616.73	676.77
617.179	657.17
617.628	651.77
618.077	630.67
618.526	628.47
618.975	621.27
619.424	622.67
619.873	609.57
620.322	608.37
620.771	607.37
621.22	608.87
621.669	595.87
622.118	588.47
622.567	581.47
623.015	557.47
623.464	576.17
623.913	566.87
624.361	556.87
624.81	557.57
625.259	553.77
625.707	560.37
626.156	566.07
626.604	566.67
627.053	566.17
627.501	564.87
627.95	571.77
628.398	586.57
628.847	571.27
629.295	578.97
629.744	578.87
630.192	567.47
630.64	569.67
631.089	547.97
631.537	545.07
631.985	533.57
632.433	538.87
632.881	526.07
633.33	530.97
633.778	531.07
634.226	530.67
634.674	547.77
635.122	545.97
635.57	552.47
636.018	560.77
636.466	557.97
636.914	571.27
637.362	569.77
637.81	572.47
638.258	579.97
638.705	591.97
639.153	604.17
639.601	632.37
640.049	651.77
640.497	687.97
640.944	698.67
641.392	659.37
641.84	612.47
642.287	577.87
642.735	569.87
643.182	562.47
643.63	561.77
644.078	571.97
644.525	574.97
644.973	579.17
645.42	589.47
645.867	607.57
646.315	626.57
646.762	653.47
647.21	681.07
647.657	696.17
648.104	729.27
648.551	755.17
648.999	814.67
649.446	889.77
649.893	974.17
650.34	1108.17
650.787	1326.67
651.234	1637.87
651.682	2109.37
652.129	2864.17
652.576	4087.37
653.023	5922.77
653.47	8000.97
653.917	9848.17
654.363	11266.97
654.81	12318.17
655.257	11671.47
655.704	7753.67
656.151	4658.37
656.598	3077.17
657.044	2198.17
657.491	1712.17
657.938	1389.27
658.385	1161.47
658.831	1022.07
659.278	920.87
659.724	823.07
660.171	766.57
660.618	711.67
661.064	681.67
661.511	651.87
661.957	643.87
662.404	633.67
662.85	649.87
663.296	619.17
663.743	560.67
664.189	533.97
664.635	538.67
665.082	524.57
665.528	526.97
665.974	530.27
666.42	524.67
666.867	506.47
667.313	487.27
667.759	470.67
668.205	453.57
668.651	456.97
669.097	452.87
669.543	444.07
669.989	452.57
670.435	454.57
670.881	449.07
671.327	463.07
671.773	479.67
672.219	504.17
672.665	562.17
673.11	589.97
673.556	630.17
674.002	673.37
674.448	663.17
674.893	559.97
675.339	487.97
675.785	448.57
676.23	427.87
676.676	403.07
677.122	395.77
677.567	379.87
678.013	375.57
678.458	359.67
678.904	360.07
679.349	355.57
679.794	363.27
680.24	357.97
680.685	355.87
681.131	358.97
681.576	350.57
682.021	359.27
682.466	356.27
682.912	358.07
683.357	353.17
683.802	397.07
684.247	418.57
684.692	471.47
685.137	517.97
685.583	549.57
686.028	572.07
686.473	530.97
686.918	447.67
687.363	425.07
687.807	398.17
688.252	370.47
688.697	362.97
689.142	346.07
689.587	332.07
690.032	339.97
690.477	353.57
690.921	365.87
691.366	395.67
691.811	416.87
692.255	443.27
692.7	478.07
693.145	527.07
693.589	751.57
694.034	1228.67
694.478	1614.57
694.923	1780.67
695.367	2303.27
695.812	1224.27
696.256	514.87
696.701	380.77
697.145	346.47
697.59	344.17
698.034	327.07
698.478	327.67
698.922	327.17
699.367	327.67
699.811	349.77
700.255	360.97
700.699	395.37
701.143	434.97
701.588	492.27
702.032	528.77
702.476	525.87
702.92	505.87
703.364	510.87
703.808	687.37
704.252	1105.57
704.696	1536.17
705.14	1709.27
705.584	2169.87
706.027	1096.77
706.471	545.77
706.915	418.27
707.359	364.87
707.803	332.17
708.246	325.07
708.69	324.97
709.134	319.37
709.577	324.27
710.021	325.87
710.465	310.27
710.908	307.77
711.352	304.77
711.795	327.87
712.239	360.97
712.682	397.17
713.126	417.47
713.569	471.07
714.012	366.67
714.456	313.17
714.899	295.17
715.342	286.87
715.786	263.67
716.229	267.17
716.672	256.27
717.115	254.47
717.558	258.17
718.002	253.77
718.445	267.57
718.888	298.17
719.331	297.97
719.774	323.67
720.217	313.37
720.66	289.77
721.103	278.77
721.546	263.17
721.989	251.67
722.432	238.57
722.874	252.17
723.317	234.27
723.76	243.27
724.203	259.37
724.645	329.87
725.088	469.67
725.531	592.67
725.974	656.87
726.416	569.57
726.859	318.07
727.301	246.37
727.744	245.67
728.187	231.07
728.629	249.17
729.071	244.37
729.514	271.97
729.956	279.17
730.399	290.87
730.841	293.67
731.283	281.47
731.726	273.77
732.168	268.17
732.61	278.77
733.053	301.97
733.495	322.87
733.937	361.07
734.379	416.97
734.821	462.77
735.263	580.67
735.705	916.07
736.148	1730.77
736.59	2734.97
737.032	3115.47
737.474	2549.17
737.916	853.17
738.357	449.67
738.799	339.97
739.241	316.77
739.683	296.27
740.125	294.87
740.567	306.77
741.008	324.07
741.45	320.97
741.892	327.07
742.334	366.27
742.775	376.97
743.217	357.67
743.658	285.67
744.1	263.27
744.542	281.07
744.983	324.77
745.425	364.87
745.866	348.47
746.307	290.87
746.749	285.57
747.19	346.87
747.632	489.47
748.073	977.67
748.514	2024.67
748.956	2978.67
749.397	3781.67
749.838	3135.77
750.279	3011.17
750.72	1547.17
751.162	573.27
751.603	335.97
752.044	264.67
752.485	231.07
752.926	216.67
753.367	208.27
753.808	203.07
754.249	198.87
754.69	192.17
755.131	189.27
755.572	184.67
756.013	186.27
756.453	189.07
756.894	195.27
757.335	201.47
757.776	201.97
758.216	200.97
758.657	201.57
759.098	211.87
759.538	248.07
759.979	284.67
760.42	407.37
760.86	792.47
761.301	2062.87
761.741	4784.97
762.182	6567.77
762.622	4648.67
763.063	1385.67
763.503	566.07
763.943	340.77
