Data from 20171114-ORNL-Ar_H_NY_Subt18_08-06-04-628.txt Node
Date: Tue Nov 14 08:06:04 EST 2017
User: Ender
Spectrometer: HR+D1039
Trigger mode: 0
Integration Time (sec): 2.730000E-2
Scans to average: 10
Electric dark correction enabled: true
Nonlinearity correction enabled: false
Boxcar width: 0
XAxis mode: Wavelengths
Number of Pixels in Spectrum: 2048
>>>>>Begin Spectral Data<<<<<
187.836	-5.5
188.309	-5.5
188.782	-5.5
189.255	4.3
189.728	-6
190.201	5.3
190.674	3.6
191.147	-1.8
191.619	-6.2
192.092	5.6
192.565	6.7
193.038	-2.9
193.511	2.5
193.984	6
194.456	-1.9
194.929	2.7
195.402	-7.7
195.874	-4.7
196.347	-3.9
196.82	-6
197.292	3.6
197.765	-1.8
198.237	-6.9
198.71	4.2
199.182	-2.3
199.655	-2.4
200.127	-2.2
200.6	-1.9
201.072	-7.5
201.544	-6.6
202.017	-3.1
202.489	3
202.961	-6.9
203.433	-5.2
203.906	-11.5
204.378	-6.3
204.85	-3.1
205.322	-15
205.794	-6.2
206.266	-3.4
206.739	-8
207.211	0.6
207.683	-5.7
208.155	-1.9
208.627	-5.5
209.099	-5.5
209.57	-7.4
210.042	-6.6
210.514	-5.6
210.986	-4.3
211.458	-10.6
211.93	-9.3
212.402	-2.3
212.873	-6.5
213.345	-11.5
213.817	-14.5
214.288	-6
214.76	-13
215.232	0.5
215.703	-5.9
216.175	-8.3
216.646	-8.2
217.118	-7.5
217.589	-3.6
218.061	-4
218.532	-2.5
219.004	-3.6
219.475	-0.5
219.946	-3
220.418	-9.6
220.889	6.6
221.36	2
221.832	-7.8
222.303	-8.6
222.774	-1.2
223.245	-11.5
223.717	-7.2
224.188	-1.9
224.659	-8.7
225.13	-4.8
225.601	-4.2
226.072	-3.4
226.543	-2.4
227.014	4.3
227.485	-4
227.956	-4.1
228.427	-1.5
228.898	-2.9
229.369	-2.1
229.839	-7.8
230.31	-7.4
230.781	3.7
231.252	0.1
231.722	-2.2
232.193	-0.5
232.664	3
233.135	1.6
233.605	0.4
234.076	-9.1
234.546	-3.9
235.017	6.9
235.487	2
235.958	-1.7
236.428	-3.1
236.899	4.6
237.369	4
237.84	-5.6
238.31	5.4
238.78	1.4
239.251	-3.2
239.721	1.3
240.191	1.6
240.662	-1.9
241.132	-2.2
241.602	2.5
242.072	4.8
242.542	2.4
243.013	1.8
243.483	-1.8
243.953	-0.2
244.423	-2.5
244.893	-3.2
245.363	2.5
245.833	2.3
246.303	1.5
246.773	0.6
247.243	-0.7
247.712	1.7
248.182	3.6
248.652	4.6
249.122	5
249.592	8.5
250.061	19.4
250.531	32.6
251.001	12
251.471	25.2
251.94	16.4
252.41	7.2
252.879	0.3
253.349	8.3
253.818	5.7
254.288	5.8
254.757	2.3
255.227	-0.4
255.696	-5.5
256.166	-0.4
256.635	6.1
257.105	11.3
257.574	3.1
258.043	6.9
258.513	8.5
258.982	22.2
259.451	10.4
259.92	13.8
260.389	9.3
260.859	11.5
261.328	9.5
261.797	13.4
262.266	6.1
262.735	8.2
263.204	4.8
263.673	5.5
264.142	7.5
264.611	-4.7
265.08	-2.6
265.549	-0.7
266.018	3.3
266.487	-7.1
266.955	-2.8
267.424	-0.9
267.893	4.7
268.362	2.9
268.83	3.3
269.299	5.6
269.768	5.2
270.236	10.4
270.705	1.1
271.174	10
271.642	9.5
272.111	7.4
272.579	19
273.048	21.5
273.516	27.2
273.985	27.1
274.453	20
274.922	18.5
275.39	15
275.858	4.2
276.327	6.4
276.795	21.8
277.263	7
277.731	31.3
278.2	53
278.668	57.4
279.136	46.9
279.604	17
280.072	17.2
280.54	13.7
281.008	13.8
281.477	18.3
281.945	13.2
282.413	17.8
282.881	16
283.348	2.4
283.816	15.3
284.284	14
284.752	20
285.22	13.8
285.688	17.4
286.156	15.6
286.623	49.7
287.091	50.2
287.559	28.3
288.026	16.8
288.494	18.2
288.962	6.3
289.429	8.4
289.897	19.4
290.364	12.5
290.832	18.7
291.3	14.4
291.767	17.3
292.234	19.7
292.702	16.4
293.169	21.4
293.637	18.8
294.104	18.6
294.571	10.1
295.039	14.4
295.506	16.8
295.973	17.4
296.44	11.7
296.908	13.9
297.375	18.7
297.842	17.4
298.309	17.7
298.776	13.6
299.243	17.2
299.71	7.6
300.177	23.8
300.644	25.2
301.111	24.5
301.578	24.1
302.045	18.6
302.512	19.8
302.979	25
303.446	26.7
303.913	16.7
304.379	17
304.846	27.6
305.313	24.7
305.78	18.6
306.246	24.8
306.713	24.7
307.18	24.2
307.646	26.3
308.113	30.7
308.579	28.1
309.046	28.1
309.512	28.3
309.979	20.9
310.445	28.9
310.912	26
311.378	35
311.845	27.1
312.311	29
312.777	37.8
313.244	32.8
313.71	34.4
314.176	24.2
314.642	38.9
315.109	31
315.575	37.4
316.041	34.7
316.507	32.9
316.973	41.7
317.439	33.8
317.905	36.5
318.371	38.3
318.837	35.9
319.303	33.6
319.769	33.7
320.235	32.5
320.701	35.3
321.167	34.3
321.633	35.7
322.099	39.3
322.564	44.8
323.03	37.3
323.496	42.2
323.962	44.8
324.427	43
324.893	42.4
325.359	41.4
325.824	38
326.29	34.3
326.755	40.1
327.221	38.1
327.686	40.1
328.152	45.8
328.617	43.1
329.083	47.8
329.548	50.9
330.014	46.2
330.479	40.9
330.944	38.5
331.41	42.2
331.875	46.1
332.34	45.1
332.805	43.7
333.271	46.1
333.736	49.1
334.201	51
334.666	55.6
335.131	48.4
335.596	48.2
336.061	46.5
336.526	37.4
336.991	45.3
337.456	59.7
337.921	48.9
338.386	43.3
338.851	41.1
339.316	42.9
339.781	42.5
340.246	53.9
340.711	46.2
341.175	45.7
341.64	44.2
342.105	42.2
342.569	56.5
343.034	57.9
343.499	58.4
343.963	50.7
344.428	61.6
344.893	63.5
345.357	67.2
345.822	60.5
346.286	67.7
346.751	76.7
347.215	64.4
347.679	70.9
348.144	96.9
348.608	83.1
349.073	70.4
349.537	82.1
350.001	88.7
350.465	89
350.93	82.8
351.394	84.6
351.858	70.8
352.322	92.6
352.786	86.3
353.25	104.4
353.715	116.2
354.179	97.9
354.643	116.5
355.107	130.1
355.571	112.7
356.035	101.2
356.498	124.2
356.962	131.9
357.426	135.9
357.89	112.6
358.354	93.9
358.818	82.9
359.281	81.2
359.745	80
360.209	79.4
360.673	75.7
361.136	80.4
361.6	88.3
362.064	84
362.527	83.2
362.991	92.6
363.454	82.9
363.918	78.4
364.381	86.8
364.845	84.3
365.308	88
365.772	85.1
366.235	91
366.698	85.7
367.162	89.4
367.625	98.2
368.088	90.9
368.552	86.2
369.015	91.7
369.478	96.6
369.941	98.9
370.404	92
370.867	99.2
371.331	109.2
371.794	119.9
372.257	115.7
372.72	117.7
373.183	114
373.646	99.4
374.109	106.7
374.572	110.5
375.035	110.9
375.497	112.5
375.96	107.8
376.423	101.5
376.886	115.1
377.349	112.7
377.811	101.7
378.274	105.4
378.737	101.9
379.199	107.9
379.662	111.7
380.125	120.7
380.587	125.6
381.05	118.2
381.512	126.7
381.975	141.9
382.437	128.2
382.9	130.8
383.362	141.4
383.825	139.4
384.287	149.7
384.75	144.9
385.212	138.5
385.674	135.7
386.136	138.4
386.599	131.8
387.061	135
387.523	127.3
387.985	139.1
388.447	140.8
388.91	141.6
389.372	160
389.834	152
390.296	149.9
390.758	158.4
391.22	175.9
391.682	215.6
392.144	288.9
392.606	228.5
393.068	165.6
393.529	176.2
393.991	159
394.453	147.9
394.915	158.5
395.377	197
395.838	216
396.3	158.4
396.762	144
397.224	128.7
397.685	136.6
398.147	136.7
398.608	133.5
399.07	136.3
399.531	130.7
399.993	147.5
400.454	151.2
400.916	144.7
401.377	138.3
401.839	153.5
402.3	156.3
402.762	165
403.223	179.7
403.684	178.6
404.145	160.8
404.607	168.7
405.068	169.3
405.529	174.5
405.99	189.8
406.451	174.5
406.913	174
407.374	166
407.835	165.1
408.296	176.7
408.757	173.8
409.218	191.1
409.679	178.5
410.14	177.3
410.601	177.2
411.062	189
411.522	189.7
411.983	193.7
412.444	179.7
412.905	186.5
413.366	183.4
413.826	194.2
414.287	225.1
414.748	267.4
415.208	245.8
415.669	215.6
416.13	210.9
416.59	202.9
417.051	209.4
417.511	220.9
417.972	238.9
418.432	253
418.893	291.2
419.353	255.2
419.814	196.9
420.274	180.8
420.734	177.2
421.195	204.8
421.655	198.8
422.115	195.8
422.576	199.9
423.036	206.6
423.496	208.4
423.956	218.9
424.416	235.1
424.876	268.7
425.336	267.7
425.797	267.2
426.257	260.2
426.717	244.4
427.177	236.2
427.637	232.6
428.097	233
428.556	244.6
429.016	283.2
429.476	267.2
429.936	274.5
430.396	282.6
430.856	299.7
431.315	325.5
431.775	363.2
432.235	389.4
432.694	359.1
433.154	379.4
433.614	401.9
434.073	353
434.533	291.1
434.993	279.3
435.452	290.3
435.912	305.2
436.371	292.8
436.83	286.2
437.29	273.6
437.749	252.8
438.209	244.6
438.668	276.8
439.127	302.6
439.587	273.2
440.046	257.5
440.505	268
440.964	284.3
441.424	333.2
441.883	322.8
442.342	268.8
442.801	228.8
443.26	219.5
443.719	230.4
444.178	221.2
444.637	214.4
445.096	225.5
445.555	228
446.014	228.7
446.473	230.4
446.932	240.8
447.391	226.1
447.849	236
448.308	230
448.767	218.3
449.226	237.4
449.685	229.3
450.143	253.5
450.602	244.7
451.061	237.1
451.519	244.2
451.978	233.2
452.436	238.4
452.895	244.2
453.353	251.4
453.812	246.1
454.27	246.1
454.729	245.1
455.187	244.9
455.646	244.5
456.104	246.9
456.562	269.5
457.021	271.9
457.479	269.1
457.937	281
458.395	269.9
458.854	251
459.312	260.1
459.77	278.5
460.228	259.6
460.686	244
461.144	255.8
461.602	246.6
462.06	248.8
462.518	261.1
462.976	259.5
463.434	259.4
463.892	260.8
464.35	280.8
464.808	295.6
465.266	260.8
465.724	276.7
466.181	279.2
466.639	274.2
467.097	295.4
467.555	306.3
468.012	305
468.47	312.7
468.928	332.3
469.385	346.7
469.843	355.3
470.3	364.5
470.758	367.3
471.215	395.4
471.673	420.6
472.13	413.5
472.588	432
473.045	378.1
473.503	391.9
473.96	401.3
474.417	413.3
474.875	443.7
475.332	483.8
475.789	475.3
476.246	477.8
476.704	495.6
477.161	516.9
477.618	537.3
478.075	577.1
478.532	641.9
478.989	698.5
479.446	823.5
479.903	801
480.36	823.5
480.817	879.3
481.274	988.7
481.731	1087.6
482.188	1186.4
482.645	1322.4
483.102	1435
483.558	1592.5
484.015	1639.1
484.472	1604.1
484.929	1546.3
485.385	1495.5
485.842	1470.6
486.299	1400.4
486.755	1323.9
487.212	1129.4
487.668	946.4
488.125	864.3
488.582	798.2
489.038	767.3
489.494	721.4
489.951	699.7
490.407	682.5
490.864	661.2
491.32	656.6
491.776	655.6
492.233	666.4
492.689	625.8
493.145	613.1
493.602	615.5
494.058	627.1
494.514	628.7
494.97	652.5
495.426	666
495.882	637
496.338	637.7
496.794	638.3
497.251	634
497.707	650
498.163	651.8
498.618	655.2
499.074	666
499.53	700.6
499.986	690.2
500.442	656
500.898	648.1
501.354	636.8
501.809	651.8
502.265	661
502.721	678.9
503.177	689.3
503.632	667.7
504.088	690.1
504.543	724
504.999	721.9
505.455	666.9
505.91	650.2
506.366	649.7
506.821	631.1
507.277	633.7
507.732	635.3
508.187	635.2
508.643	641.2
509.098	649
509.553	660.9
510.009	673.1
510.464	688.3
510.919	697.1
511.375	709.6
511.83	727.6
512.285	741.1
512.74	774.3
513.195	807.3
513.65	781.2
514.105	779.4
514.56	792.4
515.015	811.5
515.47	825.6
515.925	808.1
516.38	795.3
516.835	813.3
517.29	803.2
517.745	795
518.2	777.6
518.655	772.8
519.109	755.5
519.564	750.7
520.019	745.1
520.474	737.5
520.928	735.5
521.383	726.7
521.838	724.2
522.292	726.2
522.747	715.3
523.201	719.1
523.656	707
524.11	705.3
524.565	701
525.019	701.1
525.474	711.9
525.928	704.7
526.382	701.8
526.837	700.4
527.291	716.1
527.745	712.7
528.2	716.7
528.654	711.3
529.108	708.7
529.562	697.6
530.016	695.9
530.47	709.2
530.925	710.5
531.379	714.8
531.833	714.3
532.287	717.4
532.741	713.9
533.195	725.7
533.649	727.8
534.103	736.3
534.556	716.8
535.01	726.3
535.464	711.6
535.918	727.3
536.372	731.8
536.826	733.1
537.279	710.4
537.733	719.1
538.187	725
538.64	724.2
539.094	746.2
539.548	741.7
540.001	732.6
540.455	729.6
540.908	735.6
541.362	747.3
541.815	752.4
542.269	768.5
542.722	772.1
543.175	790.9
543.629	779.7
544.082	793.6
544.536	800.8
544.989	785.4
545.442	804.5
545.895	811.2
546.349	799
546.802	802.5
547.255	812.5
547.708	814.1
548.161	835.8
548.614	840.3
549.067	840.2
549.52	824.1
549.973	823
550.426	815.5
550.879	801.4
551.332	814.1
551.785	831.1
552.238	817.2
552.691	823.8
553.144	845.7
553.596	868.4
554.049	887.6
554.502	906.4
554.955	922.6
555.407	927.3
555.86	918.3
556.313	907.4
556.765	894.5
557.218	901.7
557.67	886.8
558.123	881
558.576	879.1
559.028	873.1
559.48	895.5
559.933	880
560.385	846.1
560.838	816.9
561.29	791.5
561.742	773.9
562.195	776.2
562.647	767.3
563.099	779.4
563.551	783.6
564.004	792.5
564.456	792.3
564.908	765
565.36	748.9
565.812	739.8
566.264	726.6
566.716	730.1
567.168	717.7
567.62	733.1
568.072	712.6
568.524	702.9
568.976	695.1
569.428	690.5
569.88	686.9
570.332	694
570.784	685.7
571.235	688.3
571.687	698.3
572.139	712.4
572.59	720.9
573.042	713.5
573.494	713.6
573.945	708.8
574.397	690.6
574.849	690.3
575.3	698.5
575.752	683.6
576.203	684.4
576.655	696
577.106	679.7
577.557	676.9
578.009	674.9
578.46	668.8
578.912	669.2
579.363	670.6
579.814	679.1
580.265	656.6
580.717	671.3
581.168	674
581.619	676.9
582.07	688.2
582.521	676.4
582.972	676.7
583.423	686.3
583.875	687.1
584.326	709.7
584.777	747
585.227	830
585.678	909.3
586.129	1003.2
586.58	1077.7
587.031	1158.5
587.482	1320.2
587.933	1503.5
588.384	1310.3
588.834	978.1
589.285	807.6
589.736	794.9
590.186	774.5
590.637	777.2
591.088	750.3
591.538	745.1
591.989	733.5
592.439	739.8
592.89	730.8
593.34	711.9
593.791	718
594.241	705.7
594.692	710.3
595.142	701.3
595.593	707.1
596.043	713.9
596.493	720.3
596.943	718.3
597.394	711.9
597.844	717.5
598.294	729
598.744	755.3
599.195	778
599.645	814.3
600.095	856.5
600.545	921.5
600.995	951.8
601.445	1020.6
601.895	1092.1
602.345	1132.9
602.795	1132
603.245	1076.8
603.695	1009.3
604.145	955.4
604.594	913.6
605.044	859.8
605.494	794.6
605.944	757.1
606.393	734.5
606.843	728.7
607.293	737.5
607.743	725.3
608.192	747
608.642	755.4
609.091	767.5
609.541	777.4
609.99	770.8
610.44	765.5
610.889	720.3
611.339	705.8
611.788	688.5
612.238	706.8
612.687	716.9
613.136	715.9
613.586	737.5
614.035	730.5
614.484	760.5
614.933	757.6
615.383	755.4
615.832	745.1
616.281	721.2
616.73	683.1
617.179	660.9
617.628	649.6
618.077	634.4
618.526	629.4
618.975	630
619.424	617.5
619.873	611.8
620.322	619
620.771	604.9
621.22	599.4
621.669	597.9
622.118	585.5
622.567	579.9
623.015	569.3
623.464	571.5
623.913	561.7
624.361	558.3
624.81	545.6
625.259	552.1
625.707	557.5
626.156	550.3
626.604	561.9
627.053	563.5
627.501	563.3
627.95	569.1
628.398	572.7
628.847	566.8
629.295	563.9
629.744	567.1
630.192	570.8
630.64	561.6
631.089	561.1
631.537	568.6
631.985	588.4
632.433	593.4
632.881	612.4
633.33	657.2
633.778	641
634.226	563.2
634.674	573.5
635.122	585.5
635.57	594.1
636.018	617.6
636.466	570.8
636.914	565
637.362	567.3
637.81	572.2
638.258	576.3
638.705	575.7
639.153	608.1
639.601	616.8
640.049	640.4
640.497	663.9
640.944	684.8
641.392	630.5
641.84	609.3
642.287	576.7
642.735	558.1
643.182	565.7
643.63	569.1
644.078	568.9
644.525	585.4
644.973	595.6
645.42	597.3
645.867	611.5
646.315	641.5
646.762	656
647.21	686.3
647.657	709.3
648.104	741.9
648.551	769.4
648.999	842.2
649.446	905.9
649.893	997.6
650.34	1151.6
650.787	1378.2
651.234	1720.5
651.682	2228.3
652.129	3071.1
652.576	4415.7
653.023	6513.2
653.47	8956.3
653.917	11193.5
654.363	12960.7
654.81	14332.5
655.257	13614
655.704	8949
656.151	5291.2
656.598	3428.3
657.044	2424.3
657.491	1877
657.938	1488.9
658.385	1245.7
658.831	1077.5
659.278	956
659.724	858.6
660.171	786.1
660.618	717.1
661.064	698.7
661.511	660.4
661.957	651.9
662.404	635.4
662.85	649.3
663.296	618
663.743	557.5
664.189	526.4
664.635	528.7
665.082	514.4
665.528	517.4
665.974	511.7
666.42	496.2
666.867	502.9
667.313	491.9
667.759	478.1
668.205	473
668.651	477.3
669.097	474.5
669.543	502.6
669.989	477.4
670.435	449.6
670.881	440.1
671.327	437.4
671.773	459.8
672.219	477.6
672.665	537.3
673.11	578.1
673.556	614.7
674.002	655.1
674.448	643.8
674.893	543.1
675.339	468.4
675.785	435
676.23	418.7
676.676	390
677.122	376.3
677.567	373.9
678.013	360.8
678.458	353.7
678.904	348.5
679.349	344.8
679.794	348
680.24	344.2
680.685	341.5
681.131	346.1
681.576	346
682.021	342.5
682.466	346.7
682.912	333.2
683.357	342
683.802	367.5
684.247	401.6
684.692	444
685.137	483.4
685.583	522.4
686.028	552.4
686.473	514.8
686.918	439.6
687.363	411.4
687.807	391
688.252	361
688.697	349.2
689.142	327.2
689.587	334.6
690.032	329.3
690.477	326.9
690.921	349.9
691.366	374.4
691.811	396.7
692.255	419.9
692.7	453
693.145	499.8
693.589	672.5
694.034	1100.1
694.478	1501.1
694.923	1712.1
695.367	2225.6
695.812	1166.1
696.256	491.5
696.701	365.2
697.145	340.6
697.59	331.9
698.034	315.9
698.478	325.1
698.922	323.8
699.367	324.9
699.811	334.5
700.255	345.3
700.699	375.3
701.143	414.3
701.588	459.8
702.032	515
702.476	503.3
702.92	482.7
703.364	487.8
703.808	611.4
704.252	1008.5
704.696	1417.7
705.14	1645.2
705.584	2103.9
706.027	1047.1
706.471	510.6
706.915	393.5
707.359	349.2
707.803	315.1
708.246	301.9
708.69	305.7
709.134	298.8
709.577	308.5
710.021	316.3
710.465	298.6
710.908	293.3
711.352	296.4
711.795	308.2
712.239	340.8
712.682	379
713.126	407.3
713.569	461.7
714.012	358.7
714.456	315.9
714.899	296.1
715.342	270.1
715.786	261.7
716.229	255.7
716.672	257.4
717.115	243.7
717.558	239.7
718.002	242.5
718.445	254.9
718.888	277.5
719.331	284.5
719.774	303.4
720.217	299.6
720.66	275.5
721.103	257.8
721.546	250.2
721.989	234.2
722.432	224.2
722.874	236.4
723.317	231.8
723.76	229.9
724.203	248.5
724.645	311.2
725.088	440.9
725.531	557.5
725.974	632.2
726.416	540.7
726.859	302.4
727.301	241.2
727.744	229
728.187	228.5
728.629	235.2
729.071	238.7
729.514	250.4
729.956	266
730.399	277.7
730.841	283.2
731.283	268.4
731.726	259.5
732.168	252.2
732.61	259.9
733.053	281.6
733.495	303
733.937	346.6
734.379	387.4
734.821	423.5
735.263	526
735.705	807.9
736.148	1527.7
736.59	2515
737.032	2999.9
737.474	2446.9
737.916	787.2
738.357	417.4
738.799	322.2
739.241	293.8
739.683	276
740.125	289.9
740.567	288.3
741.008	315.5
741.45	312.4
741.892	309
742.334	339.9
742.775	350.6
743.217	334.1
743.658	261.4
744.1	249.8
744.542	252.2
744.983	305.1
745.425	333.1
745.866	339.5
746.307	283.8
746.749	278.8
747.19	318
747.632	439.9
748.073	839.4
748.514	1799.8
748.956	2783.3
749.397	3486.4
749.838	2881.3
750.279	2911.1
750.72	1471.8
751.162	540.6
751.603	320.7
752.044	243.4
752.485	210.2
752.926	203
753.367	194.5
753.808	188.5
754.249	182.6
754.69	177.6
755.131	180.8
755.572	175.9
756.013	173.9
756.453	173.6
756.894	183.7
757.335	187.1
757.776	196
758.216	187.9
758.657	190.8
759.098	197.2
759.538	223.6
759.979	261.1
760.42	363.2
760.86	683.1
761.301	1750.2
761.741	4292.6
762.182	6307.8
762.622	4445.3
763.063	1280.5
763.503	532.9
763.943	343.9
764.384	337.6
764.824	393.7
765.264	425.4
765.705	293.5
766.145	207
766.585	186.5
767.025	178.7
767.465	177.9
767.906	233
768.346	311.8
768.786	334.2
769.226	256.5
769.666	308.4
770.106	597.4
770.546	1493.1
770.986	2583.8
771.426	2324.9
771.866	771
772.306	321.9
772.745	206.7
773.185	167.1
773.625	164
774.065	164.8
774.505	194.9
774.944	300.4
775.384	657.9
775.824	1193.7
776.263	1162.2
776.703	487
777.142	209.5
777.582	157.2
778.021	135.6
778.461	142.6
778.9	131.9
779.34	134.6
779.779	111.1
780.219	106.9
780.658	106.2
781.097	107.3
781.537	109.6
781.976	104.1
782.415	100.2
782.855	96.2
783.294	105.3
783.733	103.1
784.172	103.4
784.611	101.1
785.05	109.4
785.489	114.7
785.928	116.6
786.367	119.4
786.806	117.6
787.245	126.3
787.684	132.5
788.123	140.9
788.562	140
789.001	122.7
789.44	116.4
789.879	115.8
790.317	117.1
790.756	129.4
791.195	122.4
791.634	136.9
792.072	200.8
792.511	358.3
792.95	965
793.388	2092.9
793.827	1910.7
794.265	665
794.704	274.3
795.142	172.9
795.581	144.9
796.019	130.7
796.458	121.7
796.896	120.1
797.334	120.6
797.773	147.3
798.211	213.9
798.649	426.5
799.087	990.4
799.526	1558.4
799.964	1957
800.402	1963.5
800.84	737.5
801.278	291.5
801.716	186.6
802.154	143.6
802.592	136.8
803.03	130.7
803.468	133.7
803.906	138.5
804.344	151.3
804.782	129.7
805.22	131.6
805.658	129.6
806.096	145.6
806.533	152.7
806.971	171.8
