Data from 20171114-ORNL-Ar_H_NY_Subt18_08-06-19-096.txt Node
Date: Tue Nov 14 08:06:19 EST 2017
User: Ender
Spectrometer: HR+D1039
Trigger mode: 0
Integration Time (sec): 2.730000E-2
Scans to average: 10
Electric dark correction enabled: true
Nonlinearity correction enabled: false
Boxcar width: 0
XAxis mode: Wavelengths
Number of Pixels in Spectrum: 2048
>>>>>Begin Spectral Data<<<<<
187.836	-4.86
188.309	-4.86
188.782	-4.86
189.255	3.24
189.728	-1.36
190.201	10.34
190.674	5.44
191.147	1.94
191.619	-7.46
192.092	-2.26
192.565	5.54
193.038	-1.06
193.511	2.54
193.984	2.14
194.456	-4.46
194.929	-1.36
195.402	-2.36
195.874	-5.96
196.347	-2.96
196.82	-14.66
197.292	3.04
197.765	-4.06
198.237	-6.16
198.71	-0.26
199.182	-4.76
199.655	0.74
200.127	4.74
200.6	1.54
201.072	-8.06
201.544	-6.66
202.017	-5.86
202.489	1.64
202.961	-6.66
203.433	-6.66
203.906	-4.66
204.378	-4.16
204.85	-4.76
205.322	-11.06
205.794	-1.26
206.266	-4.16
206.739	-8.96
207.211	7.44
207.683	-3.56
208.155	-8.56
208.627	-13.36
209.099	-4.66
209.57	-10.46
210.042	-5.26
210.514	-1.76
210.986	0.24
211.458	-5.46
211.93	-4.06
212.402	-0.56
212.873	-9.06
213.345	-9.46
213.817	-12.36
214.288	-5.26
214.76	-7.76
215.232	-4.66
215.703	-0.36
216.175	-2.86
216.646	-5.66
217.118	-2.76
217.589	-0.26
218.061	-3.16
218.532	-6.66
219.004	1.34
219.475	-2.16
219.946	-8.16
220.418	-3.46
220.889	1.24
221.36	-0.86
221.832	-5.46
222.303	-5.76
222.774	-2.56
223.245	-8.26
223.717	-6.26
224.188	0.44
224.659	-9.16
225.13	-9.86
225.601	-2.26
226.072	-0.06
226.543	-1.96
227.014	4.54
227.485	0.24
227.956	-6.76
228.427	-4.46
228.898	-0.66
229.369	7.44
229.839	-0.26
230.31	-8.86
230.781	1.94
231.252	-2.36
231.722	-7.36
232.193	-6.76
232.664	1.64
233.135	0.84
233.605	-0.46
234.076	-2.36
234.546	3.14
235.017	-0.26
235.487	-0.16
235.958	1.24
236.428	-3.86
236.899	0.54
237.369	7.64
237.84	-2.26
238.31	6.14
238.78	0.24
239.251	1.14
239.721	0.84
240.191	0.84
240.662	0.94
241.132	4.94
241.602	-6.16
242.072	0.44
242.542	4.44
243.013	-1.36
243.483	2.34
243.953	2.54
244.423	-0.36
244.893	-9.26
245.363	6.64
245.833	1.44
246.303	-2.56
246.773	11.84
247.243	-2.96
247.712	-0.76
248.182	3.24
248.652	5.24
249.122	-5.66
249.592	7.54
250.061	15.94
250.531	31.74
251.001	16.84
251.471	22.54
251.94	18.64
252.41	9.04
252.879	8.24
253.349	12.14
253.818	10.54
254.288	10.64
254.757	6.64
255.227	1.84
255.696	-3.16
256.166	2.94
256.635	10.14
257.105	8.74
257.574	8.34
258.043	6.24
258.513	11.54
258.982	17.04
259.451	4.74
259.92	10.74
260.389	13.34
260.859	13.54
261.328	18.14
261.797	19.34
262.266	12.74
262.735	3.14
263.204	4.44
263.673	0.64
264.142	9.44
264.611	-1.16
265.08	-3.16
265.549	3.34
266.018	5.14
266.487	2.34
266.955	0.44
267.424	-1.16
267.893	5.64
268.362	5.14
268.83	5.94
269.299	6.34
269.768	6.54
270.236	8.54
270.705	0.84
271.174	5.04
271.642	7.34
272.111	12.14
272.579	16.54
273.048	31.94
273.516	23.94
273.985	23.04
274.453	35.24
274.922	18.84
275.39	18.04
275.858	6.84
276.327	14.44
276.795	17.54
277.263	15.74
277.731	30.54
278.2	51.04
278.668	64.04
279.136	46.44
279.604	22.54
280.072	16.34
280.54	13.14
281.008	14.34
281.477	17.14
281.945	13.34
282.413	19.54
282.881	17.34
283.348	11.54
283.816	13.74
284.284	15.84
284.752	21.34
285.22	14.84
285.688	19.34
286.156	16.64
286.623	41.54
287.091	51.34
287.559	29.64
288.026	14.44
288.494	20.34
288.962	3.14
289.429	12.44
289.897	20.44
290.364	12.74
290.832	18.84
291.3	19.84
291.767	18.04
292.234	21.04
292.702	19.14
293.169	18.24
293.637	22.04
294.104	21.24
294.571	7.74
295.039	14.44
295.506	18.54
295.973	14.54
296.44	13.84
296.908	19.34
297.375	19.94
297.842	20.34
298.309	23.74
298.776	15.44
299.243	21.74
299.71	17.14
300.177	23.34
300.644	23.74
301.111	25.54
301.578	28.54
302.045	19.64
302.512	27.04
302.979	24.44
303.446	24.84
303.913	17.14
304.379	19.94
304.846	31.74
305.313	26.74
305.78	22.74
306.246	26.84
306.713	22.64
307.18	27.34
307.646	23.14
308.113	38.44
308.579	25.64
309.046	31.84
309.512	28.54
309.979	20.34
310.445	24.54
310.912	28.34
311.378	35.14
311.845	35.34
312.311	32.04
312.777	29.34
313.244	31.74
313.71	36.94
314.176	33.04
314.642	34.74
315.109	33.04
315.575	33.34
316.041	32.34
316.507	35.04
316.973	38.94
317.439	31.94
317.905	36.84
318.371	38.84
318.837	33.84
319.303	35.44
319.769	35.84
320.235	34.14
320.701	38.14
321.167	36.94
321.633	37.94
322.099	45.04
322.564	53.34
323.03	45.64
323.496	39.14
323.962	44.54
324.427	40.44
324.893	42.34
325.359	32.94
325.824	39.64
326.29	38.74
326.755	47.54
327.221	39.24
327.686	43.94
328.152	52.34
328.617	40.14
329.083	49.54
329.548	56.54
330.014	50.84
330.479	41.54
330.944	44.84
331.41	43.64
331.875	42.94
332.34	42.54
332.805	45.24
333.271	45.24
333.736	48.84
334.201	57.04
334.666	56.84
335.131	56.64
335.596	53.94
336.061	51.14
336.526	49.94
336.991	55.54
337.456	60.94
337.921	51.34
338.386	39.14
338.851	48.54
339.316	53.34
339.781	48.54
340.246	55.74
340.711	46.44
341.175	50.74
341.64	50.04
342.105	53.94
342.569	58.34
343.034	60.34
343.499	55.74
343.963	58.94
344.428	66.64
344.893	63.84
345.357	64.64
345.822	65.14
346.286	64.74
346.751	74.64
347.215	68.84
347.679	80.04
348.144	98.34
348.608	84.34
349.073	68.64
349.537	73.14
350.001	78.74
350.465	95.54
350.93	87.04
351.394	80.54
351.858	71.44
352.322	90.84
352.786	93.04
353.25	103.54
353.715	110.14
354.179	101.94
354.643	122.14
355.107	123.04
355.571	108.34
356.035	110.44
356.498	121.04
356.962	127.04
357.426	132.34
357.89	119.54
358.354	92.04
358.818	92.14
359.281	85.34
359.745	81.64
360.209	78.04
360.673	80.94
361.136	79.34
361.6	88.74
362.064	88.34
362.527	84.04
362.991	94.34
363.454	84.64
363.918	76.74
364.381	78.04
364.845	85.04
365.308	88.24
365.772	87.44
366.235	90.14
366.698	82.54
367.162	84.14
367.625	91.54
368.088	91.64
368.552	88.14
369.015	96.64
369.478	100.44
369.941	103.14
370.404	94.24
370.867	99.94
371.331	110.84
371.794	123.34
372.257	113.04
372.72	120.64
373.183	110.04
373.646	97.54
374.109	110.54
374.572	107.14
375.035	106.54
375.497	110.04
375.96	110.94
376.423	105.14
376.886	115.74
377.349	109.14
377.811	105.34
378.274	107.64
378.737	109.14
379.199	118.54
379.662	113.24
380.125	127.04
380.587	122.04
381.05	121.14
381.512	130.24
381.975	133.14
382.437	133.34
382.9	121.34
383.362	132.24
383.825	148.94
384.287	152.64
384.75	140.44
385.212	144.24
385.674	138.24
386.136	140.74
386.599	127.04
387.061	131.74
387.523	130.44
387.985	132.44
388.447	149.54
388.91	142.44
389.372	163.54
389.834	157.84
390.296	142.64
390.758	158.94
391.22	179.74
391.682	219.04
392.144	298.34
392.606	240.34
393.068	165.44
393.529	169.54
393.991	156.54
394.453	153.74
394.915	160.04
395.377	191.94
395.838	212.64
396.3	153.34
396.762	144.84
397.224	129.84
397.685	129.44
398.147	132.94
398.608	137.24
399.07	129.24
399.531	139.44
399.993	136.54
400.454	159.24
400.916	149.14
401.377	150.54
401.839	155.04
402.3	157.44
402.762	167.94
403.223	178.14
403.684	174.84
404.145	165.54
404.607	160.34
405.068	170.54
405.529	171.84
405.99	194.44
406.451	180.04
406.913	179.04
407.374	162.54
407.835	167.74
408.296	165.04
408.757	177.54
409.218	197.34
409.679	186.44
410.14	185.14
410.601	181.34
411.062	192.14
411.522	191.14
411.983	199.94
412.444	181.94
412.905	183.74
413.366	184.74
413.826	199.74
414.287	224.24
414.748	267.84
415.208	250.54
415.669	215.04
416.13	208.54
416.59	207.94
417.051	226.24
417.511	228.14
417.972	243.94
418.432	255.34
418.893	291.94
419.353	253.34
419.814	204.14
420.274	190.54
420.734	191.74
421.195	199.34
421.655	204.64
422.115	199.04
422.576	201.04
423.036	200.54
423.496	213.44
423.956	221.54
424.416	237.14
424.876	272.94
425.336	269.94
425.797	267.84
426.257	263.14
426.717	245.44
427.177	243.64
427.637	229.74
428.097	240.54
428.556	246.24
429.016	272.24
429.476	272.84
429.936	285.34
430.396	292.94
430.856	306.24
431.315	320.54
431.775	353.24
432.235	398.14
432.694	364.34
433.154	376.84
433.614	405.14
434.073	350.14
434.533	292.94
434.993	271.04
435.452	290.14
435.912	303.54
436.371	297.44
436.83	293.64
437.29	282.24
437.749	259.14
438.209	251.84
438.668	283.84
439.127	300.44
439.587	276.34
440.046	258.14
440.505	267.24
440.964	288.84
441.424	339.04
441.883	321.04
442.342	265.14
442.801	225.24
443.26	227.44
443.719	235.04
444.178	225.94
444.637	222.34
445.096	230.44
445.555	230.74
446.014	231.94
446.473	234.04
446.932	244.14
447.391	238.44
447.849	234.74
448.308	220.94
448.767	227.34
449.226	248.04
449.685	244.14
450.143	257.84
450.602	247.24
451.061	230.84
451.519	237.84
451.978	236.84
452.436	249.34
452.895	248.04
453.353	258.04
453.812	241.74
454.27	241.84
454.729	243.34
455.187	254.94
455.646	253.34
456.104	253.04
456.562	271.64
457.021	274.04
457.479	266.84
457.937	283.34
458.395	265.64
458.854	258.24
459.312	267.74
459.77	288.84
460.228	267.04
460.686	254.24
461.144	254.74
461.602	250.84
462.06	249.44
462.518	262.04
462.976	260.44
463.434	267.14
463.892	270.44
464.35	285.24
464.808	295.44
465.266	275.74
465.724	270.54
466.181	278.94
466.639	280.44
467.097	293.24
467.555	315.84
468.012	309.64
468.47	314.84
468.928	338.64
469.385	350.54
469.843	355.74
470.3	362.14
470.758	373.34
471.215	401.14
471.673	422.94
472.13	417.54
472.588	426.74
473.045	377.54
473.503	388.64
473.96	411.34
474.417	418.44
474.875	436.64
475.332	488.24
475.789	477.84
476.246	478.74
476.704	503.34
477.161	529.34
477.618	537.74
478.075	571.64
478.532	629.94
478.989	702.94
479.446	829.84
479.903	799.94
480.36	837.84
480.817	882.54
481.274	997.94
481.731	1100.14
482.188	1212.34
482.645	1338.74
483.102	1441.64
483.558	1578.54
484.015	1627.84
484.472	1603.94
484.929	1562.44
485.385	1517.04
485.842	1465.14
486.299	1399.54
486.755	1333.24
487.212	1125.54
487.668	950.24
488.125	870.94
488.582	806.84
489.038	764.94
489.494	728.84
489.951	713.84
490.407	696.34
490.864	667.54
491.32	659.74
491.776	652.94
492.233	661.94
492.689	627.44
493.145	617.84
493.602	613.84
494.058	630.34
494.514	633.34
494.97	653.74
495.426	665.94
495.882	643.34
496.338	628.94
496.794	639.54
497.251	640.04
497.707	650.44
498.163	648.64
498.618	662.64
499.074	665.84
499.53	699.24
499.986	695.64
500.442	667.94
500.898	650.44
501.354	640.14
501.809	654.54
502.265	660.44
502.721	672.54
503.177	687.94
503.632	680.84
504.088	692.14
504.543	725.44
504.999	728.54
505.455	676.64
505.91	654.44
506.366	651.54
506.821	644.64
507.277	646.14
507.732	634.24
508.187	643.94
508.643	649.84
509.098	647.54
509.553	670.84
510.009	688.94
510.464	696.14
510.919	705.54
511.375	710.74
511.83	720.64
512.285	742.64
512.74	784.54
513.195	800.44
513.65	787.14
514.105	795.64
514.56	790.74
515.015	821.54
515.47	822.94
515.925	812.04
516.38	804.24
516.835	822.84
517.29	810.64
517.745	797.24
518.2	779.44
518.655	762.54
519.109	754.64
519.564	758.04
520.019	747.44
520.474	751.04
520.928	740.34
521.383	740.14
521.838	728.24
522.292	736.14
522.747	728.24
523.201	729.84
523.656	702.94
524.11	710.54
524.565	702.24
525.019	718.04
525.474	724.24
525.928	724.84
526.382	708.34
526.837	713.24
527.291	727.14
527.745	718.84
528.2	722.94
528.654	710.84
529.108	713.14
529.562	708.94
530.016	709.94
530.47	698.64
530.925	712.74
531.379	711.74
531.833	726.34
532.287	725.94
532.741	727.84
533.195	719.24
533.649	725.14
534.103	743.94
534.556	724.14
535.01	732.34
535.464	721.64
535.918	738.84
536.372	744.24
536.826	724.84
537.279	729.24
537.733	730.84
538.187	736.84
538.64	731.24
539.094	740.34
539.548	758.74
540.001	745.64
540.455	744.24
540.908	749.54
541.362	766.04
541.815	763.64
542.269	773.94
542.722	765.54
543.175	783.84
543.629	794.84
544.082	812.54
544.536	818.24
544.989	803.24
545.442	803.34
545.895	812.54
546.349	819.64
546.802	807.44
547.255	816.34
547.708	833.34
548.161	824.94
548.614	852.94
549.067	851.14
549.52	831.44
549.973	834.94
550.426	827.84
550.879	809.04
551.332	817.74
551.785	826.34
552.238	833.44
552.691	840.94
553.144	864.14
553.596	867.94
554.049	873.34
554.502	922.34
554.955	938.94
555.407	928.44
555.86	920.44
556.313	913.54
556.765	907.94
557.218	905.24
557.67	913.04
558.123	896.54
558.576	891.74
559.028	908.54
559.48	912.34
559.933	884.44
560.385	852.74
560.838	818.14
561.29	800.24
561.742	793.34
562.195	781.54
562.647	782.64
563.099	796.34
563.551	786.84
564.004	802.44
564.456	799.04
564.908	773.14
565.36	768.84
565.812	756.44
566.264	745.24
566.716	735.44
567.168	732.94
567.62	735.24
568.072	725.04
568.524	719.34
568.976	713.04
569.428	690.54
569.88	698.44
570.332	692.14
570.784	708.24
571.235	692.74
571.687	711.64
572.139	720.74
572.59	730.24
573.042	727.84
573.494	734.94
573.945	721.44
574.397	706.84
574.849	710.04
575.3	699.74
575.752	701.54
576.203	691.04
576.655	694.64
577.106	688.64
577.557	680.44
578.009	682.54
578.46	680.04
578.912	672.84
579.363	674.14
579.814	678.64
580.265	679.84
580.717	681.64
581.168	678.94
581.619	693.04
582.07	701.54
582.521	693.94
582.972	689.14
583.423	692.74
583.875	699.94
584.326	706.94
584.777	759.44
585.227	845.24
585.678	922.14
586.129	1003.74
586.58	1071.64
587.031	1167.24
587.482	1305.24
587.933	1491.84
588.384	1292.44
588.834	983.14
589.285	823.64
589.736	800.64
590.186	797.64
590.637	782.24
591.088	755.54
591.538	744.94
591.989	750.04
592.439	746.34
592.89	734.64
593.34	727.04
593.791	733.64
594.241	724.44
594.692	730.74
595.142	718.04
595.593	717.94
596.043	720.94
596.493	731.54
596.943	728.74
597.394	734.64
597.844	733.04
598.294	749.94
598.744	773.74
599.195	787.94
599.645	834.24
600.095	869.24
600.545	924.94
600.995	982.94
601.445	1045.24
601.895	1101.04
602.345	1153.44
602.795	1143.34
603.245	1082.44
603.695	1033.74
604.145	973.94
604.594	919.44
605.044	875.84
605.494	819.54
605.944	764.64
606.393	756.14
606.843	738.54
607.293	743.14
607.743	744.34
608.192	755.24
608.642	781.54
609.091	793.54
609.541	786.04
609.99	783.44
610.44	786.14
610.889	737.34
611.339	712.24
611.788	707.04
612.238	707.24
612.687	733.74
613.136	729.24
613.586	746.44
614.035	746.74
614.484	760.24
614.933	771.24
615.383	768.64
615.832	751.14
616.281	735.34
616.73	709.74
617.179	674.24
617.628	661.64
618.077	651.64
618.526	630.74
618.975	630.44
619.424	621.84
619.873	614.64
620.322	629.84
620.771	609.64
621.22	612.04
621.669	604.64
622.118	606.04
622.567	588.64
623.015	590.34
623.464	584.04
623.913	563.14
624.361	562.94
624.81	558.24
625.259	571.44
625.707	568.34
626.156	566.84
626.604	580.44
627.053	571.54
627.501	563.74
627.95	570.74
628.398	593.84
628.847	571.74
629.295	576.74
629.744	579.74
630.192	579.54
630.64	582.94
631.089	580.84
631.537	578.84
631.985	591.04
632.433	604.34
632.881	611.34
633.33	664.64
633.778	642.64
634.226	576.34
634.674	577.24
635.122	583.94
635.57	593.34
636.018	632.04
636.466	581.44
636.914	567.54
637.362	574.84
637.81	582.94
638.258	589.54
638.705	591.64
639.153	621.34
639.601	631.64
640.049	645.74
640.497	690.14
640.944	709.94
641.392	656.84
641.84	627.14
642.287	584.74
642.735	582.14
643.182	569.34
643.63	584.54
644.078	579.04
644.525	596.04
644.973	603.54
645.42	611.04
645.867	623.94
646.315	650.84
646.762	672.14
647.21	706.44
647.657	725.44
648.104	760.24
648.551	787.94
648.999	857.84
649.446	921.74
649.893	1019.84
650.34	1178.34
650.787	1413.54
651.234	1745.14
651.682	2280.34
652.129	3119.04
652.576	4485.24
653.023	6660.54
653.47	9107.34
653.917	11378.14
654.363	13135.44
654.81	14525.34
655.257	13830.74
655.704	9068.84
656.151	5353.74
656.598	3486.54
657.044	2459.54
657.491	1894.54
657.938	1523.24
658.385	1267.14
658.831	1091.64
659.278	984.04
659.724	870.54
660.171	795.94
660.618	728.84
661.064	696.24
661.511	680.04
661.957	669.44
662.404	655.74
662.85	672.64
663.296	633.64
663.743	575.04
664.189	543.54
664.635	538.54
665.082	531.04
665.528	531.24
665.974	524.04
666.42	508.34
666.867	506.34
667.313	492.84
667.759	491.24
668.205	488.34
668.651	492.44
669.097	485.14
669.543	513.14
669.989	472.54
670.435	453.14
670.881	443.74
671.327	454.34
671.773	471.34
672.219	489.24
672.665	544.54
673.11	593.74
673.556	632.04
674.002	675.94
674.448	657.94
674.893	546.14
675.339	479.54
675.785	444.44
676.23	429.44
676.676	399.84
677.122	394.44
677.567	379.54
678.013	366.54
678.458	359.04
678.904	370.14
679.349	349.14
679.794	358.24
680.24	356.84
680.685	347.94
681.131	349.74
681.576	361.94
682.021	360.44
682.466	356.34
682.912	348.94
683.357	359.04
683.802	378.14
684.247	415.44
684.692	460.14
685.137	497.94
685.583	538.54
686.028	567.74
686.473	524.34
686.918	442.14
687.363	418.04
687.807	395.34
688.252	371.14
688.697	355.74
689.142	341.54
689.587	333.34
690.032	332.44
690.477	342.24
690.921	356.24
691.366	381.24
691.811	403.04
692.255	432.24
692.7	459.74
693.145	499.74
693.589	693.74
694.034	1123.64
694.478	1533.54
694.923	1747.24
695.367	2268.84
695.812	1203.64
696.256	501.34
696.701	375.74
697.145	344.84
697.59	337.44
698.034	326.64
698.478	333.94
698.922	324.34
699.367	330.84
699.811	332.04
700.255	349.94
700.699	391.64
701.143	421.54
701.588	475.14
702.032	517.94
702.476	514.14
702.92	488.24
703.364	486.44
703.808	635.44
704.252	1035.54
704.696	1457.24
705.14	1678.34
705.584	2135.54
706.027	1061.54
706.471	524.34
706.915	396.74
707.359	351.74
707.803	328.04
708.246	308.14
708.69	315.14
709.134	312.94
709.577	307.94
710.021	318.54
710.465	310.84
710.908	298.54
711.352	296.64
711.795	317.34
712.239	348.24
712.682	385.64
713.126	424.94
713.569	462.14
714.012	377.74
714.456	327.84
714.899	296.04
715.342	274.44
715.786	261.24
716.229	256.94
716.672	255.74
717.115	249.84
717.558	254.94
718.002	254.64
718.445	269.44
718.888	285.84
719.331	297.74
719.774	305.94
720.217	304.14
720.66	288.04
721.103	268.34
721.546	255.44
721.989	244.94
722.432	231.64
722.874	238.74
723.317	237.14
723.76	229.94
724.203	260.54
724.645	317.64
725.088	445.14
725.531	574.14
725.974	652.74
726.416	548.04
726.859	305.84
727.301	247.54
727.744	232.34
728.187	233.64
728.629	235.34
729.071	242.54
729.514	256.74
729.956	269.04
730.399	287.94
730.841	296.84
731.283	277.94
731.726	266.94
732.168	262.74
732.61	267.44
733.053	282.84
733.495	315.24
733.937	348.04
734.379	402.44
734.821	426.94
735.263	546.94
735.705	832.44
736.148	1562.84
736.59	2575.44
737.032	3064.74
737.474	2489.84
737.916	808.14
738.357	430.64
738.799	324.34
739.241	297.44
739.683	282.64
740.125	290.84
740.567	302.84
741.008	317.64
741.45	311.64
741.892	318.64
742.334	348.54
742.775	350.74
743.217	336.54
743.658	271.64
744.1	254.14
744.542	264.54
744.983	317.54
745.425	346.64
745.866	342.54
746.307	282.74
746.749	283.74
747.19	329.54
747.632	455.34
748.073	870.14
748.514	1872.64
748.956	2860.74
749.397	3564.84
749.838	2953.24
750.279	2982.34
750.72	1493.44
751.162	545.14
751.603	323.04
752.044	250.44
752.485	226.54
752.926	213.24
753.367	198.14
753.808	192.94
754.249	185.04
754.69	190.14
755.131	184.24
755.572	182.54
756.013	181.84
756.453	181.74
756.894	187.34
757.335	198.74
757.776	194.74
758.216	196.44
758.657	197.74
759.098	202.14
759.538	225.44
759.979	265.34
760.42	371.84
760.86	695.94
761.301	1809.44
761.741	4392.44
762.182	6457.34
