Data from 20171114-ORNL-Ar_H_NY_Subt18_08-07-07-686.txt Node
Date: Tue Nov 14 08:07:07 EST 2017
User: Ender
Spectrometer: HR+D1039
Trigger mode: 0
Integration Time (sec): 2.730000E-2
Scans to average: 10
Electric dark correction enabled: true
Nonlinearity correction enabled: false
Boxcar width: 0
XAxis mode: Wavelengths
Number of Pixels in Spectrum: 2048
>>>>>Begin Spectral Data<<<<<
187.836	-8.59
188.309	-8.59
188.782	-8.59
189.255	0.61
189.728	-1.09
190.201	6.41
190.674	0.01
191.147	7.01
191.619	-8.89
192.092	4.31
192.565	3.81
193.038	0.21
193.511	-3.69
193.984	3.51
194.456	-4.19
194.929	1.11
195.402	-0.59
195.874	0.01
196.347	-4.79
196.82	-10.39
197.292	5.31
197.765	-1.29
198.237	-6.69
198.71	1.61
199.182	-0.69
199.655	8.01
200.127	0.81
200.6	-1.79
201.072	-3.19
201.544	-8.19
202.017	-2.89
202.489	3.51
202.961	-0.79
203.433	-7.09
203.906	-7.99
204.378	-7.19
204.85	-1.59
205.322	-13.09
205.794	-1.69
206.266	-7.49
206.739	-9.69
207.211	-3.49
207.683	-6.39
208.155	-7.39
208.627	-4.99
209.099	-0.79
209.57	-9.49
210.042	-6.39
210.514	-7.59
210.986	-5.49
211.458	-7.39
211.93	-5.49
212.402	2.51
212.873	-6.39
213.345	-11.99
213.817	-11.29
214.288	1.71
214.76	-11.99
215.232	-5.39
215.703	0.51
216.175	-1.19
216.646	-6.19
217.118	-1.99
217.589	-1.19
218.061	1.91
218.532	-1.69
219.004	-5.69
219.475	-4.59
219.946	-3.69
220.418	-6.09
220.889	4.81
221.36	2.01
221.832	-4.59
222.303	-6.59
222.774	-1.29
223.245	-7.59
223.717	-9.79
224.188	-4.19
224.659	-11.49
225.13	-9.69
225.601	-2.79
226.072	3.31
226.543	-2.39
227.014	-4.69
227.485	0.11
227.956	-9.09
228.427	-4.19
228.898	-4.79
229.369	6.01
229.839	-3.69
230.31	-10.79
230.781	0.51
231.252	1.01
231.722	-8.79
232.193	-5.19
232.664	-2.59
233.135	-0.39
233.605	-4.89
234.076	-10.29
234.546	4.31
235.017	1.41
235.487	-3.69
235.958	-4.79
236.428	-7.79
236.899	1.21
237.369	-2.29
237.84	1.51
238.31	0.61
238.78	1.61
239.251	-7.09
239.721	0.61
240.191	-5.39
240.662	-1.29
241.132	-2.59
241.602	-10.59
242.072	-6.69
242.542	7.51
243.013	-5.79
243.483	-0.79
243.953	4.41
244.423	-4.19
244.893	-9.49
245.363	1.81
245.833	-5.89
246.303	-6.69
246.773	2.51
247.243	0.41
247.712	-2.59
248.182	2.21
248.652	1.11
249.122	-6.69
249.592	3.01
250.061	1.41
250.531	13.11
251.001	0.31
251.471	3.91
251.94	7.21
252.41	-6.29
252.879	-7.69
253.349	8.71
253.818	9.51
254.288	-0.59
254.757	2.71
255.227	-5.29
255.696	1.21
256.166	0.31
256.635	1.31
257.105	-4.09
257.574	-1.69
258.043	-3.89
258.513	-6.59
258.982	2.61
259.451	-4.89
259.92	-4.99
260.389	-4.99
260.859	9.41
261.328	1.01
261.797	3.11
262.266	-0.39
262.735	4.81
263.204	2.51
263.673	-1.89
264.142	0.61
264.611	-2.39
265.08	-4.89
265.549	-1.29
266.018	0.41
266.487	-1.49
266.955	0.21
267.424	-4.39
267.893	0.81
268.362	-1.89
268.83	2.71
269.299	2.21
269.768	-2.59
270.236	3.11
270.705	0.51
271.174	2.41
271.642	0.91
272.111	3.21
272.579	-0.99
273.048	1.71
273.516	2.81
273.985	2.71
274.453	3.81
274.922	16.61
275.39	8.51
275.858	-1.59
276.327	3.41
276.795	10.01
277.263	6.61
277.731	11.71
278.2	5.81
278.668	1.91
279.136	5.31
279.604	-2.79
280.072	2.01
280.54	0.01
281.008	8.61
281.477	7.81
281.945	1.31
282.413	4.71
282.881	8.61
283.348	-0.09
283.816	6.11
284.284	15.71
284.752	13.41
285.22	5.11
285.688	5.71
286.156	8.31
286.623	7.11
287.091	6.31
287.559	5.21
288.026	2.61
288.494	13.31
288.962	6.61
289.429	6.81
289.897	9.41
290.364	10.91
290.832	10.11
291.3	8.41
291.767	10.81
292.234	12.91
292.702	12.41
293.169	13.61
293.637	11.51
294.104	10.61
294.571	3.31
295.039	4.81
295.506	7.31
295.973	7.81
296.44	6.41
296.908	8.21
297.375	13.91
297.842	11.51
298.309	8.51
298.776	4.21
299.243	6.21
299.71	5.31
300.177	17.41
300.644	17.21
301.111	15.31
301.578	13.11
302.045	10.21
302.512	16.41
302.979	18.01
303.446	20.21
303.913	14.41
304.379	14.41
304.846	23.21
305.313	14.91
305.78	19.51
306.246	19.91
306.713	15.41
307.18	21.31
307.646	17.61
308.113	21.01
308.579	15.31
309.046	25.91
309.512	19.01
309.979	16.81
310.445	18.71
310.912	22.41
311.378	27.91
311.845	23.11
312.311	22.31
312.777	29.01
313.244	21.91
313.71	32.51
314.176	25.81
314.642	22.91
315.109	18.01
315.575	24.81
316.041	28.51
316.507	17.21
316.973	32.41
317.439	22.51
317.905	24.11
318.371	29.91
318.837	35.41
319.303	24.01
319.769	24.91
320.235	26.51
320.701	30.31
321.167	29.11
321.633	24.41
322.099	31.31
322.564	36.51
323.03	26.81
323.496	31.51
323.962	31.11
324.427	26.91
324.893	36.11
325.359	29.71
325.824	25.91
326.29	32.81
326.755	28.31
327.221	32.31
327.686	25.61
328.152	42.71
328.617	36.51
329.083	35.41
329.548	42.91
330.014	38.11
330.479	31.01
330.944	34.01
331.41	39.71
331.875	38.31
332.34	38.51
332.805	36.81
333.271	38.11
333.736	24.51
334.201	39.61
334.666	42.01
335.131	43.51
335.596	37.61
336.061	36.51
336.526	36.21
336.991	36.01
337.456	48.61
337.921	38.01
338.386	34.31
338.851	38.51
339.316	42.11
339.781	44.11
340.246	46.31
340.711	42.41
341.175	50.41
341.64	33.01
342.105	50.21
342.569	44.51
343.034	50.51
343.499	47.11
343.963	46.31
344.428	55.61
344.893	59.41
345.357	49.91
345.822	52.21
346.286	55.71
346.751	59.01
347.215	62.71
347.679	60.01
348.144	76.51
348.608	66.41
349.073	60.71
349.537	64.01
350.001	65.51
350.465	74.61
350.93	67.71
351.394	71.81
351.858	62.21
352.322	75.11
352.786	70.81
353.25	82.61
353.715	92.91
354.179	79.31
354.643	101.01
355.107	102.11
355.571	84.51
356.035	82.21
356.498	95.11
356.962	95.71
357.426	106.91
357.89	94.31
358.354	73.51
358.818	71.41
359.281	69.71
359.745	71.01
360.209	63.21
360.673	68.91
361.136	63.71
361.6	76.51
362.064	70.91
362.527	73.61
362.991	76.71
363.454	73.81
363.918	68.21
364.381	74.91
364.845	79.21
365.308	80.51
365.772	75.91
366.235	78.31
366.698	68.41
367.162	70.11
367.625	74.21
368.088	73.51
368.552	82.21
369.015	79.81
369.478	87.41
369.941	88.51
370.404	78.91
370.867	88.81
371.331	100.51
371.794	100.71
372.257	88.91
372.72	95.31
373.183	86.91
373.646	81.01
374.109	83.71
374.572	84.31
375.035	92.41
375.497	88.51
375.96	86.61
376.423	91.41
376.886	105.71
377.349	98.11
377.811	90.91
378.274	101.71
378.737	96.31
379.199	99.11
379.662	104.51
380.125	101.41
380.587	97.71
381.05	99.91
381.512	107.61
381.975	117.21
382.437	110.81
382.9	107.01
383.362	111.41
383.825	118.81
384.287	111.01
384.75	102.41
385.212	114.31
385.674	122.41
386.136	121.81
386.599	118.11
387.061	112.21
387.523	110.81
387.985	121.51
388.447	131.61
388.91	120.11
389.372	120.41
389.834	126.31
390.296	120.21
390.758	120.61
391.22	129.91
391.682	137.31
392.144	144.81
392.606	138.51
393.068	141.11
393.529	144.71
393.991	130.31
394.453	123.51
394.915	130.11
395.377	130.01
395.838	130.41
396.3	130.91
396.762	142.51
397.224	126.91
397.685	128.61
398.147	128.81
398.608	128.71
399.07	130.01
399.531	130.11
399.993	139.91
400.454	137.31
400.916	144.51
401.377	139.91
401.839	146.81
402.3	148.61
402.762	169.51
403.223	179.71
403.684	168.31
404.145	154.71
404.607	152.51
405.068	152.71
405.529	160.21
405.99	170.41
406.451	163.11
406.913	166.31
407.374	160.01
407.835	166.81
408.296	161.11
408.757	164.91
409.218	181.91
409.679	174.61
410.14	171.31
410.601	171.51
411.062	180.31
411.522	167.61
411.983	171.71
412.444	173.11
412.905	178.81
413.366	180.51
413.826	191.81
414.287	215.81
414.748	264.91
415.208	257.71
415.669	213.71
416.13	209.71
416.59	205.01
417.051	215.11
417.511	229.21
417.972	238.61
418.432	258.11
418.893	295.91
419.353	249.11
419.814	198.61
420.274	186.31
420.734	177.61
421.195	192.11
421.655	186.61
422.115	196.91
422.576	196.11
423.036	202.11
423.496	212.41
423.956	218.81
424.416	234.01
424.876	271.01
425.336	266.21
425.797	268.31
426.257	251.01
426.717	237.61
427.177	232.11
427.637	224.71
428.097	230.71
428.556	240.01
429.016	268.61
429.476	255.31
429.936	266.01
430.396	277.01
430.856	283.71
431.315	310.41
431.775	338.61
432.235	370.71
432.694	335.91
433.154	346.51
433.614	374.61
434.073	325.81
434.533	276.81
434.993	270.11
435.452	276.41
435.912	283.11
436.371	280.81
436.83	273.81
437.29	259.51
437.749	246.21
438.209	248.51
438.668	271.81
439.127	286.51
439.587	262.81
440.046	252.51
440.505	260.61
440.964	272.91
441.424	317.91
441.883	313.21
442.342	262.91
442.801	232.31
443.26	228.41
443.719	227.81
444.178	231.01
444.637	217.01
445.096	219.51
445.555	223.91
446.014	237.41
446.473	233.81
446.932	234.91
447.391	232.51
447.849	239.01
448.308	227.01
448.767	224.31
449.226	242.21
449.685	239.41
450.143	266.51
450.602	248.71
451.061	237.01
451.519	236.71
451.978	231.11
452.436	238.71
452.895	253.91
453.353	254.51
453.812	244.81
454.27	247.41
454.729	249.21
455.187	247.51
455.646	256.61
456.104	252.01
456.562	263.31
457.021	277.21
457.479	262.41
457.937	272.71
458.395	269.31
458.854	257.51
459.312	262.41
459.77	276.81
460.228	261.01
460.686	256.01
461.144	256.81
461.602	252.81
462.06	256.41
462.518	265.21
462.976	273.71
463.434	268.61
463.892	274.11
464.35	289.01
464.808	299.51
465.266	283.61
465.724	287.31
466.181	283.91
466.639	284.81
467.097	297.01
467.555	310.71
468.012	321.51
468.47	319.41
468.928	339.81
469.385	353.31
469.843	361.51
470.3	355.91
470.758	369.51
471.215	393.71
471.673	415.61
472.13	416.71
472.588	429.51
473.045	397.01
473.503	397.11
473.96	406.61
474.417	417.61
474.875	439.71
475.332	492.81
475.789	479.01
476.246	485.61
476.704	503.11
477.161	516.81
477.618	534.51
478.075	566.91
478.532	620.31
478.989	701.31
479.446	796.31
479.903	768.01
480.36	801.61
480.817	846.51
481.274	945.41
481.731	1035.91
482.188	1118.61
482.645	1235.61
483.102	1331.31
483.558	1431.21
484.015	1475.91
484.472	1452.91
484.929	1413.01
485.385	1376.11
485.842	1348.31
486.299	1292.41
486.755	1259.91
487.212	1077.21
487.668	915.41
488.125	848.21
488.582	779.61
489.038	756.81
489.494	718.61
489.951	704.51
490.407	683.71
490.864	664.61
491.32	660.71
491.776	663.81
492.233	665.41
492.689	638.91
493.145	619.11
493.602	619.71
494.058	640.11
494.514	645.41
494.97	660.31
495.426	671.01
495.882	637.51
496.338	635.01
496.794	648.71
497.251	637.91
497.707	650.81
498.163	657.21
498.618	660.21
499.074	677.61
499.53	696.51
499.986	700.21
500.442	661.91
500.898	645.91
501.354	642.61
501.809	643.61
502.265	637.01
502.721	644.11
503.177	669.11
503.632	667.31
504.088	666.01
504.543	687.51
504.999	711.11
505.455	675.31
505.91	672.11
506.366	663.51
506.821	664.01
507.277	656.51
507.732	662.61
508.187	651.01
508.643	664.51
509.098	667.61
509.553	685.51
510.009	702.01
510.464	709.01
510.919	721.61
511.375	726.71
511.83	745.61
512.285	766.11
512.74	788.61
513.195	825.31
513.65	797.01
514.105	793.91
514.56	805.31
515.015	816.21
515.47	840.81
515.925	821.61
516.38	812.91
516.835	826.81
517.29	817.81
517.745	809.71
518.2	806.61
518.655	786.41
519.109	777.91
519.564	776.21
520.019	763.31
520.474	759.71
520.928	761.51
521.383	745.71
521.838	742.51
522.292	748.91
522.747	752.11
523.201	736.51
523.656	737.31
524.11	725.01
524.565	728.61
525.019	721.41
525.474	735.81
525.928	730.41
526.382	730.01
526.837	727.81
527.291	749.31
527.745	728.71
528.2	732.21
528.654	734.71
529.108	723.81
529.562	724.21
530.016	721.31
530.47	722.11
530.925	719.01
531.379	722.01
531.833	724.81
532.287	744.01
532.741	732.01
533.195	736.31
533.649	744.51
534.103	755.21
534.556	744.31
535.01	740.91
535.464	738.91
535.918	753.21
536.372	744.81
536.826	739.31
537.279	729.91
537.733	746.91
538.187	749.01
538.64	748.91
539.094	751.81
539.548	764.11
540.001	761.11
540.455	760.31
540.908	759.81
541.362	771.21
541.815	779.61
542.269	792.71
542.722	796.71
543.175	809.61
543.629	805.11
544.082	818.51
544.536	821.31
544.989	823.01
545.442	821.51
545.895	830.91
546.349	825.21
546.802	834.71
547.255	836.71
547.708	852.91
548.161	863.61
548.614	863.61
549.067	863.51
549.52	859.71
549.973	848.81
550.426	840.61
550.879	835.41
551.332	844.41
551.785	845.11
552.238	849.61
552.691	866.41
553.144	883.51
553.596	894.51
554.049	914.61
554.502	937.91
554.955	949.81
555.407	947.41
555.86	950.71
556.313	928.11
556.765	927.71
557.218	931.51
557.67	928.21
558.123	908.61
558.576	908.51
559.028	923.01
559.48	926.81
559.933	914.31
560.385	878.91
560.838	858.71
561.29	824.71
561.742	819.91
562.195	807.21
562.647	801.71
563.099	815.11
563.551	806.91
564.004	816.41
564.456	803.71
564.908	793.81
565.36	776.51
565.812	758.11
566.264	752.71
566.716	752.71
567.168	734.51
567.62	740.81
568.072	735.91
568.524	727.91
568.976	730.51
569.428	715.31
569.88	708.21
570.332	716.61
570.784	717.91
571.235	720.01
571.687	728.01
572.139	733.11
572.59	746.31
573.042	750.61
573.494	740.81
573.945	735.91
574.397	716.81
574.849	717.41
575.3	724.21
575.752	710.21
576.203	713.61
576.655	708.71
577.106	706.91
577.557	706.61
578.009	709.01
578.46	691.91
578.912	697.51
579.363	697.81
579.814	692.41
580.265	694.91
580.717	695.41
581.168	700.11
581.619	695.11
582.07	708.81
582.521	702.51
582.972	701.41
583.423	702.61
583.875	699.41
584.326	709.01
584.777	731.11
585.227	745.31
585.678	754.01
586.129	774.21
586.58	799.41
587.031	817.41
587.482	839.21
587.933	863.61
588.384	850.71
588.834	817.01
589.285	798.31
589.736	811.51
590.186	804.61
590.637	792.71
591.088	779.41
591.538	769.81
591.989	763.21
592.439	750.01
592.89	749.81
593.34	749.01
593.791	736.61
594.241	733.01
594.692	726.41
595.142	718.61
595.593	723.81
596.043	724.51
596.493	739.81
596.943	737.61
597.394	748.71
597.844	753.51
598.294	769.41
598.744	790.31
599.195	809.61
599.645	857.31
600.095	898.21
600.545	953.21
600.995	1004.41
601.445	1069.61
601.895	1146.21
602.345	1188.71
602.795	1159.61
603.245	1111.11
603.695	1054.21
604.145	994.01
604.594	950.81
605.044	892.91
605.494	845.81
605.944	790.61
606.393	772.31
606.843	762.71
607.293	752.81
607.743	755.01
608.192	767.61
608.642	778.21
609.091	792.71
609.541	792.11
609.99	798.71
610.44	791.21
610.889	745.21
611.339	717.71
611.788	707.61
612.238	721.91
612.687	721.41
613.136	718.31
613.586	732.81
614.035	726.31
614.484	735.41
614.933	732.51
615.383	720.21
615.832	728.01
616.281	726.51
616.73	689.01
617.179	675.51
617.628	659.01
618.077	653.31
618.526	642.01
618.975	635.91
619.424	633.51
619.873	638.91
620.322	636.21
620.771	625.41
621.22	621.31
621.669	624.51
622.118	606.41
622.567	591.01
623.015	588.61
623.464	585.71
623.913	585.41
624.361	582.51
624.81	575.01
625.259	568.41
625.707	571.11
626.156	572.81
626.604	595.21
627.053	583.61
627.501	580.31
627.95	586.21
628.398	605.41
628.847	598.01
629.295	588.71
629.744	593.21
630.192	585.71
630.64	583.81
631.089	566.41
631.537	561.71
631.985	554.01
632.433	549.21
632.881	542.61
633.33	552.31
633.778	531.71
634.226	546.11
634.674	556.11
635.122	559.61
635.57	570.71
636.018	586.11
636.466	587.21
636.914	573.31
637.362	593.51
637.81	607.41
638.258	603.31
638.705	613.21
639.153	630.61
639.601	635.91
640.049	664.91
640.497	700.81
640.944	713.01
641.392	670.71
641.84	635.01
642.287	608.01
642.735	583.91
643.182	582.11
643.63	579.71
644.078	584.21
644.525	584.21
644.973	594.61
645.42	610.61
645.867	636.31
646.315	649.21
646.762	670.91
647.21	694.61
647.657	726.01
648.104	751.91
648.551	774.41
648.999	832.51
649.446	916.71
649.893	991.81
650.34	1126.01
650.787	1346.01
651.234	1661.01
651.682	2135.21
652.129	2866.51
652.576	4094.71
653.023	5983.51
653.47	8096.31
653.917	10070.41
654.363	11582.81
654.81	12767.01
655.257	12099.61
655.704	8008.81
656.151	4827.41
656.598	3169.81
657.044	2280.91
657.491	1772.01
657.938	1430.91
658.385	1214.51
658.831	1051.61
659.278	950.81
659.724	845.01
660.171	790.41
660.618	725.21
661.064	687.81
661.511	679.01
661.957	668.91
662.404	653.01
662.85	663.41
663.296	635.41
663.743	572.01
664.189	551.61
664.635	546.21
665.082	544.71
665.528	543.81
665.974	531.01
666.42	533.11
666.867	509.71
667.313	500.01
667.759	477.91
668.205	467.21
668.651	459.71
669.097	451.81
669.543	455.81
669.989	459.01
670.435	467.31
670.881	457.21
671.327	469.81
671.773	490.01
672.219	508.81
672.665	560.91
673.11	610.51
673.556	644.41
674.002	697.51
674.448	680.21
674.893	573.31
675.339	504.41
675.785	455.41
676.23	435.51
676.676	415.91
677.122	401.51
677.567	383.31
678.013	378.41
678.458	372.51
678.904	371.71
679.349	363.81
679.794	360.61
680.24	356.91
680.685	365.71
681.131	361.71
681.576	360.01
682.021	376.51
682.466	365.91
682.912	371.41
683.357	371.31
683.802	402.31
684.247	434.21
684.692	471.81
685.137	515.91
685.583	569.61
686.028	575.61
686.473	538.41
686.918	469.51
687.363	439.41
687.807	408.31
688.252	375.61
688.697	367.51
689.142	350.01
689.587	346.21
690.032	342.01
690.477	358.01
690.921	364.91
691.366	403.21
691.811	418.91
692.255	444.61
692.7	474.71
693.145	528.51
693.589	729.71
694.034	1196.21
694.478	1613.91
694.923	1823.51
695.367	2383.01
695.812	1256.11
696.256	518.51
696.701	389.41
697.145	359.81
697.59	340.31
698.034	332.01
698.478	338.01
698.922	327.51
699.367	334.61
699.811	346.01
700.255	368.81
700.699	393.81
701.143	438.01
701.588	488.91
702.032	538.61
702.476	527.11
702.92	508.71
703.364	519.91
703.808	678.61
704.252	1097.21
704.696	1534.91
705.14	1758.51
705.584	2228.41
706.027	1110.11
706.471	548.71
706.915	417.31
707.359	366.01
707.803	333.51
708.246	320.21
708.69	318.11
709.134	331.01
709.577	327.81
710.021	335.81
710.465	321.31
710.908	311.91
711.352	309.81
711.795	327.81
712.239	360.61
712.682	400.91
713.126	427.11
713.569	471.91
714.012	373.21
714.456	320.01
714.899	298.31
715.342	281.11
715.786	275.01
716.229	267.71
716.672	264.31
717.115	253.01
717.558	251.11
718.002	258.01
718.445	275.51
718.888	297.31
719.331	303.31
719.774	320.01
720.217	312.31
720.66	295.11
721.103	278.31
721.546	270.31
721.989	256.41
722.432	245.41
722.874	249.31
723.317	246.61
723.76	240.81
724.203	269.61
724.645	328.51
725.088	463.91
725.531	598.51
725.974	680.91
726.416	570.81
726.859	319.91
727.301	256.81
727.744	250.91
728.187	240.51
728.629	248.61
729.071	249.61
729.514	270.71
729.956	282.41
730.399	296.91
730.841	303.01
731.283	289.41
731.726	277.51
732.168	274.31
732.61	279.01
733.053	294.91
733.495	333.71
733.937	364.11
734.379	417.31
734.821	450.41
735.263	576.51
735.705	889.91
736.148	1678.81
736.59	2725.31
737.032	3222.91
737.474	2605.81
737.916	859.91
738.357	455.21
738.799	347.41
739.241	315.51
739.683	301.11
740.125	308.81
740.567	304.41
741.008	327.01
741.45	327.61
741.892	327.21
742.334	364.81
742.775	383.71
743.217	364.91
743.658	281.21
744.1	269.41
744.542	277.31
744.983	326.71
745.425	361.81
745.866	362.81
746.307	292.41
746.749	284.71
747.19	335.31
747.632	475.51
748.073	929.11
748.514	1978.81
748.956	2996.71
749.397	3785.11
749.838	3140.71
750.279	3116.51
750.72	1573.81
751.162	571.91
751.603	334.31
752.044	269.61
752.485	229.81
752.926	218.71
753.367	211.91
753.808	199.51
754.249	199.91
754.69	199.51
755.131	191.21
755.572	189.01
756.013	189.51
756.453	188.61
756.894	196.41
757.335	197.01
757.776	206.81
758.216	201.71
758.657	209.81
759.098	212.91
759.538	232.21
759.979	284.61
760.42	397.21
760.86	748.21
761.301	1966.01
761.741	4703.71
762.182	6773.91
762.622	4772.91
763.063	1380.91
763.503	564.81
763.943	341.41
