Data from 20171114-ORNL-Ar_H_NY_Subt18_08-06-43-937.txt Node
Date: Tue Nov 14 08:06:43 EST 2017
User: Ender
Spectrometer: HR+D1039
Trigger mode: 0
Integration Time (sec): 2.730000E-2
Scans to average: 10
Electric dark correction enabled: true
Nonlinearity correction enabled: false
Boxcar width: 0
XAxis mode: Wavelengths
Number of Pixels in Spectrum: 2048
>>>>>Begin Spectral Data<<<<<
187.836	-4.35
188.309	-4.35
188.782	-4.35
189.255	-2.25
189.728	-4.05
190.201	8.05
190.674	2.05
191.147	7.15
191.619	-8.45
192.092	2.25
192.565	1.25
193.038	3.25
193.511	-0.35
193.984	-3.55
194.456	-0.95
194.929	2.95
195.402	-2.55
195.874	-0.45
196.347	0.05
196.82	-10.05
197.292	8.15
197.765	-0.55
198.237	-5.85
198.71	4.75
199.182	-1.75
199.655	3.05
200.127	0.75
200.6	-2.35
201.072	1.55
201.544	-3.55
202.017	-3.45
202.489	3.15
202.961	1.95
203.433	-3.45
203.906	-3.45
204.378	-2.75
204.85	-5.25
205.322	-10.35
205.794	-0.45
206.266	-2.15
206.739	-6.05
207.211	1.15
207.683	-7.85
208.155	-7.85
208.627	-6.35
209.099	-1.55
209.57	-6.85
210.042	-4.45
210.514	-5.55
210.986	-6.45
211.458	-9.75
211.93	-3.45
212.402	4.45
212.873	-2.85
213.345	-6.95
213.817	-6.35
214.288	-4.05
214.76	-11.05
215.232	-1.55
215.703	1.35
216.175	-3.85
216.646	-7.85
217.118	-9.75
217.589	-0.25
218.061	-2.05
218.532	-6.25
219.004	-0.55
219.475	-4.85
219.946	0.45
220.418	-2.35
220.889	0.45
221.36	-1.75
221.832	-8.15
222.303	-10.85
222.774	0.15
223.245	-4.65
223.717	-5.15
224.188	-3.75
224.659	-3.45
225.13	-3.25
225.601	-4.75
226.072	0.35
226.543	-2.65
227.014	-0.65
227.485	0.75
227.956	-4.35
228.427	-5.35
228.898	-3.65
229.369	4.55
229.839	-2.75
230.31	-4.95
230.781	4.05
231.252	1.55
231.722	-3.15
232.193	-3.65
232.664	-4.95
233.135	-3.95
233.605	-4.45
234.076	-6.35
234.546	-3.15
235.017	4.55
235.487	-2.85
235.958	-0.75
236.428	0.15
236.899	0.75
237.369	0.45
237.84	-4.25
238.31	-1.55
238.78	2.05
239.251	-2.25
239.721	-2.15
240.191	-4.75
240.662	-3.05
241.132	3.85
241.602	-2.25
242.072	1.15
242.542	3.55
243.013	-4.35
243.483	3.55
243.953	4.55
244.423	-8.75
244.893	-2.25
245.363	-1.15
245.833	1.45
246.303	-1.55
246.773	0.55
247.243	0.15
247.712	3.45
248.182	7.35
248.652	6.45
249.122	-1.05
249.592	3.15
250.061	1.65
250.531	10.55
251.001	-3.55
251.471	6.25
251.94	11.55
252.41	1.25
252.879	-4.55
253.349	5.75
253.818	8.25
254.288	2.25
254.757	2.05
255.227	-4.25
255.696	2.05
256.166	5.05
256.635	1.85
257.105	8.75
257.574	-1.55
258.043	1.85
258.513	-6.65
258.982	0.55
259.451	-3.25
259.92	5.85
260.389	4.55
260.859	10.75
261.328	3.95
261.797	-1.25
262.266	-0.35
262.735	10.75
263.204	4.95
263.673	-3.55
264.142	7.45
264.611	-3.85
265.08	-3.15
265.549	-5.35
266.018	3.95
266.487	-3.75
266.955	-2.15
267.424	0.25
267.893	3.65
268.362	0.55
268.83	5.25
269.299	12.35
269.768	2.25
270.236	2.45
270.705	0.45
271.174	4.05
271.642	3.75
272.111	6.15
272.579	6.85
273.048	10.05
273.516	6.55
273.985	6.25
274.453	14.05
274.922	9.95
275.39	7.45
275.858	-1.05
276.327	10.15
276.795	15.55
277.263	2.35
277.731	14.75
278.2	9.95
278.668	13.15
279.136	8.45
279.604	8.25
280.072	10.55
280.54	12.85
281.008	13.15
281.477	18.45
281.945	15.85
282.413	5.75
282.881	8.55
283.348	6.55
283.816	14.65
284.284	14.65
284.752	16.25
285.22	11.95
285.688	10.85
286.156	18.65
286.623	17.25
287.091	8.75
287.559	13.45
288.026	19.95
288.494	19.65
288.962	2.85
289.429	6.65
289.897	14.95
290.364	13.75
290.832	17.15
291.3	9.85
291.767	9.65
292.234	18.85
292.702	9.85
293.169	12.95
293.637	22.15
294.104	14.55
294.571	12.15
295.039	10.65
295.506	11.25
295.973	19.95
296.44	15.65
296.908	13.45
297.375	16.15
297.842	16.45
298.309	14.45
298.776	15.75
299.243	17.95
299.71	15.85
300.177	22.45
300.644	19.05
301.111	18.95
301.578	21.35
302.045	21.25
302.512	20.25
302.979	25.65
303.446	26.15
303.913	19.65
304.379	15.45
304.846	23.95
305.313	23.65
305.78	19.75
306.246	24.65
306.713	26.45
307.18	20.35
307.646	23.05
308.113	21.55
308.579	27.45
309.046	23.95
309.512	24.85
309.979	18.25
310.445	24.95
310.912	30.05
311.378	31.85
311.845	27.25
312.311	30.35
312.777	29.35
313.244	31.75
313.71	39.65
314.176	31.35
314.642	26.05
315.109	28.15
315.575	29.65
316.041	37.95
316.507	31.95
316.973	31.05
317.439	32.95
317.905	31.15
318.371	38.35
318.837	28.75
319.303	30.45
319.769	40.85
320.235	28.35
320.701	36.95
321.167	41.35
321.633	29.65
322.099	36.95
322.564	41.05
323.03	31.35
323.496	40.65
323.962	43.75
324.427	36.65
324.893	43.05
325.359	40.55
325.824	33.25
326.29	33.35
326.755	40.25
327.221	44.85
327.686	40.75
328.152	46.45
328.617	37.65
329.083	46.05
329.548	44.85
330.014	47.15
330.479	40.45
330.944	43.25
331.41	34.15
331.875	42.65
332.34	40.55
332.805	43.75
333.271	41.65
333.736	42.45
334.201	49.45
334.666	45.05
335.131	52.95
335.596	42.05
336.061	43.85
336.526	43.95
336.991	46.75
337.456	56.75
337.921	49.85
338.386	45.85
338.851	41.45
339.316	45.65
339.781	46.55
340.246	52.35
340.711	50.25
341.175	56.35
341.64	46.05
342.105	45.55
342.569	55.45
343.034	63.45
343.499	55.15
343.963	56.75
344.428	62.35
344.893	58.95
345.357	62.75
345.822	61.05
346.286	63.55
346.751	74.65
347.215	65.15
347.679	77.65
348.144	98.25
348.608	87.45
349.073	68.85
349.537	74.45
350.001	86.05
350.465	84.45
350.93	78.85
351.394	89.25
351.858	77.15
352.322	88.85
352.786	91.95
353.25	95.95
353.715	110.65
354.179	95.75
354.643	118.45
355.107	121.95
355.571	100.15
356.035	101.15
356.498	114.55
356.962	115.75
357.426	122.95
357.89	115.15
358.354	94.15
358.818	84.95
359.281	81.15
359.745	71.85
360.209	76.25
360.673	76.65
361.136	82.05
361.6	87.45
362.064	84.05
362.527	86.45
362.991	96.05
363.454	84.65
363.918	76.75
364.381	81.15
364.845	84.55
365.308	91.25
365.772	88.05
366.235	86.45
366.698	86.25
367.162	87.05
367.625	90.15
368.088	94.85
368.552	98.65
369.015	90.35
369.478	101.25
369.941	95.45
370.404	92.35
370.867	102.85
371.331	94.65
371.794	107.15
372.257	100.85
372.72	107.35
373.183	108.05
373.646	102.45
374.109	103.85
374.572	103.95
375.035	106.95
375.497	103.95
375.96	109.75
376.423	100.45
376.886	117.05
377.349	112.25
377.811	107.15
378.274	111.25
378.737	105.45
379.199	104.95
379.662	111.25
380.125	112.45
380.587	107.05
381.05	110.85
381.512	117.55
381.975	131.25
382.437	118.85
382.9	124.15
383.362	125.45
383.825	135.15
384.287	126.45
384.75	121.65
385.212	131.65
385.674	134.15
386.136	139.55
386.599	120.85
387.061	125.15
387.523	129.45
387.985	132.55
388.447	138.45
388.91	127.05
389.372	133.35
389.834	134.85
390.296	124.75
390.758	135.25
391.22	142.45
391.682	152.85
392.144	160.25
392.606	153.75
393.068	146.15
393.529	153.95
393.991	142.35
394.453	138.45
394.915	127.95
395.377	145.35
395.838	143.85
396.3	144.75
396.762	149.15
397.224	137.65
397.685	137.05
398.147	134.95
398.608	137.75
399.07	129.65
399.531	134.25
399.993	147.35
400.454	164.55
400.916	156.75
401.377	155.45
401.839	153.95
402.3	151.35
402.762	172.25
403.223	183.75
403.684	176.65
404.145	169.55
404.607	169.75
405.068	171.85
405.529	176.35
405.99	195.55
406.451	179.85
406.913	180.15
407.374	174.45
407.835	169.05
408.296	173.35
408.757	187.25
409.218	199.55
409.679	181.25
410.14	180.25
410.601	185.75
411.062	186.25
411.522	183.25
411.983	184.35
412.444	174.35
412.905	192.75
413.366	187.65
413.826	203.15
414.287	231.15
414.748	277.05
415.208	274.45
415.669	219.95
416.13	215.45
416.59	217.55
417.051	224.05
417.511	234.65
417.972	252.55
418.432	263.35
418.893	303.45
419.353	263.75
419.814	210.25
420.274	200.85
420.734	194.65
421.195	211.75
421.655	196.15
422.115	209.05
422.576	204.35
423.036	207.35
423.496	216.65
423.956	228.45
424.416	252.45
424.876	283.85
425.336	278.75
425.797	274.85
426.257	270.95
426.717	256.75
427.177	245.75
427.637	231.75
428.097	246.35
428.556	258.25
429.016	276.15
429.476	270.55
429.936	288.25
430.396	280.65
430.856	297.75
431.315	323.35
431.775	363.95
432.235	390.55
432.694	363.75
433.154	375.85
433.614	400.25
434.073	348.45
434.533	299.55
434.993	281.35
435.452	295.95
435.912	309.05
436.371	299.15
436.83	295.05
437.29	264.75
437.749	252.95
438.209	256.95
438.668	289.35
439.127	299.15
439.587	271.45
440.046	260.45
440.505	273.65
440.964	299.95
441.424	348.55
441.883	323.45
442.342	267.55
442.801	236.85
443.26	243.65
443.719	237.15
444.178	236.35
444.637	222.95
445.096	238.05
445.555	233.85
446.014	244.05
446.473	240.25
446.932	250.45
447.391	242.55
447.849	245.65
448.308	240.75
448.767	245.95
449.226	255.95
449.685	253.55
450.143	260.65
450.602	251.85
451.061	245.55
451.519	250.05
451.978	253.85
452.436	252.25
452.895	255.65
453.353	273.15
453.812	257.15
454.27	251.95
454.729	253.05
455.187	261.55
455.646	257.65
456.104	264.05
456.562	276.15
457.021	280.45
457.479	276.25
457.937	293.05
458.395	276.25
458.854	268.35
459.312	271.75
459.77	287.95
460.228	276.55
460.686	260.75
461.144	266.15
461.602	265.15
462.06	261.95
462.518	270.55
462.976	274.75
463.434	287.95
463.892	288.35
464.35	296.15
464.808	309.25
465.266	293.05
465.724	286.95
466.181	289.95
466.639	293.55
467.097	315.75
467.555	325.75
468.012	326.25
468.47	329.85
468.928	358.75
469.385	366.45
469.843	371.25
470.3	368.65
470.758	383.35
471.215	414.35
471.673	438.15
472.13	439.85
472.588	459.65
473.045	399.65
473.503	407.75
473.96	428.85
474.417	425.75
474.875	458.85
475.332	507.75
475.789	484.65
476.246	489.55
476.704	507.45
477.161	533.65
477.618	552.45
478.075	589.95
478.532	644.85
478.989	719.85
479.446	829.65
479.903	788.45
480.36	825.05
480.817	871.55
481.274	969.55
481.731	1053.25
482.188	1139.55
482.645	1253.75
483.102	1362.55
483.558	1478.85
484.015	1521.75
484.472	1489.95
484.929	1463.75
485.385	1410.55
485.842	1377.05
486.299	1334.85
486.755	1286.85
487.212	1091.65
487.668	945.05
488.125	877.15
488.582	803.45
489.038	775.15
489.494	737.95
489.951	722.95
490.407	701.85
490.864	682.15
491.32	683.25
491.776	680.85
492.233	681.05
492.689	651.65
493.145	644.75
493.602	636.65
494.058	653.15
494.514	650.85
494.97	667.45
495.426	678.75
495.882	650.15
496.338	653.65
496.794	666.45
497.251	648.15
497.707	665.95
498.163	672.45
498.618	685.45
499.074	676.85
499.53	713.05
499.986	711.05
500.442	682.95
500.898	654.85
501.354	646.35
501.809	650.25
502.265	662.35
502.721	672.45
503.177	671.45
503.632	683.85
504.088	680.95
504.543	714.15
504.999	739.95
505.455	701.65
505.91	665.35
506.366	678.75
506.821	665.05
507.277	671.85
507.732	671.45
508.187	670.95
508.643	679.55
509.098	684.25
509.553	700.05
510.009	714.15
510.464	723.65
510.919	726.65
511.375	741.45
511.83	758.35
512.285	770.75
512.74	802.65
513.195	827.25
513.65	807.15
514.105	812.45
514.56	811.85
515.015	825.45
515.47	861.55
515.925	829.55
516.38	834.25
516.835	842.55
517.29	833.15
517.745	828.45
518.2	818.25
518.655	799.55
519.109	789.35
519.564	792.95
520.019	777.85
520.474	771.95
520.928	769.75
521.383	756.05
521.838	744.45
522.292	757.45
522.747	752.45
523.201	748.65
523.656	742.75
524.11	749.25
524.565	734.05
525.019	738.45
525.474	741.15
525.928	747.95
526.382	733.05
526.837	730.75
527.291	747.75
527.745	737.35
528.2	733.75
528.654	735.15
529.108	733.45
529.562	737.35
530.016	721.95
530.47	722.55
530.925	725.25
531.379	732.35
531.833	740.45
532.287	736.15
532.741	743.95
533.195	742.15
533.649	750.75
534.103	763.85
534.556	750.05
535.01	747.25
535.464	736.95
535.918	756.75
536.372	756.05
536.826	769.15
537.279	749.05
537.733	749.55
538.187	756.05
538.64	760.95
539.094	776.55
539.548	768.35
540.001	776.35
540.455	769.65
540.908	778.25
541.362	788.15
541.815	782.25
542.269	809.25
542.722	798.75
543.175	813.55
543.629	819.35
544.082	830.65
544.536	839.75
544.989	834.35
545.442	842.75
545.895	844.25
546.349	841.35
546.802	841.95
547.255	850.85
547.708	853.95
548.161	864.25
548.614	872.55
549.067	889.15
549.52	868.15
549.973	859.25
550.426	858.15
550.879	853.95
551.332	848.15
551.785	865.45
552.238	857.15
552.691	881.55
553.144	883.05
553.596	900.65
554.049	916.65
554.502	950.55
554.955	962.15
555.407	961.45
555.86	954.35
556.313	940.55
556.765	933.65
557.218	938.75
557.67	936.35
558.123	926.05
558.576	922.45
559.028	926.45
559.48	935.35
559.933	924.15
560.385	888.35
560.838	861.35
561.29	836.75
561.742	829.55
562.195	810.95
562.647	805.35
563.099	818.35
563.551	814.45
564.004	843.35
564.456	819.15
564.908	801.05
565.36	795.75
565.812	780.35
566.264	760.35
566.716	758.75
567.168	734.15
567.62	743.45
568.072	737.85
568.524	737.65
568.976	730.45
569.428	713.65
569.88	721.25
570.332	725.85
570.784	730.15
571.235	725.05
571.687	733.45
572.139	747.25
572.59	757.15
573.042	751.25
573.494	761.15
573.945	742.45
574.397	727.65
574.849	740.35
575.3	733.55
575.752	728.45
576.203	718.85
576.655	715.95
577.106	711.55
577.557	703.85
578.009	706.55
578.46	720.35
578.912	699.85
579.363	701.05
579.814	708.95
580.265	700.25
580.717	711.35
581.168	703.85
581.619	716.85
582.07	711.35
582.521	708.05
582.972	702.35
583.423	718.65
583.875	714.65
584.326	716.45
584.777	728.15
585.227	755.75
585.678	771.25
586.129	782.95
586.58	812.75
587.031	840.35
587.482	875.55
587.933	907.85
588.384	875.05
588.834	842.15
589.285	802.85
589.736	817.75
590.186	804.95
590.637	803.45
591.088	772.45
591.538	773.25
591.989	759.75
592.439	764.75
592.89	755.05
593.34	744.35
593.791	743.35
594.241	735.55
594.692	740.25
595.142	725.25
595.593	724.25
596.043	730.35
596.493	741.15
596.943	739.95
597.394	754.95
597.844	743.15
598.294	775.75
598.744	795.85
599.195	821.35
599.645	864.25
600.095	896.25
600.545	964.85
600.995	1011.45
601.445	1065.25
601.895	1140.15
602.345	1184.95
602.795	1173.65
603.245	1125.25
603.695	1064.05
604.145	1009.25
604.594	967.15
605.044	905.85
605.494	847.95
605.944	794.05
606.393	780.45
606.843	761.65
607.293	757.55
607.743	765.25
608.192	767.55
608.642	781.85
609.091	793.45
609.541	796.75
609.99	805.35
610.44	789.15
610.889	745.25
611.339	723.35
611.788	711.25
612.238	719.45
612.687	727.75
613.136	726.15
613.586	736.35
614.035	722.55
614.484	735.25
614.933	731.25
615.383	734.15
615.832	732.45
616.281	723.15
616.73	707.65
617.179	681.45
617.628	667.25
618.077	653.85
618.526	649.95
618.975	641.65
619.424	649.25
619.873	635.85
620.322	642.25
620.771	624.75
621.22	638.35
621.669	622.25
622.118	615.75
622.567	605.85
623.015	590.55
623.464	601.25
623.913	592.05
624.361	583.85
624.81	579.65
625.259	574.75
625.707	574.65
626.156	586.75
626.604	594.25
627.053	585.85
627.501	581.65
627.95	592.65
628.398	604.75
628.847	597.25
629.295	592.15
629.744	595.85
630.192	589.45
630.64	590.55
631.089	569.35
631.537	557.15
631.985	549.75
632.433	554.05
632.881	550.65
633.33	560.15
633.778	553.65
634.226	543.35
634.674	557.95
635.122	563.95
635.57	572.35
636.018	576.45
636.466	584.35
636.914	577.75
637.362	586.75
637.81	597.45
638.258	603.85
638.705	604.75
639.153	638.55
639.601	635.45
640.049	672.75
640.497	697.55
640.944	725.05
641.392	666.45
641.84	646.55
642.287	606.35
642.735	587.25
643.182	585.25
643.63	586.45
644.078	586.45
644.525	591.45
644.973	600.35
645.42	614.35
645.867	631.85
646.315	658.75
646.762	670.35
647.21	717.15
647.657	719.85
648.104	762.85
648.551	778.45
648.999	837.35
649.446	912.65
649.893	1001.95
650.34	1126.25
650.787	1345.65
651.234	1659.85
651.682	2141.95
652.129	2876.55
652.576	4113.45
653.023	5967.15
653.47	8064.45
653.917	10045.75
654.363	11607.85
654.81	12833.15
655.257	12086.75
655.704	8020.35
656.151	4845.85
656.598	3183.45
657.044	2294.75
657.491	1789.55
657.938	1444.85
658.385	1215.05
658.831	1058.85
659.278	956.95
659.724	851.95
660.171	792.65
660.618	727.55
661.064	704.05
661.511	685.25
661.957	664.65
662.404	667.25
662.85	666.95
663.296	639.75
663.743	570.95
664.189	556.15
664.635	550.55
665.082	548.45
665.528	545.05
665.974	535.05
666.42	520.95
666.867	523.25
667.313	505.35
667.759	481.65
668.205	464.25
668.651	463.45
669.097	463.95
669.543	461.45
669.989	454.25
670.435	462.65
670.881	463.15
671.327	468.05
671.773	486.35
672.219	505.05
672.665	565.05
673.11	609.55
673.556	657.05
674.002	703.35
674.448	682.95
674.893	574.75
675.339	501.65
675.785	463.85
676.23	443.85
676.676	405.75
677.122	403.45
677.567	389.55
678.013	378.45
678.458	372.35
678.904	375.15
679.349	363.05
679.794	367.45
680.24	364.05
680.685	358.75
681.131	363.05
681.576	358.65
682.021	365.15
682.466	366.45
682.912	355.95
683.357	368.05
683.802	400.85
684.247	429.85
684.692	469.95
685.137	519.05
685.583	558.15
686.028	584.85
686.473	543.15
686.918	469.75
687.363	438.55
687.807	412.95
688.252	378.75
688.697	365.75
689.142	347.85
689.587	357.55
690.032	335.55
690.477	358.05
690.921	368.25
691.366	394.05
691.811	421.75
692.255	449.95
692.7	473.95
693.145	530.55
693.589	726.15
694.034	1187.45
694.478	1615.15
694.923	1814.45
695.367	2375.45
695.812	1254.95
696.256	522.85
696.701	391.95
697.145	360.85
697.59	344.95
698.034	332.45
698.478	334.95
698.922	335.65
699.367	334.45
699.811	341.85
700.255	366.05
700.699	398.15
701.143	447.15
701.588	486.65
702.032	534.25
702.476	536.15
702.92	505.05
703.364	523.75
703.808	667.05
704.252	1078.35
704.696	1519.95
705.14	1757.55
705.584	2223.05
706.027	1110.85
706.471	547.05
706.915	423.95
707.359	371.45
707.803	335.55
708.246	322.45
708.69	325.55
709.134	327.45
709.577	318.25
710.021	330.15
710.465	324.25
710.908	318.55
711.352	311.75
711.795	330.25
712.239	366.65
712.682	396.95
713.126	420.15
713.569	475.05
714.012	372.35
714.456	304.15
714.899	300.25
715.342	278.65
715.786	274.95
716.229	263.45
716.672	269.75
717.115	258.75
717.558	258.35
718.002	261.05
718.445	274.45
718.888	294.45
719.331	302.35
719.774	322.55
720.217	313.85
720.66	298.35
721.103	274.05
721.546	268.45
721.989	265.75
722.432	244.05
722.874	245.15
723.317	237.05
723.76	246.05
724.203	265.25
724.645	320.15
725.088	457.85
725.531	577.15
725.974	663.55
726.416	570.25
726.859	318.95
727.301	248.45
727.744	242.95
728.187	248.25
728.629	251.35
729.071	256.45
729.514	272.25
729.956	280.55
730.399	298.05
730.841	302.25
731.283	282.45
731.726	280.55
732.168	270.15
732.61	283.75
733.053	301.25
733.495	332.35
733.937	363.75
734.379	419.55
734.821	454.45
735.263	564.35
735.705	872.55
736.148	1644.95
736.59	2698.25
737.032	3199.05
737.474	2605.75
737.916	855.85
738.357	447.15
738.799	343.75
739.241	312.05
739.683	298.25
740.125	296.85
740.567	318.55
741.008	330.35
741.45	332.05
741.892	338.25
742.334	365.45
742.775	376.55
743.217	361.85
743.658	283.45
744.1	262.35
744.542	280.65
744.983	338.05
745.425	360.75
745.866	370.85
746.307	292.45
746.749	298.75
747.19	337.75
747.632	478.75
748.073	918.15
748.514	1941.95
748.956	2986.85
749.397	3732.25
749.838	3126.35
750.279	3085.35
750.72	1571.45
751.162	575.15
751.603	340.45
752.044	266.15
752.485	226.75
752.926	212.75
753.367	212.05
753.808	201.55
754.249	197.15
754.69	190.35
755.131	186.15
755.572	187.05
756.013	185.15
756.453	189.15
756.894	198.05
757.335	200.35
757.776	205.55
758.216	202.35
758.657	207.35
759.098	212.55
759.538	237.45
759.979	282.35
760.42	391.45
760.86	745.05
761.301	1918.55
761.741	4636.35
762.182	6719.65
762.622	4738.75
