Data from 20171114-ORNL-Ar_H_NY_Subt18_08-04-38-368.txt Node
Date: Tue Nov 14 08:04:38 EST 2017
User: Ender
Spectrometer: HR+D1039
Trigger mode: 0
Integration Time (sec): 2.730000E-2
Scans to average: 10
Electric dark correction enabled: true
Nonlinearity correction enabled: false
Boxcar width: 0
XAxis mode: Wavelengths
Number of Pixels in Spectrum: 2048
>>>>>Begin Spectral Data<<<<<
187.836	-1.26
188.309	-1.26
188.782	-1.26
189.255	-3.06
189.728	-0.76
190.201	3.84
190.674	3.84
191.147	4.94
191.619	-8.06
192.092	-1.76
192.565	6.34
193.038	-3.36
193.511	1.64
193.984	1.04
194.456	0.64
194.929	-0.46
195.402	-3.46
195.874	-0.16
196.347	-1.06
196.82	-9.16
197.292	1.54
197.765	-0.16
198.237	-5.16
198.71	2.64
199.182	0.34
199.655	-3.96
200.127	0.34
200.6	2.04
201.072	-4.66
201.544	-1.06
202.017	-5.96
202.489	2.64
202.961	4.14
203.433	-2.96
203.906	-3.66
204.378	-8.06
204.85	-6.36
205.322	-4.86
205.794	0.14
206.266	-0.66
206.739	-12.66
207.211	1.94
207.683	-4.96
208.155	-6.26
208.627	-6.36
209.099	-1.26
209.57	-7.16
210.042	-0.76
210.514	0.04
210.986	0.24
211.458	-3.26
211.93	3.94
212.402	1.94
212.873	-3.36
213.345	-11.06
213.817	-13.76
214.288	-4.76
214.76	-11.56
215.232	-5.26
215.703	-7.96
216.175	-3.66
216.646	1.14
217.118	-7.06
217.589	-3.36
218.061	2.54
218.532	-4.76
219.004	-6.36
219.475	-8.86
219.946	-1.76
220.418	-4.36
220.889	-2.76
221.36	1.64
221.832	-2.86
222.303	-6.06
222.774	4.24
223.245	-8.66
223.717	-2.16
224.188	-5.56
224.659	-7.86
225.13	-3.26
225.601	-1.46
226.072	0.14
226.543	0.24
227.014	-6.76
227.485	-0.76
227.956	-10.36
228.427	-2.76
228.898	1.34
229.369	5.24
229.839	-6.96
230.31	-11.36
230.781	-2.96
231.252	-2.66
231.722	-1.86
232.193	-2.56
232.664	-4.96
233.135	3.84
233.605	2.64
234.076	-6.96
234.546	9.14
235.017	3.14
235.487	4.84
235.958	3.44
236.428	0.24
236.899	10.44
237.369	5.14
237.84	0.34
238.31	4.64
238.78	0.84
239.251	0.24
239.721	3.04
240.191	0.14
240.662	1.64
241.132	-2.06
241.602	2.04
242.072	-0.36
242.542	19.14
243.013	1.44
243.483	4.64
243.953	1.84
244.423	2.54
244.893	-4.36
245.363	0.64
245.833	1.74
246.303	-3.86
246.773	10.44
247.243	7.24
247.712	0.54
248.182	14.94
248.652	10.74
249.122	-0.46
249.592	15.74
250.061	23.74
250.531	36.64
251.001	16.84
251.471	27.94
251.94	20.44
252.41	9.74
252.879	6.94
253.349	11.54
253.818	9.14
254.288	5.94
254.757	1.74
255.227	6.24
255.696	7.74
256.166	7.84
256.635	7.14
257.105	9.14
257.574	10.44
258.043	13.44
258.513	8.74
258.982	27.84
259.451	10.64
259.92	14.04
260.389	8.34
260.859	14.54
261.328	13.74
261.797	18.54
262.266	10.54
262.735	9.94
263.204	8.14
263.673	6.04
264.142	8.44
264.611	-0.76
265.08	-2.06
265.549	1.64
266.018	7.84
266.487	-4.66
266.955	-0.26
267.424	2.84
267.893	7.54
268.362	1.24
268.83	6.24
269.299	12.54
269.768	14.64
270.236	8.84
270.705	5.04
271.174	8.34
271.642	8.14
272.111	14.24
272.579	18.74
273.048	29.74
273.516	35.84
273.985	32.04
274.453	30.74
274.922	20.54
275.39	13.54
275.858	10.14
276.327	19.54
276.795	18.84
277.263	15.54
277.731	38.64
278.2	60.84
278.668	64.84
279.136	45.84
279.604	20.54
280.072	18.14
280.54	17.14
281.008	8.94
281.477	14.44
281.945	13.24
282.413	15.54
282.881	17.14
283.348	15.14
283.816	16.24
284.284	20.74
284.752	22.64
285.22	11.04
285.688	14.74
286.156	22.14
286.623	43.54
287.091	49.94
287.559	32.64
288.026	18.14
288.494	20.54
288.962	7.94
289.429	11.74
289.897	17.34
290.364	18.54
290.832	17.04
291.3	17.14
291.767	16.74
292.234	22.14
292.702	20.64
293.169	14.34
293.637	23.84
294.104	22.94
294.571	11.94
295.039	14.84
295.506	15.44
295.973	18.34
296.44	19.64
296.908	21.54
297.375	15.14
297.842	16.54
298.309	20.54
298.776	17.54
299.243	26.64
299.71	19.64
300.177	30.04
300.644	23.64
301.111	18.84
301.578	28.74
302.045	17.04
302.512	28.24
302.979	26.14
303.446	16.64
303.913	24.44
304.379	18.84
304.846	24.74
305.313	25.84
305.78	19.84
306.246	28.44
306.713	29.94
307.18	28.54
307.646	31.34
308.113	35.34
308.579	22.74
309.046	29.14
309.512	26.34
309.979	19.14
310.445	32.14
310.912	35.74
311.378	33.84
311.845	26.14
312.311	31.64
312.777	31.24
313.244	37.74
313.71	38.74
314.176	29.54
314.642	32.24
315.109	31.34
315.575	49.54
316.041	47.44
316.507	33.44
316.973	36.84
317.439	32.54
317.905	42.94
318.371	37.04
318.837	35.64
319.303	34.94
319.769	35.04
320.235	38.14
320.701	35.14
321.167	38.34
321.633	30.24
322.099	39.24
322.564	49.54
323.03	38.04
323.496	43.94
323.962	41.44
324.427	37.44
324.893	41.84
325.359	35.84
325.824	42.24
326.29	35.14
326.755	40.94
327.221	38.34
327.686	45.04
328.152	47.04
328.617	39.24
329.083	47.54
329.548	50.14
330.014	47.44
330.479	39.54
330.944	45.24
331.41	44.64
331.875	44.84
332.34	39.94
332.805	45.44
333.271	47.64
333.736	53.54
334.201	51.14
334.666	47.84
335.131	58.54
335.596	53.94
336.061	50.94
336.526	42.74
336.991	48.34
337.456	54.74
337.921	42.34
338.386	44.44
338.851	40.94
339.316	48.14
339.781	48.04
340.246	52.34
340.711	44.14
341.175	53.44
341.64	49.24
342.105	50.84
342.569	56.84
343.034	64.14
343.499	58.54
343.963	49.04
344.428	61.44
344.893	56.44
345.357	59.24
345.822	60.34
346.286	70.54
346.751	78.24
347.215	69.94
347.679	69.84
348.144	94.84
348.608	76.04
349.073	66.74
349.537	71.34
350.001	81.04
350.465	86.64
350.93	79.44
351.394	86.24
351.858	75.74
352.322	90.24
352.786	82.24
353.25	94.34
353.715	107.34
354.179	102.34
354.643	122.04
355.107	123.44
355.571	101.24
356.035	102.24
356.498	109.34
356.962	118.84
357.426	123.24
357.89	111.74
358.354	89.14
358.818	82.34
359.281	81.44
359.745	75.24
360.209	76.24
360.673	75.64
361.136	77.24
361.6	80.54
362.064	81.24
362.527	81.64
362.991	88.14
363.454	77.24
363.918	73.24
364.381	73.74
364.845	83.44
365.308	88.14
365.772	82.74
366.235	79.24
366.698	77.34
367.162	82.04
367.625	82.24
368.088	85.84
368.552	93.44
369.015	80.84
369.478	90.54
369.941	95.04
370.404	92.64
370.867	103.44
371.331	109.44
371.794	107.84
372.257	100.74
372.72	108.44
373.183	101.94
373.646	100.24
374.109	98.34
374.572	104.04
375.035	104.34
375.497	103.74
375.96	102.04
376.423	100.44
376.886	110.04
377.349	105.04
377.811	100.24
378.274	107.04
378.737	103.74
379.199	107.24
379.662	101.64
380.125	109.14
380.587	110.04
381.05	118.44
381.512	124.94
381.975	124.24
382.437	121.24
382.9	118.14
383.362	128.44
383.825	130.94
384.287	141.54
384.75	130.04
385.212	129.24
385.674	133.14
386.136	129.34
386.599	117.44
387.061	119.04
387.523	126.24
387.985	123.84
388.447	140.04
388.91	136.84
389.372	149.84
389.834	140.04
390.296	128.34
390.758	141.94
391.22	159.34
391.682	191.94
392.144	277.64
392.606	216.24
393.068	154.64
393.529	152.24
393.991	143.34
394.453	132.74
394.915	142.94
395.377	165.84
395.838	199.04
396.3	150.04
396.762	138.54
397.224	121.54
397.685	121.14
398.147	128.34
398.608	121.84
399.07	114.84
399.531	133.34
399.993	134.54
400.454	147.04
400.916	139.54
401.377	136.44
401.839	144.84
402.3	139.54
402.762	159.64
403.223	179.54
403.684	161.04
404.145	148.44
404.607	150.34
405.068	154.44
405.529	159.54
405.99	175.44
406.451	163.44
406.913	161.24
407.374	159.14
407.835	146.44
408.296	162.34
408.757	168.94
409.218	171.64
409.679	165.54
410.14	166.24
410.601	163.54
411.062	176.94
411.522	169.34
411.983	176.94
412.444	162.94
412.905	164.54
413.366	167.74
413.826	178.64
414.287	202.94
414.748	240.74
415.208	229.64
415.669	193.44
416.13	193.54
416.59	185.64
417.051	194.54
417.511	208.64
417.972	227.84
418.432	229.24
418.893	271.24
419.353	235.74
419.814	185.74
420.274	169.14
420.734	174.44
421.195	190.04
421.655	183.94
422.115	175.64
422.576	171.74
423.036	181.64
423.496	190.74
423.956	199.04
424.416	210.84
424.876	246.74
425.336	257.04
425.797	238.14
426.257	233.84
426.717	228.24
427.177	215.04
427.637	202.34
428.097	217.54
428.556	226.24
429.016	251.34
429.476	243.04
429.936	255.54
430.396	263.84
430.856	265.74
431.315	305.74
431.775	329.84
432.235	345.34
432.694	319.14
433.154	332.44
433.614	357.94
434.073	309.24
434.533	258.64
434.993	250.24
435.452	257.64
435.912	272.34
436.371	270.04
436.83	259.64
437.29	248.84
437.749	232.84
438.209	223.14
438.668	255.14
439.127	263.14
439.587	248.94
440.046	233.54
440.505	242.54
440.964	256.94
441.424	299.44
441.883	284.14
442.342	244.34
442.801	214.44
443.26	205.84
443.719	203.74
444.178	207.34
444.637	194.04
445.096	204.04
445.555	208.54
446.014	212.24
446.473	216.94
446.932	215.74
447.391	208.94
447.849	212.24
448.308	202.94
448.767	203.34
449.226	211.84
449.685	219.54
450.143	233.04
450.602	218.94
451.061	215.24
451.519	218.04
451.978	221.24
452.436	219.94
452.895	227.24
453.353	235.14
453.812	222.24
454.27	227.24
454.729	227.04
455.187	226.54
455.646	226.04
456.104	229.34
456.562	234.74
457.021	244.04
457.479	240.44
457.937	251.74
458.395	238.74
458.854	229.74
459.312	235.44
459.77	245.64
460.228	234.64
460.686	221.94
461.144	223.74
461.602	230.54
462.06	227.74
462.518	232.34
462.976	238.14
463.434	239.54
463.892	246.14
464.35	261.34
464.808	270.14
465.266	250.14
465.724	252.64
466.181	255.74
466.639	245.54
467.097	263.64
467.555	276.34
468.012	285.34
468.47	287.74
468.928	307.94
469.385	322.94
469.843	339.94
470.3	328.74
470.758	341.04
471.215	357.34
471.673	370.64
472.13	377.64
472.588	388.74
473.045	342.04
473.503	355.64
473.96	357.54
474.417	376.14
474.875	403.44
475.332	445.74
475.789	436.44
476.246	425.74
476.704	447.64
477.161	468.14
477.618	480.64
478.075	517.04
478.532	573.34
478.989	650.54
479.446	738.64
479.903	715.54
480.36	756.54
480.817	803.44
481.274	907.64
481.731	1016.04
482.188	1098.14
482.645	1226.64
483.102	1315.94
483.558	1434.64
484.015	1489.34
484.472	1481.64
484.929	1440.94
485.385	1398.54
485.842	1365.74
486.299	1286.14
486.755	1227.94
487.212	1019.34
487.668	864.14
488.125	802.04
488.582	731.84
489.038	712.14
489.494	668.24
489.951	653.34
490.407	627.84
490.864	606.64
491.32	610.54
491.776	589.54
492.233	599.54
492.689	566.94
493.145	571.24
493.602	560.54
494.058	569.54
494.514	579.24
494.97	598.74
495.426	605.14
495.882	580.04
496.338	577.44
496.794	585.24
497.251	585.34
497.707	604.84
498.163	599.14
498.618	595.34
499.074	613.54
499.53	634.94
499.986	630.64
500.442	600.44
500.898	588.84
501.354	586.04
501.809	594.04
502.265	599.44
502.721	614.34
503.177	633.94
503.632	618.74
504.088	625.14
504.543	660.34
504.999	670.24
505.455	616.24
505.91	596.64
506.366	595.54
506.821	587.84
507.277	575.14
507.732	585.24
508.187	581.94
508.643	596.64
509.098	597.74
509.553	612.34
510.009	630.24
510.464	621.54
510.919	650.74
511.375	649.54
511.83	659.34
512.285	670.54
512.74	712.24
513.195	725.94
513.65	721.54
514.105	726.04
514.56	732.74
515.015	740.94
515.47	754.54
515.925	742.74
516.38	741.54
516.835	739.44
517.29	740.24
517.745	731.74
518.2	714.44
518.655	702.34
519.109	696.64
519.564	693.54
520.019	685.74
520.474	678.74
520.928	684.04
521.383	666.34
521.838	663.64
522.292	667.14
522.747	660.44
523.201	662.04
523.656	662.34
524.11	644.34
524.565	640.44
525.019	637.94
525.474	650.04
525.928	643.64
526.382	649.04
526.837	640.34
527.291	656.44
527.745	648.14
528.2	654.64
528.654	640.64
529.108	639.34
529.562	640.04
530.016	641.74
530.47	647.24
530.925	644.44
531.379	645.94
531.833	658.44
532.287	652.14
532.741	662.94
533.195	656.64
533.649	674.94
534.103	672.34
534.556	661.14
535.01	664.24
535.464	660.94
535.918	675.14
536.372	667.44
536.826	665.74
537.279	654.84
537.733	657.04
538.187	670.64
538.64	662.54
539.094	673.64
539.548	680.74
540.001	670.44
540.455	671.04
540.908	677.24
541.362	687.74
541.815	689.94
542.269	704.84
542.722	711.34
543.175	707.64
543.629	720.64
544.082	729.64
544.536	726.64
544.989	726.34
545.442	742.84
545.895	726.44
546.349	718.54
546.802	726.64
547.255	739.34
547.708	742.94
548.161	747.14
548.614	755.34
549.067	772.14
549.52	757.14
549.973	751.74
550.426	731.64
550.879	736.84
551.332	736.04
551.785	739.04
552.238	745.44
552.691	757.74
553.144	770.24
553.596	781.04
554.049	803.14
554.502	817.34
554.955	835.14
555.407	840.14
555.86	829.14
556.313	828.24
556.765	823.84
557.218	821.14
557.67	809.04
558.123	809.34
558.576	807.44
559.028	794.14
559.48	813.04
559.933	802.34
560.385	764.44
560.838	733.64
561.29	717.54
561.742	706.14
562.195	702.44
562.647	688.44
563.099	704.44
563.551	694.54
564.004	713.14
564.456	712.04
564.908	696.84
565.36	687.84
565.812	664.74
566.264	662.14
566.716	662.14
567.168	652.04
567.62	654.24
568.072	643.44
568.524	634.54
568.976	628.64
569.428	615.74
569.88	609.84
570.332	619.64
570.784	613.84
571.235	621.44
571.687	639.54
572.139	642.14
572.59	642.84
573.042	650.34
573.494	654.04
573.945	640.84
574.397	630.54
574.849	633.34
575.3	627.14
575.752	620.44
576.203	620.94
576.655	621.64
577.106	605.04
577.557	607.14
578.009	613.14
578.46	601.54
578.912	596.14
579.363	595.94
579.814	600.24
580.265	595.24
580.717	612.34
581.168	610.24
581.619	616.24
582.07	613.24
582.521	610.34
582.972	605.44
583.423	609.14
583.875	613.14
584.326	631.54
584.777	668.04
585.227	738.34
585.678	821.64
586.129	921.34
586.58	974.34
587.031	1051.14
587.482	1216.74
587.933	1391.14
588.384	1209.14
588.834	886.84
589.285	720.64
589.736	705.14
590.186	702.44
590.637	684.24
591.088	669.24
591.538	669.24
591.989	661.64
592.439	651.54
592.89	650.94
593.34	641.54
593.791	644.54
594.241	629.14
594.692	635.44
595.142	624.94
595.593	627.54
596.043	627.94
596.493	634.94
596.943	636.84
597.394	646.34
597.844	642.54
598.294	655.44
598.744	671.64
599.195	697.74
599.645	726.34
600.095	761.94
600.545	815.94
600.995	856.64
601.445	911.34
601.895	977.54
602.345	1022.34
602.795	993.34
603.245	952.84
603.695	911.64
604.145	853.74
604.594	816.84
605.044	763.54
605.494	717.74
605.944	673.14
606.393	663.94
606.843	644.04
607.293	657.04
607.743	653.04
608.192	662.14
608.642	681.24
609.091	681.74
609.541	678.94
609.99	681.94
610.44	675.94
610.889	642.24
611.339	617.04
611.788	603.84
612.238	626.34
612.687	639.04
613.136	633.54
613.586	651.44
614.035	644.54
614.484	680.54
614.933	672.14
615.383	662.34
615.832	663.74
616.281	636.84
616.73	603.24
617.179	592.24
617.628	576.34
618.077	554.64
618.526	550.44
618.975	543.34
619.424	544.24
619.873	539.84
620.322	549.64
620.771	533.44
621.22	533.74
621.669	527.44
622.118	516.44
622.567	504.44
623.015	497.64
623.464	506.24
623.913	500.34
624.361	489.34
624.81	485.94
625.259	482.74
625.707	487.04
626.156	488.34
626.604	495.84
627.053	493.04
627.501	490.64
627.95	496.74
628.398	499.14
628.847	511.14
629.295	501.84
629.744	505.44
630.192	499.14
630.64	495.44
631.089	495.24
631.537	508.94
631.985	516.14
632.433	517.24
632.881	526.34
633.33	580.24
633.778	554.94
634.226	494.14
634.674	500.64
635.122	498.14
635.57	522.34
636.018	537.44
636.466	510.74
636.914	489.44
637.362	501.44
637.81	504.44
638.258	495.34
638.705	499.64
639.153	523.54
639.601	532.34
640.049	551.54
640.497	593.44
640.944	609.64
641.392	547.54
641.84	536.24
642.287	504.34
642.735	499.64
643.182	498.94
643.63	501.64
644.078	501.04
644.525	508.74
644.973	516.04
645.42	522.94
645.867	528.74
646.315	551.84
646.762	574.84
647.21	599.94
647.657	612.04
648.104	658.14
648.551	654.94
648.999	715.44
649.446	789.74
649.893	872.34
650.34	997.64
650.787	1193.34
651.234	1484.74
651.682	1930.14
652.129	2621.04
652.576	3797.24
653.023	5619.34
653.47	7690.44
653.917	9816.44
654.363	11380.64
654.81	12832.94
655.257	12180.64
655.704	7899.34
656.151	4644.34
656.598	3015.04
657.044	2109.14
657.491	1635.74
657.938	1297.04
658.385	1087.54
658.831	943.94
659.278	829.74
659.724	737.64
660.171	677.44
660.618	626.14
661.064	595.84
661.511	572.04
661.957	561.44
662.404	547.34
662.85	559.14
663.296	540.44
663.743	480.44
664.189	471.64
664.635	461.44
665.082	450.94
665.528	452.54
665.974	450.54
666.42	440.74
666.867	432.44
667.313	418.74
667.759	414.74
668.205	415.34
668.651	419.24
669.097	421.74
669.543	429.94
669.989	408.74
670.435	382.64
670.881	386.04
671.327	383.14
671.773	402.74
672.219	417.54
672.665	466.14
673.11	493.34
673.556	538.24
674.002	573.74
674.448	563.74
674.893	475.74
675.339	407.04
675.785	373.44
676.23	360.54
676.676	332.04
677.122	321.94
677.567	327.04
678.013	317.44
678.458	301.74
678.904	304.34
679.349	288.04
679.794	301.64
680.24	299.34
680.685	291.74
681.131	293.84
681.576	298.34
682.021	301.84
682.466	300.44
682.912	293.84
683.357	295.04
683.802	325.04
684.247	339.94
684.692	386.64
685.137	419.64
685.583	457.74
686.028	478.34
686.473	437.64
686.918	378.54
687.363	358.24
687.807	340.24
688.252	316.74
688.697	299.74
689.142	285.64
689.587	287.24
690.032	271.24
690.477	286.14
690.921	296.44
691.366	324.24
691.811	341.94
692.255	364.24
692.7	394.94
693.145	431.14
693.589	576.74
694.034	943.14
694.478	1295.34
694.923	1503.34
695.367	1976.74
695.812	1026.64
696.256	416.14
696.701	312.44
697.145	288.34
697.59	279.74
698.034	273.94
698.478	285.44
698.922	271.44
699.367	275.34
699.811	283.04
700.255	299.14
700.699	322.34
701.143	361.04
701.588	404.04
702.032	443.44
702.476	441.34
702.92	407.44
703.364	414.24
703.808	529.14
704.252	858.64
704.696	1219.84
705.14	1444.34
705.584	1849.84
706.027	910.84
706.471	446.64
706.915	340.84
707.359	293.14
707.803	265.54
708.246	260.94
708.69	263.64
709.134	267.84
709.577	261.94
710.021	268.64
710.465	264.34
710.908	249.34
711.352	256.34
711.795	265.44
712.239	296.44
712.682	324.04
713.126	350.74
713.569	403.14
714.012	313.94
714.456	275.34
714.899	252.84
715.342	228.44
715.786	219.44
716.229	218.64
716.672	216.14
717.115	211.74
717.558	214.84
718.002	218.14
718.445	221.54
718.888	238.64
719.331	248.64
719.774	255.44
720.217	260.24
720.66	238.54
721.103	221.84
721.546	216.74
721.989	211.04
722.432	193.54
722.874	197.94
723.317	196.84
723.76	203.54
724.203	213.14
724.645	263.44
725.088	366.34
725.531	481.04
725.974	551.74
726.416	472.04
726.859	252.44
727.301	209.84
727.744	204.94
728.187	202.74
728.629	207.24
729.071	200.04
729.514	221.04
729.956	231.44
730.399	243.54
730.841	246.14
731.283	232.14
731.726	224.64
732.168	225.04
732.61	224.14
733.053	240.14
733.495	255.64
733.937	290.94
734.379	331.24
734.821	362.64
735.263	459.34
735.705	676.94
736.148	1284.94
736.59	2166.64
737.032	2649.64
737.474	2157.64
737.916	680.54
738.357	362.74
738.799	276.04
739.241	251.84
739.683	237.74
740.125	243.74
740.567	242.04
741.008	263.84
741.45	268.64
741.892	266.24
742.334	293.64
742.775	313.24
743.217	280.14
743.658	225.14
744.1	205.94
744.542	221.24
744.983	268.04
745.425	287.14
745.866	299.24
746.307	234.44
746.749	238.44
747.19	269.34
747.632	375.84
748.073	706.24
748.514	1527.34
748.956	2413.64
749.397	3010.74
749.838	2508.54
750.279	2563.04
750.72	1288.44
751.162	466.14
751.603	274.44
752.044	213.84
752.485	183.64
752.926	180.34
753.367	165.64
753.808	162.24
754.249	160.04
754.69	161.64
755.131	158.14
755.572	151.54
756.013	148.74
756.453	153.34
756.894	161.14
757.335	156.74
757.776	164.74
758.216	158.54
758.657	166.94
759.098	175.94
759.538	194.04
759.979	221.24
760.42	306.84
760.86	569.04
761.301	1478.54
761.741	3680.44
762.182	5653.04
762.622	3961.04
