Data from 20171114-ORNL-Ar_H_NY_Subt18_08-07-26-248.txt Node
Date: Tue Nov 14 08:07:26 EST 2017
User: Ender
Spectrometer: HR+D1039
Trigger mode: 0
Integration Time (sec): 2.730000E-2
Scans to average: 10
Electric dark correction enabled: true
Nonlinearity correction enabled: false
Boxcar width: 0
XAxis mode: Wavelengths
Number of Pixels in Spectrum: 2048
>>>>>Begin Spectral Data<<<<<
187.836	-3.29
188.309	-3.29
188.782	-3.29
189.255	-1.29
189.728	-4.49
190.201	7.91
190.674	3.91
191.147	9.01
191.619	-5.89
192.092	-2.39
192.565	5.61
193.038	-1.49
193.511	-1.59
193.984	-2.39
194.456	-1.09
194.929	1.21
195.402	-3.69
195.874	0.01
196.347	-3.49
196.82	-2.59
197.292	8.21
197.765	-2.79
198.237	-6.19
198.71	0.31
199.182	-4.19
199.655	5.71
200.127	1.31
200.6	-0.59
201.072	2.41
201.544	-2.79
202.017	-4.19
202.489	0.81
202.961	0.91
203.433	-3.39
203.906	-3.79
204.378	-5.19
204.85	-3.59
205.322	-7.79
205.794	-7.09
206.266	0.81
206.739	-10.59
207.211	6.01
207.683	-5.79
208.155	2.51
208.627	-4.19
209.099	-3.29
209.57	-8.99
210.042	-1.89
210.514	-0.69
210.986	-0.09
211.458	-8.29
211.93	-4.69
212.402	-4.69
212.873	-7.39
213.345	-11.09
213.817	-3.79
214.288	-1.19
214.76	-6.09
215.232	-6.59
215.703	-7.09
216.175	-0.69
216.646	-2.79
217.118	-5.99
217.589	-2.49
218.061	-4.49
218.532	-5.49
219.004	-2.69
219.475	-2.89
219.946	-3.59
220.418	-5.29
220.889	1.41
221.36	-1.49
221.832	-6.09
222.303	-4.19
222.774	-1.49
223.245	-5.29
223.717	-11.19
224.188	-0.79
224.659	-8.69
225.13	-9.19
225.601	-2.49
226.072	6.61
226.543	-0.49
227.014	2.71
227.485	-2.79
227.956	-10.49
228.427	-5.39
228.898	0.01
229.369	3.71
229.839	2.21
230.31	-7.89
230.781	2.81
231.252	1.71
231.722	-4.19
232.193	-3.59
232.664	1.91
233.135	-1.59
233.605	-0.29
234.076	-5.39
234.546	3.71
235.017	5.71
235.487	-1.99
235.958	1.41
236.428	-2.49
236.899	5.51
237.369	-1.59
237.84	-9.89
238.31	5.71
238.78	0.51
239.251	-4.29
239.721	-0.89
240.191	-1.99
240.662	-7.59
241.132	-3.69
241.602	-7.19
242.072	1.31
242.542	5.61
243.013	-1.19
243.483	2.81
243.953	-4.19
244.423	-3.49
244.893	1.21
245.363	4.61
245.833	-2.79
246.303	-0.39
246.773	5.41
247.243	0.31
247.712	1.81
248.182	2.71
248.652	7.21
249.122	-5.29
249.592	4.51
250.061	13.51
250.531	23.61
251.001	5.41
251.471	16.71
251.94	13.41
252.41	-2.79
252.879	-0.19
253.349	12.91
253.818	9.51
254.288	0.21
254.757	-0.39
255.227	-1.99
255.696	3.61
256.166	4.81
256.635	3.91
257.105	5.21
257.574	1.81
258.043	2.41
258.513	5.91
258.982	11.31
259.451	0.61
259.92	3.61
260.389	5.21
260.859	12.01
261.328	8.31
261.797	10.91
262.266	3.31
262.735	9.91
263.204	6.11
263.673	-4.09
264.142	6.61
264.611	-5.89
265.08	-3.99
265.549	-1.19
266.018	1.31
266.487	-4.99
266.955	-5.59
267.424	-1.79
267.893	4.01
268.362	0.51
268.83	-2.79
269.299	3.71
269.768	5.51
270.236	6.51
270.705	-1.19
271.174	-2.89
271.642	5.61
272.111	2.51
272.579	11.71
273.048	13.81
273.516	17.71
273.985	19.91
274.453	11.11
274.922	15.71
275.39	4.51
275.858	2.01
276.327	10.61
276.795	14.41
277.263	3.81
277.731	24.81
278.2	40.11
278.668	46.01
279.136	37.71
279.604	10.61
280.072	12.21
280.54	8.21
281.008	4.41
281.477	6.91
281.945	14.71
282.413	8.51
282.881	10.01
283.348	-0.19
283.816	13.31
284.284	13.61
284.752	12.21
285.22	11.91
285.688	8.81
286.156	14.91
286.623	32.11
287.091	36.81
287.559	24.31
288.026	9.81
288.494	12.81
288.962	5.31
289.429	6.61
289.897	11.41
290.364	9.61
290.832	12.61
291.3	9.31
291.767	13.11
292.234	11.81
292.702	10.61
293.169	11.21
293.637	10.91
294.104	12.01
294.571	1.01
295.039	3.61
295.506	11.31
295.973	12.41
296.44	4.01
296.908	10.11
297.375	9.91
297.842	10.51
298.309	4.91
298.776	5.11
299.243	12.81
299.71	14.11
300.177	17.41
300.644	10.21
301.111	15.81
301.578	16.51
302.045	8.11
302.512	18.61
302.979	18.51
303.446	12.61
303.913	11.91
304.379	4.81
304.846	20.71
305.313	11.41
305.78	13.61
306.246	18.11
306.713	20.61
307.18	16.91
307.646	22.71
308.113	19.21
308.579	15.11
309.046	20.11
309.512	23.81
309.979	11.81
310.445	21.01
310.912	18.31
311.378	25.11
311.845	20.31
312.311	22.71
312.777	25.81
313.244	19.51
313.71	33.31
314.176	23.81
314.642	22.01
315.109	24.01
315.575	24.31
316.041	28.61
316.507	23.51
316.973	29.91
317.439	29.01
317.905	30.61
318.371	26.31
318.837	26.01
319.303	20.41
319.769	28.11
320.235	25.01
320.701	25.21
321.167	30.11
321.633	22.01
322.099	28.11
322.564	37.11
323.03	31.41
323.496	30.31
323.962	30.51
324.427	27.51
324.893	28.21
325.359	27.41
325.824	21.61
326.29	30.41
326.755	29.41
327.221	31.31
327.686	25.01
328.152	37.31
328.617	31.81
329.083	34.71
329.548	34.61
330.014	35.71
330.479	30.21
330.944	28.31
331.41	33.21
331.875	32.41
332.34	27.21
332.805	36.31
333.271	35.31
333.736	36.51
334.201	42.21
334.666	33.11
335.131	42.51
335.596	42.11
336.061	41.41
336.526	31.01
336.991	44.41
337.456	48.21
337.921	42.01
338.386	36.51
338.851	41.31
339.316	44.01
339.781	35.11
340.246	38.81
340.711	40.11
341.175	47.31
341.64	32.21
342.105	41.01
342.569	48.21
343.034	49.01
343.499	45.91
343.963	42.31
344.428	51.91
344.893	45.71
345.357	49.91
345.822	40.31
346.286	52.11
346.751	52.91
347.215	52.51
347.679	53.61
348.144	74.71
348.608	63.11
349.073	51.91
349.537	60.81
350.001	61.91
350.465	78.11
350.93	59.31
351.394	67.71
351.858	60.51
352.322	70.11
352.786	63.91
353.25	75.41
353.715	88.31
354.179	78.91
354.643	94.31
355.107	96.21
355.571	83.81
356.035	84.21
356.498	94.31
356.962	97.91
357.426	100.61
357.89	91.41
358.354	73.81
358.818	71.71
359.281	66.31
359.745	63.51
360.209	64.41
360.673	59.51
361.136	66.51
361.6	70.21
362.064	64.81
362.527	75.21
362.991	75.31
363.454	74.41
363.918	64.21
364.381	59.71
364.845	73.01
365.308	69.71
365.772	73.71
366.235	75.21
366.698	71.31
367.162	74.01
367.625	72.51
368.088	75.11
368.552	72.31
369.015	80.01
369.478	82.11
369.941	85.61
370.404	78.11
370.867	86.21
371.331	93.71
371.794	92.81
372.257	92.31
372.72	101.31
373.183	105.51
373.646	89.31
374.109	93.61
374.572	97.21
375.035	93.11
375.497	94.81
375.96	95.41
376.423	91.81
376.886	96.11
377.349	97.71
377.811	90.71
378.274	96.31
378.737	89.51
379.199	98.11
379.662	99.41
380.125	103.81
380.587	98.11
381.05	110.61
381.512	109.11
381.975	113.01
382.437	113.01
382.9	114.61
383.362	117.91
383.825	121.01
384.287	136.61
384.75	124.91
385.212	122.61
385.674	122.31
386.136	117.01
386.599	112.01
387.061	115.41
387.523	115.41
387.985	120.31
388.447	128.51
388.91	131.61
389.372	141.01
389.834	136.81
390.296	122.41
390.758	137.51
391.22	144.81
391.682	186.11
392.144	271.01
392.606	203.51
393.068	155.01
393.529	151.21
393.991	142.61
394.453	138.41
394.915	146.61
395.377	174.91
395.838	196.81
396.3	139.91
396.762	127.61
397.224	119.91
397.685	114.91
398.147	123.01
398.608	120.31
399.07	118.11
399.531	127.01
399.993	132.61
400.454	135.01
400.916	131.61
401.377	131.51
401.839	143.71
402.3	139.01
402.762	154.71
403.223	163.21
403.684	154.41
404.145	151.41
404.607	145.11
405.068	156.11
405.529	148.91
405.99	172.21
406.451	161.11
406.913	162.81
407.374	160.21
407.835	150.91
408.296	151.71
408.757	154.31
409.218	170.11
409.679	155.01
410.14	166.01
410.601	167.21
411.062	167.51
411.522	176.51
411.983	169.31
412.444	157.41
412.905	166.01
413.366	171.41
413.826	176.51
414.287	199.21
414.748	245.51
415.208	229.71
415.669	197.71
416.13	185.41
416.59	191.11
417.051	194.41
417.511	208.31
417.972	221.71
418.432	222.81
418.893	267.61
419.353	232.21
419.814	189.51
420.274	172.81
420.734	167.51
421.195	184.61
421.655	183.11
422.115	184.71
422.576	185.31
423.036	177.11
423.496	194.31
423.956	206.51
424.416	217.91
424.876	246.91
425.336	243.81
425.797	246.11
426.257	239.01
426.717	228.31
427.177	216.61
427.637	202.81
428.097	225.61
428.556	230.91
429.016	250.61
429.476	250.01
429.936	260.71
430.396	261.61
430.856	270.01
431.315	297.61
431.775	318.81
432.235	356.61
432.694	322.01
433.154	340.61
433.614	362.11
434.073	300.71
434.533	263.01
434.993	252.11
435.452	266.71
435.912	279.21
436.371	268.01
436.83	263.61
437.29	254.01
437.749	237.41
438.209	232.71
438.668	249.41
439.127	262.61
439.587	247.91
440.046	224.61
440.505	238.71
440.964	255.21
441.424	296.71
441.883	290.81
442.342	247.21
442.801	214.31
443.26	213.61
443.719	211.01
444.178	202.11
444.637	200.21
445.096	206.71
445.555	213.11
446.014	208.31
446.473	221.21
446.932	226.81
447.391	216.61
447.849	214.81
448.308	216.21
448.767	215.91
449.226	228.11
449.685	224.91
450.143	236.71
450.602	223.51
451.061	216.01
451.519	224.71
451.978	215.21
452.436	224.51
452.895	234.21
453.353	235.21
453.812	227.51
454.27	226.81
454.729	223.71
455.187	222.41
455.646	232.81
456.104	236.41
456.562	245.21
457.021	242.51
457.479	246.41
457.937	259.51
458.395	251.31
458.854	242.41
459.312	245.61
459.77	261.11
460.228	245.41
460.686	235.31
461.144	241.01
461.602	233.61
462.06	233.31
462.518	246.61
462.976	246.01
463.434	245.31
463.892	253.31
464.35	259.21
464.808	274.81
465.266	253.81
465.724	262.81
466.181	256.41
466.639	255.11
467.097	271.41
467.555	282.61
468.012	287.81
468.47	290.31
468.928	314.31
469.385	316.61
469.843	331.01
470.3	336.61
470.758	338.61
471.215	365.61
471.673	388.91
472.13	386.21
472.588	394.81
473.045	360.91
473.503	370.61
473.96	375.51
474.417	384.31
474.875	414.51
475.332	448.71
475.789	432.21
476.246	443.41
476.704	463.61
477.161	487.11
477.618	495.91
478.075	530.81
478.532	586.81
478.989	662.01
479.446	756.61
479.903	727.21
480.36	772.01
480.817	841.21
481.274	938.71
481.731	1024.71
482.188	1122.51
482.645	1250.31
483.102	1340.71
483.558	1474.71
484.015	1519.71
484.472	1509.41
484.929	1442.51
485.385	1410.01
485.842	1379.81
486.299	1305.21
486.755	1239.71
487.212	1043.11
487.668	892.21
488.125	808.71
488.582	743.91
489.038	720.41
489.494	676.71
489.951	653.51
490.407	641.01
490.864	629.81
491.32	619.41
491.776	616.81
492.233	615.11
492.689	585.91
493.145	568.91
493.602	571.91
494.058	592.01
494.514	586.71
494.97	615.71
495.426	621.21
495.882	598.01
496.338	592.21
496.794	596.31
497.251	593.11
497.707	615.21
498.163	609.01
498.618	613.91
499.074	623.41
499.53	655.51
499.986	645.61
500.442	629.01
500.898	605.11
501.354	603.31
501.809	613.91
502.265	617.51
502.721	630.61
503.177	640.01
503.632	636.11
504.088	648.61
504.543	682.21
504.999	675.71
505.455	632.11
505.91	609.91
506.366	601.01
506.821	597.91
507.277	601.91
507.732	601.91
508.187	600.51
508.643	612.61
509.098	609.51
509.553	634.61
510.009	653.51
510.464	647.91
510.919	655.41
511.375	671.81
511.83	690.71
512.285	700.91
512.74	742.61
513.195	758.41
513.65	747.91
514.105	751.21
514.56	740.91
515.015	772.01
515.47	775.11
515.925	762.11
516.38	765.31
516.835	773.31
517.29	762.11
517.745	756.21
518.2	740.61
518.655	721.81
519.109	717.71
519.564	722.81
520.019	703.31
520.474	694.21
520.928	710.01
521.383	698.11
521.838	697.71
522.292	690.21
522.747	693.11
523.201	682.51
523.656	674.01
524.11	673.81
524.565	677.01
525.019	664.11
525.474	686.71
525.928	676.01
526.382	668.41
526.837	668.61
527.291	678.61
527.745	676.81
528.2	677.51
528.654	673.51
529.108	660.21
529.562	669.41
530.016	659.11
530.47	665.71
530.925	668.31
531.379	679.81
531.833	683.41
532.287	690.91
532.741	674.01
533.195	682.71
533.649	687.51
534.103	700.51
534.556	683.91
535.01	687.51
535.464	684.31
535.918	695.21
536.372	696.31
536.826	695.31
537.279	684.01
537.733	698.41
538.187	696.01
538.64	696.21
539.094	704.31
539.548	712.61
540.001	702.21
540.455	695.71
540.908	712.51
541.362	721.71
541.815	722.21
542.269	741.61
542.722	742.21
543.175	745.01
543.629	745.41
544.082	761.71
544.536	770.01
544.989	764.51
545.442	765.21
545.895	776.81
546.349	763.31
546.802	771.71
547.255	779.31
547.708	791.41
548.161	793.01
548.614	798.11
549.067	810.81
549.52	794.31
549.973	791.21
550.426	793.01
550.879	785.31
551.332	779.91
551.785	787.21
552.238	785.91
552.691	797.91
553.144	809.51
553.596	826.11
554.049	840.31
554.502	868.11
554.955	886.41
555.407	883.51
555.86	871.71
556.313	871.01
556.765	860.41
557.218	863.31
557.67	862.41
558.123	858.21
558.576	862.71
559.028	853.01
559.48	860.51
559.933	845.21
560.385	816.51
560.838	787.81
561.29	766.91
561.742	762.41
562.195	750.71
562.647	755.61
563.099	759.71
563.551	751.21
564.004	764.01
564.456	754.31
564.908	746.61
565.36	727.81
565.812	727.51
566.264	700.41
566.716	706.41
567.168	694.01
567.62	699.81
568.072	699.11
568.524	674.61
568.976	684.11
569.428	659.81
569.88	664.61
570.332	666.41
570.784	668.71
571.235	665.51
571.687	677.71
572.139	691.41
572.59	693.61
573.042	693.41
573.494	692.41
573.945	681.61
574.397	672.81
574.849	665.51
575.3	679.61
575.752	668.71
576.203	663.91
576.655	673.21
577.106	660.41
577.557	645.31
578.009	664.11
578.46	651.41
578.912	638.41
579.363	646.51
579.814	662.51
580.265	650.11
580.717	652.51
581.168	656.31
581.619	661.61
582.07	660.91
582.521	657.71
582.972	659.21
583.423	662.11
583.875	661.51
584.326	687.51
584.777	721.21
585.227	804.91
585.678	875.11
586.129	968.31
586.58	1043.81
587.031	1111.01
587.482	1244.21
587.933	1424.31
588.384	1244.81
588.834	941.31
589.285	777.41
589.736	754.51
590.186	757.31
590.637	748.51
591.088	732.11
591.538	725.21
591.989	716.11
592.439	708.91
592.89	702.01
593.34	694.31
593.791	694.01
594.241	680.51
594.692	692.21
595.142	689.11
595.593	685.31
596.043	690.91
596.493	698.31
596.943	699.31
597.394	704.21
597.844	703.11
598.294	713.01
598.744	734.21
599.195	764.51
599.645	807.91
600.095	835.31
600.545	895.81
600.995	956.21
601.445	1007.01
601.895	1081.41
602.345	1121.71
602.795	1087.71
603.245	1038.91
603.695	984.91
604.145	947.31
604.594	898.11
605.044	840.11
605.494	781.01
605.944	738.71
606.393	737.81
606.843	706.81
607.293	716.11
607.743	720.41
608.192	737.81
608.642	741.81
609.091	748.11
609.541	764.31
609.99	753.81
610.44	753.11
610.889	702.01
611.339	692.71
611.788	679.21
612.238	693.01
612.687	693.81
613.136	700.31
613.586	723.31
614.035	720.01
614.484	745.01
614.933	752.11
615.383	735.11
615.832	722.31
616.281	712.11
616.73	673.51
617.179	652.41
617.628	635.71
618.077	615.51
618.526	615.31
618.975	599.91
619.424	604.01
619.873	594.81
620.322	603.71
620.771	598.11
621.22	593.71
621.669	580.41
622.118	579.51
622.567	573.11
623.015	547.31
623.464	565.41
623.913	551.21
624.361	545.41
624.81	545.61
625.259	543.91
625.707	542.21
626.156	541.51
626.604	562.01
627.053	548.71
627.501	564.31
627.95	551.31
628.398	568.41
628.847	558.31
629.295	561.91
629.744	562.51
630.192	547.91
630.64	556.31
631.089	545.71
631.537	558.41
631.985	566.11
632.433	568.71
632.881	585.21
633.33	628.71
633.778	612.71
634.226	552.41
634.674	554.81
635.122	562.91
635.57	576.51
636.018	603.31
636.466	567.01
636.914	551.51
637.362	563.41
637.81	567.71
638.258	568.21
638.705	560.41
639.153	599.31
639.601	600.11
640.049	628.61
640.497	656.71
640.944	679.71
641.392	626.41
641.84	599.01
642.287	574.51
642.735	555.61
643.182	558.71
643.63	559.31
644.078	561.11
644.525	583.61
644.973	581.01
645.42	594.41
645.867	615.71
646.315	626.11
646.762	645.81
647.21	680.01
647.657	704.61
648.104	730.91
648.551	755.11
648.999	817.01
649.446	908.81
649.893	977.11
650.34	1136.11
650.787	1364.01
651.234	1696.31
651.682	2210.91
652.129	3044.61
652.576	4406.61
653.023	6509.31
653.47	8938.41
653.917	11087.41
654.363	12791.91
654.81	14103.31
655.257	13423.71
655.704	8761.71
656.151	5158.61
656.598	3304.31
657.044	2367.01
657.491	1816.31
657.938	1451.51
658.385	1204.61
658.831	1053.21
659.278	932.71
659.724	829.11
660.171	769.11
660.618	710.91
661.064	679.71
661.511	647.11
661.957	644.11
662.404	623.41
662.85	637.91
663.296	621.41
663.743	548.81
664.189	529.51
664.635	520.81
665.082	515.11
665.528	518.91
665.974	516.31
666.42	501.31
666.867	506.51
667.313	482.11
667.759	479.21
668.205	469.31
668.651	472.71
669.097	462.71
669.543	488.61
669.989	459.91
670.435	438.21
670.881	432.31
671.327	437.01
671.773	467.51
672.219	486.91
672.665	534.61
673.11	578.51
673.556	625.21
674.002	666.71
674.448	643.81
674.893	539.71
675.339	460.31
675.785	432.21
676.23	400.91
676.676	378.81
677.122	367.41
677.567	363.11
678.013	365.11
678.458	350.01
678.904	354.11
679.349	344.11
679.794	347.21
680.24	341.11
680.685	337.61
681.131	340.91
681.576	347.51
682.021	354.61
682.466	339.91
682.912	344.81
683.357	341.91
683.802	381.11
684.247	405.21
684.692	444.01
685.137	486.31
685.583	526.71
686.028	549.11
686.473	509.01
686.918	426.91
687.363	406.71
687.807	386.91
688.252	360.91
688.697	346.61
689.142	323.41
689.587	328.21
690.032	315.81
690.477	332.21
690.921	347.41
691.366	377.31
691.811	398.51
692.255	425.51
692.7	460.41
693.145	494.11
693.589	699.71
694.034	1134.81
694.478	1534.31
694.923	1710.91
695.367	2217.81
695.812	1170.51
696.256	487.41
696.701	360.51
697.145	341.41
697.59	319.71
698.034	318.01
698.478	320.11
698.922	314.81
699.367	321.61
699.811	333.71
700.255	350.71
700.699	382.31
701.143	430.11
701.588	470.81
702.032	507.81
702.476	514.31
702.92	484.91
703.364	487.31
703.808	635.81
704.252	1041.61
704.696	1457.71
705.14	1642.61
705.584	2091.61
706.027	1035.61
706.471	512.31
706.915	389.51
707.359	345.51
707.803	311.21
708.246	299.81
708.69	306.01
709.134	307.01
709.577	300.81
710.021	308.91
710.465	301.91
710.908	290.71
711.352	289.91
711.795	304.11
712.239	345.81
712.682	377.31
713.126	414.01
713.569	459.11
714.012	355.41
714.456	314.21
714.899	291.51
715.342	273.71
715.786	256.01
716.229	249.01
716.672	248.31
717.115	241.01
717.558	255.51
718.002	242.11
718.445	262.31
718.888	281.81
719.331	289.81
719.774	297.01
720.217	293.11
720.66	282.81
721.103	260.01
721.546	251.21
721.989	245.71
722.432	228.01
722.874	228.81
723.317	226.41
723.76	229.61
724.203	251.51
724.645	311.81
725.088	435.41
725.531	556.81
725.974	632.31
726.416	527.51
726.859	293.81
727.301	241.81
727.744	233.51
728.187	224.71
728.629	236.21
729.071	241.41
729.514	252.81
729.956	268.91
730.399	285.91
730.841	278.71
731.283	275.61
731.726	258.91
732.168	248.81
732.61	266.41
733.053	287.41
733.495	310.81
733.937	354.61
734.379	394.51
734.821	428.11
735.263	542.31
735.705	839.51
736.148	1573.11
736.59	2558.81
737.032	2992.91
737.474	2432.91
737.916	790.31
738.357	426.61
738.799	321.71
739.241	294.11
739.683	278.71
740.125	291.01
740.567	291.51
741.008	309.21
741.45	309.81
741.892	312.31
742.334	345.71
742.775	346.51
743.217	341.11
743.658	273.51
744.1	248.91
744.542	254.51
744.983	306.31
745.425	335.11
745.866	336.81
746.307	284.21
746.749	282.71
747.19	323.01
747.632	454.21
748.073	889.11
748.514	1874.01
748.956	2825.51
749.397	3568.81
749.838	2936.11
750.279	2935.81
750.72	1455.11
751.162	530.81
751.603	317.11
752.044	237.61
752.485	219.01
752.926	204.51
753.367	200.71
753.808	189.41
754.249	192.01
754.69	179.81
755.131	176.51
755.572	169.51
756.013	176.51
756.453	185.01
756.894	182.91
757.335	192.91
757.776	196.41
758.216	187.71
758.657	189.01
759.098	197.51
759.538	219.21
759.979	270.61
760.42	366.71
760.86	720.81
761.301	1850.81
761.741	4421.41
762.182	6333.71
762.622	4417.31
763.063	1282.81
763.503	521.01
