Data from 20171114-ORNL-Ar_H_NY_Subt18_08-08-24-119.txt Node
Date: Tue Nov 14 08:08:24 EST 2017
User: Ender
Spectrometer: HR+D1039
Trigger mode: 0
Integration Time (sec): 2.730000E-2
Scans to average: 10
Electric dark correction enabled: true
Nonlinearity correction enabled: false
Boxcar width: 0
XAxis mode: Wavelengths
Number of Pixels in Spectrum: 2048
>>>>>Begin Spectral Data<<<<<
187.836	-4.2
188.309	-4.2
188.782	-4.2
189.255	1.9
189.728	-6.1
190.201	9.1
190.674	4.4
191.147	3.3
191.619	-9
192.092	-0.5
192.565	7.8
193.038	-2.3
193.511	2.4
193.984	0.8
194.456	-3.2
194.929	-1.5
195.402	-3
195.874	0.1
196.347	-5.6
196.82	-8
197.292	2.9
197.765	-6.5
198.237	-9.3
198.71	-0.3
199.182	-4.2
199.655	5.1
200.127	-2.5
200.6	-8.7
201.072	-5.3
201.544	-3.7
202.017	-4.8
202.489	2.1
202.961	-3.7
203.433	-7.7
203.906	-8
204.378	-10.6
204.85	-3.9
205.322	-4.8
205.794	-2
206.266	-7.4
206.739	-9.8
207.211	-0.8
207.683	-10.4
208.155	-6.8
208.627	-6.5
209.099	-6.5
209.57	-7.2
210.042	-10.1
210.514	-1.9
210.986	-7.8
211.458	-3.7
211.93	-3.1
212.402	0.3
212.873	-0.7
213.345	-16.9
213.817	-11.4
214.288	-5.3
214.76	-13
215.232	-9
215.703	2.1
216.175	-4.4
216.646	-9.6
217.118	-12.7
217.589	-2.5
218.061	-7.2
218.532	-4.5
219.004	0.8
219.475	-0.2
219.946	-3.7
220.418	-2.8
220.889	0.8
221.36	-2.7
221.832	-6
222.303	-5.8
222.774	1.9
223.245	-9.1
223.717	-5.5
224.188	0.1
224.659	-15.7
225.13	-7.9
225.601	-2.3
226.072	-0.4
226.543	-2.2
227.014	-0.9
227.485	-5.7
227.956	-12.2
228.427	-1
228.898	1.4
229.369	2.6
229.839	-5.7
230.31	-11.5
230.781	-0.6
231.252	-6.3
231.722	-3.4
232.193	-4.9
232.664	3.4
233.135	2.1
233.605	5.2
234.076	-4.1
234.546	-4
235.017	-0.7
235.487	-0.7
235.958	-1.6
236.428	-4.5
236.899	-0.9
237.369	-0.8
237.84	-6.9
238.31	7.5
238.78	1.8
239.251	-2.8
239.721	-3.3
240.191	1.8
240.662	-4
241.132	-1.7
241.602	-4.2
242.072	0.9
242.542	6.2
243.013	-0
243.483	5.9
243.953	1.4
244.423	-0.7
244.893	-3.5
245.363	2.7
245.833	4
246.303	-3.5
246.773	3.6
247.243	-3.7
247.712	-2
248.182	7.5
248.652	1.9
249.122	-5.9
249.592	13.7
250.061	21.5
250.531	32.7
251.001	11.1
251.471	19.6
251.94	15.4
252.41	3.3
252.879	3.9
253.349	7.6
253.818	10.1
254.288	2.3
254.757	6.7
255.227	-5.6
255.696	1.4
256.166	2.3
256.635	5.4
257.105	7.6
257.574	2.4
258.043	7.9
258.513	10.4
258.982	10.3
259.451	1
259.92	13.1
260.389	5.9
260.859	14.5
261.328	5.4
261.797	13.1
262.266	8.7
262.735	7.8
263.204	5.1
263.673	-4.4
264.142	-0
264.611	-4
265.08	-2.8
265.549	-1.4
266.018	7.1
266.487	0.2
266.955	-5.4
267.424	1
267.893	1.5
268.362	-5.8
268.83	2.7
269.299	9.2
269.768	5.6
270.236	7.7
270.705	-0.2
271.174	0.8
271.642	2.4
272.111	10.1
272.579	14.9
273.048	18.2
273.516	26.4
273.985	20.5
274.453	19.9
274.922	19.1
275.39	7.7
275.858	1.1
276.327	11.2
276.795	22.4
277.263	2.8
277.731	28.8
278.2	59.5
278.668	47.1
279.136	45.9
279.604	15.8
280.072	13.6
280.54	16.2
281.008	7
281.477	9.7
281.945	8.2
282.413	13.3
282.881	12.8
283.348	10.1
283.816	15.7
284.284	10.7
284.752	16.8
285.22	13.1
285.688	16.6
286.156	21.7
286.623	46.4
287.091	52.3
287.559	24.2
288.026	17.8
288.494	16
288.962	3
289.429	4
289.897	16.6
290.364	12.3
290.832	18.7
291.3	14.6
291.767	16.7
292.234	14.9
292.702	12.4
293.169	13.3
293.637	26
294.104	21.7
294.571	11.4
295.039	9
295.506	9.2
295.973	17.2
296.44	14
296.908	16.6
297.375	19.5
297.842	17.8
298.309	17.6
298.776	7.3
299.243	12.5
299.71	5.7
300.177	18.5
300.644	21.2
301.111	18.6
301.578	22.1
302.045	13.3
302.512	26.3
302.979	27.4
303.446	24.6
303.913	18.5
304.379	20.9
304.846	26.9
305.313	26.2
305.78	21.3
306.246	23.5
306.713	23.9
307.18	25.1
307.646	21.4
308.113	21.6
308.579	16.5
309.046	18.1
309.512	18.5
309.979	9.4
310.445	27
310.912	27.7
311.378	30.2
311.845	27.1
312.311	33.9
312.777	28.7
313.244	26.4
313.71	41.4
314.176	28.4
314.642	28.4
315.109	26.6
315.575	37
316.041	33.6
316.507	33.2
316.973	36.1
317.439	33.6
317.905	36.7
318.371	34.8
318.837	25
319.303	30.3
319.769	27.8
320.235	34
320.701	30.7
321.167	37.2
321.633	35.7
322.099	41.8
322.564	41
323.03	37.7
323.496	34
323.962	39
324.427	32.1
324.893	40.2
325.359	41.1
325.824	35.3
326.29	34.1
326.755	33.2
327.221	31.8
327.686	36.2
328.152	47.7
328.617	41.8
329.083	50.3
329.548	47.2
330.014	43.5
330.479	38.9
330.944	37.3
331.41	37.6
331.875	39.7
332.34	40
332.805	44.2
333.271	44
333.736	40
334.201	52.6
334.666	53.7
335.131	52.3
335.596	49.9
336.061	46
336.526	40
336.991	47.2
337.456	50.1
337.921	46.6
338.386	40.5
338.851	41.5
339.316	44.5
339.781	45.3
340.246	47.7
340.711	48.4
341.175	47.1
341.64	37.7
342.105	50.5
342.569	51.5
343.034	61.6
343.499	50.8
343.963	49.7
344.428	54.8
344.893	57.8
345.357	59.5
345.822	60
346.286	62.4
346.751	69.7
347.215	62.3
347.679	75.1
348.144	93.5
348.608	79.8
349.073	68.1
349.537	68.9
350.001	80.4
350.465	91.2
350.93	83.1
351.394	72.7
351.858	73.4
352.322	85.9
352.786	80.6
353.25	97.4
353.715	104.3
354.179	103.9
354.643	116
355.107	121
355.571	101.8
356.035	100.3
356.498	112.1
356.962	124.4
357.426	131.5
357.89	113.8
358.354	80.8
358.818	78
359.281	76.4
359.745	75.4
360.209	76.1
360.673	70.3
361.136	79.1
361.6	85.2
362.064	76.4
362.527	80.9
362.991	86.7
363.454	78.9
363.918	77.9
364.381	76.1
364.845	81
365.308	74.4
365.772	85.1
366.235	86.8
366.698	81.5
367.162	82.6
367.625	84
368.088	78.7
368.552	88.1
369.015	95.6
369.478	92.2
369.941	93.5
370.404	87.4
370.867	106.5
371.331	103.1
371.794	114.3
372.257	110.7
372.72	116.3
373.183	111.6
373.646	107
374.109	103.3
374.572	110.8
375.035	107.2
375.497	101.2
375.96	103.3
376.423	103.6
376.886	110.9
377.349	110.6
377.811	100.3
378.274	105.1
378.737	109
379.199	111.8
379.662	113.4
380.125	111.5
380.587	120.7
381.05	118.2
381.512	130.1
381.975	133
382.437	128
382.9	118.7
383.362	131.5
383.825	141.7
384.287	147.9
384.75	142.2
385.212	145.6
385.674	136.2
386.136	135.3
386.599	125.6
387.061	119.7
387.523	134.7
387.985	134.9
388.447	143.7
388.91	150
389.372	161.6
389.834	157.6
390.296	148
390.758	153.3
391.22	171.2
391.682	216.3
392.144	319.7
392.606	241.4
393.068	169.5
393.529	171
393.991	158
394.453	154.6
394.915	153.1
395.377	196.4
395.838	229.5
396.3	160.6
396.762	140.5
397.224	132
397.685	127.1
398.147	134.5
398.608	125.3
399.07	130
399.531	132.3
399.993	146.6
400.454	151.5
400.916	145.5
401.377	143.9
401.839	146.4
402.3	153.8
402.762	166.9
403.223	187.2
403.684	167.3
404.145	156.1
404.607	157.7
405.068	167.3
405.529	165.2
405.99	192.5
406.451	175.5
406.913	176.4
407.374	157.6
407.835	163.8
408.296	169.3
408.757	170.8
409.218	184.5
409.679	177.5
410.14	175.1
410.601	180.1
411.062	178.1
411.522	187.8
411.983	196.2
412.444	180.8
412.905	178.5
413.366	183.5
413.826	191.6
414.287	220.2
414.748	262.2
415.208	245.2
415.669	203.9
416.13	202.3
416.59	207
417.051	217.9
417.511	220.3
417.972	237.3
418.432	242.1
418.893	287.3
419.353	252.9
419.814	201.8
420.274	178.7
420.734	177.9
421.195	195.9
421.655	195.4
422.115	196
422.576	195.9
423.036	196.9
423.496	212.8
423.956	210.2
424.416	234.9
424.876	266.8
425.336	258.7
425.797	273.4
426.257	254.2
426.717	240.6
427.177	225.8
427.637	224.5
428.097	233.2
428.556	243.4
429.016	276.4
429.476	260.9
429.936	271.2
430.396	281.6
430.856	300.9
431.315	325.5
431.775	352.8
432.235	384.5
432.694	355.6
433.154	370
433.614	402.3
434.073	336.2
434.533	288.1
434.993	277.1
435.452	283.1
435.912	304.5
436.371	291.7
436.83	277.3
437.29	273.3
437.749	248
438.209	245.8
438.668	268.8
439.127	291
439.587	262.6
440.046	247.7
440.505	267.6
440.964	278.7
441.424	324.9
441.883	312
442.342	262.1
442.801	229.5
443.26	227.4
443.719	227.9
444.178	215.5
444.637	210.5
445.096	218.6
445.555	224.1
446.014	227
446.473	225.8
446.932	232.6
447.391	233.9
447.849	230.6
448.308	219
448.767	217.9
449.226	238.9
449.685	228.8
450.143	254.5
450.602	232.2
451.061	223.5
451.519	234.4
451.978	232.5
452.436	233.3
452.895	240.6
453.353	258
453.812	241
454.27	240.3
454.729	238.4
455.187	242.8
455.646	244.8
456.104	243
456.562	259.6
457.021	263.6
457.479	267.1
457.937	276.5
458.395	262.2
458.854	249.3
459.312	256.7
459.77	279.9
460.228	255.4
460.686	239.1
461.144	246.5
461.602	238.3
462.06	243.3
462.518	253.5
462.976	251.4
463.434	254.3
463.892	260.9
464.35	267.9
464.808	291.3
465.266	254.1
465.724	268
466.181	267.6
466.639	267
467.097	279
467.555	290.5
468.012	304.8
468.47	303.4
468.928	329.5
469.385	340.9
469.843	342.3
470.3	348.3
470.758	361.9
471.215	378.2
471.673	413
472.13	403.5
472.588	417.2
473.045	373
473.503	374.6
473.96	398.5
474.417	416.5
474.875	435.4
475.332	478.5
475.789	458.9
476.246	465.9
476.704	485.6
477.161	515.4
477.618	523.6
478.075	556.1
478.532	618.5
478.989	677.4
479.446	813
479.903	767
480.36	803.5
480.817	858.8
481.274	954.1
481.731	1058.7
482.188	1150.1
482.645	1285.7
483.102	1385.6
483.558	1525.7
484.015	1589.7
484.472	1553.7
484.929	1503.2
485.385	1468.7
485.842	1417.5
486.299	1335
486.755	1288.1
487.212	1083.7
487.668	917
488.125	843.4
488.582	772.6
489.038	727.9
489.494	704.4
489.951	673.3
490.407	660.2
490.864	636.8
491.32	635.3
491.776	633
492.233	637.3
492.689	609.9
493.145	598.9
493.602	597.6
494.058	599
494.514	608
494.97	626.5
495.426	637.8
495.882	613.9
496.338	596.3
496.794	611.1
497.251	602.2
497.707	631.9
498.163	624.9
498.618	633.5
499.074	628.9
499.53	662.9
499.986	665.5
500.442	641.6
500.898	626.5
501.354	612.3
501.809	627
502.265	637
502.721	655.5
503.177	667.1
503.632	663.7
504.088	669.7
504.543	701.6
504.999	693.7
505.455	638.1
505.91	618.5
506.366	623.8
506.821	620.7
507.277	619.4
507.732	614.5
508.187	614.6
508.643	635
509.098	628.9
509.553	650.5
510.009	651.7
510.464	663
510.919	670
511.375	681.7
511.83	694.9
512.285	712.6
512.74	744.6
513.195	778.7
513.65	758
514.105	754
514.56	757.8
515.015	770.8
515.47	797.3
515.925	776.5
516.38	772.8
516.835	786.2
517.29	776.8
517.745	758.9
518.2	750.9
518.655	731
519.109	729.2
519.564	721.8
520.019	719.3
520.474	706.9
520.928	712.8
521.383	704.9
521.838	700.4
522.292	707.4
522.747	687.9
523.201	691.9
523.656	691.9
524.11	681.2
524.565	677.8
525.019	674.2
525.474	693.7
525.928	684.9
526.382	681.8
526.837	680.8
527.291	691.6
527.745	689.7
528.2	675.9
528.654	674.4
529.108	670.8
529.562	681.1
530.016	677.9
530.47	680.7
530.925	685.4
531.379	682
531.833	685.8
532.287	681.7
532.741	684
533.195	691.3
533.649	696.2
534.103	700.1
534.556	698.7
535.01	696.9
535.464	699.2
535.918	705.2
536.372	711.2
536.826	701.8
537.279	693
537.733	709.8
538.187	700.7
538.64	694.3
539.094	714.3
539.548	724.2
540.001	716.6
540.455	717.9
540.908	721.9
541.362	730.8
541.815	738.7
542.269	747.5
542.722	757.9
543.175	753.9
543.629	757.3
544.082	774.5
544.536	775
544.989	767.7
545.442	782.8
545.895	783.7
546.349	776.8
546.802	785.5
547.255	790.3
547.708	787.8
548.161	806.8
548.614	815.4
549.067	825.4
549.52	804.6
549.973	799.7
550.426	788.9
550.879	779.5
551.332	789.8
551.785	796.8
552.238	788.9
552.691	813.5
553.144	831.2
553.596	838.3
554.049	853.7
554.502	879
554.955	896.6
555.407	895.5
555.86	875.7
556.313	879.7
556.765	872.7
557.218	865.2
557.67	863.4
558.123	860.8
558.576	864
559.028	853.4
559.48	853.5
559.933	856
560.385	820.4
560.838	797.7
561.29	770.7
561.742	767.6
562.195	759.9
562.647	756.4
563.099	768.1
563.551	765.9
564.004	776.6
564.456	766.8
564.908	748.7
565.36	736.5
565.812	731.3
566.264	719.6
566.716	716.2
567.168	707.5
567.62	718.8
568.072	691.6
568.524	681.7
568.976	683.4
569.428	669
569.88	667.2
570.332	680.9
570.784	679.7
571.235	676.4
571.687	680.3
572.139	695.8
572.59	702.3
573.042	698.4
573.494	696.3
573.945	685.9
574.397	672.9
574.849	684.6
575.3	695
575.752	670.9
576.203	677.6
576.655	672.3
577.106	652.4
577.557	658.8
578.009	666.7
578.46	652.2
578.912	656.4
579.363	661
579.814	658.1
580.265	662.1
580.717	656.9
581.168	662.4
581.619	677
582.07	667.6
582.521	665.8
582.972	670.7
583.423	663.6
583.875	681.8
584.326	696.5
584.777	746.1
585.227	822.1
585.678	916.7
586.129	999.4
586.58	1072.7
587.031	1154.2
587.482	1300
587.933	1488
588.384	1291.8
588.834	971.1
589.285	805.6
589.736	780
590.186	768.6
590.637	764.5
591.088	738.7
591.538	740.3
591.989	729.3
592.439	722.6
592.89	714.2
593.34	708.6
593.791	703.4
594.241	699.7
594.692	700.8
595.142	684
595.593	698.7
596.043	705.5
596.493	708.8
596.943	711.1
597.394	718.8
597.844	706.3
598.294	719.5
598.744	746.7
599.195	781
599.645	814.5
600.095	849.5
600.545	906.7
600.995	953.8
601.445	1018.8
601.895	1090.2
602.345	1120.8
602.795	1109.6
603.245	1057.9
603.695	991.6
604.145	944.2
604.594	909.2
605.044	857.7
605.494	790.7
605.944	740.6
606.393	737.7
606.843	723.2
607.293	716.7
607.743	723.8
608.192	737.4
608.642	749.3
609.091	760.2
609.541	767.5
609.99	758.7
610.44	762.7
610.889	720.3
611.339	693.2
611.788	687.5
612.238	700.3
612.687	719.5
613.136	721.6
613.586	735.5
614.035	734.9
614.484	756.9
614.933	761
615.383	748.7
615.832	737.7
616.281	715.7
616.73	680.5
617.179	666.6
617.628	648.6
618.077	629.5
618.526	619.8
618.975	613.6
619.424	614.4
619.873	613.5
620.322	614.3
620.771	604.2
621.22	596.2
621.669	594.2
622.118	590.5
622.567	589
623.015	571.3
623.464	566.3
623.913	557.7
624.361	552.3
624.81	548.1
625.259	546.2
625.707	554.2
626.156	544.6
626.604	567.6
627.053	559.6
627.501	557.6
627.95	569.1
628.398	582.2
628.847	571
629.295	565.4
629.744	574.5
630.192	569.9
630.64	565.5
631.089	566.3
631.537	582.2
631.985	578.9
632.433	608.3
632.881	607.3
633.33	674
633.778	656
634.226	572.9
634.674	568.9
635.122	583
635.57	601.9
636.018	629.5
636.466	579.4
636.914	550.9
637.362	570.9
637.81	573.1
638.258	581.7
638.705	576.4
639.153	605.1
639.601	612.3
640.049	641.3
640.497	669.7
640.944	688.8
641.392	646.7
641.84	614.7
642.287	583.9
642.735	570.9
643.182	570.4
643.63	580.5
644.078	564.8
644.525	590.2
644.973	595.9
645.42	602.5
645.867	626.7
646.315	634.8
646.762	661.6
647.21	699
647.657	712.9
648.104	753.7
648.551	774
648.999	838.9
649.446	919.7
649.893	1011.2
650.34	1167.8
650.787	1393
651.234	1751.6
651.682	2285.5
652.129	3136
652.576	4545.5
653.023	6698.3
653.47	9168
653.917	11314.6
654.363	13001.6
654.81	14297
655.257	13604.5
655.704	8936.6
656.151	5255.4
656.598	3386.8
657.044	2425.5
657.491	1851.9
657.938	1490.4
658.385	1242.5
658.831	1081.2
659.278	961.1
659.724	854.2
660.171	788.6
660.618	723.5
661.064	689.4
661.511	664.7
661.957	653.7
662.404	640.3
662.85	652.3
663.296	624.9
663.743	562.1
664.189	538.7
664.635	531.4
665.082	533.7
665.528	527.4
665.974	521.2
666.42	504
666.867	501.4
667.313	496.6
667.759	490.2
668.205	473.4
668.651	488.8
669.097	489.3
669.543	498.2
669.989	470.9
670.435	445.2
670.881	447.2
671.327	439.6
671.773	468.3
672.219	489.3
672.665	539.4
673.11	581.4
673.556	624.1
674.002	673
674.448	648.4
674.893	538.7
675.339	471.2
675.785	433.6
676.23	419.6
676.676	401
677.122	383
677.567	367.3
678.013	367.2
678.458	354.5
678.904	358.3
679.349	353.2
679.794	352.2
680.24	350
680.685	345.6
681.131	345.8
681.576	347.1
682.021	339.2
682.466	335.9
682.912	347.9
683.357	348.4
683.802	377.8
684.247	414.4
684.692	458.5
685.137	485.6
685.583	543.6
686.028	559.5
686.473	515.7
686.918	440.2
687.363	420.1
687.807	392.8
688.252	369.2
688.697	351.4
689.142	343.8
689.587	330.2
690.032	328.2
690.477	345.4
690.921	353
691.366	382.3
691.811	396.3
692.255	428.9
692.7	459.8
693.145	504.2
693.589	716.9
694.034	1160.4
694.478	1539
694.923	1715.7
695.367	2219.8
695.812	1185.3
696.256	490.1
696.701	366.4
697.145	350.8
697.59	326.6
698.034	315.9
698.478	335.6
698.922	327.5
699.367	321.1
699.811	336.8
700.255	356.9
700.699	386.6
701.143	428.3
701.588	489.9
702.032	522
702.476	514.5
702.92	482.9
703.364	488.7
703.808	653.7
704.252	1057.9
704.696	1471
705.14	1661.4
705.584	2088.3
706.027	1044.2
706.471	517.5
706.915	394.5
707.359	353.6
707.803	319.4
708.246	306.9
708.69	306.2
709.134	306.3
709.577	308.1
710.021	322
710.465	309.7
710.908	305.8
711.352	301.7
711.795	314.9
712.239	354.8
712.682	389.9
713.126	413.3
713.569	456.4
714.012	377.4
714.456	320.4
714.899	304.8
715.342	276
715.786	263.2
716.229	256
716.672	265.3
717.115	245.8
717.558	246
718.002	256.1
718.445	263.9
718.888	294.1
719.331	295.9
719.774	306.4
720.217	305.5
720.66	288.9
721.103	264.7
721.546	258.1
721.989	246.5
722.432	233.9
722.874	244.3
723.317	231.2
723.76	237.5
724.203	258.4
724.645	328.4
725.088	450.6
725.531	575.6
725.974	640.5
726.416	539.5
726.859	307.8
727.301	239.9
727.744	234.8
728.187	229.4
728.629	242.7
729.071	245.8
729.514	258.1
729.956	269.2
730.399	283.2
730.841	281
731.283	274.8
731.726	259.2
732.168	253.3
732.61	269.9
733.053	284.5
733.495	315.4
733.937	361.2
734.379	402.5
734.821	443.7
735.263	552.6
735.705	850.1
736.148	1615.7
736.59	2593.8
737.032	2978.3
737.474	2428.7
737.916	804.8
738.357	433.7
738.799	328.2
739.241	290
739.683	287.9
740.125	291.5
740.567	296.5
741.008	309.9
741.45	311.7
741.892	321.6
742.334	347.4
742.775	351
743.217	329.9
743.658	271.8
744.1	258
744.542	257.9
744.983	302.8
745.425	337.8
745.866	342
746.307	284.4
746.749	294
747.19	323.9
747.632	471.9
748.073	916.8
748.514	1905.1
748.956	2832.5
749.397	3570.9
749.838	2937.6
750.279	2894.9
750.72	1467
751.162	540.7
751.603	324.3
752.044	253.5
752.485	221.6
752.926	205.3
753.367	198.5
753.808	187.9
754.249	188.3
754.69	186.3
755.131	184
755.572	180.3
756.013	182
756.453	179.1
756.894	179.8
757.335	192.2
757.776	193
758.216	195.9
758.657	198.3
759.098	206.1
759.538	225.5
759.979	270.5
760.42	380.4
760.86	732.6
761.301	1903.5
761.741	4494
762.182	6264.9
762.622	4421.7
763.063	1296.2
763.503	538.1
763.943	344.7
764.384	352.3
764.824	401.4
765.264	438.3
765.705	306.8
766.145	209.8
766.585	189.8
767.025	179.3
767.465	189
767.906	248.1
768.346	317
768.786	336.3
769.226	268.2
769.666	326.6
770.106	652.8
770.546	1595.8
770.986	2603.6
771.426	2310.4
771.866	788.1
772.306	332.1
772.745	204.3
773.185	170.4
773.625	168.4
774.065	171.5
774.505	203.6
774.944	327.7
775.384	713.8
775.824	1237.9
776.263	1195.5
776.703	511.5
777.142	230.2
777.582	155
778.021	136.7
778.461	143.7
778.9	144.9
779.34	135
779.779	120.9
780.219	109.5
780.658	112.6
781.097	112.6
781.537	111
781.976	111.2
782.415	106.6
782.855	107.5
783.294	103.8
783.733	102.7
784.172	106.6
784.611	100.8
785.05	109.9
785.489	110.3
785.928	120
786.367	119
786.806	118.6
787.245	128.4
787.684	138.2
788.123	144.5
788.562	130.3
789.001	128.1
789.44	117.6
789.879	117.5
790.317	112
790.756	130
791.195	129.1
791.634	146.2
792.072	213.4
792.511	380.3
792.95	1040.5
793.388	2129
793.827	1875.6
794.265	673.2
794.704	283.9
795.142	186.2
795.581	156.6
796.019	131.8
796.458	123.8
796.896	122.2
797.334	129.3
797.773	156.2
798.211	228.9
798.649	450.7
799.087	1032.7
799.526	1602.3
799.964	2021.5
800.402	1961.5
800.84	752.4
801.278	306.7
801.716	185.9
802.154	145.3
802.592	146.7
803.03	143.1
803.468	129.3
803.906	150.7
804.344	148.9
804.782	138.4
805.22	127.4
805.658	124.9
806.096	145.9
806.533	152.2
806.971	171.3
807.409	221.3
