Data from 20171114-ORNL-Ar_H_NY_Subt18_08-04-23-627.txt Node
Date: Tue Nov 14 08:04:23 EST 2017
User: Ender
Spectrometer: HR+D1039
Trigger mode: 0
Integration Time (sec): 2.730000E-2
Scans to average: 10
Electric dark correction enabled: true
Nonlinearity correction enabled: false
Boxcar width: 0
XAxis mode: Wavelengths
Number of Pixels in Spectrum: 2048
>>>>>Begin Spectral Data<<<<<
187.836	-1.23
188.309	-1.23
188.782	-1.23
189.255	1.07
189.728	-4.33
190.201	6.37
190.674	2.77
191.147	4.27
191.619	-7.73
192.092	3.97
192.565	3.07
193.038	-1.23
193.511	0.47
193.984	-3.13
194.456	0.07
194.929	-0.13
195.402	-1.03
195.874	-3.33
196.347	2.97
196.82	-7.33
197.292	4.07
197.765	-5.63
198.237	0.27
198.71	-0.43
199.182	0.07
199.655	3.87
200.127	-2.43
200.6	-2.43
201.072	-9.23
201.544	0.47
202.017	4.87
202.489	3.37
202.961	-8.13
203.433	-4.93
203.906	-1.73
204.378	-9.53
204.85	-2.03
205.322	-11.43
205.794	-5.43
206.266	-5.73
206.739	-10.43
207.211	0.07
207.683	-6.23
208.155	-7.23
208.627	-4.53
209.099	1.17
209.57	-9.23
210.042	-4.13
210.514	-2.23
210.986	-1.53
211.458	-7.23
211.93	0.77
212.402	-1.53
212.873	-8.43
213.345	-8.43
213.817	-9.83
214.288	-5.33
214.76	-15.53
215.232	-4.93
215.703	-2.73
216.175	-4.83
216.646	-3.43
217.118	-2.23
217.589	-4.23
218.061	-0.23
218.532	-0.63
219.004	-0.53
219.475	-4.03
219.946	-4.33
220.418	-7.73
220.889	0.97
221.36	-7.13
221.832	-2.03
222.303	-11.93
222.774	-1.13
223.245	-7.53
223.717	-6.53
224.188	-5.23
224.659	-5.73
225.13	-3.73
225.601	-8.23
226.072	0.27
226.543	1.27
227.014	0.17
227.485	-4.73
227.956	-9.53
228.427	-4.23
228.898	3.17
229.369	-0.43
229.839	-3.23
230.31	-7.23
230.781	5.57
231.252	-3.93
231.722	-4.33
232.193	0.47
232.664	0.67
233.135	3.87
233.605	-2.03
234.076	-2.23
234.546	0.97
235.017	2.87
235.487	6.37
235.958	0.87
236.428	1.47
236.899	3.77
237.369	-1.03
237.84	-2.93
238.31	9.77
238.78	6.77
239.251	-2.83
239.721	1.27
240.191	3.87
240.662	4.97
241.132	1.37
241.602	-4.13
242.072	-2.23
242.542	9.77
243.013	-0.33
243.483	7.27
243.953	2.37
244.423	3.87
244.893	2.27
245.363	6.57
245.833	7.97
246.303	-3.63
246.773	8.87
247.243	5.97
247.712	3.37
248.182	9.97
248.652	6.97
249.122	8.97
249.592	12.87
250.061	26.67
250.531	33.87
251.001	17.67
251.471	21.87
251.94	20.57
252.41	11.67
252.879	5.37
253.349	12.77
253.818	14.27
254.288	13.87
254.757	8.77
255.227	7.67
255.696	4.17
256.166	2.97
256.635	9.17
257.105	6.87
257.574	11.17
258.043	9.17
258.513	17.37
258.982	18.07
259.451	9.47
259.92	13.07
260.389	7.97
260.859	18.47
261.328	15.37
261.797	18.87
262.266	4.57
262.735	15.77
263.204	5.97
263.673	2.97
264.142	3.67
264.611	0.57
265.08	2.87
265.549	4.57
266.018	7.57
266.487	7.27
266.955	-2.53
267.424	3.97
267.893	7.77
268.362	1.97
268.83	4.57
269.299	14.67
269.768	7.47
270.236	14.17
270.705	9.47
271.174	8.47
271.642	11.37
272.111	5.87
272.579	20.97
273.048	25.67
273.516	24.07
273.985	32.47
274.453	20.27
274.922	23.77
275.39	16.87
275.858	8.87
276.327	12.47
276.795	25.07
277.263	10.07
277.731	29.17
278.2	58.27
278.668	64.77
279.136	47.87
279.604	17.37
280.072	11.57
280.54	12.07
281.008	14.67
281.477	10.47
281.945	12.77
282.413	15.47
282.881	15.97
283.348	9.67
283.816	19.37
284.284	17.77
284.752	27.47
285.22	18.87
285.688	13.87
286.156	20.07
286.623	46.37
287.091	57.97
287.559	32.07
288.026	18.17
288.494	17.77
288.962	2.27
289.429	6.47
289.897	17.57
290.364	14.07
290.832	20.97
291.3	18.97
291.767	19.87
292.234	22.37
292.702	16.47
293.169	21.27
293.637	23.17
294.104	16.27
294.571	4.07
295.039	13.37
295.506	17.47
295.973	11.67
296.44	17.37
296.908	20.37
297.375	18.87
297.842	16.67
298.309	19.37
298.776	17.47
299.243	21.17
299.71	15.77
300.177	19.47
300.644	20.07
301.111	24.57
301.578	24.47
302.045	13.77
302.512	18.87
302.979	33.67
303.446	28.37
303.913	21.27
304.379	16.97
304.846	28.07
305.313	29.47
305.78	21.27
306.246	28.17
306.713	29.97
307.18	27.67
307.646	25.77
308.113	25.67
308.579	24.07
309.046	21.77
309.512	23.47
309.979	16.47
310.445	29.37
310.912	27.47
311.378	26.97
311.845	24.97
312.311	28.47
312.777	39.57
313.244	34.47
313.71	33.67
314.176	27.07
314.642	29.57
315.109	29.17
315.575	34.87
316.041	32.67
316.507	31.07
316.973	36.17
317.439	39.07
317.905	35.67
318.371	42.57
318.837	29.07
319.303	39.77
319.769	34.37
320.235	34.77
320.701	35.37
321.167	33.07
321.633	34.07
322.099	37.87
322.564	42.97
323.03	34.27
323.496	36.87
323.962	42.57
324.427	38.07
324.893	39.87
325.359	32.67
325.824	37.87
326.29	35.77
326.755	43.57
327.221	36.17
327.686	34.87
328.152	42.37
328.617	47.37
329.083	41.97
329.548	47.97
330.014	40.47
330.479	44.07
330.944	41.67
331.41	36.27
331.875	38.07
332.34	40.87
332.805	41.57
333.271	37.07
333.736	43.87
334.201	50.77
334.666	48.17
335.131	49.67
335.596	49.87
336.061	47.77
336.526	36.47
336.991	48.37
337.456	57.87
337.921	45.97
338.386	38.17
338.851	44.37
339.316	45.77
339.781	44.07
340.246	44.07
340.711	43.67
341.175	53.17
341.64	43.07
342.105	51.57
342.569	54.17
343.034	50.97
343.499	53.57
343.963	51.17
344.428	61.27
344.893	53.37
345.357	59.37
345.822	56.37
346.286	64.97
346.751	66.17
347.215	62.77
347.679	70.37
348.144	86.67
348.608	76.27
349.073	69.47
349.537	68.37
350.001	74.97
350.465	87.27
350.93	76.87
351.394	72.97
351.858	59.67
352.322	88.37
352.786	79.57
353.25	90.47
353.715	107.07
354.179	97.67
354.643	108.97
355.107	106.07
355.571	99.67
356.035	91.07
356.498	110.97
356.962	111.27
357.426	123.57
357.89	109.17
358.354	89.27
358.818	77.17
359.281	76.07
359.745	72.87
360.209	68.47
360.673	67.87
361.136	78.07
361.6	74.77
362.064	81.37
362.527	75.97
362.991	84.97
363.454	84.47
363.918	76.07
364.381	73.77
364.845	80.07
365.308	78.37
365.772	87.27
366.235	81.87
366.698	72.97
367.162	84.07
367.625	80.17
368.088	82.87
368.552	83.17
369.015	84.17
369.478	92.67
369.941	91.17
370.404	86.77
370.867	97.07
371.331	98.47
371.794	108.37
372.257	98.57
372.72	108.17
373.183	100.17
373.646	90.37
374.109	94.47
374.572	94.77
375.035	96.67
375.497	94.77
375.96	95.17
376.423	101.67
376.886	103.37
377.349	100.77
377.811	95.87
378.274	99.57
378.737	95.37
379.199	109.47
379.662	106.17
380.125	105.07
380.587	107.97
381.05	112.37
381.512	119.87
381.975	122.37
382.437	120.47
382.9	123.57
383.362	124.67
383.825	131.67
384.287	135.17
384.75	135.67
385.212	125.47
385.674	130.97
386.136	129.17
386.599	113.17
387.061	114.87
387.523	116.27
387.985	123.77
388.447	133.67
388.91	131.87
389.372	147.47
389.834	140.57
390.296	133.47
390.758	142.27
391.22	149.27
391.682	191.27
392.144	273.38
392.606	210.47
393.068	157.87
393.529	149.17
393.991	147.17
394.453	137.67
394.915	140.87
395.377	172.17
395.838	202.47
396.3	143.77
396.762	132.07
397.224	122.47
397.685	116.97
398.147	118.07
398.608	115.87
399.07	119.57
399.531	124.77
399.993	132.87
400.454	138.37
400.916	135.87
401.377	129.77
401.839	141.97
402.3	129.37
402.762	153.97
403.223	162.77
403.684	154.87
404.145	146.17
404.607	143.27
405.068	150.57
405.529	153.17
405.99	169.07
406.451	161.07
406.913	146.47
407.374	150.27
407.835	149.07
408.296	156.37
408.757	156.27
409.218	169.37
409.679	165.47
410.14	164.77
410.601	166.07
411.062	165.47
411.522	179.17
411.983	175.47
412.444	157.67
412.905	166.47
413.366	166.27
413.826	179.37
414.287	193.07
414.748	239.57
415.208	221.97
415.669	200.37
416.13	189.27
416.59	187.17
417.051	191.27
417.511	201.27
417.972	216.57
418.432	231.88
418.893	266.57
419.353	221.37
419.814	185.77
420.274	161.47
420.734	163.67
421.195	180.37
421.655	183.07
422.115	174.57
422.576	170.47
423.036	183.57
423.496	193.27
423.956	194.87
424.416	211.47
424.876	241.87
425.336	238.77
425.797	235.37
426.257	232.27
426.717	219.17
427.177	210.88
427.637	201.97
428.097	214.67
428.556	216.57
429.016	242.77
429.476	239.87
429.936	255.48
430.396	249.97
430.856	264.97
431.315	283.07
431.775	317.07
432.235	341.87
432.694	316.37
433.154	326.07
433.614	343.77
434.073	300.97
434.533	251.57
434.993	239.97
435.452	255.97
435.912	266.57
436.371	252.57
436.83	249.27
437.29	245.97
437.749	220.97
438.209	220.27
438.668	244.87
439.127	256.88
439.587	248.57
440.046	226.07
440.505	241.07
440.964	245.57
441.424	286.17
441.883	271.57
442.342	235.57
442.801	208.17
443.26	200.47
443.719	200.57
444.178	196.87
444.637	195.77
445.096	201.87
445.555	203.97
446.014	200.87
446.473	208.38
446.932	209.97
447.391	200.67
447.849	208.77
448.308	197.67
448.767	203.07
449.226	210.77
449.685	208.67
450.143	219.47
450.602	210.97
451.061	208.87
451.519	207.07
451.978	211.37
452.436	209.88
452.895	216.57
453.353	225.47
453.812	217.48
454.27	220.07
454.729	213.98
455.187	216.17
455.646	213.77
456.104	219.97
456.562	234.07
457.021	237.87
457.479	239.17
457.937	244.37
458.395	237.87
458.854	222.47
459.312	227.67
459.77	240.57
460.228	226.27
460.686	220.57
461.144	226.37
461.602	217.17
462.06	224.67
462.518	228.27
462.976	230.17
463.434	227.77
463.892	235.97
464.35	249.87
464.808	261.67
465.266	240.97
465.724	246.67
466.181	243.57
466.639	245.07
467.097	265.27
467.555	274.97
468.012	265.37
468.47	277.47
468.928	291.77
469.385	307.17
469.843	310.87
470.3	310.17
470.758	313.77
471.215	340.37
471.673	365.97
472.13	365.47
472.588	376.38
473.045	333.77
473.503	339.67
473.96	357.37
474.417	360.07
474.875	390.37
475.332	428.17
475.789	413.47
476.246	415.37
476.704	439.67
477.161	447.27
477.618	468.97
478.075	503.87
478.532	559.57
478.989	626.88
479.446	718.27
479.903	690.67
480.36	728.67
480.817	779.07
481.274	882.97
481.731	980.17
482.188	1061.47
482.645	1180.57
483.102	1295.28
483.558	1420.18
484.015	1471.28
484.472	1453.97
484.929	1406.57
485.385	1355.37
485.842	1309.28
486.299	1237.77
486.755	1174.58
487.212	990.97
487.668	841.67
488.125	781.77
488.582	714.48
489.038	683.07
489.494	648.07
489.951	620.77
490.407	607.57
490.864	591.67
491.32	588.27
491.776	587.38
492.233	578.87
492.689	543.88
493.145	542.37
493.602	533.67
494.058	551.87
494.514	552.67
494.97	569.57
495.426	575.47
495.882	552.38
496.338	551.57
496.794	560.38
497.251	557.97
497.707	572.98
498.163	575.67
498.618	573.87
499.074	588.07
499.53	603.87
499.986	608.47
500.442	590.77
500.898	564.47
501.354	562.37
501.809	568.47
502.265	576.27
502.721	594.27
503.177	602.67
503.632	602.27
504.088	601.57
504.543	629.77
504.999	633.17
505.455	581.07
505.91	570.97
506.366	568.77
506.821	566.87
507.277	566.47
507.732	554.67
508.187	559.07
508.643	570.17
509.098	568.27
509.553	584.77
510.009	603.77
510.464	600.27
510.919	612.77
511.375	621.97
511.83	626.27
512.285	647.07
512.74	687.17
513.195	696.27
513.65	688.27
514.105	684.27
514.56	693.47
515.015	714.77
515.47	726.07
515.925	715.87
516.38	713.37
516.835	708.87
517.29	707.57
517.745	704.57
518.2	695.37
518.655	678.27
519.109	676.27
519.564	660.97
520.019	661.97
520.474	652.87
520.928	656.97
521.383	643.37
521.838	637.57
522.292	632.38
522.747	639.38
523.201	627.47
523.656	624.27
524.11	619.48
524.565	626.07
525.019	619.97
525.474	629.77
525.928	627.27
526.382	629.67
526.837	616.38
527.291	629.47
527.745	624.47
528.2	616.57
528.654	615.77
529.108	609.47
529.562	617.17
530.016	617.67
530.47	614.37
530.925	620.97
531.379	623.47
531.833	630.07
532.287	630.27
532.741	624.87
533.195	632.87
533.649	636.37
534.103	643.17
534.556	633.97
535.01	636.87
535.464	633.27
535.918	632.27
536.372	641.67
536.826	652.77
537.279	627.27
537.733	634.67
538.187	641.07
538.64	635.17
539.094	642.88
539.548	648.07
540.001	634.87
540.455	647.37
540.908	647.47
541.362	651.17
541.815	667.88
542.269	670.77
542.722	677.67
543.175	680.37
543.629	684.27
544.082	694.97
544.536	697.57
544.989	699.57
545.442	702.27
545.895	696.07
546.349	701.98
546.802	703.17
547.255	697.17
547.708	712.67
548.161	713.27
548.614	730.97
549.067	735.97
549.52	720.67
549.973	716.37
550.426	707.87
550.879	700.97
551.332	698.67
551.785	707.87
552.238	707.77
552.691	718.17
553.144	737.67
553.596	738.07
554.049	762.77
554.502	790.57
554.955	805.77
555.407	794.27
555.86	800.17
556.313	790.77
556.765	773.27
557.218	773.27
557.67	781.37
558.123	772.27
558.576	758.57
559.028	767.48
559.48	774.07
559.933	765.07
560.385	740.17
560.838	718.27
561.29	686.17
561.742	689.98
562.195	668.67
562.647	671.48
563.099	677.77
563.551	678.07
564.004	685.27
564.456	671.57
564.908	665.07
565.36	652.77
565.812	640.27
566.264	628.37
566.716	640.37
567.168	621.87
567.62	623.97
568.072	604.88
568.524	602.27
568.976	588.07
569.428	582.17
569.88	583.27
570.332	595.17
570.784	592.57
571.235	586.27
571.687	595.38
572.139	612.97
572.59	617.27
573.042	619.57
573.494	624.07
573.945	613.37
574.397	593.97
574.849	599.07
575.3	601.67
575.752	592.47
576.203	585.97
576.655	584.77
577.106	578.67
577.557	578.57
578.009	576.37
578.46	566.47
578.912	572.07
579.363	579.47
579.814	572.47
580.265	565.57
580.717	577.27
581.168	579.97
581.619	571.67
582.07	589.77
582.521	574.97
582.972	571.47
583.423	584.57
583.875	591.07
584.326	601.87
584.777	638.57
585.227	716.17
585.678	791.77
586.129	869.77
586.58	934.87
587.031	1021.77
587.482	1160.08
587.933	1324.97
588.384	1141.88
588.834	851.17
589.285	693.67
589.736	677.07
590.186	666.47
590.637	654.77
591.088	641.87
591.538	624.47
591.989	622.38
592.439	609.67
592.89	608.37
593.34	603.77
593.791	608.97
594.241	607.67
594.692	605.47
595.142	593.57
595.593	596.38
596.043	595.17
596.493	610.38
596.943	609.98
597.394	605.38
597.844	605.88
598.294	615.57
598.744	640.87
599.195	650.57
599.645	684.97
600.095	725.07
600.545	767.97
600.995	810.97
601.445	861.67
601.895	928.57
602.345	970.38
602.795	949.18
603.245	913.77
603.695	858.17
604.145	822.77
604.594	777.27
605.044	728.77
605.494	670.07
605.944	627.87
606.393	628.07
606.843	608.47
607.293	623.17
607.743	614.57
608.192	631.97
608.642	633.77
609.091	658.27
609.541	644.97
609.99	649.48
610.44	648.57
610.889	610.17
611.339	589.97
611.788	576.07
612.238	596.47
612.687	607.57
613.136	610.47
613.586	624.27
614.035	624.87
614.484	631.57
614.933	628.87
615.383	632.27
615.832	621.87
616.281	613.98
616.73	583.77
617.179	567.47
617.628	541.77
618.077	528.57
618.526	527.87
618.975	518.97
619.424	516.27
619.873	512.67
620.322	520.77
620.771	503.17
621.22	503.87
621.669	492.37
622.118	488.47
622.567	483.98
623.015	474.27
623.464	478.67
623.913	460.17
624.361	451.07
624.81	453.77
625.259	464.37
625.707	457.57
626.156	457.87
626.604	475.37
627.053	468.47
627.501	465.07
627.95	475.98
628.398	484.07
628.847	469.67
629.295	476.38
629.744	473.37
630.192	471.67
630.64	469.77
631.089	465.37
631.537	477.57
631.985	481.97
632.433	493.47
632.881	503.07
633.33	548.47
633.778	523.57
634.226	464.37
634.674	472.07
635.122	473.07
635.57	502.17
636.018	511.37
636.466	485.67
636.914	454.88
637.362	477.37
637.81	480.87
638.258	479.37
638.705	481.97
639.153	496.97
639.601	503.17
640.049	516.57
640.497	558.07
640.944	571.57
641.392	539.67
641.84	501.37
642.287	480.47
642.735	476.17
643.182	466.37
643.63	473.47
644.078	473.48
644.525	493.27
644.973	493.87
645.42	493.07
645.867	507.17
646.315	522.17
646.762	538.27
647.21	560.77
647.657	583.07
648.104	612.37
648.551	626.07
648.999	693.17
649.446	757.57
649.893	817.07
650.34	950.57
650.787	1136.07
651.234	1404.38
651.682	1836.88
652.129	2490.67
652.576	3579.08
653.023	5314.97
653.47	7341.97
653.917	9328.07
654.363	10906.98
654.81	12330.17
655.257	11721.38
655.704	7579.78
656.151	4426.87
656.598	2865.38
657.044	2021.67
657.491	1548.28
657.938	1233.97
658.385	1032.37
658.831	889.57
659.278	792.07
659.724	715.47
660.171	648.47
660.618	595.67
661.064	556.48
661.511	539.57
661.957	520.97
662.404	519.07
662.85	525.07
663.296	503.57
663.743	457.47
664.189	439.77
664.635	440.07
665.082	430.97
665.528	433.77
665.974	419.07
666.42	409.87
666.867	408.27
667.313	393.57
667.759	391.07
668.205	385.67
668.651	395.48
669.097	395.77
669.543	411.97
669.989	377.77
670.435	363.27
670.881	358.67
671.327	365.27
671.773	379.37
672.219	401.97
672.665	443.77
673.11	471.37
673.556	518.47
674.002	546.38
674.448	535.47
674.893	445.77
675.339	388.77
675.785	358.27
676.23	344.47
676.676	323.27
677.122	308.37
677.567	293.87
678.013	293.67
678.458	286.38
678.904	283.98
679.349	277.88
679.794	277.97
680.24	276.07
680.685	276.47
681.131	278.57
681.576	284.17
682.021	281.57
682.466	277.07
682.912	279.67
683.357	281.38
683.802	307.37
684.247	328.67
684.692	363.87
685.137	393.47
685.583	435.17
686.028	449.47
686.473	422.67
686.918	354.07
687.363	336.17
687.807	322.47
688.252	294.37
688.697	287.57
689.142	265.97
689.587	265.87
690.032	260.67
690.477	273.67
690.921	280.27
691.366	308.57
691.811	319.47
692.255	348.07
692.7	367.67
693.145	396.17
693.589	541.37
694.034	863.07
694.478	1222.08
694.923	1416.68
695.367	1879.58
695.812	972.17
696.256	406.17
696.701	296.17
697.145	279.17
697.59	264.07
698.034	261.17
698.478	265.77
698.922	263.48
699.367	263.97
699.811	266.17
700.255	274.57
700.699	297.97
701.143	332.67
701.588	384.17
702.032	419.88
702.476	419.57
702.92	395.57
703.364	395.97
703.808	501.27
704.252	810.17
704.696	1137.27
705.14	1378.57
705.584	1757.88
706.027	863.07
706.471	420.67
706.915	317.77
707.359	277.77
707.803	261.17
708.246	254.57
708.69	249.47
709.134	253.47
709.577	246.97
710.021	246.37
710.465	245.97
710.908	237.87
711.352	238.67
711.795	248.17
712.239	278.27
712.682	302.97
713.126	332.67
713.569	377.27
714.012	301.07
714.456	264.37
714.899	235.88
715.342	219.67
715.786	203.27
716.229	204.37
716.672	198.97
717.115	199.77
717.558	204.57
718.002	197.07
718.445	206.27
718.888	222.17
719.331	232.48
719.774	242.57
720.217	243.17
720.66	224.77
721.103	213.47
721.546	203.87
721.989	201.97
722.432	182.27
722.874	194.57
723.317	185.67
723.76	186.17
724.203	205.77
724.645	240.27
725.088	342.67
725.531	453.57
725.974	517.67
726.416	444.37
726.859	244.57
727.301	193.97
727.744	188.67
728.187	188.98
728.629	182.57
729.071	191.27
729.514	210.67
729.956	213.57
730.399	225.27
730.841	236.07
731.283	217.77
731.726	209.98
732.168	205.27
732.61	210.17
733.053	224.07
733.495	246.87
733.937	283.37
734.379	318.57
734.821	347.17
735.263	424.77
735.705	638.57
736.148	1219.28
736.59	2046.27
737.032	2516.88
737.474	2046.48
737.916	656.67
738.357	334.07
738.799	253.47
739.241	240.87
739.683	226.07
740.125	228.77
740.567	238.77
741.008	255.87
741.45	251.07
741.892	252.88
742.334	276.48
742.775	278.17
743.217	273.97
743.658	215.87
744.1	202.98
744.542	206.47
744.983	253.17
745.425	274.77
745.866	274.27
746.307	223.47
746.749	223.97
747.19	257.87
747.632	350.17
748.073	672.67
748.514	1446.27
748.956	2282.07
749.397	2860.38
749.838	2391.07
750.279	2451.18
750.72	1225.58
751.162	436.88
751.603	248.47
752.044	204.87
752.485	173.57
752.926	170.77
753.367	167.07
753.808	156.67
754.249	155.97
754.69	150.27
755.131	142.87
755.572	145.17
756.013	144.27
756.453	139.47
756.894	143.17
757.335	153.07
757.776	158.27
758.216	156.57
758.657	162.87
759.098	156.77
759.538	179.67
759.979	214.37
760.42	291.17
760.86	536.87
761.301	1393.78
761.741	3482.08
762.182	5367.48
762.622	3785.38
763.063	1054.88
763.503	432.27
