Data from 20171114-ORNL-Ar_H_NY_Subt18_08-07-56-275.txt Node
Date: Tue Nov 14 08:07:56 EST 2017
User: Ender
Spectrometer: HR+D1039
Trigger mode: 0
Integration Time (sec): 2.730000E-2
Scans to average: 10
Electric dark correction enabled: true
Nonlinearity correction enabled: false
Boxcar width: 0
XAxis mode: Wavelengths
Number of Pixels in Spectrum: 2048
>>>>>Begin Spectral Data<<<<<
187.836	-4.46
188.309	-4.46
188.782	-4.46
189.255	-2.56
189.728	-2.86
190.201	2.24
190.674	5.64
191.147	6.24
191.619	-8.16
192.092	-1.36
192.565	7.84
193.038	-1.56
193.511	0.94
193.984	2.44
194.456	-0.66
194.929	0.94
195.402	-3.96
195.874	-0.76
196.347	-7.26
196.82	-7.56
197.292	1.04
197.765	-2.66
198.237	-3.46
198.71	3.24
199.182	-3.36
199.655	2.74
200.127	2.64
200.6	-2.66
201.072	-2.46
201.544	-2.16
202.017	-1.66
202.489	3.04
202.961	-5.66
203.433	-4.16
203.906	-7.96
204.378	-7.16
204.85	-4.06
205.322	-6.96
205.794	0.04
206.266	-10.66
206.739	-8.86
207.211	3.84
207.683	-7.36
208.155	-0.96
208.627	-5.96
209.099	-2.16
209.57	-12.46
210.042	-9.96
210.514	-9.86
210.986	0.14
211.458	-6.66
211.93	-6.46
212.402	1.04
212.873	-3.26
213.345	-10.76
213.817	-11.96
214.288	0.64
214.76	-8.26
215.232	-3.86
215.703	0.64
216.175	-5.96
216.646	-0.66
217.118	-3.76
217.589	-7.96
218.061	-2.06
218.532	-1.46
219.004	-3.96
219.475	-4.76
219.946	-6.76
220.418	-1.86
220.889	6.64
221.36	-3.16
221.832	-0.36
222.303	-3.96
222.774	1.74
223.245	-15.76
223.717	-11.06
224.188	-3.06
224.659	-9.26
225.13	-4.46
225.601	-5.66
226.072	7.34
226.543	0.04
227.014	-1.96
227.485	-0.46
227.956	-6.06
228.427	-6.26
228.898	1.14
229.369	5.24
229.839	-4.96
230.31	-5.56
230.781	3.34
231.252	-2.06
231.722	-4.66
232.193	4.24
232.664	-2.66
233.135	2.34
233.605	3.24
234.076	-7.16
234.546	4.04
235.017	-0.26
235.487	3.84
235.958	-1.46
236.428	-2.06
236.899	3.14
237.369	6.84
237.84	-4.66
238.31	7.14
238.78	-1.26
239.251	-2.16
239.721	4.04
240.191	1.54
240.662	-3.36
241.132	-0.86
241.602	-4.46
242.072	-3.56
242.542	3.24
243.013	-0.56
243.483	2.94
243.953	7.24
244.423	-2.66
244.893	-1.96
245.363	0.44
245.833	-0.26
246.303	-4.86
246.773	6.14
247.243	0.64
247.712	8.14
248.182	5.44
248.652	4.54
249.122	-2.16
249.592	11.64
250.061	16.84
250.531	30.74
251.001	14.24
251.471	22.24
251.94	15.74
252.41	8.14
252.879	-2.76
253.349	12.44
253.818	6.84
254.288	0.34
254.757	0.44
255.227	-6.26
255.696	2.84
256.166	6.54
256.635	3.74
257.105	6.94
257.574	7.54
258.043	1.84
258.513	9.94
258.982	14.14
259.451	-2.36
259.92	9.64
260.389	10.34
260.859	8.44
261.328	7.84
261.797	18.24
262.266	7.64
262.735	6.74
263.204	3.84
263.673	-1.66
264.142	7.74
264.611	-5.96
265.08	-3.76
265.549	-1.86
266.018	5.64
266.487	-1.66
266.955	1.54
267.424	1.04
267.893	8.24
268.362	1.14
268.83	0.74
269.299	10.54
269.768	3.84
270.236	6.34
270.705	-1.86
271.174	4.54
271.642	7.14
272.111	3.14
272.579	19.04
273.048	20.14
273.516	27.44
273.985	23.94
274.453	19.44
274.922	12.34
275.39	11.14
275.858	4.74
276.327	11.04
276.795	12.14
277.263	1.84
277.731	21.54
278.2	43.94
278.668	54.84
279.136	41.64
279.604	18.74
280.072	13.04
280.54	9.54
281.008	10.74
281.477	11.34
281.945	10.64
282.413	14.74
282.881	15.34
283.348	5.04
283.816	14.24
284.284	12.04
284.752	15.44
285.22	11.04
285.688	12.64
286.156	17.34
286.623	40.44
287.091	45.94
287.559	23.74
288.026	16.44
288.494	14.44
288.962	5.34
289.429	7.14
289.897	11.04
290.364	10.74
290.832	18.94
291.3	16.64
291.767	19.14
292.234	12.44
292.702	9.34
293.169	22.94
293.637	22.74
294.104	14.64
294.571	4.74
295.039	13.14
295.506	19.24
295.973	9.04
296.44	15.14
296.908	15.44
297.375	12.14
297.842	16.24
298.309	11.44
298.776	18.24
299.243	16.74
299.71	14.24
300.177	19.14
300.644	22.94
301.111	17.34
301.578	18.24
302.045	16.14
302.512	20.44
302.979	22.34
303.446	19.94
303.913	13.04
304.379	14.84
304.846	22.44
305.313	19.24
305.78	24.24
306.246	20.84
306.713	26.84
307.18	24.64
307.646	23.04
308.113	27.94
308.579	23.34
309.046	25.54
309.512	23.04
309.979	18.54
310.445	23.64
310.912	30.54
311.378	29.34
311.845	21.94
312.311	28.34
312.777	30.24
313.244	34.34
313.71	33.04
314.176	26.54
314.642	29.34
315.109	28.44
315.575	29.64
316.041	31.54
316.507	34.14
316.973	43.54
317.439	28.64
317.905	32.24
318.371	28.24
318.837	25.14
319.303	34.44
319.769	29.64
320.235	27.94
320.701	34.04
321.167	37.54
321.633	33.64
322.099	39.64
322.564	41.84
323.03	39.54
323.496	34.14
323.962	33.04
324.427	32.44
324.893	44.24
325.359	36.54
325.824	37.64
326.29	34.64
326.755	39.44
327.221	30.54
327.686	37.54
328.152	47.04
328.617	37.64
329.083	42.54
329.548	44.84
330.014	44.34
330.479	39.24
330.944	48.44
331.41	36.74
331.875	42.14
332.34	41.84
332.805	42.84
333.271	41.64
333.736	40.64
334.201	48.24
334.666	49.54
335.131	56.64
335.596	49.04
336.061	50.94
336.526	36.24
336.991	40.14
337.456	48.64
337.921	46.04
338.386	43.74
338.851	46.44
339.316	42.84
339.781	45.54
340.246	42.94
340.711	38.34
341.175	50.04
341.64	38.04
342.105	51.04
342.569	48.04
343.034	54.84
343.499	48.84
343.963	44.74
344.428	59.04
344.893	57.04
345.357	58.44
345.822	64.34
346.286	59.04
346.751	68.94
347.215	57.64
347.679	68.84
348.144	89.14
348.608	86.14
349.073	65.44
349.537	66.94
350.001	76.54
350.465	79.64
350.93	75.84
351.394	79.34
351.858	69.24
352.322	84.44
352.786	85.74
353.25	96.14
353.715	107.54
354.179	90.24
354.643	114.94
355.107	112.94
355.571	100.34
356.035	101.24
356.498	115.14
356.962	124.64
357.426	127.64
357.89	115.14
358.354	86.84
358.818	77.14
359.281	74.94
359.745	66.24
360.209	74.04
360.673	74.64
361.136	73.74
361.6	78.34
362.064	80.14
362.527	77.94
362.991	83.84
363.454	75.84
363.918	73.24
364.381	77.74
364.845	76.54
365.308	74.24
365.772	83.44
366.235	86.74
366.698	84.04
367.162	83.94
367.625	86.04
368.088	83.44
368.552	81.74
369.015	82.04
369.478	97.34
369.941	98.54
370.404	91.14
370.867	101.94
371.331	100.74
371.794	110.94
372.257	109.14
372.72	110.14
373.183	106.44
373.646	107.64
374.109	96.44
374.572	98.74
375.035	110.64
375.497	104.24
375.96	106.14
376.423	99.94
376.886	106.94
377.349	105.74
377.811	100.24
378.274	105.84
378.737	100.14
379.199	108.14
379.662	109.04
380.125	119.54
380.587	116.54
381.05	124.34
381.512	127.64
381.975	134.74
382.437	128.54
382.9	127.14
383.362	133.54
383.825	141.54
384.287	147.34
384.75	138.84
385.212	134.04
385.674	133.54
386.136	137.74
386.599	118.94
387.061	124.04
387.523	120.94
387.985	135.14
388.447	140.24
388.91	143.14
389.372	156.34
389.834	156.24
390.296	145.04
390.758	154.04
391.22	163.64
391.682	206.14
392.144	293.44
392.606	229.54
393.068	160.14
393.529	168.44
393.991	148.44
394.453	152.84
394.915	150.04
395.377	195.94
395.838	218.44
396.3	152.14
396.762	133.64
397.224	129.74
397.685	131.74
398.147	129.94
398.608	125.94
399.07	127.04
399.531	128.24
399.993	137.94
400.454	148.14
400.916	146.34
401.377	137.24
401.839	152.44
402.3	151.54
402.762	161.34
403.223	178.84
403.684	170.54
404.145	157.44
404.607	157.94
405.068	158.64
405.529	169.04
405.99	181.84
406.451	176.24
406.913	173.64
407.374	164.34
407.835	161.84
408.296	166.84
408.757	169.04
409.218	182.24
409.679	175.24
410.14	179.74
410.601	172.94
411.062	183.24
411.522	184.64
411.983	184.74
412.444	168.24
412.905	179.14
413.366	179.94
413.826	187.24
414.287	209.54
414.748	261.94
415.208	242.24
415.669	206.24
416.13	202.94
416.59	195.94
417.051	211.64
417.511	213.84
417.972	228.04
418.432	234.24
418.893	285.04
419.353	248.24
419.814	191.64
420.274	177.14
420.734	177.04
421.195	199.74
421.655	199.34
422.115	191.14
422.576	191.24
423.036	196.04
423.496	204.54
423.956	210.54
424.416	232.44
424.876	262.94
425.336	247.84
425.797	258.94
426.257	255.34
426.717	237.54
427.177	230.04
427.637	225.54
428.097	228.04
428.556	247.24
429.016	269.74
429.476	265.44
429.936	272.04
430.396	275.84
430.856	289.84
431.315	314.84
431.775	349.74
432.235	383.64
432.694	350.84
433.154	360.94
433.614	397.84
434.073	343.84
434.533	280.84
434.993	270.04
435.452	282.34
435.912	295.34
436.371	287.14
436.83	285.84
437.29	266.84
437.749	247.04
438.209	247.94
438.668	273.04
439.127	285.04
439.587	258.34
440.046	243.94
440.505	250.34
440.964	277.44
441.424	318.24
441.883	311.54
442.342	255.94
442.801	218.44
443.26	216.54
443.719	224.74
444.178	221.94
444.637	206.24
445.096	217.44
445.555	214.74
446.014	225.24
446.473	228.74
446.932	235.04
447.391	226.34
447.849	226.54
448.308	211.04
448.767	212.24
449.226	230.74
449.685	232.64
450.143	244.74
450.602	232.44
451.061	225.44
451.519	232.64
451.978	227.04
452.436	239.64
452.895	242.34
453.353	248.64
453.812	234.24
454.27	235.44
454.729	232.04
455.187	240.64
455.646	245.34
456.104	244.24
456.562	261.64
457.021	266.24
457.479	253.44
457.937	264.74
458.395	265.34
458.854	243.94
459.312	255.64
459.77	272.14
460.228	252.44
460.686	241.84
461.144	240.34
461.602	244.64
462.06	242.64
462.518	254.04
462.976	244.24
463.434	252.54
463.892	253.74
464.35	268.44
464.808	274.74
465.266	265.74
465.724	262.74
466.181	267.34
466.639	270.34
467.097	287.44
467.555	295.64
468.012	297.34
468.47	299.34
468.928	321.84
469.385	333.04
469.843	346.34
470.3	346.04
470.758	353.84
471.215	372.84
471.673	396.04
472.13	406.44
472.588	414.44
473.045	369.54
473.503	368.64
473.96	386.34
474.417	397.84
474.875	425.54
475.332	474.34
475.789	461.44
476.246	454.74
476.704	477.04
477.161	498.14
477.618	518.94
478.075	555.74
478.532	598.94
478.989	695.94
479.446	785.14
479.903	765.64
480.36	803.84
480.817	852.04
481.274	953.74
481.731	1052.14
482.188	1146.34
482.645	1287.44
483.102	1388.94
483.558	1517.14
484.015	1581.04
484.472	1554.74
484.929	1504.54
485.385	1459.34
485.842	1416.44
486.299	1342.94
486.755	1278.14
487.212	1077.94
487.668	909.44
488.125	839.14
488.582	763.14
489.038	733.24
489.494	695.54
489.951	669.44
490.407	652.34
490.864	636.84
491.32	626.94
491.776	630.54
492.233	631.14
492.689	600.54
493.145	592.14
493.602	581.04
494.058	596.94
494.514	607.64
494.97	620.84
495.426	636.74
495.882	608.44
496.338	605.64
496.794	609.84
497.251	599.84
497.707	626.64
498.163	616.44
498.618	627.44
499.074	630.14
499.53	664.34
499.986	667.64
500.442	640.24
500.898	615.24
501.354	615.94
501.809	624.14
502.265	633.54
502.721	644.14
503.177	656.04
503.632	650.54
504.088	657.24
504.543	687.54
504.999	694.24
505.455	643.84
505.91	614.54
506.366	627.84
506.821	621.94
507.277	616.64
507.732	612.14
508.187	605.34
508.643	620.24
509.098	621.34
509.553	637.84
510.009	653.54
510.464	658.44
510.919	679.84
511.375	684.44
511.83	697.14
512.285	704.64
512.74	739.94
513.195	759.24
513.65	745.04
514.105	743.24
514.56	750.34
515.015	771.84
515.47	795.14
515.925	771.44
516.38	766.84
516.835	770.64
517.29	768.74
517.745	759.74
518.2	753.24
518.655	733.14
519.109	723.94
519.564	721.14
520.019	706.74
520.474	705.94
520.928	714.64
521.383	704.74
521.838	686.44
522.292	690.64
522.747	689.94
523.201	690.84
523.656	684.14
524.11	680.44
524.565	673.14
525.019	674.44
525.474	683.84
525.928	694.84
526.382	678.54
526.837	680.84
527.291	678.74
527.745	676.24
528.2	670.24
528.654	665.54
529.108	667.24
529.562	672.04
530.016	676.34
530.47	677.94
530.925	680.24
531.379	677.54
531.833	681.74
532.287	690.84
532.741	691.04
533.195	680.24
533.649	695.14
534.103	700.14
534.556	684.24
535.01	690.74
535.464	683.64
535.918	701.64
536.372	703.44
536.826	699.64
537.279	693.34
537.733	691.94
538.187	691.54
538.64	696.94
539.094	700.84
539.548	711.24
540.001	706.24
540.455	707.84
540.908	710.14
541.362	717.14
541.815	733.94
542.269	745.04
542.722	744.94
543.175	758.74
543.629	752.14
544.082	766.04
544.536	767.24
544.989	759.44
545.442	772.54
545.895	765.14
546.349	772.74
546.802	776.84
547.255	779.74
547.708	789.44
548.161	805.44
548.614	807.44
549.067	806.94
549.52	797.74
549.973	780.54
550.426	777.54
550.879	771.54
551.332	784.54
551.785	787.94
552.238	794.44
552.691	796.04
553.144	805.94
553.596	832.04
554.049	841.44
554.502	881.84
554.955	890.44
555.407	904.04
555.86	864.74
556.313	876.44
556.765	857.74
557.218	857.74
557.67	855.44
558.123	860.54
558.576	856.44
559.028	850.44
559.48	858.54
559.933	838.04
560.385	812.94
560.838	788.44
561.29	764.54
561.742	761.44
562.195	746.94
562.647	746.84
563.099	762.44
563.551	756.94
564.004	762.84
564.456	760.14
564.908	740.34
565.36	723.34
565.812	716.24
566.264	707.24
566.716	708.64
567.168	699.94
567.62	710.24
568.072	691.94
568.524	678.14
568.976	673.44
569.428	663.14
569.88	667.94
570.332	663.34
570.784	676.14
571.235	670.34
571.687	676.64
572.139	680.24
572.59	690.54
573.042	690.34
573.494	699.04
573.945	689.04
574.397	669.64
574.849	679.94
575.3	668.94
575.752	663.24
576.203	664.94
576.655	668.54
577.106	652.34
577.557	642.34
578.009	653.64
578.46	650.04
578.912	653.94
579.363	646.94
579.814	648.24
580.265	645.04
580.717	657.64
581.168	648.24
581.619	659.84
582.07	657.64
582.521	658.34
582.972	657.04
583.423	665.54
583.875	675.64
584.326	683.04
584.777	728.84
585.227	814.24
585.678	902.84
586.129	1002.84
586.58	1073.74
587.031	1149.14
587.482	1285.74
587.933	1473.34
588.384	1283.74
588.834	957.84
589.285	801.74
589.736	773.74
590.186	760.84
590.637	748.74
591.088	740.34
591.538	726.84
591.989	712.24
592.439	708.34
592.89	711.94
593.34	697.94
593.791	695.54
594.241	693.94
594.692	704.24
595.142	699.84
595.593	694.04
596.043	699.14
596.493	705.14
596.943	704.44
597.394	704.94
597.844	708.94
598.294	723.24
598.744	740.94
599.195	758.64
599.645	792.04
600.095	842.94
600.545	897.54
600.995	957.84
601.445	999.44
601.895	1059.64
602.345	1107.64
602.795	1077.24
603.245	1045.74
603.695	992.74
604.145	938.84
604.594	897.94
605.044	824.64
605.494	775.54
605.944	735.04
606.393	726.44
606.843	709.34
607.293	719.94
607.743	720.74
608.192	728.64
608.642	744.44
609.091	746.44
609.541	762.24
609.99	755.84
610.44	759.54
610.889	716.44
611.339	694.04
611.788	682.74
612.238	697.24
612.687	706.84
613.136	719.14
613.586	736.84
614.035	733.94
614.484	746.14
614.933	746.54
615.383	742.54
615.832	732.94
616.281	722.04
616.73	679.44
617.179	663.74
617.628	634.64
618.077	632.44
618.526	617.04
618.975	601.04
619.424	610.44
619.873	600.74
620.322	598.74
620.771	597.14
621.22	593.94
621.669	579.84
622.118	588.14
622.567	573.54
623.015	561.74
623.464	558.14
623.913	555.64
624.361	548.34
624.81	534.14
625.259	551.94
625.707	549.64
626.156	543.74
626.604	559.44
627.053	555.84
627.501	548.14
627.95	555.94
628.398	571.44
628.847	549.34
629.295	562.94
629.744	563.64
630.192	562.44
630.64	555.14
631.089	560.04
631.537	578.24
631.985	582.44
632.433	591.94
632.881	600.44
633.33	656.24
633.778	626.34
634.226	556.04
634.674	569.04
635.122	571.64
635.57	584.34
636.018	614.84
636.466	576.54
636.914	549.44
637.362	555.84
637.81	559.64
638.258	572.34
638.705	571.24
639.153	603.84
639.601	608.64
640.049	627.34
640.497	663.64
640.944	682.54
641.392	633.84
641.84	594.94
642.287	582.74
642.735	563.24
643.182	565.74
643.63	566.14
644.078	573.74
644.525	580.94
644.973	595.14
645.42	596.64
645.867	616.74
646.315	634.84
646.762	651.24
647.21	686.74
647.657	710.14
648.104	747.84
648.551	761.14
648.999	834.24
649.446	917.64
649.893	999.24
650.34	1147.54
650.787	1389.94
651.234	1724.54
651.682	2261.34
652.129	3125.54
652.576	4512.84
653.023	6657.94
653.47	9109.14
653.917	11332.74
654.363	12992.34
654.81	14300.44
655.257	13619.64
655.704	8899.84
656.151	5225.34
656.598	3385.04
657.044	2397.04
657.491	1837.14
657.938	1475.44
658.385	1227.44
658.831	1063.44
659.278	948.84
659.724	836.14
660.171	779.24
660.618	724.14
661.064	676.04
661.511	658.74
661.957	648.94
662.404	642.94
662.85	638.34
663.296	611.24
663.743	556.24
664.189	533.64
664.635	533.74
665.082	520.54
665.528	517.64
665.974	514.04
666.42	501.94
666.867	496.24
667.313	483.04
667.759	479.44
668.205	473.84
668.651	481.44
669.097	473.24
669.543	488.74
669.989	465.24
670.435	443.94
670.881	439.44
671.327	444.34
671.773	455.14
672.219	490.84
672.665	536.54
673.11	578.94
673.556	607.44
674.002	655.74
674.448	633.84
674.893	543.04
675.339	462.94
675.785	434.24
676.23	414.64
676.676	375.34
677.122	370.94
677.567	373.34
678.013	362.04
678.458	353.54
678.904	349.74
679.349	339.24
679.794	347.84
680.24	347.74
680.685	341.14
681.131	339.94
681.576	346.94
682.021	346.14
682.466	344.14
682.912	337.54
683.357	346.54
683.802	380.04
684.247	403.24
684.692	449.94
685.137	489.64
685.583	523.34
686.028	550.14
686.473	505.94
686.918	440.14
687.363	411.04
687.807	389.04
688.252	357.64
688.697	346.84
689.142	337.44
689.587	331.84
690.032	319.84
690.477	338.34
690.921	350.64
691.366	377.24
691.811	395.04
692.255	428.74
692.7	454.44
693.145	496.04
693.589	697.24
694.034	1140.64
694.478	1509.44
694.923	1683.04
695.367	2189.94
695.812	1162.34
696.256	483.34
696.701	363.84
697.145	336.74
697.59	329.64
698.034	311.84
698.478	326.74
698.922	326.54
699.367	314.64
699.811	330.04
700.255	353.44
700.699	387.54
701.143	429.24
701.588	471.84
702.032	517.44
702.476	498.84
702.92	478.94
703.364	490.74
703.808	632.44
704.252	1051.04
704.696	1431.94
705.14	1620.94
705.584	2062.64
706.027	1037.24
706.471	512.94
706.915	383.24
707.359	343.24
707.803	316.14
708.246	308.44
708.69	307.24
709.134	315.54
709.577	309.74
710.021	310.44
710.465	300.54
710.908	301.54
711.352	297.04
711.795	309.44
712.239	350.54
712.682	380.54
713.126	410.64
713.569	453.44
714.012	366.84
714.456	317.44
714.899	292.54
715.342	276.94
715.786	254.34
716.229	255.74
716.672	247.14
717.115	251.04
717.558	247.94
718.002	255.14
718.445	256.34
718.888	281.14
719.331	290.24
719.774	296.04
720.217	297.54
720.66	278.14
721.103	262.04
721.546	247.34
721.989	243.54
722.432	230.64
722.874	235.34
723.317	223.24
723.76	232.74
724.203	257.74
724.645	318.34
725.088	450.84
725.531	558.64
725.974	631.94
726.416	534.54
726.859	300.44
727.301	233.64
727.744	229.64
728.187	226.24
728.629	228.74
729.071	236.14
729.514	258.74
729.956	273.64
730.399	272.84
730.841	284.44
731.283	265.04
731.726	260.44
732.168	264.44
732.61	266.34
733.053	279.54
733.495	311.74
733.937	350.24
734.379	390.84
734.821	430.84
735.263	537.34
735.705	836.14
736.148	1586.94
736.59	2544.84
737.032	2973.74
737.474	2409.94
737.916	791.44
738.357	422.34
738.799	321.94
739.241	296.44
739.683	282.44
740.125	286.54
740.567	297.04
741.008	310.14
741.45	306.64
741.892	309.74
742.334	345.44
742.775	353.14
743.217	330.14
743.658	257.64
744.1	246.74
744.542	255.94
744.983	310.84
745.425	330.94
745.866	339.74
746.307	281.04
746.749	287.14
747.19	323.74
747.632	457.24
748.073	891.14
748.514	1869.04
748.956	2773.84
749.397	3512.14
749.838	2890.94
750.279	2866.84
750.72	1450.54
751.162	535.74
751.603	310.74
752.044	250.04
752.485	216.44
752.926	206.64
753.367	198.64
753.808	194.94
754.249	191.94
754.69	176.84
755.131	182.44
755.572	188.94
756.013	173.84
756.453	181.84
756.894	191.34
757.335	190.94
757.776	193.74
758.216	191.74
758.657	196.04
759.098	209.24
759.538	228.24
759.979	270.64
760.42	372.84
760.86	713.44
761.301	1845.34
761.741	4392.14
762.182	6199.84
762.622	4362.44
