Data from 20171114-ORNL-Ar_H_NY_Subt18_08-08-57-481.txt Node
Date: Tue Nov 14 08:08:57 EST 2017
User: Ender
Spectrometer: HR+D1039
Trigger mode: 0
Integration Time (sec): 2.730000E-2
Scans to average: 10
Electric dark correction enabled: true
Nonlinearity correction enabled: false
Boxcar width: 0
XAxis mode: Wavelengths
Number of Pixels in Spectrum: 2048
>>>>>Begin Spectral Data<<<<<
187.836	-4.78
188.309	-4.78
188.782	-4.78
189.255	3.02
189.728	-0.98
190.201	2.92
190.674	1.22
191.147	1.62
191.619	-2.68
192.092	-0.78
192.565	5.02
193.038	2.82
193.511	-1.18
193.984	1.42
194.456	-6.68
194.929	2.72
195.402	-3.18
195.874	-0.58
196.347	-7.38
196.82	-7.58
197.292	6.32
197.765	-2.48
198.237	-6.48
198.71	-4.28
199.182	-3.28
199.655	1.72
200.127	3.42
200.6	0.72
201.072	1.82
201.544	-4.48
202.017	-1.98
202.489	2.52
202.961	-3.48
203.433	3.12
203.906	-0.98
204.378	-2.58
204.85	-2.48
205.322	-9.18
205.794	-0.38
206.266	-7.08
206.739	-8.78
207.211	0.02
207.683	-14.08
208.155	-3.48
208.627	-6.88
209.099	-10.28
209.57	-6.98
210.042	-4.38
210.514	-2.48
210.986	-0.18
211.458	-9.18
211.93	-4.88
212.402	2.72
212.873	-2.38
213.345	-6.98
213.817	-15.88
214.288	-1.78
214.76	-9.28
215.232	-5.08
215.703	-1.38
216.175	-0.68
216.646	-7.68
217.118	-5.38
217.589	-3.88
218.061	-5.18
218.532	-5.08
219.004	-1.88
219.475	-5.78
219.946	-0.78
220.418	-2.88
220.889	3.32
221.36	-3.58
221.832	-5.38
222.303	-9.68
222.774	1.02
223.245	-15.78
223.717	-9.28
224.188	-3.28
224.659	2.32
225.13	-12.88
225.601	-3.58
226.072	0.72
226.543	0.12
227.014	-0.88
227.485	-0.38
227.956	-2.48
228.427	-1.88
228.898	-3.28
229.369	3.12
229.839	-6.48
230.31	-4.48
230.781	0.82
231.252	-5.58
231.722	-2.88
232.193	-2.88
232.664	2.22
233.135	-3.68
233.605	0.42
234.076	-7.08
234.546	-6.28
235.017	3.12
235.487	-0.58
235.958	-4.58
236.428	-4.48
236.899	-0.18
237.369	5.52
237.84	-6.88
238.31	0.92
238.78	-1.48
239.251	-13.18
239.721	-9.18
240.191	-0.28
240.662	-10.08
241.132	-1.18
241.602	-4.28
242.072	-3.78
242.542	2.42
243.013	-3.68
243.483	-2.48
243.953	-0.18
244.423	-3.78
244.893	-4.78
245.363	-2.18
245.833	1.12
246.303	-6.98
246.773	4.22
247.243	-0.88
247.712	1.32
248.182	1.72
248.652	0.12
249.122	-9.38
249.592	0.92
250.061	4.02
250.531	18.22
251.001	3.02
251.471	4.22
251.94	10.42
252.41	-5.68
252.879	-6.48
253.349	4.42
253.818	0.12
254.288	1.52
254.757	-3.08
255.227	-3.18
255.696	-8.48
256.166	1.12
256.635	5.62
257.105	0.52
257.574	-3.88
258.043	-1.68
258.513	1.42
258.982	3.32
259.451	-1.28
259.92	-0.58
260.389	0.72
260.859	10.12
261.328	8.32
261.797	-1.38
262.266	-1.48
262.735	6.72
263.204	-0.08
263.673	-0.28
264.142	2.82
264.611	-6.88
265.08	-6.78
265.549	0.62
266.018	3.42
266.487	-7.68
266.955	-1.08
267.424	-0.38
267.893	2.02
268.362	-3.68
268.83	0.32
269.299	5.02
269.768	-0.08
270.236	2.32
270.705	-3.38
271.174	-0.18
271.642	2.62
272.111	2.72
272.579	2.32
273.048	12.12
273.516	2.52
273.985	5.72
274.453	7.32
274.922	6.32
275.39	1.62
275.858	-1.68
276.327	6.02
276.795	7.92
277.263	7.22
277.731	15.02
278.2	23.02
278.668	14.32
279.136	21.22
279.604	10.12
280.072	4.72
280.54	2.92
281.008	6.02
281.477	5.52
281.945	5.32
282.413	8.72
282.881	7.82
283.348	4.92
283.816	9.52
284.284	6.22
284.752	19.12
285.22	3.62
285.688	6.92
286.156	5.82
286.623	25.32
287.091	18.42
287.559	15.42
288.026	5.52
288.494	5.72
288.962	-2.18
289.429	4.92
289.897	11.32
290.364	1.52
290.832	11.12
291.3	12.12
291.767	13.22
292.234	10.92
292.702	0.02
293.169	10.92
293.637	13.52
294.104	10.82
294.571	2.82
295.039	5.02
295.506	6.52
295.973	8.22
296.44	10.32
296.908	11.92
297.375	8.92
297.842	8.12
298.309	8.62
298.776	6.62
299.243	12.62
299.71	5.62
300.177	13.72
300.644	13.82
301.111	14.72
301.578	18.72
302.045	8.52
302.512	16.32
302.979	15.92
303.446	14.32
303.913	10.62
304.379	14.72
304.846	20.22
305.313	10.92
305.78	13.02
306.246	17.12
306.713	20.22
307.18	13.62
307.646	21.22
308.113	22.42
308.579	13.22
309.046	19.02
309.512	15.62
309.979	14.12
310.445	20.52
310.912	26.52
311.378	24.02
311.845	17.82
312.311	25.62
312.777	19.62
313.244	22.82
313.71	24.92
314.176	18.72
314.642	21.62
315.109	11.62
315.575	34.62
316.041	31.02
316.507	23.62
316.973	22.42
317.439	26.52
317.905	24.42
318.371	29.12
318.837	21.72
319.303	23.22
319.769	21.02
320.235	28.82
320.701	23.92
321.167	29.82
321.633	26.52
322.099	30.22
322.564	33.02
323.03	36.72
323.496	23.82
323.962	25.72
324.427	30.12
324.893	41.52
325.359	33.02
325.824	29.42
326.29	27.72
326.755	22.52
327.221	25.52
327.686	29.32
328.152	36.12
328.617	30.42
329.083	33.62
329.548	36.12
330.014	35.32
330.479	28.32
330.944	32.22
331.41	26.62
331.875	36.72
332.34	29.92
332.805	26.02
333.271	31.82
333.736	33.82
334.201	40.52
334.666	38.62
335.131	41.72
335.596	38.62
336.061	37.52
336.526	30.02
336.991	39.22
337.456	42.32
337.921	33.92
338.386	38.02
338.851	35.02
339.316	33.42
339.781	33.92
340.246	39.22
340.711	39.22
341.175	39.42
341.64	35.92
342.105	37.32
342.569	37.92
343.034	43.72
343.499	41.12
343.963	44.02
344.428	50.32
344.893	49.22
345.357	49.42
345.822	45.72
346.286	54.42
346.751	59.82
347.215	49.82
347.679	54.92
348.144	80.02
348.608	65.42
349.073	53.72
349.537	57.72
350.001	60.62
350.465	70.22
350.93	61.42
351.394	68.02
351.858	61.22
352.322	72.02
352.786	69.42
353.25	85.02
353.715	83.82
354.179	76.82
354.643	103.42
355.107	100.72
355.571	89.22
356.035	93.32
356.498	90.72
356.962	89.72
357.426	93.62
357.89	94.62
358.354	69.52
358.818	65.02
359.281	66.42
359.745	65.52
360.209	62.12
360.673	59.22
361.136	66.62
361.6	70.02
362.064	66.82
362.527	73.92
362.991	79.92
363.454	72.02
363.918	63.92
364.381	64.12
364.845	67.82
365.308	73.82
365.772	73.52
366.235	73.42
366.698	68.52
367.162	74.52
367.625	68.52
368.088	70.32
368.552	81.82
369.015	68.92
369.478	77.92
369.941	86.32
370.404	81.32
370.867	85.72
371.331	87.72
371.794	96.42
372.257	91.72
372.72	94.62
373.183	88.22
373.646	81.72
374.109	81.02
374.572	95.42
375.035	92.12
375.497	96.32
375.96	88.02
376.423	91.12
376.886	102.42
377.349	92.52
377.811	91.32
378.274	86.12
378.737	90.52
379.199	93.02
379.662	94.32
380.125	95.92
380.587	91.92
381.05	102.02
381.512	107.92
381.975	111.62
382.437	110.62
382.9	108.82
383.362	108.62
383.825	117.72
384.287	123.12
384.75	118.72
385.212	116.62
385.674	117.32
386.136	117.52
386.599	102.92
387.061	110.12
387.523	109.32
387.985	111.32
388.447	120.62
388.91	119.52
389.372	122.82
389.834	122.62
390.296	113.92
390.758	117.52
391.22	132.02
391.682	151.42
392.144	189.92
392.606	158.62
393.068	136.52
393.529	144.72
393.991	131.02
394.453	124.62
394.915	124.12
395.377	143.02
395.838	151.22
396.3	128.92
396.762	124.02
397.224	127.12
397.685	117.42
398.147	122.12
398.608	127.82
399.07	124.62
399.531	126.62
399.993	135.62
400.454	139.12
400.916	130.92
401.377	129.82
401.839	138.72
402.3	138.12
402.762	152.72
403.223	171.22
403.684	153.02
404.145	141.12
404.607	149.12
405.068	146.02
405.529	158.32
405.99	166.32
406.451	164.22
406.913	160.82
407.374	155.32
407.835	156.72
408.296	155.32
408.757	162.82
409.218	165.92
409.679	164.82
410.14	168.52
410.601	162.52
411.062	170.22
411.522	169.32
411.983	166.02
412.444	158.22
412.905	170.32
413.366	169.82
413.826	183.92
414.287	202.82
414.748	249.42
415.208	235.12
415.669	197.42
416.13	206.32
416.59	194.02
417.051	201.32
417.511	204.32
417.972	227.22
418.432	238.92
418.893	273.52
419.353	244.02
419.814	187.52
420.274	177.62
420.734	174.02
421.195	194.92
421.655	179.82
422.115	184.12
422.576	180.42
423.036	194.32
423.496	195.32
423.956	204.72
424.416	225.32
424.876	243.82
425.336	247.52
425.797	249.32
426.257	245.72
426.717	229.83
427.177	226.12
427.637	213.62
428.097	215.12
428.556	232.62
429.016	252.62
429.476	247.72
429.936	256.62
430.396	257.12
430.856	264.42
431.315	292.42
431.775	323.42
432.235	358.72
432.694	326.72
433.154	333.23
433.614	374.82
434.073	313.22
434.533	270.52
434.993	255.62
435.452	268.32
435.912	269.32
436.371	267.42
436.83	260.62
437.29	256.32
437.749	242.92
438.209	238.42
438.668	255.22
439.127	277.52
439.587	248.22
440.046	242.73
440.505	245.72
440.964	264.02
441.424	304.22
441.883	290.62
442.342	250.72
442.801	216.42
443.26	222.22
443.719	215.23
444.178	212.02
444.637	204.62
445.096	221.52
445.555	219.22
446.014	216.02
446.473	225.92
446.932	228.02
447.391	216.42
447.849	221.52
448.308	220.32
448.767	215.92
449.226	224.52
449.685	230.52
450.143	241.72
450.602	232.02
451.061	213.62
451.519	224.72
451.978	225.32
452.436	228.73
452.895	234.33
453.353	249.82
453.812	234.72
454.27	230.72
454.729	227.42
455.187	227.22
455.646	232.22
456.104	242.32
456.562	245.82
457.021	259.02
457.479	254.02
457.937	263.82
458.395	262.12
458.854	230.42
459.312	245.82
459.77	266.12
460.228	249.22
460.686	236.92
461.144	254.32
461.602	240.22
462.06	241.92
462.518	252.42
462.976	249.92
463.434	249.42
463.892	257.23
464.35	268.02
464.808	284.23
465.266	261.52
465.724	273.02
466.181	270.62
466.639	267.22
467.097	281.62
467.555	298.02
468.012	296.32
468.47	305.23
468.928	320.82
469.385	338.02
469.843	337.82
470.3	344.83
470.758	356.32
471.215	376.02
471.673	397.32
472.13	393.22
472.588	407.02
473.045	367.22
473.503	376.52
473.96	392.02
474.417	392.32
474.875	422.12
475.332	463.42
475.789	444.32
476.246	459.12
476.704	473.02
477.161	496.42
477.618	504.52
478.075	546.02
478.532	598.02
478.989	671.12
479.446	764.92
479.903	728.02
480.36	760.82
480.817	804.22
481.274	912.22
481.731	988.82
482.188	1067.32
482.645	1200.42
483.102	1278.72
483.558	1390.42
484.015	1446.72
484.472	1418.32
484.929	1373.82
485.385	1337.62
485.842	1305.22
486.299	1243.12
486.755	1212.62
487.212	1029.92
487.668	877.82
488.125	801.22
488.582	748.12
489.038	726.82
489.494	687.22
489.951	651.42
490.407	639.52
490.864	626.02
491.32	619.42
491.776	624.32
492.233	637.12
492.689	601.73
493.145	591.52
493.602	588.92
494.058	605.52
494.514	598.83
494.97	613.12
495.426	632.82
495.882	606.52
496.338	591.32
496.794	605.82
497.251	595.92
497.707	618.83
498.163	623.42
498.618	628.42
499.074	628.52
499.53	640.42
499.986	651.92
500.442	633.22
500.898	609.62
501.354	609.92
501.809	614.52
502.265	618.42
502.721	631.42
503.177	648.02
503.632	639.12
504.088	643.82
504.543	665.02
504.999	681.32
505.455	654.62
505.91	619.23
506.366	626.42
506.821	616.02
507.277	626.62
507.732	615.92
508.187	618.82
508.643	631.32
509.098	630.02
509.553	646.12
510.009	660.62
510.464	659.42
510.919	677.52
511.375	689.02
511.83	698.22
512.285	717.12
512.74	755.82
513.195	769.42
513.65	762.83
514.105	754.82
514.56	752.12
515.015	784.02
515.47	784.23
515.925	775.52
516.38	767.82
516.835	774.62
517.29	770.12
517.745	767.72
518.2	762.02
518.655	735.42
519.109	733.52
519.564	726.12
520.019	719.22
520.474	715.92
520.928	717.22
521.383	709.42
521.838	703.82
522.292	707.32
522.747	700.73
523.201	695.32
523.656	692.52
524.11	686.83
524.565	687.32
525.019	686.42
525.474	697.22
525.928	692.12
526.382	683.22
526.837	687.52
527.291	692.92
527.745	704.72
528.2	689.92
528.654	676.32
529.108	681.92
529.562	690.82
530.016	687.52
530.47	681.82
530.925	684.42
531.379	683.12
531.833	701.52
532.287	693.12
532.741	692.62
533.195	702.42
533.649	701.22
534.103	715.52
534.556	692.12
535.01	692.62
535.464	697.12
535.918	705.72
536.372	705.52
536.826	701.72
537.279	706.32
537.733	693.02
538.187	711.32
538.64	703.12
539.094	709.02
539.548	717.72
540.001	717.12
540.455	716.22
540.908	736.62
541.362	750.02
541.815	738.92
542.269	752.72
542.722	762.22
543.175	771.22
543.629	771.62
544.082	785.82
544.536	772.82
544.989	785.22
545.442	779.82
545.895	793.02
546.349	789.72
546.802	792.92
547.255	800.52
547.708	804.02
548.161	816.72
548.614	822.42
549.067	822.82
549.52	809.52
549.973	809.62
550.426	801.22
550.879	783.82
551.332	790.32
551.785	798.82
552.238	803.82
552.691	818.83
553.144	833.02
553.596	849.12
554.049	865.12
554.502	892.62
554.955	902.82
555.407	890.92
555.86	892.82
556.313	887.02
556.765	876.62
557.218	877.02
557.67	883.42
558.123	871.82
558.576	873.02
559.028	878.12
559.48	884.12
559.933	866.62
560.385	845.32
560.838	820.52
561.29	792.82
561.742	782.92
562.195	768.92
562.647	762.62
563.099	779.62
563.551	770.42
564.004	778.22
564.456	776.72
564.908	755.72
565.36	738.72
565.812	731.92
566.264	725.42
566.716	716.42
567.168	715.92
567.62	723.42
568.072	693.02
568.524	691.52
568.976	690.42
569.428	682.12
569.88	680.42
570.332	679.52
570.784	689.92
571.235	687.62
571.687	688.32
572.139	706.12
572.59	714.62
573.042	710.32
573.494	717.42
573.945	711.32
574.397	689.92
574.849	685.72
575.3	692.42
575.752	676.92
576.203	680.92
576.655	690.32
577.106	679.23
577.557	668.02
578.009	669.12
578.46	672.52
578.912	669.22
579.363	678.32
579.814	676.02
580.265	673.62
580.717	682.42
581.168	676.52
581.619	680.52
582.07	681.92
582.521	672.92
582.972	674.32
583.423	679.92
583.875	683.42
584.326	695.82
584.777	720.82
585.227	757.62
585.678	797.12
586.129	844.42
586.58	874.52
587.031	918.73
587.482	981.82
587.933	1084.22
588.384	1005.02
588.834	851.02
589.285	789.62
589.736	782.62
590.186	768.52
590.637	772.82
591.088	752.12
591.538	743.82
591.989	733.82
592.439	727.82
592.89	717.02
593.34	712.72
593.791	704.62
594.241	702.02
594.692	711.82
595.142	702.12
595.593	693.82
596.043	706.12
596.493	719.82
596.943	724.02
597.394	731.23
597.844	723.73
598.294	740.12
598.744	752.82
599.195	796.12
599.645	820.62
600.095	867.92
600.545	920.62
600.995	985.02
601.445	1039.12
601.895	1111.52
602.345	1142.22
602.795	1121.72
603.245	1084.02
603.695	1023.02
604.145	971.92
604.594	926.33
605.044	863.42
605.494	797.42
605.944	758.72
606.393	756.72
606.843	731.12
607.293	723.72
607.743	737.12
608.192	753.32
608.642	763.42
609.091	764.52
609.541	770.12
609.99	774.22
610.44	775.72
610.889	721.02
611.339	693.92
611.788	679.83
612.238	693.32
612.687	712.82
613.136	708.23
613.586	729.02
614.035	714.22
614.484	731.82
614.933	724.42
615.383	715.82
615.832	716.02
616.281	718.83
616.73	683.02
617.179	666.52
617.628	645.02
618.077	635.72
618.526	625.42
618.975	614.72
619.424	612.32
619.873	618.62
620.322	622.32
620.771	612.62
621.22	616.92
621.669	604.12
622.118	593.12
622.567	585.02
623.015	579.72
623.464	574.42
623.913	569.32
624.361	558.32
624.81	559.02
625.259	557.83
625.707	566.92
626.156	560.52
626.604	566.82
627.053	566.62
627.501	567.12
627.95	571.72
628.398	585.82
628.847	567.83
629.295	581.12
629.744	588.72
630.192	567.72
630.64	569.82
631.089	562.72
631.537	564.82
631.985	557.32
632.433	564.23
632.881	559.22
633.33	569.12
633.778	575.02
634.226	550.52
634.674	559.72
635.122	574.12
635.57	577.32
636.018	588.02
636.466	576.42
636.914	559.23
637.362	583.33
637.81	586.12
638.258	580.22
638.705	584.82
639.153	623.02
639.601	624.22
640.049	640.32
640.497	679.92
640.944	700.12
641.392	647.62
641.84	621.12
642.287	592.92
642.735	575.62
643.182	573.62
643.63	566.32
644.078	573.92
644.525	585.22
644.973	588.22
645.42	592.62
645.867	615.82
646.315	652.12
646.762	659.83
647.21	691.33
647.657	707.62
648.104	744.82
648.551	765.42
648.999	833.23
649.446	905.42
649.893	983.12
650.34	1133.52
650.787	1352.42
651.234	1677.22
651.682	2166.32
652.129	2981.82
652.576	4241.32
653.023	6188.62
653.47	8366.32
653.917	10334.32
654.363	11818.62
654.81	12985.12
655.257	12283.12
655.704	8114.32
656.151	4884.42
656.598	3182.53
657.044	2285.02
657.491	1773.03
657.938	1426.03
658.385	1202.92
658.831	1048.22
659.278	930.12
659.724	840.22
660.171	775.12
660.618	716.72
661.064	684.83
661.511	664.73
661.957	649.22
662.404	640.62
662.85	649.83
663.296	628.22
663.743	560.72
664.189	541.62
664.635	540.72
665.082	534.02
665.528	532.12
665.974	525.42
666.42	518.42
666.867	505.72
667.313	494.82
667.759	480.72
668.205	467.52
668.651	472.12
669.097	466.82
669.543	466.52
669.989	459.62
670.435	451.52
670.881	448.52
671.327	451.52
671.773	479.32
672.219	492.62
672.665	554.92
673.11	593.92
673.556	640.62
674.002	683.32
674.448	665.42
674.893	563.82
675.339	482.42
675.785	452.82
676.23	424.02
676.676	404.92
677.122	394.52
677.567	379.92
678.013	377.72
678.458	366.02
678.904	370.92
679.349	352.02
679.794	363.62
680.24	365.72
680.685	358.12
681.131	356.72
681.576	353.42
682.021	370.42
682.466	363.62
682.912	352.22
683.357	353.73
683.802	391.12
684.247	426.52
684.692	469.22
685.137	505.52
685.583	549.32
686.028	565.42
686.473	534.12
686.918	451.82
687.363	418.42
687.807	407.62
688.252	374.62
688.697	368.12
689.142	346.42
689.587	336.82
690.032	334.82
690.477	360.32
690.921	362.42
691.366	396.62
691.811	415.02
692.255	443.82
692.7	471.82
693.145	520.92
693.589	734.62
694.034	1192.92
694.478	1592.62
694.923	1767.82
695.367	2293.93
695.812	1214.62
696.256	510.12
696.701	376.22
697.145	352.82
697.59	343.22
698.034	328.32
698.478	335.22
698.922	329.62
699.367	336.42
699.811	338.22
700.255	362.52
700.699	388.32
701.143	434.12
701.588	492.02
702.032	526.12
702.476	525.12
702.92	504.83
703.364	522.22
703.808	678.12
704.252	1109.53
704.696	1525.12
705.14	1716.42
705.584	2185.22
706.027	1092.62
706.471	542.12
706.915	410.92
707.359	358.12
707.803	327.02
708.246	317.72
708.69	318.02
709.134	325.22
709.577	313.12
710.021	322.02
710.465	312.82
710.908	308.42
711.352	305.73
711.795	332.82
712.239	362.52
712.682	394.92
713.126	424.52
713.569	473.62
714.012	375.02
714.456	323.12
714.899	301.12
715.342	283.02
715.786	264.12
716.229	264.62
716.672	261.42
717.115	250.62
717.558	258.92
718.002	260.22
718.445	269.82
718.888	287.12
719.331	299.33
719.774	310.92
720.217	312.02
720.66	292.62
721.103	277.62
721.546	264.12
721.989	262.32
722.432	242.02
722.874	251.32
723.317	238.12
723.76	237.32
724.203	260.72
724.645	327.52
725.088	474.62
725.531	593.42
725.974	648.62
726.416	560.32
726.859	314.22
727.301	249.12
727.744	243.22
728.187	234.02
728.629	250.32
729.071	247.52
729.514	267.22
729.956	277.82
730.399	292.02
730.841	302.32
731.283	280.42
731.726	274.12
732.168	269.82
732.61	279.22
733.053	296.72
733.495	326.22
733.937	364.42
734.379	414.12
734.821	460.23
735.263	577.42
735.705	900.32
736.148	1707.62
736.59	2723.02
737.032	3110.12
737.474	2543.52
737.916	844.12
738.357	441.12
738.799	339.22
739.241	308.82
739.683	296.52
740.125	304.22
740.567	316.62
741.008	319.52
741.45	317.32
741.892	325.42
742.334	366.22
742.775	376.72
743.217	350.62
743.658	275.02
744.1	261.22
744.542	273.02
744.983	325.42
745.425	357.52
745.866	351.52
746.307	296.82
746.749	292.02
747.19	341.02
747.632	490.83
748.073	960.12
748.514	2011.92
748.956	2961.72
749.397	3733.62
749.838	3095.62
750.279	3002.62
750.72	1545.52
751.162	573.92
751.603	336.32
752.044	260.92
752.485	222.52
752.926	214.12
753.367	210.02
753.808	198.32
754.249	194.92
754.69	193.12
755.131	188.12
755.572	183.62
756.013	189.72
756.453	192.52
756.894	193.12
757.335	194.32
757.776	202.72
758.216	207.92
758.657	207.52
759.098	204.23
759.538	232.82
759.979	281.82
760.42	402.42
760.86	775.12
761.301	2015.22
761.741	4729.52
762.182	6523.33
762.622	4621.12
763.063	1363.03
763.503	564.32
