Data from 20171114-ORNL-Ar_H_NY_Subt18_08-04-41-644.txt Node
Date: Tue Nov 14 08:04:41 EST 2017
User: Ender
Spectrometer: HR+D1039
Trigger mode: 0
Integration Time (sec): 2.730000E-2
Scans to average: 10
Electric dark correction enabled: true
Nonlinearity correction enabled: false
Boxcar width: 0
XAxis mode: Wavelengths
Number of Pixels in Spectrum: 2048
>>>>>Begin Spectral Data<<<<<
187.836	-5.96
188.309	-5.96
188.782	-5.96
189.255	3.44
189.728	-3.36
190.201	5.64
190.674	1.64
191.147	5.94
191.619	-8.56
192.092	4.24
192.565	4.24
193.038	1.84
193.511	-0.36
193.984	-4.86
194.456	-3.36
194.929	1.64
195.402	-4.26
195.874	2.04
196.347	-4.16
196.82	-8.36
197.292	5.14
197.765	0.84
198.237	-4.36
198.71	-1.86
199.182	0.44
199.655	-3.66
200.127	6.34
200.6	-3.16
201.072	-4.16
201.544	-6.06
202.017	-1.06
202.489	6.04
202.961	-1.86
203.433	-6.36
203.906	-11.06
204.378	-8.76
204.85	-6.06
205.322	-7.06
205.794	-3.86
206.266	-4.56
206.739	-13.36
207.211	3.94
207.683	-7.26
208.155	-4.96
208.627	-4.56
209.099	-0.56
209.57	0.44
210.042	-2.46
210.514	-7.96
210.986	-7.86
211.458	-7.86
211.93	-4.46
212.402	5.24
212.873	-2.56
213.345	-5.86
213.817	-11.96
214.288	-5.96
214.76	-10.66
215.232	-1.26
215.703	-4.56
216.175	-3.06
216.646	-10.26
217.118	-5.96
217.589	-4.96
218.061	-4.86
218.532	-6.06
219.004	-0.46
219.475	-6.06
219.946	-5.66
220.418	-0.16
220.889	2.94
221.36	1.74
221.832	-8.96
222.303	2.84
222.774	-3.76
223.245	-10.56
223.717	-7.16
224.188	-3.96
224.659	-8.46
225.13	-9.06
225.601	-5.16
226.072	3.34
226.543	-1.86
227.014	-4.36
227.485	-4.76
227.956	-9.56
228.427	-1.36
228.898	-1.16
229.369	2.94
229.839	-4.46
230.31	-10.76
230.781	2.74
231.252	-5.66
231.722	0.34
232.193	-2.26
232.664	3.04
233.135	4.94
233.605	3.64
234.076	-3.96
234.546	-1.26
235.017	8.84
235.487	2.04
235.958	2.24
236.428	-1.26
236.899	9.94
237.369	5.04
237.84	-5.56
238.31	3.64
238.78	-5.56
239.251	-0.76
239.721	-0.96
240.191	-0.16
240.662	1.34
241.132	-2.26
241.602	-5.16
242.072	3.54
242.542	7.34
243.013	-0.06
243.483	0.34
243.953	1.84
244.423	-1.46
244.893	-6.06
245.363	0.34
245.833	1.64
246.303	-0.76
246.773	4.64
247.243	3.64
247.712	2.34
248.182	5.24
248.652	6.24
249.122	-2.36
249.592	15.44
250.061	21.24
250.531	30.84
251.001	22.44
251.471	20.74
251.94	21.34
252.41	5.34
252.879	-1.46
253.349	12.14
253.818	11.64
254.288	2.74
254.757	10.04
255.227	-0.86
255.696	4.74
256.166	3.14
256.635	3.24
257.105	14.64
257.574	11.14
258.043	12.84
258.513	8.34
258.982	25.74
259.451	6.14
259.92	16.14
260.389	12.14
260.859	14.64
261.328	9.94
261.797	12.94
262.266	14.44
262.735	13.94
263.204	1.74
263.673	1.14
264.142	7.84
264.611	5.34
265.08	2.74
265.549	1.84
266.018	8.84
266.487	-0.46
266.955	1.64
267.424	-0.16
267.893	5.94
268.362	5.24
268.83	-0.06
269.299	11.54
269.768	14.14
270.236	5.74
270.705	3.54
271.174	6.94
271.642	11.14
272.111	6.84
272.579	17.44
273.048	25.04
273.516	30.34
273.985	27.24
274.453	29.74
274.922	23.24
275.39	12.64
275.858	10.54
276.327	10.04
276.795	21.04
277.263	10.44
277.731	32.54
278.2	55.74
278.668	63.94
279.136	51.64
279.604	23.34
280.072	17.04
280.54	13.14
281.008	13.44
281.477	13.74
281.945	17.24
282.413	17.94
282.881	19.04
283.348	12.94
283.816	13.14
284.284	16.94
284.752	23.14
285.22	15.44
285.688	15.04
286.156	23.74
286.623	40.64
287.091	55.84
287.559	28.94
288.026	19.14
288.494	18.34
288.962	3.74
289.429	17.94
289.897	23.14
290.364	14.54
290.832	20.34
291.3	21.04
291.767	20.34
292.234	18.84
292.702	15.14
293.169	19.54
293.637	30.54
294.104	20.24
294.571	8.74
295.039	17.04
295.506	18.24
295.973	15.24
296.44	20.14
296.908	15.44
297.375	17.04
297.842	19.34
298.309	11.74
298.776	24.84
299.243	19.94
299.71	14.94
300.177	20.04
300.644	26.54
301.111	22.54
301.578	20.94
302.045	22.14
302.512	24.24
302.979	30.04
303.446	29.54
303.913	21.84
304.379	25.34
304.846	26.94
305.313	27.84
305.78	18.94
306.246	29.64
306.713	30.04
307.18	25.04
307.646	28.14
308.113	31.84
308.579	26.54
309.046	26.94
309.512	28.04
309.979	19.54
310.445	31.74
310.912	31.44
311.378	36.04
311.845	30.44
312.311	36.34
312.777	31.84
313.244	29.84
313.71	40.74
314.176	26.14
314.642	34.54
315.109	35.64
315.575	40.34
316.041	40.04
316.507	29.64
316.973	45.54
317.439	33.44
317.905	39.94
318.371	39.34
318.837	35.94
319.303	38.94
319.769	33.94
320.235	38.44
320.701	37.54
321.167	44.24
321.633	40.94
322.099	38.74
322.564	43.94
323.03	42.94
323.496	41.54
323.962	43.04
324.427	42.64
324.893	45.94
325.359	44.04
325.824	38.24
326.29	36.74
326.755	35.74
327.221	44.94
327.686	40.24
328.152	47.04
328.617	44.84
329.083	51.74
329.548	50.04
330.014	50.14
330.479	40.64
330.944	45.04
331.41	48.74
331.875	48.94
332.34	45.14
332.805	46.24
333.271	43.34
333.736	46.64
334.201	52.74
334.666	55.14
335.131	56.24
335.596	52.74
336.061	49.94
336.526	42.24
336.991	50.64
337.456	59.44
337.921	52.74
338.386	41.64
338.851	44.94
339.316	46.64
339.781	46.24
340.246	53.34
340.711	49.74
341.175	51.94
341.64	43.34
342.105	51.24
342.569	59.34
343.034	64.34
343.499	58.64
343.963	51.54
344.428	62.34
344.893	63.74
345.357	64.04
345.822	62.74
346.286	60.64
346.751	82.24
347.215	74.74
347.679	77.54
348.144	97.94
348.608	86.74
349.073	73.94
349.537	79.84
350.001	87.14
350.465	91.84
350.93	83.94
351.394	82.44
351.858	76.74
352.322	88.64
352.786	88.34
353.25	100.94
353.715	107.74
354.179	103.04
354.643	119.24
355.107	124.14
355.571	106.44
356.035	103.84
356.498	118.04
356.962	121.54
357.426	124.04
357.89	118.94
358.354	95.04
358.818	80.24
359.281	83.64
359.745	80.94
360.209	73.64
360.673	79.04
361.136	82.64
361.6	88.74
362.064	91.84
362.527	87.04
362.991	90.14
363.454	79.94
363.918	79.04
364.381	83.54
364.845	84.44
365.308	88.64
365.772	91.84
366.235	88.74
366.698	82.04
367.162	84.94
367.625	86.34
368.088	80.24
368.552	85.64
369.015	88.74
369.478	94.94
369.941	101.24
370.404	90.04
370.867	106.34
371.331	105.54
371.794	113.74
372.257	117.34
372.72	121.64
373.183	110.04
373.646	100.84
374.109	105.04
374.572	103.74
375.035	104.04
375.497	106.54
375.96	105.04
376.423	102.34
376.886	109.74
377.349	111.54
377.811	108.54
378.274	104.94
378.737	102.44
379.199	115.24
379.662	108.14
380.125	114.24
380.587	113.94
381.05	121.44
381.512	121.84
381.975	134.44
382.437	129.54
382.9	127.14
383.362	126.04
383.825	130.54
384.287	148.84
384.75	139.44
385.212	138.64
385.674	138.44
386.136	134.24
386.599	129.44
387.061	126.54
387.523	123.34
387.985	132.24
388.447	143.14
388.91	145.44
389.372	153.74
389.834	145.14
390.296	141.04
390.758	147.44
391.22	169.14
391.682	201.24
392.144	277.34
392.606	218.14
393.068	166.04
393.529	159.14
393.991	154.04
394.453	147.74
394.915	155.14
395.377	190.14
395.838	201.94
396.3	155.34
396.762	145.44
397.224	131.94
397.685	130.54
398.147	127.24
398.608	126.24
399.07	125.14
399.531	135.94
399.993	142.14
400.454	145.04
400.916	143.54
401.377	147.64
401.839	152.24
402.3	149.24
402.762	163.24
403.223	175.34
403.684	167.84
404.145	159.84
404.607	157.54
405.068	161.34
405.529	164.84
405.99	183.74
406.451	171.54
406.913	173.34
407.374	163.64
407.835	163.24
408.296	165.44
408.757	170.84
409.218	178.14
409.679	176.74
410.14	172.74
410.601	171.84
411.062	188.04
411.522	186.34
411.983	184.04
412.444	172.84
412.905	174.34
413.366	182.04
413.826	188.74
414.287	215.14
414.748	254.64
415.208	241.24
415.669	213.14
416.13	205.34
416.59	197.84
417.051	210.34
417.511	220.84
417.972	226.24
418.432	243.54
418.893	279.44
419.353	250.24
419.814	191.04
420.274	183.34
420.734	183.14
421.195	197.64
421.655	196.44
422.115	187.54
422.576	182.94
423.036	188.94
423.496	206.44
423.956	210.54
424.416	231.74
424.876	260.94
425.336	257.54
425.797	256.34
426.257	248.34
426.717	232.04
427.177	231.74
427.637	218.84
428.097	229.54
428.556	235.44
429.016	261.14
429.476	254.84
429.936	268.44
430.396	274.24
430.856	283.54
431.315	308.74
431.775	338.94
432.235	368.64
432.694	346.64
433.154	351.74
433.614	385.74
434.073	323.54
434.533	268.74
434.993	269.54
435.452	266.44
435.912	289.44
436.371	279.54
436.83	274.34
437.29	260.74
437.749	239.54
438.209	239.94
438.668	255.24
439.127	277.94
439.587	255.54
440.046	245.84
440.505	253.94
440.964	274.54
441.424	309.44
441.883	299.44
442.342	251.54
442.801	221.84
443.26	213.94
443.719	218.64
444.178	219.54
444.637	205.24
445.096	214.64
445.555	216.74
446.014	213.64
446.473	221.64
446.932	218.34
447.391	217.14
447.849	216.54
448.308	206.94
448.767	217.54
449.226	224.94
449.685	223.64
450.143	246.74
450.602	226.64
451.061	223.34
451.519	223.14
451.978	224.74
452.436	220.44
452.895	241.64
453.353	241.64
453.812	236.74
454.27	234.94
454.729	232.74
455.187	228.24
455.646	231.94
456.104	240.44
456.562	243.04
457.021	253.84
457.479	248.04
457.937	257.04
458.395	260.54
458.854	244.74
459.312	246.34
459.77	266.24
460.228	244.54
460.686	231.84
461.144	237.94
461.602	231.64
462.06	235.74
462.518	243.34
462.976	244.34
463.434	256.04
463.892	251.54
464.35	258.44
464.808	275.94
465.266	251.54
465.724	257.74
466.181	263.14
466.639	265.74
467.097	276.24
467.555	285.84
468.012	298.64
468.47	299.44
468.928	316.14
469.385	337.64
469.843	334.24
470.3	338.54
470.758	351.34
471.215	361.34
471.673	386.44
472.13	385.24
472.588	406.94
473.045	350.44
473.503	368.54
473.96	381.94
474.417	382.34
474.875	413.24
475.332	448.84
475.789	438.94
476.246	443.44
476.704	476.24
477.161	485.54
477.618	503.74
478.075	541.44
478.532	588.14
478.989	668.34
479.446	764.14
479.903	747.24
480.36	774.54
480.817	830.34
481.274	934.84
481.731	1033.34
482.188	1119.94
482.645	1246.44
483.102	1364.34
483.558	1470.94
484.015	1535.54
484.472	1500.44
484.929	1476.44
485.385	1435.44
485.842	1388.64
486.299	1328.14
486.755	1252.34
487.212	1064.54
487.668	894.24
488.125	826.14
488.582	756.14
489.038	728.34
489.494	687.44
489.951	656.54
490.407	645.14
490.864	628.54
491.32	618.34
491.776	624.84
492.233	622.24
492.689	587.94
493.145	583.84
493.602	570.44
494.058	588.14
494.514	601.44
494.97	616.84
495.426	623.74
495.882	603.34
496.338	592.14
496.794	612.94
497.251	607.04
497.707	619.24
498.163	620.84
498.618	619.34
499.074	618.94
499.53	647.84
499.986	648.44
500.442	636.24
500.898	605.34
501.354	604.94
501.809	614.94
502.265	622.74
502.721	634.14
503.177	645.84
503.632	636.14
504.088	649.14
504.543	672.34
504.999	683.64
505.455	629.74
505.91	613.14
506.366	608.04
506.821	600.74
507.277	598.14
507.732	604.64
508.187	608.54
508.643	614.54
509.098	608.24
509.553	629.14
510.009	634.14
510.464	639.64
510.919	655.54
511.375	652.54
511.83	675.54
512.285	687.54
512.74	740.64
513.195	746.34
513.65	736.44
514.105	731.54
514.56	744.64
515.015	757.64
515.47	778.34
515.925	757.14
516.38	749.74
516.835	754.34
517.29	755.64
517.745	752.64
518.2	738.44
518.655	729.94
519.109	718.04
519.564	711.94
520.019	696.54
520.474	699.84
520.928	700.44
521.383	688.74
521.838	686.44
522.292	680.54
522.747	678.24
523.201	666.34
523.656	673.94
524.11	655.74
524.565	663.54
525.019	655.04
525.474	674.94
525.928	672.24
526.382	659.84
526.837	671.54
527.291	677.04
527.745	671.24
528.2	660.54
528.654	653.74
529.108	660.84
529.562	658.64
530.016	655.34
530.47	654.64
530.925	654.84
531.379	654.84
531.833	669.84
532.287	669.44
532.741	674.64
533.195	675.44
533.649	672.04
534.103	687.84
534.556	665.44
535.01	675.34
535.464	672.94
535.918	681.94
536.372	681.74
536.826	683.34
537.279	677.74
537.733	680.44
538.187	680.94
538.64	676.44
539.094	694.44
539.548	695.74
540.001	673.74
540.455	679.54
540.908	699.74
541.362	700.04
541.815	708.74
542.269	706.24
542.722	715.74
543.175	740.54
543.629	726.34
544.082	746.04
544.536	743.24
544.989	751.24
545.442	749.04
545.895	737.24
546.349	743.84
546.802	747.04
547.255	751.94
547.708	753.54
548.161	777.64
548.614	779.44
549.067	780.44
549.52	775.04
549.973	760.24
550.426	758.64
550.879	746.04
551.332	748.04
551.785	761.04
552.238	760.14
552.691	770.94
553.144	777.24
553.596	792.94
554.049	816.04
554.502	850.94
554.955	860.54
555.407	857.34
555.86	850.24
556.313	843.04
556.765	833.74
557.218	834.14
557.67	817.64
558.123	824.24
558.576	818.24
559.028	824.14
559.48	827.94
559.933	818.34
560.385	792.84
560.838	754.34
561.29	734.54
561.742	719.14
562.195	719.84
562.647	712.04
563.099	723.74
563.551	724.54
564.004	722.64
564.456	725.74
564.908	708.94
565.36	706.24
565.812	678.64
566.264	676.94
566.716	676.64
567.168	663.94
567.62	683.14
568.072	651.74
568.524	645.64
568.976	642.84
569.428	633.34
569.88	626.84
570.332	629.04
570.784	630.84
571.235	631.84
571.687	639.84
572.139	645.24
572.59	663.14
573.042	667.94
573.494	661.94
573.945	659.74
574.397	625.54
574.849	643.84
575.3	640.44
575.752	635.74
576.203	617.24
576.655	635.84
577.106	624.94
577.557	616.44
578.009	620.64
578.46	614.04
578.912	613.74
579.363	620.04
579.814	614.34
580.265	611.24
580.717	623.04
581.168	616.04
581.619	623.84
582.07	630.44
582.521	628.54
582.972	614.44
583.423	623.94
583.875	629.64
584.326	642.94
584.777	685.94
585.227	752.24
585.678	838.04
586.129	917.54
586.58	980.34
587.031	1057.04
587.482	1209.14
587.933	1361.44
588.384	1189.24
588.834	889.04
589.285	731.64
589.736	721.84
590.186	713.04
590.637	705.44
591.088	677.14
591.538	682.24
591.989	671.34
592.439	659.94
592.89	657.94
593.34	647.84
593.791	650.74
594.241	643.74
594.692	650.44
595.142	641.24
595.593	633.84
596.043	650.54
596.493	654.64
596.943	652.54
597.394	665.94
597.844	652.24
598.294	655.84
598.744	686.24
599.195	707.64
599.645	740.44
600.095	779.14
600.545	829.34
600.995	865.54
601.445	927.44
601.895	985.74
602.345	1034.64
602.795	1020.54
603.245	978.94
603.695	924.84
604.145	876.44
604.594	827.84
605.044	789.64
605.494	722.64
605.944	687.04
606.393	678.84
606.843	672.74
607.293	663.64
607.743	662.84
608.192	665.84
608.642	690.04
609.091	678.34
609.541	703.54
609.99	700.34
610.44	684.94
610.889	647.34
611.339	631.94
611.788	619.34
612.238	631.54
612.687	646.24
613.136	635.94
613.586	669.34
614.035	657.44
614.484	681.44
614.933	678.74
615.383	675.54
615.832	661.14
616.281	647.24
616.73	621.14
617.179	597.84
617.628	596.84
618.077	575.64
618.526	564.84
618.975	549.44
619.424	551.64
619.873	538.64
620.322	554.24
620.771	542.84
621.22	542.74
621.669	530.64
622.118	527.94
622.567	516.64
623.015	512.64
623.464	500.64
623.913	496.04
624.361	490.24
624.81	489.84
625.259	486.14
625.707	496.34
626.156	503.84
626.604	511.94
627.053	505.54
627.501	503.24
627.95	506.84
628.398	506.44
628.847	502.34
629.295	504.04
629.744	512.84
630.192	506.84
630.64	513.84
631.089	499.24
631.537	510.94
631.985	513.34
632.433	529.64
632.881	536.74
633.33	578.14
633.778	557.54
634.226	504.74
634.674	503.94
635.122	508.94
635.57	524.84
636.018	553.44
636.466	512.54
636.914	501.04
637.362	509.04
637.81	503.94
638.258	509.94
638.705	512.04
639.153	540.74
639.601	542.64
640.049	570.94
640.497	595.94
640.944	612.64
641.392	564.44
641.84	538.14
642.287	507.24
642.735	508.94
643.182	506.04
643.63	500.94
644.078	514.14
644.525	515.44
644.973	526.24
645.42	528.94
645.867	538.84
646.315	562.94
646.762	581.24
647.21	612.54
647.657	633.84
648.104	660.64
648.551	668.84
648.999	729.54
649.446	803.24
649.893	885.64
650.34	1003.94
650.787	1207.74
651.234	1493.54
651.682	1950.04
652.129	2669.44
652.576	3821.14
653.023	5663.34
653.47	7770.44
653.917	9840.94
654.363	11549.04
654.81	12932.34
655.257	12291.04
655.704	7974.44
656.151	4709.24
656.598	3036.14
657.044	2150.04
657.491	1655.64
657.938	1319.64
658.385	1092.44
658.831	951.04
659.278	848.84
659.724	766.24
660.171	705.94
660.618	632.84
661.064	607.64
661.511	584.54
661.957	568.64
662.404	559.94
662.85	567.34
663.296	543.64
663.743	495.24
664.189	477.14
664.635	475.34
665.082	461.64
665.528	461.74
665.974	450.74
666.42	441.74
666.867	442.14
667.313	427.94
667.759	422.34
668.205	422.54
668.651	426.54
669.097	421.04
669.543	432.24
669.989	418.54
670.435	390.24
670.881	387.74
671.327	386.94
671.773	408.34
672.219	424.64
672.665	465.14
673.11	508.94
673.556	544.84
674.002	586.94
674.448	581.44
674.893	483.14
675.339	414.74
675.785	378.44
676.23	371.24
676.676	340.24
677.122	333.64
677.567	328.34
678.013	327.74
678.458	315.84
678.904	315.14
679.349	302.94
679.794	306.54
680.24	311.64
680.685	300.64
681.131	307.04
681.576	303.14
682.021	305.04
682.466	296.94
682.912	291.54
683.357	301.34
683.802	339.14
684.247	354.64
684.692	393.54
685.137	430.14
685.583	467.04
686.028	493.94
686.473	455.64
686.918	386.24
687.363	354.04
687.807	347.84
688.252	309.84
688.697	300.54
689.142	285.24
689.587	285.84
690.032	279.44
690.477	290.84
690.921	309.94
691.366	333.94
691.811	351.94
692.255	377.14
692.7	398.94
693.145	425.14
693.589	583.14
694.034	953.24
694.478	1321.04
694.923	1531.14
695.367	2036.54
695.812	1054.54
696.256	436.44
696.701	323.74
697.145	299.34
697.59	271.74
698.034	280.14
698.478	284.64
698.922	280.04
699.367	283.14
699.811	291.84
700.255	302.34
700.699	333.14
701.143	364.04
701.588	411.64
702.032	452.54
702.476	445.74
702.92	426.94
703.364	413.94
703.808	535.14
704.252	866.84
704.696	1242.34
705.14	1463.74
705.584	1890.54
706.027	929.14
706.471	455.64
706.915	342.74
707.359	297.54
707.803	271.74
708.246	265.64
708.69	270.24
709.134	278.44
709.577	264.74
710.021	273.14
710.465	263.94
710.908	262.84
711.352	254.24
711.795	270.14
712.239	294.94
712.682	326.54
713.126	362.44
713.569	408.14
714.012	319.94
714.456	271.84
714.899	258.84
715.342	237.64
715.786	226.54
716.229	219.44
716.672	224.74
717.115	213.54
717.558	227.24
718.002	222.64
718.445	229.74
718.888	245.34
719.331	253.84
719.774	271.64
720.217	262.54
720.66	245.74
721.103	227.74
721.546	222.54
721.989	211.14
722.432	197.14
722.874	206.44
723.317	198.14
723.76	208.24
724.203	226.74
724.645	268.14
725.088	376.94
725.531	483.94
725.974	566.74
726.416	479.94
726.859	263.94
727.301	211.34
727.744	198.94
728.187	194.84
728.629	205.64
729.071	205.24
729.514	219.84
729.956	232.44
730.399	244.24
730.841	248.34
731.283	223.64
731.726	219.34
732.168	213.14
732.61	227.44
733.053	246.14
733.495	274.84
733.937	297.94
734.379	340.24
734.821	370.24
735.263	458.84
735.705	695.64
736.148	1324.04
736.59	2195.54
737.032	2707.34
737.474	2171.64
737.916	701.14
738.357	362.24
738.799	283.64
739.241	261.74
739.683	242.54
740.125	242.54
740.567	253.74
741.008	264.94
741.45	272.74
741.892	271.24
742.334	301.54
742.775	309.54
743.217	291.94
743.658	237.64
744.1	220.14
744.542	228.04
744.983	265.34
745.425	304.74
745.866	299.84
746.307	243.74
746.749	236.54
747.19	268.94
747.632	381.94
748.073	717.74
748.514	1556.24
748.956	2459.04
749.397	3094.14
749.838	2571.24
750.279	2627.44
750.72	1318.44
751.162	469.04
751.603	275.14
752.044	212.34
752.485	188.74
752.926	178.64
753.367	176.94
753.808	166.44
754.249	158.04
754.69	157.54
755.131	153.54
755.572	149.64
756.013	153.74
756.453	152.24
756.894	168.24
757.335	168.04
757.776	166.24
758.216	173.44
758.657	168.44
759.098	172.14
759.538	191.44
759.979	232.44
760.42	312.04
760.86	596.24
761.301	1511.14
761.741	3753.74
762.182	5747.94
