Data from 20171114-ORNL-Ar_H_NY_Subt18_08-08-22-481.txt Node
Date: Tue Nov 14 08:08:22 EST 2017
User: Ender
Spectrometer: HR+D1039
Trigger mode: 0
Integration Time (sec): 2.730000E-2
Scans to average: 10
Electric dark correction enabled: true
Nonlinearity correction enabled: false
Boxcar width: 0
XAxis mode: Wavelengths
Number of Pixels in Spectrum: 2048
>>>>>Begin Spectral Data<<<<<
187.836	-1.4
188.309	-1.4
188.782	-1.4
189.255	0.2
189.728	-6.3
190.201	8.4
190.674	7.6
191.147	2.1
191.619	-2.6
192.092	-2
192.565	0.9
193.038	-1.6
193.511	-5.1
193.984	2.8
194.456	-3
194.929	-1.1
195.402	3
195.874	-1.9
196.347	-0.4
196.82	-9.3
197.292	3.9
197.765	0.5
198.237	-6.4
198.71	3.1
199.182	-4.6
199.655	1.9
200.127	1.2
200.6	-6.6
201.072	3.4
201.544	0.3
202.017	0.2
202.489	-3.3
202.961	-0.6
203.433	-3.1
203.906	-5.1
204.378	-5.6
204.85	-2.5
205.322	-6.9
205.794	0.8
206.266	0.8
206.739	-8.3
207.211	1.7
207.683	-10.5
208.155	-5.2
208.627	-5.9
209.099	-3.9
209.57	-7.5
210.042	-3
210.514	-7
210.986	0.8
211.458	-10.5
211.93	-5.7
212.402	-2.9
212.873	-7.1
213.345	-10.4
213.817	-10.9
214.288	-7.6
214.76	-9.2
215.232	-3.6
215.703	-4.6
216.175	-7
216.646	-3.9
217.118	-13.2
217.589	-1.8
218.061	-3.4
218.532	-2.5
219.004	-1.2
219.475	-3.5
219.946	-0.8
220.418	-1.7
220.889	3.7
221.36	-1.3
221.832	-3.4
222.303	-11.2
222.774	5.9
223.245	-11.1
223.717	-10.7
224.188	-7.8
224.659	-9.3
225.13	-2.6
225.601	-0.3
226.072	2
226.543	0.3
227.014	0.6
227.485	-2.2
227.956	-1.9
228.427	-2.2
228.898	4
229.369	9.6
229.839	-3.1
230.31	-8
230.781	3.4
231.252	-2.2
231.722	-5.7
232.193	-2.3
232.664	-6.3
233.135	-2.2
233.605	0.5
234.076	-5.5
234.546	1.9
235.017	9.7
235.487	-2
235.958	-0.2
236.428	-7.6
236.899	1.8
237.369	5.6
237.84	-4.1
238.31	1.1
238.78	5.8
239.251	2.4
239.721	4
240.191	5.8
240.662	-5.6
241.132	-0.5
241.602	-0.1
242.072	-3.3
242.542	5.9
243.013	3.9
243.483	2.1
243.953	3.7
244.423	-3
244.893	-3.8
245.363	1.8
245.833	-2.5
246.303	2.4
246.773	3.8
247.243	-2.6
247.712	-0.8
248.182	10
248.652	13.8
249.122	0.2
249.592	7.3
250.061	28.3
250.531	33.9
251.001	7.6
251.471	18.5
251.94	14
252.41	6.8
252.879	-0.4
253.349	7.7
253.818	10.3
254.288	3.5
254.757	4.6
255.227	0.9
255.696	7.4
256.166	10.3
256.635	1
257.105	13
257.574	10.4
258.043	12.4
258.513	8.1
258.982	17.3
259.451	10.8
259.92	10.8
260.389	7.8
260.859	16.5
261.328	2.8
261.797	19.5
262.266	6.8
262.735	10.2
263.204	6.1
263.673	-4.7
264.142	11.2
264.611	1.4
265.08	6.3
265.549	6.3
266.018	8.3
266.487	-7.8
266.955	0.6
267.424	6.5
267.893	5.7
268.362	0.7
268.83	7.9
269.299	10.7
269.768	-1.4
270.236	8.7
270.705	3.8
271.174	5.9
271.642	2.7
272.111	10.6
272.579	16.4
273.048	22.2
273.516	27.7
273.985	28.5
274.453	17.2
274.922	17.1
275.39	9.4
275.858	1.9
276.327	10.3
276.795	15
277.263	12.9
277.731	29.6
278.2	53
278.668	51.8
279.136	42.8
279.604	18.3
280.072	9.4
280.54	11.9
281.008	11.8
281.477	21.1
281.945	13.7
282.413	9.6
282.881	14.8
283.348	3.6
283.816	13.4
284.284	11.6
284.752	19.6
285.22	16.3
285.688	11.7
286.156	19.1
286.623	40.8
287.091	51.9
287.559	23
288.026	13.7
288.494	13.2
288.962	4
289.429	9.1
289.897	16.7
290.364	12.2
290.832	10.5
291.3	13.7
291.767	21.4
292.234	13.4
292.702	16.5
293.169	24.1
293.637	19.4
294.104	23.6
294.571	7.5
295.039	13.4
295.506	12.9
295.973	16.3
296.44	15.2
296.908	20.4
297.375	18
297.842	20.4
298.309	21.5
298.776	17.1
299.243	19.6
299.71	16.6
300.177	19.5
300.644	24.4
301.111	16
301.578	15
302.045	11.9
302.512	25.1
302.979	21.3
303.446	24.4
303.913	19.7
304.379	19.4
304.846	26.9
305.313	21.3
305.78	22.8
306.246	29.5
306.713	25.4
307.18	30.7
307.646	25.7
308.113	29.8
308.579	24.3
309.046	28.8
309.512	26.8
309.979	13.2
310.445	27.4
310.912	27.2
311.378	32
311.845	30.2
312.311	27.3
312.777	28.3
313.244	33.3
313.71	29
314.176	28.9
314.642	31.7
315.109	31.9
315.575	31.2
316.041	43
316.507	35.7
316.973	40.9
317.439	35.6
317.905	30.1
318.371	39.4
318.837	34
319.303	31.1
319.769	36.7
320.235	31.8
320.701	33.3
321.167	33.4
321.633	31.9
322.099	35.4
322.564	46.3
323.03	38.2
323.496	37.1
323.962	36.2
324.427	35.5
324.893	38.8
325.359	31.1
325.824	43.8
326.29	31
326.755	39
327.221	34.7
327.686	36.1
328.152	42.8
328.617	35.2
329.083	45.2
329.548	47.5
330.014	50
330.479	35.9
330.944	42.4
331.41	36.1
331.875	46.4
332.34	44.4
332.805	41.9
333.271	42.1
333.736	43.8
334.201	47.4
334.666	46.3
335.131	42.4
335.596	50.7
336.061	51.9
336.526	42.8
336.991	55.2
337.456	57.6
337.921	47.4
338.386	41.2
338.851	44.8
339.316	46.2
339.781	41.1
340.246	48.3
340.711	48.9
341.175	52.6
341.64	47.1
342.105	47.2
342.569	60.9
343.034	59.7
343.499	51.2
343.963	49.5
344.428	60.2
344.893	59.5
345.357	55.5
345.822	56.5
346.286	70.5
346.751	75.2
347.215	66.4
347.679	69.8
348.144	95.4
348.608	82.9
349.073	65.8
349.537	70.8
350.001	79.5
350.465	84.5
350.93	81.2
351.394	80.9
351.858	71
352.322	88.1
352.786	81.6
353.25	98.3
353.715	113.6
354.179	98.2
354.643	123.7
355.107	126.1
355.571	99.5
356.035	107.4
356.498	115
356.962	123.3
357.426	130.3
357.89	113.5
358.354	89.7
358.818	82.7
359.281	85.1
359.745	74.2
360.209	79.1
360.673	74.3
361.136	80.8
361.6	85.7
362.064	80.3
362.527	79
362.991	89.9
363.454	84.5
363.918	74.7
364.381	75.9
364.845	85.2
365.308	87.3
365.772	84.2
366.235	83.3
366.698	83.4
367.162	84.8
367.625	81.7
368.088	86.3
368.552	87.1
369.015	85.5
369.478	98
369.941	99.3
370.404	90.6
370.867	100.4
371.331	105.5
371.794	117.9
372.257	114.1
372.72	113.3
373.183	103
373.646	100.1
374.109	98.8
374.572	103.8
375.035	102
375.497	107.7
375.96	101.9
376.423	104.8
376.886	114.7
377.349	112
377.811	97.1
378.274	100.6
378.737	99.1
379.199	114.5
379.662	110.1
380.125	122.7
380.587	117.3
381.05	117.7
381.512	128.1
381.975	134.4
382.437	128.9
382.9	127.9
383.362	134.2
383.825	144.5
384.287	146.5
384.75	140.4
385.212	137.8
385.674	137.2
386.136	129.6
386.599	124.8
387.061	128.2
387.523	136.1
387.985	134
388.447	146.7
388.91	148.2
389.372	161
389.834	156
390.296	143.8
390.758	158
391.22	166.6
391.682	208.4
392.144	307.4
392.606	230
393.068	173.7
393.529	170.7
393.991	152.7
394.453	147.6
394.915	153.7
395.377	197.3
395.838	221
396.3	154.8
396.762	141
397.224	139.8
397.685	131.1
398.147	132.4
398.608	132.7
399.07	134.6
399.531	141.7
399.993	146.8
400.454	156.7
400.916	148.2
401.377	141.5
401.839	148.8
402.3	149.3
402.762	164.2
403.223	178.3
403.684	169.3
404.145	157.8
404.607	161.9
405.068	157.5
405.529	171.3
405.99	194.2
406.451	177.5
406.913	174.9
407.374	160.6
407.835	165.9
408.296	163.9
408.757	174.6
409.218	188
409.679	181
410.14	171.4
410.601	177.6
411.062	188.2
411.522	190.4
411.983	197.1
412.444	177
412.905	180.8
413.366	178.9
413.826	192.8
414.287	214.3
414.748	260.5
415.208	243.7
415.669	212.5
416.13	211.3
416.59	201.8
417.051	213.3
417.511	222.8
417.972	237.9
418.432	246.3
418.893	288.9
419.353	239.9
419.814	192.4
420.274	180.2
420.734	178.4
421.195	196.8
421.655	199.4
422.115	196.8
422.576	200.2
423.036	192.4
423.496	207.6
423.956	215.3
424.416	223.7
424.876	269.6
425.336	257.4
425.797	259.9
426.257	254.6
426.717	241
427.177	232.5
427.637	228.1
428.097	236.1
428.556	247.1
429.016	280.8
429.476	264.9
429.936	275.7
430.396	276.9
430.856	291.7
431.315	315.6
431.775	355.1
432.235	388.8
432.694	360.6
433.154	365
433.614	401.1
434.073	341.2
434.533	284.4
434.993	272.3
435.452	277.9
435.912	295.6
436.371	294
436.83	283.4
437.29	271.9
437.749	252
438.209	256.7
438.668	283
439.127	296.9
439.587	266.3
440.046	244.7
440.505	263.7
440.964	283.6
441.424	322.9
441.883	306
442.342	254.1
442.801	229.8
443.26	223.1
443.719	232.7
444.178	220.1
444.637	204.4
445.096	220.2
445.555	225.1
446.014	224.4
446.473	221.9
446.932	238.2
447.391	225.1
447.849	223.1
448.308	225.2
448.767	221.4
449.226	230.6
449.685	234.9
450.143	248.7
450.602	234.4
451.061	231.5
451.519	235.6
451.978	239.2
452.436	235.1
452.895	249.3
453.353	248.5
453.812	234.6
454.27	234.9
454.729	234.6
455.187	239
455.646	241
456.104	244.8
456.562	259.3
457.021	268.7
457.479	268.3
457.937	267
458.395	264.2
458.854	249.8
459.312	258.9
459.77	274.4
460.228	251.8
460.686	237.6
461.144	251.2
461.602	241.6
462.06	244.5
462.518	248
462.976	255.5
463.434	255.6
463.892	257.1
464.35	271.3
464.808	284.6
465.266	261.1
465.724	270.4
466.181	274.9
466.639	279.9
467.097	291.2
467.555	305.6
468.012	299
468.47	302.7
468.928	322.5
469.385	341.3
469.843	346.4
470.3	344.5
470.758	361.3
471.215	382.6
471.673	406.1
472.13	399.3
472.588	422.9
473.045	374.1
473.503	380.5
473.96	386.5
474.417	397.5
474.875	433.7
475.332	467.2
475.789	466.4
476.246	467.1
476.704	483.3
477.161	509.2
477.618	522.3
478.075	558.1
478.532	609.4
478.989	689.4
479.446	809
479.903	761.8
480.36	803.2
480.817	862.3
481.274	964.6
481.731	1065.5
482.188	1145.4
482.645	1293.1
483.102	1393.3
483.558	1539
484.015	1577
484.472	1549.2
484.929	1509.6
485.385	1465.4
485.842	1406
486.299	1358.2
486.755	1299.6
487.212	1094
487.668	921.3
488.125	841.7
488.582	770
489.038	747
489.494	707.4
489.951	671.4
490.407	667.4
490.864	651.1
491.32	639.9
491.776	630.7
492.233	639.2
492.689	611.2
493.145	595.8
493.602	594.1
494.058	610.7
494.514	615.8
494.97	630
495.426	648
495.882	616.6
496.338	610.5
496.794	613
497.251	612.7
497.707	631.4
498.163	630
498.618	626.3
499.074	640.9
499.53	669
499.986	681.9
500.442	652.2
500.898	625.6
501.354	622
501.809	641
502.265	637.6
502.721	659.9
503.177	674.9
503.632	668.8
504.088	681
504.543	708.7
504.999	695.6
505.455	652.3
505.91	628.1
506.366	624.4
506.821	623.6
507.277	621.7
507.732	621.3
508.187	613.5
508.643	627.9
509.098	622.4
509.553	645.7
510.009	655.4
510.464	658.9
510.919	682.1
511.375	682.7
511.83	689.8
512.285	709.3
512.74	753
513.195	765.4
513.65	765.2
514.105	761.2
514.56	759.9
515.015	783.3
515.47	807.6
515.925	782.9
516.38	779
516.835	796.2
517.29	777.4
517.745	778.4
518.2	756.1
518.655	743.2
519.109	733.1
519.564	735
520.019	732.9
520.474	728.2
520.928	719.8
521.383	713.4
521.838	712.6
522.292	707.8
522.747	705
523.201	694
523.656	695.8
524.11	685.7
524.565	696.8
525.019	687.9
525.474	700.3
525.928	685.7
526.382	700
526.837	690.7
527.291	697.7
527.745	686
528.2	690.5
528.654	685.1
529.108	680.4
529.562	688.4
530.016	691.5
530.47	680.5
530.925	694.8
531.379	699.7
531.833	696.5
532.287	698.9
532.741	693.6
533.195	697.2
533.649	699.5
534.103	714
534.556	689.2
535.01	711.6
535.464	704.6
535.918	720.5
536.372	716
536.826	719.4
537.279	695.4
537.733	705.9
538.187	702.1
538.64	715.4
539.094	723
539.548	720.9
540.001	716.2
540.455	729.2
540.908	730.4
541.362	743.9
541.815	747.3
542.269	742
542.722	754.5
543.175	761.1
543.629	761.1
544.082	792.3
544.536	793
544.989	783.5
545.442	786.3
545.895	794
546.349	788.2
546.802	780.3
547.255	800
547.708	802.5
548.161	808.1
548.614	805.1
549.067	824.8
549.52	808.9
549.973	804.1
550.426	806.6
550.879	787.6
551.332	799.7
551.785	802.3
552.238	813.5
552.691	817.1
553.144	816.3
553.596	840.3
554.049	853.9
554.502	880.9
554.955	894.2
555.407	895.7
555.86	882.5
556.313	886.8
556.765	878.8
557.218	876.6
557.67	877.2
558.123	867.6
558.576	869.3
559.028	877.8
559.48	867.5
559.933	863.1
560.385	837.7
560.838	805.7
561.29	789.8
561.742	780.2
562.195	758.7
562.647	761.6
563.099	780.7
563.551	763.2
564.004	775.2
564.456	764.9
564.908	755.3
565.36	751.2
565.812	731
566.264	724.5
566.716	720.8
567.168	719
567.62	733.4
568.072	706.7
568.524	698.4
568.976	676.6
569.428	669.8
569.88	670.3
570.332	678.2
570.784	685
571.235	676.5
571.687	694.5
572.139	696.6
572.59	704.7
573.042	709.2
573.494	706.1
573.945	710.2
574.397	685.6
574.849	683.8
575.3	679.6
575.752	678.6
576.203	677.8
576.655	680.6
577.106	670.8
577.557	673.7
578.009	671.8
578.46	654.3
578.912	658.4
579.363	658.8
579.814	674.1
580.265	675.1
580.717	659.9
581.168	666.1
581.619	673.5
582.07	676.2
582.521	671.9
582.972	672.6
583.423	678.7
583.875	682.3
584.326	704.7
584.777	753.9
585.227	829.4
585.678	918
586.129	1007.4
586.58	1079.3
587.031	1179.7
587.482	1313.5
587.933	1499.4
588.384	1307.3
588.834	981
589.285	809.8
589.736	785.9
590.186	775.7
590.637	762
591.088	740.9
591.538	743.6
591.989	736.3
592.439	729.5
592.89	725.4
593.34	719.7
593.791	711.2
594.241	714.5
594.692	713
595.142	702.6
595.593	698.1
596.043	712.1
596.493	722.6
596.943	726.8
597.394	725.7
597.844	724.6
598.294	739.3
598.744	753.2
599.195	783.9
599.645	818
600.095	866.8
600.545	931.1
600.995	968.2
601.445	1032.1
601.895	1085.1
602.345	1131.9
602.795	1105.9
603.245	1069.4
603.695	1007
604.145	954.9
604.594	910.3
605.044	857.8
605.494	789.6
605.944	749.4
606.393	745.9
606.843	729.3
607.293	742
607.743	737.6
608.192	751.1
608.642	769.1
609.091	770.6
609.541	775.8
609.99	780
610.44	774.8
610.889	725.9
611.339	711.5
611.788	696.4
612.238	705.3
612.687	718.1
613.136	722.4
613.586	744.6
614.035	745.4
614.484	766.1
614.933	765.1
615.383	756.7
615.832	741
616.281	726.9
616.73	689.5
617.179	666
617.628	654.9
618.077	638.3
618.526	635.8
618.975	619.9
619.424	616
619.873	607.8
620.322	618.6
620.771	613.4
621.22	616.5
621.669	609.3
622.118	589.2
622.567	576
623.015	570.8
623.464	567
623.913	561.2
624.361	560
624.81	553.6
625.259	559.1
625.707	554.8
626.156	565.6
626.604	574.9
627.053	568.8
627.501	559.2
627.95	571.1
628.398	580.7
628.847	567.5
629.295	577.9
629.744	575.1
630.192	569
630.64	571.7
631.089	570
631.537	587.4
631.985	591.7
632.433	610.2
632.881	621.1
633.33	678.1
633.778	657.4
634.226	581.9
634.674	580.2
635.122	579.6
635.57	600.1
636.018	633.5
636.466	586.4
636.914	569.4
637.362	576.2
637.81	581.1
638.258	588.8
638.705	588.4
639.153	611.8
639.601	616
640.049	639.5
640.497	679.7
640.944	697.9
641.392	644.6
641.84	614
642.287	594.2
642.735	570.8
643.182	567.4
643.63	581.5
644.078	575
644.525	603.2
644.973	603.9
645.42	603.5
645.867	627.6
646.315	648.7
646.762	671.5
647.21	690.9
647.657	720
648.104	751.2
648.551	781.3
648.999	843.8
649.446	929.6
649.893	1027.5
650.34	1167.7
650.787	1408.9
651.234	1762.7
651.682	2296.9
652.129	3168.7
652.576	4556
653.023	6723
653.47	9184.8
653.917	11369.6
654.363	13040.4
654.81	14329.3
655.257	13651.7
655.704	8936.5
656.151	5286.6
656.598	3421.6
657.044	2441.3
657.491	1882
657.938	1505.9
658.385	1242.6
658.831	1085.2
659.278	968.5
659.724	858.3
660.171	801.1
660.618	724.7
661.064	687.4
661.511	676.4
661.957	658.8
662.404	646.9
662.85	658.4
663.296	631.6
663.743	558.9
664.189	533.8
664.635	543.7
665.082	531.6
665.528	530.5
665.974	515.4
666.42	507.5
666.867	512.5
667.313	494.4
667.759	485.7
668.205	491.8
668.651	489.9
669.097	489.5
669.543	510.2
669.989	473.8
670.435	443.6
670.881	448
671.327	453.8
671.773	466.7
672.219	502.3
672.665	549.3
673.11	588.5
673.556	634.9
674.002	665.4
674.448	664.2
674.893	552.9
675.339	472.2
675.785	452.6
676.23	418.8
676.676	398.9
677.122	386.1
677.567	385
678.013	366.7
678.458	363.8
678.904	358.7
679.349	349.6
679.794	360.1
680.24	351.9
680.685	356.5
681.131	357.7
681.576	350.3
682.021	360.1
682.466	352.9
682.912	344.6
683.357	356.4
683.802	375.4
684.247	409
684.692	468.2
685.137	505.6
685.583	535.4
686.028	560
686.473	519.8
686.918	449.5
687.363	430.4
687.807	401.8
688.252	372.4
688.697	356.5
689.142	336.9
689.587	329.3
690.032	329.6
690.477	347.1
690.921	354
691.366	382.6
691.811	402.8
692.255	438.3
692.7	471.4
693.145	507
693.589	717.3
694.034	1171.5
694.478	1554.6
694.923	1715.8
695.367	2241.7
695.812	1192.3
696.256	505
696.701	378
697.145	342.9
697.59	334.7
698.034	330.4
698.478	334.9
698.922	336.7
699.367	331.3
699.811	346.9
700.255	365.8
700.699	390.5
701.143	434.5
701.588	478.9
702.032	521.7
702.476	524.9
702.92	491.5
703.364	501.2
703.808	662.4
704.252	1080.6
704.696	1475.4
705.14	1677
705.584	2121.7
706.027	1063.3
706.471	528.1
706.915	402.5
707.359	347.3
707.803	324
708.246	314.4
708.69	307.4
709.134	315.5
709.577	313.8
710.021	321.8
710.465	317.8
710.908	306.6
711.352	308
711.795	318.1
712.239	359.5
712.682	384.3
713.126	415.6
713.569	474.6
714.012	370.9
714.456	325.5
714.899	309.8
715.342	285.1
715.786	270.1
716.229	263.4
716.672	256.1
717.115	249.5
717.558	254.7
718.002	255.4
718.445	266.6
718.888	292.6
719.331	297.1
719.774	320.7
720.217	309.3
720.66	285.4
721.103	267.2
721.546	262.5
721.989	247.9
722.432	232.7
722.874	244.3
723.317	235.3
723.76	232.9
724.203	262.2
724.645	325.1
725.088	456.1
725.531	580.4
725.974	641.5
726.416	546.3
726.859	311
727.301	246.7
727.744	245.7
728.187	236.2
728.629	242.1
729.071	245.3
729.514	256.5
729.956	279.1
730.399	288.5
730.841	286.8
731.283	276.3
731.726	273.2
732.168	263.3
732.61	268.4
733.053	288.4
733.495	318.9
733.937	357.5
734.379	407.8
734.821	450.7
735.263	551.4
735.705	868.7
736.148	1653.4
736.59	2624.3
737.032	3024.9
737.474	2474
737.916	811.6
738.357	426.5
738.799	323.1
739.241	314
739.683	286.8
740.125	293.7
740.567	306.6
741.008	315.9
741.45	317.1
741.892	323.3
742.334	357.6
742.775	363.5
743.217	342.2
743.658	273.9
744.1	252.4
744.542	265.7
744.983	310.4
745.425	347.6
745.866	340.4
746.307	287
746.749	285.5
747.19	333.7
747.632	466.2
748.073	932.9
748.514	1949.5
748.956	2868.2
749.397	3613.2
749.838	2995.6
750.279	2938.5
750.72	1489.1
751.162	550.4
751.603	325.4
752.044	259.2
752.485	215.7
752.926	216
753.367	203.5
753.808	192.2
754.249	191.1
754.69	185.6
755.131	185.7
755.572	189
756.013	181.9
756.453	187.9
756.894	191.3
757.335	191.1
757.776	203.5
758.216	198.7
758.657	203.5
759.098	205.7
759.538	232.4
759.979	267.9
760.42	387.9
760.86	741.7
761.301	1920.6
761.741	4532.3
762.182	6354.7
762.622	4450.1
763.063	1304.5
763.503	538.8
763.943	349.4
764.384	354.6
764.824	418.9
765.264	439.8
765.705	306.4
766.145	212
766.585	187.3
767.025	187.8
767.465	195.8
767.906	253
768.346	325.5
768.786	348.4
769.226	262.7
769.666	331.3
770.106	642.4
770.546	1623
770.986	2647.1
771.426	2359.7
771.866	806
772.306	330.7
772.745	209.3
773.185	171.4
773.625	169.6
774.065	167.2
774.505	196.4
774.944	321.7
775.384	693
775.824	1221.5
776.263	1167
776.703	512.7
777.142	224
777.582	159.6
778.021	138.4
778.461	143.7
778.9	136.3
779.34	135.5
779.779	124.7
780.219	113.4
780.658	113
781.097	114.2
781.537	110.1
781.976	112.4
782.415	103.6
782.855	103.2
783.294	105.8
783.733	99.1
784.172	108.7
784.611	105.6
785.05	112.8
785.489	110.7
785.928	124.1
786.367	125.3
786.806	120.5
787.245	132.3
787.684	136.2
788.123	155.5
788.562	138.7
789.001	126.3
789.44	123.6
789.879	118.5
790.317	124.5
790.756	133.4
791.195	126.8
791.634	151.4
792.072	207
792.511	377.2
792.95	1048.4
793.388	2160.1
793.827	1901.9
794.265	674.3
794.704	279.9
795.142	186.2
795.581	155.4
796.019	139.7
796.458	135.5
796.896	132.7
797.334	130.8
797.773	153.8
798.211	230.2
798.649	460.3
799.087	1042.3
799.526	1637.3
799.964	2032.2
800.402	1984.3
800.84	752.1
801.278	301.9
801.716	188.4
802.154	150.8
802.592	146.3
803.03	140.9
803.468	133.4
803.906	138.4
804.344	153.1
804.782	146.4
805.22	132
805.658	133.1
806.096	151.3
806.533	158.8
806.971	177.7
807.409	221.9
