Data from 20171114-ORNL-Ar_H_NY_Subt18_08-07-07-959.txt Node
Date: Tue Nov 14 08:07:07 EST 2017
User: Ender
Spectrometer: HR+D1039
Trigger mode: 0
Integration Time (sec): 2.730000E-2
Scans to average: 10
Electric dark correction enabled: true
Nonlinearity correction enabled: false
Boxcar width: 0
XAxis mode: Wavelengths
Number of Pixels in Spectrum: 2048
>>>>>Begin Spectral Data<<<<<
187.836	-6.04
188.309	-6.04
188.782	-6.04
189.255	-3.84
189.728	-2.14
190.201	4.26
190.674	3.96
191.147	5.86
191.619	-7.44
192.092	3.46
192.565	6.76
193.038	-2.94
193.511	0.26
193.984	0.46
194.456	0.86
194.929	3.36
195.402	-2.94
195.874	-3.94
196.347	-2.14
196.82	-10.54
197.292	-0.74
197.765	-4.64
198.237	-2.04
198.71	2.86
199.182	-5.84
199.655	4.66
200.127	4.76
200.6	-6.54
201.072	-1.74
201.544	-6.64
202.017	-4.24
202.489	2.86
202.961	-6.04
203.433	-5.84
203.906	-9.34
204.378	-4.24
204.85	-5.34
205.322	-13.34
205.794	-5.94
206.266	-6.04
206.739	-0.44
207.211	-2.34
207.683	-9.84
208.155	-1.64
208.627	-4.34
209.099	-5.54
209.57	-13.14
210.042	-6.24
210.514	-3.74
210.986	-3.24
211.458	-13.84
211.93	-5.34
212.402	-0.44
212.873	-4.14
213.345	-10.04
213.817	-9.04
214.288	-0.64
214.76	-9.14
215.232	-3.54
215.703	-5.24
216.175	-6.14
216.646	-2.74
217.118	-10.14
217.589	-1.84
218.061	0.76
218.532	-3.14
219.004	-0.54
219.475	-7.24
219.946	-2.84
220.418	-5.54
220.889	-2.64
221.36	-3.14
221.832	-7.14
222.303	-6.84
222.774	0.86
223.245	-5.74
223.717	-5.44
224.188	-4.04
224.659	-9.74
225.13	-5.74
225.601	-1.34
226.072	0.76
226.543	-2.44
227.014	-2.34
227.485	-6.34
227.956	-5.34
228.427	-4.44
228.898	-6.24
229.369	0.56
229.839	-6.84
230.31	-6.44
230.781	-5.44
231.252	-3.74
231.722	-9.04
232.193	-11.24
232.664	-2.34
233.135	-4.14
233.605	-3.14
234.076	-9.14
234.546	-1.14
235.017	3.06
235.487	-6.34
235.958	-3.34
236.428	-3.24
236.899	-2.74
237.369	-2.24
237.84	-10.74
238.31	-2.04
238.78	-5.04
239.251	-4.74
239.721	-4.94
240.191	-4.14
240.662	-3.04
241.132	-4.54
241.602	-8.04
242.072	-8.64
242.542	3.06
243.013	1.46
243.483	0.96
243.953	-6.74
244.423	-4.64
244.893	-4.94
245.363	-3.74
245.833	0.46
246.303	-8.34
246.773	1.06
247.243	-1.74
247.712	-0.34
248.182	5.96
248.652	7.86
249.122	-8.64
249.592	-0.24
250.061	1.86
250.531	4.96
251.001	-5.04
251.471	6.46
251.94	5.76
252.41	-0.84
252.879	-6.84
253.349	5.96
253.818	5.26
254.288	-0.24
254.757	1.76
255.227	-0.64
255.696	-1.44
256.166	3.16
256.635	-2.14
257.105	0.46
257.574	-3.94
258.043	-1.04
258.513	-5.64
258.982	-4.14
259.451	-5.94
259.92	-4.64
260.389	-0.44
260.859	4.06
261.328	0.96
261.797	-0.74
262.266	-4.14
262.735	-3.24
263.204	0.86
263.673	-5.44
264.142	5.76
264.611	-2.84
265.08	-2.74
265.549	-5.64
266.018	2.06
266.487	-5.74
266.955	-8.34
267.424	-5.54
267.893	5.26
268.362	-1.44
268.83	-2.84
269.299	7.36
269.768	-0.84
270.236	5.16
270.705	1.06
271.174	5.16
271.642	0.76
272.111	0.46
272.579	1.56
273.048	-1.64
273.516	2.96
273.985	4.36
274.453	1.36
274.922	11.76
275.39	6.06
275.858	-2.44
276.327	1.96
276.795	12.86
277.263	1.46
277.731	5.66
278.2	11.86
278.668	2.06
279.136	8.96
279.604	5.66
280.072	7.86
280.54	9.46
281.008	5.46
281.477	5.86
281.945	3.36
282.413	6.36
282.881	8.16
283.348	4.86
283.816	6.46
284.284	10.66
284.752	12.26
285.22	5.06
285.688	2.36
286.156	5.26
286.623	11.66
287.091	8.16
287.559	7.56
288.026	6.96
288.494	7.56
288.962	-0.04
289.429	-3.84
289.897	9.96
290.364	4.06
290.832	10.96
291.3	10.36
291.767	12.16
292.234	10.66
292.702	10.86
293.169	12.96
293.637	13.56
294.104	16.16
294.571	-2.94
295.039	7.66
295.506	2.76
295.973	9.26
296.44	7.36
296.908	9.76
297.375	6.06
297.842	13.16
298.309	13.46
298.776	9.26
299.243	14.36
299.71	10.76
300.177	15.16
300.644	13.86
301.111	18.46
301.578	14.56
302.045	9.46
302.512	14.26
302.979	22.76
303.446	14.46
303.913	7.96
304.379	13.86
304.846	20.36
305.313	20.56
305.78	18.56
306.246	21.56
306.713	17.26
307.18	15.36
307.646	19.16
308.113	26.56
308.579	17.46
309.046	20.16
309.512	24.16
309.979	8.66
310.445	19.66
310.912	17.26
311.378	26.06
311.845	20.66
312.311	19.76
312.777	20.26
313.244	17.86
313.71	30.46
314.176	23.66
314.642	19.66
315.109	19.96
315.575	28.16
316.041	30.26
316.507	26.86
316.973	30.66
317.439	20.96
317.905	29.26
318.371	26.96
318.837	19.16
319.303	23.76
319.769	27.96
320.235	24.96
320.701	23.36
321.167	27.36
321.633	23.26
322.099	28.26
322.564	28.26
323.03	29.76
323.496	32.56
323.962	30.66
324.427	28.66
324.893	36.26
325.359	26.66
325.824	31.66
326.29	24.66
326.755	27.06
327.221	33.46
327.686	28.56
328.152	39.96
328.617	30.76
329.083	38.66
329.548	40.36
330.014	45.76
330.479	36.86
330.944	34.56
331.41	37.06
331.875	38.96
332.34	39.16
332.805	37.06
333.271	35.06
333.736	30.86
334.201	43.66
334.666	37.36
335.131	45.06
335.596	44.16
336.061	45.36
336.526	34.86
336.991	43.86
337.456	49.96
337.921	41.86
338.386	30.06
338.851	36.36
339.316	33.76
339.781	39.96
340.246	44.06
340.711	37.96
341.175	42.56
341.64	36.26
342.105	44.76
342.569	45.56
343.034	52.66
343.499	50.16
343.963	47.36
344.428	50.46
344.893	51.26
345.357	54.66
345.822	52.56
346.286	54.26
346.751	61.36
347.215	55.86
347.679	58.36
348.144	73.46
348.608	68.76
349.073	60.66
349.537	64.96
350.001	59.66
350.465	62.56
350.93	68.36
351.394	74.76
351.858	58.66
352.322	72.86
352.786	69.96
353.25	79.46
353.715	88.36
354.179	81.06
354.643	100.46
355.107	105.06
355.571	85.66
356.035	77.06
356.498	93.16
356.962	95.06
357.426	103.76
357.89	89.96
358.354	84.06
358.818	71.66
359.281	65.26
359.745	64.96
360.209	71.06
360.673	66.96
361.136	66.76
361.6	74.56
362.064	66.16
362.527	73.56
362.991	81.96
363.454	74.06
363.918	66.16
364.381	76.16
364.845	76.26
365.308	79.76
365.772	80.16
366.235	78.16
366.698	78.86
367.162	77.36
367.625	77.96
368.088	78.16
368.552	73.46
369.015	77.56
369.478	86.26
369.941	85.36
370.404	83.16
370.867	90.96
371.331	92.26
371.794	92.26
372.257	85.96
372.72	92.96
373.183	99.36
373.646	86.36
374.109	90.06
374.572	81.56
375.035	89.26
375.497	85.16
375.96	93.26
376.423	91.86
376.886	98.36
377.349	95.06
377.811	90.06
378.274	97.46
378.737	93.36
379.199	103.46
379.662	94.06
380.125	98.16
380.587	95.86
381.05	93.56
381.512	104.26
381.975	113.16
382.437	105.76
382.9	106.86
383.362	113.16
383.825	120.76
384.287	110.66
384.75	105.66
385.212	120.16
385.674	126.86
386.136	122.76
386.599	108.66
387.061	110.86
387.523	113.66
387.985	116.36
388.447	126.56
388.91	115.76
389.372	115.96
389.834	116.66
390.296	118.96
390.758	127.16
391.22	131.86
391.682	132.66
392.144	133.06
392.606	138.46
393.068	135.96
393.529	142.46
393.991	133.06
394.453	123.96
394.915	125.86
395.377	128.46
395.838	130.96
396.3	124.96
396.762	134.56
397.224	128.86
397.685	120.66
398.147	129.86
398.608	129.96
399.07	123.96
399.531	121.86
399.993	140.36
400.454	146.06
400.916	139.06
401.377	143.86
401.839	145.56
402.3	144.06
402.762	163.46
403.223	166.56
403.684	165.06
404.145	153.16
404.607	151.36
405.068	151.16
405.529	159.76
405.99	173.96
406.451	162.36
406.913	166.36
407.374	163.36
407.835	159.86
408.296	155.16
408.757	166.46
409.218	180.56
409.679	174.36
410.14	166.16
410.601	169.86
411.062	176.56
411.522	177.76
411.983	168.66
412.444	170.36
412.905	179.16
413.366	177.66
413.826	200.26
414.287	219.56
414.748	265.46
415.208	247.86
415.669	207.66
416.13	197.46
416.59	199.26
417.051	212.36
417.511	215.06
417.972	238.66
418.432	248.56
418.893	289.16
419.353	251.26
419.814	195.76
420.274	182.26
420.734	188.96
421.195	194.66
421.655	188.56
422.115	197.96
422.576	189.96
423.036	197.76
423.496	210.46
423.956	213.56
424.416	230.86
424.876	265.56
425.336	252.56
425.797	257.56
426.257	257.46
426.717	236.76
427.177	236.56
427.637	221.46
428.097	228.96
428.556	241.76
429.016	266.36
429.476	250.66
429.936	273.66
430.396	269.86
430.856	286.76
431.315	301.76
431.775	338.06
432.235	372.36
432.694	331.86
433.154	345.96
433.614	372.36
434.073	320.36
434.533	273.46
434.993	264.86
435.452	273.06
435.912	283.16
436.371	279.56
436.83	276.16
437.29	263.16
437.749	245.86
438.209	238.76
438.668	267.96
439.127	282.86
439.587	261.66
440.046	251.16
440.505	256.26
440.964	276.56
441.424	317.46
441.883	303.66
442.342	254.56
442.801	228.66
443.26	227.76
443.719	224.06
444.178	225.06
444.637	223.36
445.096	227.66
445.555	230.96
446.014	231.26
446.473	229.36
446.932	238.86
447.391	232.16
447.849	234.56
448.308	215.56
448.767	228.26
449.226	243.16
449.685	239.36
450.143	251.26
450.602	244.76
451.061	234.16
451.519	242.26
451.978	238.96
452.436	250.46
452.895	248.56
453.353	256.36
453.812	247.06
454.27	248.96
454.729	244.96
455.187	250.16
455.646	255.06
456.104	260.36
456.562	271.96
457.021	271.66
457.479	267.16
457.937	277.36
458.395	271.26
458.854	257.16
459.312	262.26
459.77	282.66
460.228	269.96
460.686	251.26
461.144	262.86
461.602	259.36
462.06	256.06
462.518	262.16
462.976	262.96
463.434	273.96
463.892	276.66
464.35	295.26
464.808	300.16
465.266	280.96
465.724	285.56
466.181	288.36
466.639	283.26
467.097	316.66
467.555	313.36
468.012	311.06
468.47	325.36
468.928	338.06
469.385	347.36
469.843	359.46
470.3	363.96
470.758	364.36
471.215	395.96
471.673	414.46
472.13	410.46
472.588	429.56
473.045	386.86
473.503	390.66
473.96	398.16
474.417	415.26
474.875	444.26
475.332	487.36
475.789	478.56
476.246	470.46
476.704	502.66
477.161	521.16
477.618	539.96
478.075	574.56
478.532	626.56
478.989	688.46
479.446	808.26
479.903	764.86
480.36	790.36
480.817	845.56
481.274	936.96
481.731	1034.96
482.188	1103.66
482.645	1232.36
483.102	1308.56
483.558	1440.26
484.015	1478.36
484.472	1454.46
484.929	1413.46
485.385	1366.46
485.842	1336.76
486.299	1286.16
486.755	1236.66
487.212	1062.86
487.668	910.36
488.125	844.56
488.582	769.86
489.038	746.66
489.494	719.36
489.951	690.66
490.407	686.16
490.864	663.06
491.32	652.26
491.776	665.66
492.233	665.96
492.689	632.06
493.145	617.46
493.602	619.16
494.058	629.36
494.514	630.26
494.97	652.96
495.426	667.46
495.882	646.06
496.338	627.56
496.794	643.06
497.251	630.56
497.707	651.96
498.163	648.76
498.618	660.56
499.074	665.16
499.53	687.06
499.986	695.56
500.442	666.06
500.898	648.26
501.354	645.16
501.809	644.26
502.265	640.26
502.721	646.36
503.177	660.76
503.632	666.96
504.088	662.16
504.543	690.56
504.999	720.66
505.455	683.36
505.91	659.86
506.366	664.96
506.821	662.56
507.277	652.96
507.732	652.26
508.187	654.66
508.643	665.16
509.098	669.76
509.553	685.36
510.009	692.66
510.464	698.16
510.919	725.46
511.375	727.76
511.83	741.56
512.285	749.26
512.74	782.16
513.195	808.66
513.65	797.16
514.105	795.16
514.56	807.66
515.015	809.26
515.47	824.56
515.925	808.56
516.38	818.76
516.835	822.96
517.29	801.36
517.745	801.56
518.2	809.06
518.655	782.16
519.109	770.36
519.564	769.86
520.019	761.16
520.474	761.26
520.928	761.76
521.383	749.26
521.838	734.26
522.292	742.86
522.747	738.26
523.201	733.66
523.656	720.56
524.11	722.76
524.565	726.86
525.019	720.26
525.474	722.16
525.928	727.76
526.382	733.56
526.837	728.36
527.291	741.36
527.745	726.36
528.2	732.86
528.654	717.76
529.108	720.26
529.562	713.76
530.016	720.26
530.47	716.56
530.925	714.76
531.379	719.76
531.833	723.86
532.287	728.96
532.741	735.36
533.195	738.56
533.649	735.16
534.103	736.26
534.556	740.86
535.01	728.36
535.464	733.16
535.918	741.46
536.372	749.26
536.826	751.26
537.279	736.26
537.733	745.96
538.187	742.96
538.64	741.76
539.094	749.56
539.548	757.16
540.001	747.66
540.455	762.56
540.908	761.36
541.362	765.26
541.815	785.26
542.269	797.26
542.722	797.36
543.175	802.36
543.629	806.06
544.082	815.36
544.536	821.16
544.989	819.56
545.442	825.46
545.895	824.56
546.349	824.16
546.802	835.16
547.255	832.46
547.708	843.06
548.161	855.16
548.614	860.16
549.067	874.96
549.52	854.76
549.973	849.76
550.426	843.06
550.879	838.96
551.332	836.66
551.785	837.66
552.238	838.36
552.691	858.06
553.144	877.76
553.596	889.46
554.049	901.56
554.502	929.96
554.955	956.26
555.407	956.76
555.86	945.46
556.313	934.16
556.765	925.16
557.218	932.46
557.67	927.16
558.123	921.86
558.576	912.76
559.028	915.46
559.48	930.06
559.933	918.46
560.385	883.76
560.838	855.16
561.29	828.36
561.742	828.16
562.195	801.06
562.647	798.16
563.099	810.66
563.551	804.16
564.004	818.46
564.456	793.96
564.908	794.96
565.36	770.66
565.812	754.76
566.264	757.46
566.716	747.56
567.168	743.76
567.62	741.96
568.072	724.16
568.524	721.26
568.976	724.16
569.428	704.76
569.88	710.16
570.332	713.56
570.784	718.66
571.235	718.16
571.687	727.86
572.139	735.66
572.59	752.86
573.042	745.66
573.494	742.46
573.945	740.96
574.397	725.76
574.849	722.86
575.3	733.06
575.752	729.36
576.203	715.96
576.655	721.86
577.106	700.86
577.557	701.96
578.009	707.56
578.46	694.76
578.912	695.96
579.363	696.16
579.814	687.96
580.265	695.36
580.717	685.86
581.168	704.26
581.619	708.86
582.07	709.96
582.521	702.36
582.972	699.06
583.423	698.26
583.875	697.46
584.326	712.06
584.777	732.26
585.227	742.16
585.678	751.06
586.129	764.56
586.58	788.26
587.031	807.66
587.482	816.56
587.933	846.36
588.384	836.76
588.834	816.66
589.285	808.16
589.736	799.26
590.186	801.26
590.637	785.86
591.088	773.56
591.538	772.46
591.989	763.46
592.439	747.86
592.89	751.26
593.34	750.26
593.791	739.16
594.241	718.66
594.692	719.06
595.142	721.86
595.593	720.46
596.043	731.26
596.493	734.36
596.943	719.66
597.394	751.56
597.844	731.16
598.294	765.66
598.744	788.26
599.195	815.76
599.645	853.96
600.095	889.56
600.545	949.46
600.995	1008.46
601.445	1072.36
601.895	1121.96
602.345	1176.16
602.795	1164.06
603.245	1122.76
603.695	1047.36
604.145	991.16
604.594	952.26
605.044	904.66
605.494	837.56
605.944	779.96
606.393	777.56
606.843	757.26
607.293	761.66
607.743	761.96
608.192	766.66
608.642	776.46
609.091	779.36
609.541	784.86
609.99	797.36
610.44	782.16
610.889	744.06
611.339	728.16
611.788	709.26
612.238	712.76
612.687	741.06
613.136	707.76
613.586	736.36
614.035	723.86
614.484	736.86
614.933	731.26
615.383	728.26
615.832	725.96
616.281	727.76
616.73	692.16
617.179	674.66
617.628	649.86
618.077	653.16
618.526	641.46
618.975	643.36
619.424	636.26
619.873	632.96
620.322	633.16
620.771	627.66
621.22	625.56
621.669	609.06
622.118	604.46
622.567	608.86
623.015	590.46
623.464	580.06
623.913	582.86
624.361	572.16
624.81	569.46
625.259	569.06
625.707	578.46
626.156	569.86
626.604	584.96
627.053	575.06
627.501	584.56
627.95	578.96
628.398	600.96
628.847	587.96
629.295	588.36
629.744	588.26
630.192	587.06
630.64	581.36
631.089	565.86
631.537	560.96
631.985	549.16
632.433	555.66
632.881	543.06
633.33	539.76
633.778	546.16
634.226	537.76
634.674	560.76
635.122	560.16
635.57	574.26
636.018	576.76
636.466	575.26
636.914	567.56
637.362	590.16
637.81	586.06
638.258	597.46
638.705	597.86
639.153	623.86
639.601	643.86
640.049	659.26
640.497	703.46
640.944	715.16
641.392	673.26
641.84	638.56
642.287	598.56
642.735	579.26
643.182	587.36
643.63	581.26
644.078	571.86
644.525	590.46
644.973	590.36
645.42	607.66
645.867	641.56
646.315	651.26
646.762	670.36
647.21	697.76
647.657	707.56
648.104	744.76
648.551	768.76
648.999	838.96
649.446	904.66
649.893	998.86
650.34	1133.26
650.787	1340.76
651.234	1643.46
651.682	2132.96
652.129	2864.56
652.576	4070.16
653.023	5937.56
653.47	8046.86
653.917	9974.96
654.363	11502.46
654.81	12679.96
655.257	12007.96
655.704	7961.86
656.151	4810.76
656.598	3155.56
657.044	2243.76
657.491	1752.46
657.938	1433.46
658.385	1206.06
658.831	1053.96
659.278	940.76
659.724	842.46
660.171	777.96
660.618	712.96
661.064	688.66
661.511	677.56
661.957	657.36
662.404	651.56
662.85	654.86
663.296	623.96
663.743	573.96
664.189	551.56
664.635	544.96
665.082	541.06
665.528	534.46
665.974	527.16
666.42	518.66
666.867	513.46
667.313	499.76
667.759	485.46
668.205	455.76
668.651	465.06
669.097	463.06
669.543	446.86
669.989	445.36
670.435	456.26
670.881	458.36
671.327	461.46
671.773	484.96
672.219	504.96
672.665	560.76
673.11	607.66
673.556	659.76
674.002	698.06
674.448	671.46
674.893	576.26
675.339	498.76
675.785	450.66
676.23	438.66
676.676	406.66
677.122	390.46
677.567	384.66
678.013	384.46
678.458	373.16
678.904	374.36
679.349	357.16
679.794	362.96
680.24	361.46
680.685	365.06
681.131	358.06
681.576	367.76
682.021	370.56
682.466	355.26
682.912	355.76
683.357	360.16
683.802	397.66
684.247	424.66
684.692	471.06
685.137	512.26
685.583	555.46
686.028	584.26
686.473	540.46
686.918	463.46
687.363	432.66
687.807	407.86
688.252	383.36
688.697	369.56
689.142	354.76
689.587	344.46
690.032	333.96
690.477	351.36
690.921	362.16
691.366	399.26
691.811	407.96
692.255	439.36
692.7	470.96
693.145	519.36
693.589	727.36
694.034	1189.86
694.478	1596.46
694.923	1815.46
695.367	2340.56
695.812	1241.36
696.256	512.26
696.701	391.96
697.145	353.66
697.59	346.56
698.034	336.26
698.478	334.96
698.922	327.46
699.367	342.26
699.811	355.66
700.255	367.16
700.699	402.66
701.143	438.86
701.588	492.46
702.032	522.66
702.476	531.26
702.92	507.46
703.364	510.16
703.808	661.36
704.252	1073.06
704.696	1520.06
705.14	1745.96
705.584	2235.86
706.027	1104.46
706.471	551.86
706.915	417.76
707.359	369.16
707.803	338.56
708.246	323.86
708.69	321.96
709.134	319.06
709.577	313.86
710.021	325.66
710.465	321.36
710.908	305.36
711.352	302.56
711.795	314.36
712.239	370.56
712.682	398.86
713.126	422.36
713.569	467.56
714.012	371.86
714.456	312.66
714.899	296.76
715.342	280.76
715.786	268.66
716.229	260.66
716.672	257.66
717.115	247.16
717.558	257.66
718.002	259.46
718.445	273.66
718.888	298.96
719.331	314.46
719.774	320.96
720.217	316.96
720.66	295.86
721.103	276.36
721.546	268.76
721.989	253.76
722.432	240.56
722.874	248.06
723.317	230.56
723.76	244.86
724.203	257.16
724.645	326.86
725.088	458.56
725.531	597.36
725.974	665.16
726.416	567.26
726.859	318.56
727.301	257.26
727.744	237.56
728.187	245.06
728.629	246.46
729.071	252.56
729.514	270.26
729.956	280.06
730.399	292.96
730.841	293.96
731.283	287.36
731.726	283.46
732.168	268.16
732.61	270.26
733.053	297.06
733.495	324.96
733.937	365.56
734.379	413.56
734.821	462.76
735.263	569.36
735.705	881.86
736.148	1662.96
736.59	2726.96
737.032	3188.16
737.474	2611.36
737.916	846.06
738.357	448.36
738.799	343.36
739.241	309.76
739.683	290.86
740.125	304.86
740.567	310.76
741.008	327.56
741.45	326.26
741.892	333.66
742.334	367.36
742.775	372.56
743.217	367.66
743.658	285.46
744.1	265.66
744.542	273.86
744.983	323.86
745.425	363.96
745.866	362.76
746.307	287.66
746.749	293.56
747.19	335.96
747.632	475.76
748.073	937.86
748.514	1960.26
748.956	3000.36
749.397	3753.26
749.838	3108.66
750.279	3083.86
750.72	1570.86
751.162	571.56
751.603	335.86
752.044	263.96
752.485	225.46
752.926	212.06
753.367	210.06
753.808	197.96
754.249	199.66
754.69	191.26
755.131	185.06
755.572	191.36
756.013	191.26
756.453	201.26
756.894	190.26
757.335	197.56
757.776	201.06
758.216	205.86
758.657	203.66
759.098	208.96
759.538	232.76
759.979	280.66
760.42	394.76
760.86	737.86
761.301	1949.76
761.741	4672.96
762.182	6704.86
762.622	4744.06
763.063	1375.96
763.503	557.66
