Data from 20171114-ORNL-Ar_H_NY_Subt18_08-05-40-333.txt Node
Date: Tue Nov 14 08:05:40 EST 2017
User: Ender
Spectrometer: HR+D1039
Trigger mode: 0
Integration Time (sec): 2.730000E-2
Scans to average: 10
Electric dark correction enabled: true
Nonlinearity correction enabled: false
Boxcar width: 0
XAxis mode: Wavelengths
Number of Pixels in Spectrum: 2048
>>>>>Begin Spectral Data<<<<<
187.836	-1.86
188.309	-1.86
188.782	-1.86
189.255	1.34
189.728	0.64
190.201	4.04
190.674	3.24
191.147	-0.46
191.619	-9.86
192.092	-0.06
192.565	3.94
193.038	0.34
193.511	-0.86
193.984	1.44
194.456	-2.36
194.929	0.14
195.402	-1.56
195.874	1.94
196.347	-0.56
196.82	-6.66
197.292	11.94
197.765	-0.76
198.237	-6.26
198.71	-1.66
199.182	2.44
199.655	1.54
200.127	0.34
200.6	-2.96
201.072	0.94
201.544	-2.76
202.017	-2.96
202.489	7.64
202.961	0.34
203.433	-3.66
203.906	-7.76
204.378	-6.56
204.85	-5.06
205.322	-9.26
205.794	1.34
206.266	1.24
206.739	-8.96
207.211	1.34
207.683	-7.76
208.155	-9.06
208.627	-3.96
209.099	-0.46
209.57	-9.26
210.042	-0.56
210.514	-1.76
210.986	-5.96
211.458	-4.86
211.93	-2.66
212.402	0.84
212.873	-4.06
213.345	-4.96
213.817	-14.96
214.288	-10.66
214.76	-6.26
215.232	0.84
215.703	-6.16
216.175	-3.76
216.646	-10.16
217.118	-9.86
217.589	-5.86
218.061	-2.46
218.532	0.74
219.004	-6.76
219.475	0.24
219.946	0.44
220.418	-7.06
220.889	2.44
221.36	-0.06
221.832	-9.56
222.303	-8.96
222.774	2.04
223.245	-6.36
223.717	-6.86
224.188	-7.16
224.659	-4.46
225.13	-4.26
225.601	-5.56
226.072	-0.36
226.543	-6.56
227.014	-3.06
227.485	-2.16
227.956	-6.96
228.427	-1.06
228.898	-2.96
229.369	4.84
229.839	-0.96
230.31	-4.46
230.781	3.34
231.252	-5.96
231.722	-3.76
232.193	-2.36
232.664	-1.66
233.135	2.74
233.605	5.14
234.076	-6.26
234.546	-1.36
235.017	4.24
235.487	4.24
235.958	2.24
236.428	1.14
236.899	2.34
237.369	8.04
237.84	-0.96
238.31	5.64
238.78	4.44
239.251	8.34
239.721	1.74
240.191	1.84
240.662	0.94
241.132	5.54
241.602	0.04
242.072	0.34
242.542	9.04
243.013	-1.26
243.483	6.94
243.953	3.14
244.423	2.54
244.893	-2.66
245.363	-1.56
245.833	4.44
246.303	-1.56
246.773	9.14
247.243	8.64
247.712	-2.26
248.182	8.84
248.652	13.94
249.122	2.14
249.592	7.74
250.061	19.04
250.531	30.44
251.001	14.84
251.471	27.24
251.94	19.14
252.41	5.24
252.879	-5.06
253.349	15.34
253.818	9.84
254.288	0.04
254.757	7.34
255.227	3.04
255.696	3.64
256.166	6.34
256.635	10.04
257.105	7.44
257.574	2.54
258.043	8.94
258.513	8.74
258.982	14.14
259.451	10.24
259.92	16.84
260.389	13.24
260.859	11.34
261.328	15.54
261.797	19.24
262.266	11.34
262.735	12.94
263.204	7.64
263.673	4.74
264.142	2.24
264.611	0.94
265.08	6.74
265.549	1.44
266.018	5.04
266.487	-2.46
266.955	2.94
267.424	3.14
267.893	8.34
268.362	1.84
268.83	7.64
269.299	9.94
269.768	8.84
270.236	10.24
270.705	6.54
271.174	3.54
271.642	4.64
272.111	13.14
272.579	15.04
273.048	30.84
273.516	28.94
273.985	32.34
274.453	21.94
274.922	20.84
275.39	16.04
275.858	0.94
276.327	14.74
276.795	19.64
277.263	10.54
277.731	22.94
278.2	56.04
278.668	62.64
279.136	49.74
279.604	21.84
280.072	11.24
280.54	12.04
281.008	9.04
281.477	18.24
281.945	14.94
282.413	17.34
282.881	10.24
283.348	6.64
283.816	17.54
284.284	14.64
284.752	24.34
285.22	15.04
285.688	19.44
286.156	19.94
286.623	50.24
287.091	58.84
287.559	28.54
288.026	18.34
288.494	18.24
288.962	9.54
289.429	9.24
289.897	17.34
290.364	19.14
290.832	21.14
291.3	17.24
291.767	16.64
292.234	25.34
292.702	18.04
293.169	23.24
293.637	27.94
294.104	23.44
294.571	11.94
295.039	14.54
295.506	25.14
295.973	22.94
296.44	17.74
296.908	20.24
297.375	20.44
297.842	21.14
298.309	23.14
298.776	14.04
299.243	27.34
299.71	11.94
300.177	24.74
300.644	20.74
301.111	21.24
301.578	28.54
302.045	19.54
302.512	21.44
302.979	23.24
303.446	22.84
303.913	20.04
304.379	21.64
304.846	30.24
305.313	23.44
305.78	26.44
306.246	34.74
306.713	28.74
307.18	27.54
307.646	32.84
308.113	29.74
308.579	22.44
309.046	27.44
309.512	27.04
309.979	20.64
310.445	34.44
310.912	29.64
311.378	34.74
311.845	32.94
312.311	32.44
312.777	36.04
313.244	37.04
313.71	39.24
314.176	31.54
314.642	28.94
315.109	31.54
315.575	39.64
316.041	44.34
316.507	36.34
316.973	43.74
317.439	31.24
317.905	37.04
318.371	41.44
318.837	35.24
319.303	32.84
319.769	35.34
320.235	35.34
320.701	34.24
321.167	36.94
321.633	38.04
322.099	39.34
322.564	46.54
323.03	37.54
323.496	41.74
323.962	39.54
324.427	39.54
324.893	35.24
325.359	37.34
325.824	40.44
326.29	43.24
326.755	39.34
327.221	44.94
327.686	39.64
328.152	49.64
328.617	48.04
329.083	50.34
329.548	51.84
330.014	48.14
330.479	41.04
330.944	47.54
331.41	47.24
331.875	50.24
332.34	48.34
332.805	45.34
333.271	48.24
333.736	42.54
334.201	50.94
334.666	49.24
335.131	59.24
335.596	54.24
336.061	52.64
336.526	43.04
336.991	55.24
337.456	57.84
337.921	52.94
338.386	45.44
338.851	48.14
339.316	53.54
339.781	48.34
340.246	59.64
340.711	53.94
341.175	53.64
341.64	47.34
342.105	56.14
342.569	62.14
343.034	58.24
343.499	57.74
343.963	51.44
344.428	61.04
344.893	67.64
345.357	61.84
345.822	63.04
346.286	70.44
346.751	70.34
347.215	64.84
347.679	77.34
348.144	100.74
348.608	84.84
349.073	69.04
349.537	73.44
350.001	82.74
350.465	94.94
350.93	82.24
351.394	88.04
351.858	76.04
352.322	84.84
352.786	83.54
353.25	102.64
353.715	115.24
354.179	101.44
354.643	124.04
355.107	130.14
355.571	113.34
356.035	104.54
356.498	115.84
356.962	133.54
357.426	134.74
357.89	122.24
358.354	93.14
358.818	88.64
359.281	80.04
359.745	80.74
360.209	80.04
360.673	78.14
361.136	86.04
361.6	89.94
362.064	81.34
362.527	86.34
362.991	91.54
363.454	78.94
363.918	84.34
364.381	76.44
364.845	81.84
365.308	88.84
365.772	87.64
366.235	89.34
366.698	87.94
367.162	91.54
367.625	82.74
368.088	88.24
368.552	86.94
369.015	93.34
369.478	95.94
369.941	106.64
370.404	97.14
370.867	108.64
371.331	110.54
371.794	115.34
372.257	111.84
372.72	114.94
373.183	112.04
373.646	103.24
374.109	102.94
374.572	102.84
375.035	108.84
375.497	111.54
375.96	111.74
376.423	104.84
376.886	116.34
377.349	112.04
377.811	104.14
378.274	112.54
378.737	110.44
379.199	117.54
379.662	118.74
380.125	122.64
380.587	123.94
381.05	122.34
381.512	137.74
381.975	139.84
382.437	132.74
382.9	131.64
383.362	133.24
383.825	147.24
384.287	142.34
384.75	140.54
385.212	141.34
385.674	143.34
386.136	139.64
386.599	132.04
387.061	121.34
387.523	128.74
387.985	130.94
388.447	148.84
388.91	139.94
389.372	160.74
389.834	150.64
390.296	151.74
390.758	158.34
391.22	171.04
391.682	211.54
392.144	304.74
392.606	235.44
393.068	175.64
393.529	176.24
393.991	157.14
394.453	147.34
394.915	157.04
395.377	196.74
395.838	212.74
396.3	155.14
396.762	145.84
397.224	132.14
397.685	129.84
398.147	130.44
398.608	132.64
399.07	127.04
399.531	133.94
399.993	138.14
400.454	158.54
400.916	150.74
401.377	146.04
401.839	158.54
402.3	150.84
402.762	167.44
403.223	181.14
403.684	169.64
404.145	165.74
404.607	158.04
405.068	171.74
405.529	174.94
405.99	188.54
406.451	185.64
406.913	173.94
407.374	163.14
407.835	154.44
408.296	167.34
408.757	178.24
409.218	188.84
409.679	178.84
410.14	176.44
410.601	178.44
411.062	188.44
411.522	185.44
411.983	197.44
412.444	170.54
412.905	181.74
413.366	180.44
413.826	193.04
414.287	212.44
414.748	266.54
415.208	252.44
415.669	212.04
416.13	203.74
416.59	205.34
417.051	210.54
417.511	215.54
417.972	234.84
418.432	254.74
418.893	297.44
419.353	249.64
419.814	207.34
420.274	187.24
420.734	181.74
421.195	192.94
421.655	199.14
422.115	196.44
422.576	188.14
423.036	198.84
423.496	207.74
423.956	218.14
424.416	232.44
424.876	277.24
425.336	257.04
425.797	266.94
426.257	255.04
426.717	240.14
427.177	234.04
427.637	216.24
428.097	235.74
428.556	250.44
429.016	274.74
429.476	265.94
429.936	275.64
430.396	277.94
430.856	296.84
431.315	313.44
431.775	350.14
432.235	387.24
432.694	362.74
433.154	364.64
433.614	392.34
434.073	342.34
434.533	284.64
434.993	272.04
435.452	286.84
435.912	297.04
436.371	293.24
436.83	286.14
437.29	274.84
437.749	250.84
438.209	254.64
438.668	276.24
439.127	293.44
439.587	265.44
440.046	250.14
440.505	272.34
440.964	279.54
441.424	326.64
441.883	309.14
442.342	265.44
442.801	229.34
443.26	219.14
443.719	220.04
444.178	221.84
444.637	207.94
445.096	212.54
445.555	221.34
446.014	214.34
446.473	226.84
446.932	229.24
447.391	223.94
447.849	227.94
448.308	213.14
448.767	220.84
449.226	232.94
449.685	242.84
450.143	250.74
450.602	244.44
451.061	227.84
451.519	239.14
451.978	231.74
452.436	234.64
452.895	237.84
453.353	256.74
453.812	240.34
454.27	243.24
454.729	239.94
455.187	239.74
455.646	250.24
456.104	248.74
456.562	258.74
457.021	265.44
457.479	259.44
457.937	279.64
458.395	269.84
458.854	256.64
459.312	251.64
459.77	279.64
460.228	265.44
460.686	245.24
461.144	253.04
461.602	242.24
462.06	249.74
462.518	250.24
462.976	256.24
463.434	261.04
463.892	265.34
464.35	275.44
464.808	296.84
465.266	268.34
465.724	272.94
466.181	272.04
466.639	272.64
467.097	284.64
467.555	302.24
468.012	312.24
468.47	315.24
468.928	333.84
469.385	346.74
469.843	350.34
470.3	352.94
470.758	362.94
471.215	392.94
471.673	414.04
472.13	414.64
472.588	424.64
473.045	373.04
473.503	380.24
473.96	401.04
474.417	403.54
474.875	437.14
475.332	473.44
475.789	465.84
476.246	476.84
476.704	493.54
477.161	509.24
477.618	526.64
478.075	567.34
478.532	623.04
478.989	692.04
479.446	822.24
479.903	776.84
480.36	815.74
480.817	873.74
481.274	987.14
481.731	1088.54
482.188	1193.14
482.645	1323.74
483.102	1438.74
483.558	1578.14
484.015	1621.14
484.472	1604.84
484.929	1544.64
485.385	1491.64
485.842	1447.94
486.299	1396.44
486.755	1323.64
487.212	1100.44
487.668	940.64
488.125	866.44
488.582	787.74
489.038	746.54
489.494	719.94
489.951	694.04
490.407	673.14
490.864	654.74
491.32	655.84
491.776	652.64
492.233	656.94
492.689	621.04
493.145	616.04
493.602	608.34
494.058	624.04
494.514	627.14
494.97	651.14
495.426	651.94
495.882	631.44
496.338	617.74
496.794	637.24
497.251	621.44
497.707	644.24
498.163	658.74
498.618	649.04
499.074	654.64
499.53	688.84
499.986	691.64
500.442	665.54
500.898	630.34
501.354	628.14
501.809	646.14
502.265	646.14
502.721	672.94
503.177	677.74
503.632	669.24
504.088	679.34
504.543	734.44
504.999	714.54
505.455	665.64
505.91	637.34
506.366	643.04
506.821	631.04
507.277	623.74
507.732	640.54
508.187	635.34
508.643	636.54
509.098	632.14
509.553	660.84
510.009	661.24
510.464	677.54
510.919	694.54
511.375	697.14
511.83	715.54
512.285	728.74
512.74	776.44
513.195	780.94
513.65	780.74
514.105	776.94
514.56	783.14
515.015	798.14
515.47	814.14
515.925	801.44
516.38	798.24
516.835	811.24
517.29	781.74
517.745	783.04
518.2	764.84
518.655	763.54
519.109	753.64
519.564	752.64
520.019	729.44
520.474	729.64
520.928	722.44
521.383	723.84
521.838	719.44
522.292	721.14
522.747	715.04
523.201	709.84
523.656	694.44
524.11	699.74
524.565	689.64
525.019	688.54
525.474	708.64
525.928	699.34
526.382	703.54
526.837	706.54
527.291	713.14
527.745	699.24
528.2	698.04
528.654	694.94
529.108	692.24
529.562	704.04
530.016	695.54
530.47	695.64
530.925	694.54
531.379	701.84
531.833	706.34
532.287	712.04
532.741	709.04
533.195	708.54
533.649	711.54
534.103	728.04
534.556	717.44
535.01	712.04
535.464	707.84
535.918	722.64
536.372	726.44
536.826	728.04
537.279	716.64
537.733	709.54
538.187	723.84
538.64	728.14
539.094	727.54
539.548	733.14
540.001	727.24
540.455	722.14
540.908	724.74
541.362	745.84
541.815	747.74
542.269	766.84
542.722	768.24
543.175	772.84
543.629	773.24
544.082	794.24
544.536	782.44
544.989	780.84
545.442	799.14
545.895	790.34
546.349	790.44
546.802	788.44
547.255	796.64
547.708	800.04
548.161	821.64
548.614	838.64
549.067	832.04
549.52	812.04
549.973	818.14
550.426	808.14
550.879	800.44
551.332	801.04
551.785	809.64
552.238	816.84
552.691	824.24
553.144	837.34
553.596	854.34
554.049	864.84
554.502	903.24
554.955	915.34
555.407	911.84
555.86	897.34
556.313	894.74
556.765	892.24
557.218	887.34
557.67	893.24
558.123	874.04
558.576	872.74
559.028	879.94
559.48	884.94
559.933	872.74
560.385	844.04
560.838	803.44
561.29	788.04
561.742	770.34
562.195	755.04
562.647	760.44
563.099	775.64
563.551	769.44
564.004	781.54
564.456	757.74
564.908	769.94
565.36	736.74
565.812	738.94
566.264	726.24
566.716	736.74
567.168	714.94
567.62	722.94
568.072	709.04
568.524	694.14
568.976	687.34
569.428	672.64
569.88	681.44
570.332	677.64
570.784	678.64
571.235	678.84
571.687	693.54
572.139	697.94
572.59	702.34
573.042	717.54
573.494	706.34
573.945	704.04
574.397	688.94
574.849	692.44
575.3	686.74
575.752	683.64
576.203	669.34
576.655	680.84
577.106	672.14
577.557	654.24
578.009	670.64
578.46	668.84
578.912	667.54
579.363	667.54
579.814	668.44
580.265	663.94
580.717	653.64
581.168	666.74
581.619	674.54
582.07	684.04
582.521	682.64
582.972	663.84
583.423	677.14
583.875	680.54
584.326	700.04
584.777	744.84
585.227	816.84
585.678	907.34
586.129	995.44
586.58	1062.34
587.031	1154.94
587.482	1313.34
587.933	1502.24
588.384	1300.34
588.834	962.64
589.285	800.44
589.736	779.14
590.186	766.54
590.637	757.94
591.088	737.44
591.538	728.34
591.989	722.24
592.439	716.24
592.89	713.04
593.34	707.64
593.791	701.94
594.241	689.84
594.692	694.74
595.142	696.84
595.593	696.64
596.043	703.24
596.493	710.44
596.943	702.94
597.394	718.74
597.844	705.04
598.294	721.44
598.744	744.24
599.195	760.24
599.645	792.24
600.095	845.14
600.545	906.14
600.995	950.84
601.445	1006.94
601.895	1069.74
602.345	1128.44
602.795	1097.84
603.245	1047.14
603.695	1002.34
604.145	949.54
604.594	890.94
605.044	851.14
605.494	776.84
605.944	735.04
606.393	735.64
606.843	712.84
607.293	721.54
607.743	717.54
608.192	740.34
608.642	749.34
609.091	758.44
609.541	761.44
609.99	757.84
610.44	744.54
610.889	717.04
611.339	688.34
611.788	672.94
612.238	692.24
612.687	711.44
613.136	701.64
613.586	730.44
614.035	729.54
614.484	745.84
614.933	750.04
615.383	736.14
615.832	724.24
616.281	716.14
616.73	678.14
617.179	661.24
617.628	643.14
618.077	620.34
618.526	614.04
618.975	610.74
619.424	604.54
619.873	611.04
620.322	606.04
620.771	597.94
621.22	599.84
621.669	583.64
622.118	582.34
622.567	565.24
623.015	564.24
623.464	562.54
623.913	549.34
624.361	541.44
624.81	538.34
625.259	543.44
625.707	538.84
626.156	531.34
626.604	552.74
627.053	555.14
627.501	552.94
627.95	553.74
628.398	572.84
628.847	562.14
629.295	556.84
629.744	559.44
630.192	561.24
630.64	557.34
631.089	558.04
631.537	563.54
631.985	563.64
632.433	573.84
632.881	592.94
633.33	643.04
633.778	618.14
634.226	554.74
634.674	561.24
635.122	563.24
635.57	583.44
636.018	614.54
636.466	566.04
636.914	547.94
637.362	556.54
637.81	554.04
638.258	574.24
638.705	560.44
639.153	588.24
639.601	598.44
640.049	620.74
640.497	657.44
640.944	681.64
641.392	634.44
641.84	598.64
642.287	566.04
642.735	558.64
643.182	568.14
643.63	565.54
644.078	560.04
644.525	575.54
644.973	571.94
645.42	591.14
645.867	606.64
646.315	625.04
646.762	642.44
647.21	675.04
647.657	688.64
648.104	736.14
648.551	757.34
648.999	815.04
649.446	902.24
649.893	984.34
650.34	1131.84
650.787	1356.44
651.234	1687.54
651.682	2195.24
652.129	3021.74
652.576	4333.84
653.023	6437.44
653.47	8812.04
653.917	11094.64
654.363	12841.24
654.81	14273.04
655.257	13572.94
655.704	8882.84
656.151	5241.14
656.598	3374.04
657.044	2396.54
657.491	1847.14
657.938	1470.24
658.385	1222.34
658.831	1062.34
659.278	941.24
659.724	841.44
660.171	764.74
660.618	706.54
661.064	673.24
661.511	648.24
661.957	628.64
662.404	619.44
662.85	632.04
663.296	612.94
663.743	542.04
664.189	525.84
664.635	520.04
665.082	513.64
665.528	509.84
665.974	505.04
666.42	494.94
666.867	489.54
667.313	481.54
667.759	470.94
668.205	472.14
668.651	468.04
669.097	472.54
669.543	486.74
669.989	445.94
670.435	434.54
670.881	421.64
671.327	436.94
671.773	442.44
672.219	463.24
672.665	522.24
673.11	562.94
673.556	605.64
674.002	640.04
674.448	634.24
674.893	530.04
675.339	460.84
675.785	425.54
676.23	402.64
676.676	381.14
677.122	371.44
677.567	368.04
678.013	354.64
678.458	347.84
678.904	337.34
679.349	336.04
679.794	341.74
680.24	339.34
680.685	336.74
681.131	340.84
681.576	343.64
682.021	347.44
682.466	335.14
682.912	339.74
683.357	336.04
683.802	363.74
684.247	389.94
684.692	440.14
685.137	473.54
685.583	512.54
686.028	537.14
686.473	503.44
686.918	431.14
687.363	397.54
687.807	378.84
688.252	356.34
688.697	344.94
689.142	324.74
689.587	321.94
690.032	314.74
690.477	331.64
690.921	333.14
691.366	366.04
691.811	384.54
692.255	418.94
692.7	444.44
693.145	476.34
693.589	663.44
694.034	1061.84
694.478	1463.04
694.923	1666.94
695.367	2193.64
695.812	1159.24
696.256	479.24
696.701	355.14
697.145	337.24
697.59	320.44
698.034	313.54
698.478	318.14
698.922	306.64
699.367	317.44
699.811	323.44
700.255	339.24
700.699	366.84
701.143	409.54
701.588	453.54
702.032	487.54
702.476	492.84
702.92	471.94
703.364	476.84
703.808	602.74
704.252	975.94
704.696	1393.04
705.14	1599.14
705.584	2050.94
706.027	1015.64
706.471	500.74
706.915	374.74
707.359	341.64
707.803	309.14
708.246	295.34
708.69	294.94
709.134	300.14
709.577	299.04
710.021	302.44
710.465	295.84
710.908	286.54
711.352	277.64
711.795	294.04
712.239	338.74
712.682	366.94
713.126	408.64
713.569	447.04
714.012	353.74
714.456	312.84
714.899	286.64
715.342	263.64
715.786	250.84
716.229	243.64
716.672	246.74
717.115	229.94
717.558	236.44
718.002	244.54
718.445	250.34
718.888	277.64
719.331	282.84
719.774	292.14
720.217	291.64
720.66	267.14
721.103	251.54
721.546	244.14
721.989	236.24
722.432	227.04
722.874	228.14
723.317	222.04
723.76	222.84
724.203	244.04
724.645	299.94
725.088	416.24
725.531	542.24
725.974	617.14
726.416	529.64
726.859	300.94
727.301	238.34
727.744	231.14
728.187	230.24
728.629	225.94
729.071	229.74
729.514	250.74
729.956	263.84
730.399	269.64
730.841	274.44
731.283	266.34
731.726	254.04
732.168	252.84
732.61	250.44
733.053	278.84
733.495	299.44
733.937	344.94
734.379	380.74
734.821	419.24
735.263	505.44
735.705	776.34
736.148	1476.84
736.59	2454.74
737.032	2928.84
737.474	2389.94
737.916	775.24
738.357	408.14
738.799	307.44
739.241	282.44
739.683	271.84
740.125	274.84
740.567	274.64
741.008	302.84
741.45	291.24
741.892	302.24
742.334	327.54
742.775	336.74
743.217	328.14
743.658	254.44
744.1	239.04
744.542	244.14
744.983	290.44
745.425	320.64
745.866	331.34
746.307	272.74
746.749	267.44
747.19	307.34
747.632	436.14
748.073	824.04
748.514	1738.14
748.956	2707.64
749.397	3401.34
749.838	2825.94
750.279	2842.74
750.72	1441.04
751.162	525.84
751.603	304.54
752.044	237.44
752.485	209.44
752.926	199.14
753.367	195.24
753.808	189.64
754.249	180.04
754.69	170.94
755.131	170.34
755.572	179.54
756.013	166.24
756.453	175.24
756.894	179.24
757.335	181.04
757.776	184.44
758.216	198.04
758.657	190.64
759.098	194.84
759.538	207.34
759.979	249.14
760.42	353.74
760.86	649.14
761.301	1691.24
761.741	4148.24
762.182	6172.44
762.622	4342.74
