Data from 20171114-ORNL-Ar_H_NY_Subt18_08-08-49-807.txt Node
Date: Tue Nov 14 08:08:49 EST 2017
User: Ender
Spectrometer: HR+D1039
Trigger mode: 0
Integration Time (sec): 2.730000E-2
Scans to average: 10
Electric dark correction enabled: true
Nonlinearity correction enabled: false
Boxcar width: 0
XAxis mode: Wavelengths
Number of Pixels in Spectrum: 2048
>>>>>Begin Spectral Data<<<<<
187.836	-9.54
188.309	-9.54
188.782	-9.54
189.255	-0.44
189.728	-1.94
190.201	6.26
190.674	2.86
191.147	-0.04
191.619	-7.54
192.092	0.96
192.565	12.16
193.038	3.36
193.511	4.26
193.984	3.16
194.456	-4.24
194.929	-2.04
195.402	-2.84
195.874	-4.34
196.347	-4.84
196.82	-11.44
197.292	4.66
197.765	-1.24
198.237	-7.34
198.71	6.06
199.182	1.26
199.655	3.36
200.127	2.46
200.6	0.66
201.072	-1.04
201.544	-3.74
202.017	-6.84
202.489	5.26
202.961	-0.44
203.433	0.96
203.906	-3.34
204.378	-9.74
204.85	-5.44
205.322	-6.94
205.794	-1.04
206.266	-1.44
206.739	-4.34
207.211	1.36
207.683	-1.84
208.155	-6.64
208.627	-5.94
209.099	-2.74
209.57	-6.54
210.042	-5.64
210.514	-3.84
210.986	-0.44
211.458	-10.34
211.93	-0.64
212.402	-0.14
212.873	-3.34
213.345	-14.14
213.817	-12.44
214.288	-6.94
214.76	-14.14
215.232	-4.44
215.703	-5.24
216.175	-3.04
216.646	-5.04
217.118	-5.24
217.589	-0.34
218.061	-0.54
218.532	-2.04
219.004	0.16
219.475	-2.84
219.946	-2.34
220.418	-2.14
220.889	1.76
221.36	1.96
221.832	-0.44
222.303	-10.64
222.774	-3.24
223.245	-10.74
223.717	-5.64
224.188	-2.94
224.659	-10.24
225.13	-12.04
225.601	2.06
226.072	-1.74
226.543	0.16
227.014	-0.34
227.485	0.86
227.956	-11.84
228.427	-1.94
228.898	-6.44
229.369	1.86
229.839	-4.94
230.31	-11.84
230.781	-2.64
231.252	-4.14
231.722	-5.74
232.193	-1.34
232.664	-0.54
233.135	-0.44
233.605	-1.14
234.076	-1.24
234.546	-3.44
235.017	2.36
235.487	-1.34
235.958	-2.74
236.428	-3.34
236.899	0.16
237.369	-1.24
237.84	-9.64
238.31	-4.14
238.78	-1.34
239.251	-11.34
239.721	-5.24
240.191	-3.64
240.662	-10.24
241.132	-4.04
241.602	-9.74
242.072	1.16
242.542	3.26
243.013	-7.64
243.483	1.86
243.953	-8.44
244.423	-5.44
244.893	-9.24
245.363	-2.44
245.833	-4.24
246.303	-1.74
246.773	3.16
247.243	3.96
247.712	-1.54
248.182	-2.64
248.652	8.56
249.122	-3.84
249.592	3.86
250.061	4.26
250.531	10.76
251.001	1.96
251.471	6.46
251.94	11.86
252.41	1.76
252.879	-5.64
253.349	7.56
253.818	5.26
254.288	2.56
254.757	-3.04
255.227	-3.84
255.696	-2.64
256.166	4.66
256.635	2.76
257.105	-0.14
257.574	0.86
258.043	8.46
258.513	-1.44
258.982	2.96
259.451	-4.24
259.92	-4.24
260.389	0.86
260.859	5.06
261.328	4.86
261.797	4.46
262.266	3.66
262.735	7.26
263.204	0.56
263.673	0.66
264.142	5.26
264.611	-1.14
265.08	-6.14
265.549	-1.54
266.018	4.96
266.487	-5.04
266.955	-1.74
267.424	-2.24
267.893	4.66
268.362	-5.24
268.83	0.96
269.299	7.96
269.768	2.86
270.236	-0.54
270.705	-2.64
271.174	0.56
271.642	-1.64
272.111	2.66
272.579	4.16
273.048	11.06
273.516	7.16
273.985	6.76
274.453	6.36
274.922	12.96
275.39	7.06
275.858	-0.54
276.327	8.46
276.795	9.06
277.263	4.86
277.731	13.46
278.2	19.36
278.668	22.86
279.136	23.76
279.604	4.16
280.072	6.36
280.54	6.76
281.008	6.56
281.477	14.46
281.945	8.16
282.413	11.76
282.881	9.46
283.348	2.46
283.816	11.76
284.284	12.56
284.752	12.86
285.22	7.56
285.688	9.06
286.156	10.06
286.623	22.06
287.091	17.06
287.559	13.46
288.026	11.96
288.494	11.56
288.962	1.66
289.429	1.66
289.897	16.76
290.364	10.86
290.832	9.76
291.3	14.16
291.767	13.96
292.234	12.46
292.702	13.06
293.169	11.46
293.637	14.16
294.104	16.66
294.571	1.36
295.039	8.06
295.506	4.46
295.973	14.76
296.44	10.66
296.908	16.56
297.375	14.96
297.842	16.46
298.309	12.36
298.776	2.56
299.243	12.46
299.71	8.26
300.177	13.96
300.644	13.86
301.111	8.96
301.578	7.16
302.045	8.46
302.512	19.56
302.979	20.06
303.446	13.96
303.913	5.46
304.379	10.96
304.846	17.36
305.313	18.96
305.78	15.96
306.246	16.46
306.713	24.16
307.18	16.16
307.646	23.96
308.113	26.46
308.579	21.56
309.046	18.46
309.512	20.26
309.979	12.26
310.445	24.16
310.912	21.36
311.378	23.16
311.845	23.96
312.311	21.46
312.777	27.06
313.244	19.66
313.71	31.56
314.176	23.96
314.642	19.46
315.109	20.36
315.575	26.66
316.041	29.76
316.507	22.46
316.973	36.46
317.439	23.16
317.905	29.26
318.371	29.46
318.837	25.56
319.303	26.36
319.769	23.16
320.235	29.66
320.701	28.36
321.167	26.56
321.633	26.26
322.099	30.96
322.564	31.56
323.03	29.26
323.496	26.66
323.962	32.86
324.427	33.86
324.893	32.86
325.359	33.56
325.824	26.66
326.29	24.56
326.755	31.96
327.221	32.46
327.686	32.66
328.152	37.86
328.617	33.46
329.083	36.86
329.548	41.36
330.014	37.46
330.479	26.36
330.944	32.56
331.41	29.46
331.875	41.16
332.34	34.46
332.805	40.36
333.271	43.26
333.736	29.46
334.201	43.26
334.666	44.36
335.131	45.56
335.596	45.66
336.061	43.06
336.526	32.86
336.991	41.76
337.456	45.46
337.921	42.86
338.386	40.36
338.851	41.26
339.316	35.46
339.781	37.96
340.246	43.16
340.711	43.86
341.175	43.26
341.64	38.86
342.105	46.66
342.569	46.26
343.034	50.36
343.499	54.26
343.963	43.66
344.428	51.86
344.893	50.96
345.357	55.16
345.822	47.96
346.286	52.06
346.751	60.16
347.215	62.26
347.679	59.76
348.144	82.76
348.608	69.66
349.073	60.26
349.537	67.56
350.001	66.46
350.465	76.36
350.93	70.46
351.394	68.46
351.858	62.66
352.322	72.76
352.786	73.16
353.25	77.56
353.715	96.06
354.179	86.86
354.643	108.46
355.107	100.06
355.571	94.26
356.035	82.06
356.498	101.86
356.962	99.16
357.426	109.86
357.89	100.06
358.354	75.46
358.818	67.76
359.281	72.56
359.745	64.06
360.209	69.36
360.673	70.06
361.136	72.86
361.6	75.96
362.064	70.56
362.527	70.86
362.991	78.56
363.454	71.96
363.918	68.76
364.381	75.76
364.845	71.76
365.308	82.76
365.772	78.36
366.235	78.56
366.698	71.16
367.162	73.76
367.625	74.96
368.088	73.36
368.552	74.96
369.015	82.86
369.478	89.96
369.941	89.36
370.404	89.86
370.867	87.86
371.331	90.36
371.794	98.46
372.257	82.76
372.72	98.26
373.183	93.56
373.646	83.56
374.109	87.26
374.572	89.46
375.035	94.06
375.497	101.66
375.96	93.06
376.423	95.16
376.886	103.16
377.349	98.56
377.811	89.36
378.274	93.96
378.737	101.36
379.199	101.76
379.662	101.46
380.125	111.06
380.587	104.66
381.05	98.96
381.512	100.26
381.975	125.06
382.437	108.16
382.9	108.76
383.362	121.56
383.825	118.16
384.287	120.16
384.75	116.66
385.212	123.86
385.674	124.96
386.136	118.16
386.599	112.86
387.061	114.56
387.523	116.76
387.985	117.86
388.447	130.26
388.91	116.76
389.372	127.46
389.834	123.86
390.296	121.56
390.758	126.66
391.22	136.76
391.682	160.26
392.144	193.56
392.606	167.46
393.068	142.36
393.529	148.76
393.991	137.26
394.453	132.26
394.915	140.06
395.377	145.46
395.838	151.66
396.3	140.06
396.762	136.76
397.224	131.06
397.685	124.46
398.147	131.26
398.608	126.46
399.07	123.26
399.531	135.36
399.993	132.56
400.454	153.66
400.916	138.16
401.377	132.06
401.839	147.86
402.3	143.16
402.762	162.86
403.223	176.56
403.684	164.36
404.145	152.46
404.607	156.26
405.068	163.36
405.529	161.66
405.99	176.16
406.451	168.66
406.913	166.06
407.374	159.66
407.835	155.46
408.296	157.96
408.757	164.96
409.218	182.56
409.679	169.96
410.14	165.76
410.601	166.86
411.062	171.96
411.522	174.66
411.983	181.06
412.444	173.56
412.905	176.16
413.366	178.76
413.826	192.36
414.287	213.26
414.748	265.26
415.208	244.06
415.669	218.46
416.13	204.36
416.59	201.76
417.051	216.26
417.511	216.46
417.972	242.26
418.432	251.16
418.893	284.76
419.353	253.86
419.814	195.96
420.274	183.86
420.734	179.86
421.195	192.86
421.655	195.66
422.115	194.16
422.576	187.86
423.036	200.46
423.496	207.76
423.956	214.36
424.416	234.16
424.876	267.76
425.336	263.46
425.797	262.36
426.257	251.86
426.717	238.56
427.177	228.66
427.637	213.26
428.097	232.06
428.556	242.96
429.016	268.56
429.476	258.46
429.936	266.76
430.396	265.56
430.856	287.16
431.315	309.66
431.775	336.26
432.235	372.76
432.694	335.06
433.154	344.76
433.614	372.36
434.073	326.46
434.533	282.76
434.993	264.06
435.452	270.16
435.912	285.36
436.371	275.76
436.83	269.76
437.29	260.76
437.749	253.66
438.209	247.56
438.668	280.56
439.127	287.36
439.587	262.46
440.046	255.06
440.505	249.46
440.964	273.46
441.424	317.76
441.883	305.06
442.342	263.66
442.801	232.66
443.26	221.56
443.719	229.66
444.178	226.66
444.637	216.16
445.096	220.56
445.555	228.96
446.014	227.96
446.473	228.16
446.932	237.76
447.391	233.26
447.849	232.56
448.308	219.96
448.767	222.96
449.226	246.06
449.685	244.36
450.143	255.86
450.602	243.56
451.061	232.76
451.519	233.56
451.978	231.46
452.436	237.16
452.895	243.26
453.353	253.66
453.812	251.76
454.27	245.56
454.729	238.86
455.187	238.86
455.646	246.76
456.104	254.96
456.562	264.76
457.021	264.26
457.479	264.36
457.937	280.06
458.395	268.86
458.854	251.46
459.312	266.36
459.77	272.06
460.228	260.26
460.686	246.96
461.144	257.66
461.602	261.66
462.06	256.46
462.518	268.06
462.976	256.36
463.434	262.06
463.892	270.56
464.35	277.46
464.808	292.26
465.266	274.36
465.724	279.96
466.181	278.46
466.639	277.56
467.097	299.36
467.555	312.46
468.012	312.86
468.47	321.46
468.928	336.66
469.385	344.46
469.843	349.26
470.3	354.86
470.758	371.06
471.215	382.06
471.673	402.96
472.13	409.76
472.588	414.86
473.045	377.36
473.503	398.76
473.96	401.36
474.417	407.96
474.875	441.66
475.332	480.16
475.789	466.46
476.246	483.16
476.704	496.86
477.161	520.56
477.618	523.26
478.075	565.46
478.532	622.66
478.989	688.66
479.446	789.96
479.903	764.06
480.36	792.16
480.817	842.56
481.274	930.86
481.731	1029.56
482.188	1107.26
482.645	1231.06
483.102	1315.76
483.558	1423.36
484.015	1481.56
484.472	1458.76
484.929	1415.36
485.385	1360.96
485.842	1332.56
486.299	1292.76
486.755	1242.96
487.212	1055.36
487.668	915.16
488.125	829.66
488.582	772.26
489.038	744.26
489.494	710.46
489.951	684.06
490.407	665.56
490.864	647.96
491.32	648.16
491.776	650.66
492.233	662.26
492.689	625.46
493.145	616.26
493.602	603.36
494.058	621.66
494.514	614.16
494.97	647.06
495.426	649.26
495.882	630.46
496.338	614.46
496.794	624.96
497.251	614.06
497.707	643.86
498.163	644.36
498.618	639.16
499.074	641.16
499.53	673.86
499.986	681.06
500.442	649.56
500.898	628.26
501.354	630.66
501.809	638.46
502.265	645.36
502.721	647.16
503.177	657.16
503.632	663.36
504.088	658.76
504.543	692.46
504.999	698.16
505.455	669.26
505.91	647.56
506.366	652.26
506.821	640.26
507.277	643.36
507.732	645.26
508.187	635.46
508.643	657.56
509.098	656.66
509.553	672.56
510.009	676.56
510.464	696.06
510.919	700.76
511.375	698.06
511.83	716.86
512.285	739.66
512.74	771.36
513.195	789.66
513.65	778.86
514.105	771.26
514.56	783.96
515.015	795.56
515.47	811.76
515.925	789.26
516.38	801.46
516.835	812.76
517.29	788.66
517.745	791.06
518.2	781.56
518.655	767.26
519.109	748.46
519.564	757.76
520.019	744.76
520.474	741.86
520.928	736.86
521.383	735.16
521.838	715.56
522.292	727.96
522.747	723.96
523.201	719.36
523.656	719.46
524.11	714.26
524.565	707.56
525.019	701.16
525.474	705.46
525.928	719.76
526.382	704.56
526.837	711.16
527.291	726.36
527.745	708.86
528.2	715.46
528.654	709.36
529.108	692.26
529.562	701.76
530.016	698.96
530.47	702.66
530.925	708.26
531.379	711.56
531.833	715.26
532.287	710.46
532.741	710.26
533.195	714.26
533.649	715.86
534.103	732.56
534.556	716.36
535.01	725.06
535.464	720.26
535.918	723.66
536.372	729.36
536.826	721.26
537.279	723.96
537.733	734.56
538.187	727.86
538.64	725.56
539.094	735.06
539.548	742.36
540.001	740.46
540.455	746.06
540.908	748.06
541.362	755.26
541.815	766.96
542.269	770.06
542.722	779.16
543.175	791.86
543.629	781.66
544.082	803.66
544.536	809.46
544.989	807.36
545.442	816.16
545.895	811.26
546.349	811.96
546.802	815.66
547.255	820.16
547.708	824.76
548.161	842.66
548.614	837.36
549.067	847.76
549.52	843.96
549.973	828.86
550.426	830.66
550.879	817.26
551.332	818.76
551.785	814.06
552.238	831.76
552.691	837.76
553.144	855.56
553.596	863.26
554.049	889.56
554.502	916.66
554.955	932.66
555.407	932.56
555.86	918.86
556.313	914.86
556.765	900.76
557.218	897.96
557.67	893.36
558.123	896.66
558.576	887.26
559.028	893.66
559.48	913.56
559.933	897.16
560.385	873.86
560.838	838.26
561.29	809.86
561.742	802.56
562.195	787.86
562.647	795.96
563.099	790.06
563.551	796.46
564.004	808.96
564.456	804.26
564.908	778.16
565.36	762.56
565.812	745.86
566.264	744.56
566.716	740.56
567.168	727.16
567.62	734.86
568.072	719.56
568.524	716.36
568.976	709.46
569.428	704.66
569.88	701.16
570.332	705.26
570.784	702.76
571.235	701.36
571.687	712.16
572.139	725.06
572.59	738.46
573.042	728.96
573.494	732.36
573.945	728.46
574.397	700.26
574.849	711.26
575.3	711.46
575.752	702.76
576.203	698.36
576.655	705.96
577.106	683.56
577.557	682.16
578.009	693.36
578.46	684.26
578.912	686.36
579.363	688.06
579.814	686.56
580.265	687.96
580.717	691.46
581.168	693.36
581.619	698.56
582.07	692.56
582.521	700.26
582.972	696.86
583.423	688.16
583.875	697.56
584.326	704.06
584.777	744.56
585.227	767.46
585.678	797.86
586.129	838.46
586.58	886.66
587.031	917.66
587.482	976.36
587.933	1051.76
588.384	979.26
588.834	851.26
589.285	798.36
589.736	795.26
590.186	796.36
590.637	780.26
591.088	773.86
591.538	766.96
591.989	755.76
592.439	753.26
592.89	751.66
593.34	727.46
593.791	730.16
594.241	729.76
594.692	725.06
595.142	719.76
595.593	720.06
596.043	724.46
596.493	729.76
596.943	733.86
597.394	738.96
597.844	745.96
598.294	759.36
598.744	791.26
599.195	821.86
599.645	851.26
600.095	906.36
600.545	950.56
600.995	1003.06
601.445	1057.56
601.895	1117.36
602.345	1171.06
602.795	1139.06
603.245	1108.16
603.695	1043.06
604.145	987.96
604.594	941.76
605.044	893.46
605.494	812.26
605.944	784.16
606.393	769.56
606.843	754.76
607.293	754.46
607.743	757.06
608.192	764.96
608.642	773.86
609.091	785.36
609.541	793.76
609.99	794.86
610.44	788.16
610.889	742.96
611.339	730.16
611.788	695.86
612.238	719.46
612.687	738.36
613.136	726.76
613.586	747.76
614.035	738.86
614.484	736.56
614.933	742.86
615.383	738.96
615.832	740.86
616.281	727.06
616.73	701.56
617.179	686.66
617.628	672.96
618.077	644.66
618.526	641.16
618.975	639.26
619.424	639.46
619.873	625.56
620.322	632.56
620.771	638.36
621.22	632.16
621.669	611.16
622.118	608.56
622.567	597.96
623.015	591.16
623.464	589.76
623.913	581.76
624.361	571.66
624.81	569.56
625.259	575.66
625.707	571.16
626.156	569.96
626.604	582.36
627.053	584.66
627.501	580.86
627.95	590.66
628.398	603.36
628.847	586.36
629.295	594.26
629.744	593.06
630.192	593.16
630.64	582.76
631.089	577.26
631.537	577.36
631.985	575.26
632.433	576.36
632.881	568.96
633.33	589.46
633.778	577.46
634.226	559.36
634.674	567.76
635.122	570.56
635.57	582.16
636.018	596.56
636.466	589.16
636.914	573.46
637.362	592.86
637.81	598.06
638.258	601.36
638.705	602.16
639.153	643.26
639.601	650.86
640.049	661.46
640.497	699.66
640.944	723.26
641.392	667.56
641.84	635.26
642.287	598.46
642.735	580.96
643.182	591.16
643.63	582.46
644.078	570.66
644.525	596.46
644.973	603.56
645.42	609.06
645.867	632.96
646.315	657.66
646.762	678.76
647.21	705.66
647.657	723.66
648.104	767.16
648.551	777.56
648.999	852.06
649.446	924.46
649.893	1012.76
650.34	1174.46
650.787	1381.66
651.234	1698.16
651.682	2210.76
652.129	3004.36
652.576	4255.76
653.023	6238.96
653.47	8450.06
653.917	10395.16
654.363	11950.56
654.81	13125.96
655.257	12438.46
655.704	8247.36
656.151	4928.96
656.598	3249.66
657.044	2321.36
657.491	1811.26
657.938	1451.46
658.385	1230.66
658.831	1072.76
659.278	950.06
659.724	851.76
660.171	799.56
660.618	732.76
661.064	707.86
661.511	675.76
661.957	669.06
662.404	653.76
662.85	670.16
663.296	640.66
663.743	572.46
664.189	550.86
664.635	546.86
665.082	548.66
665.528	550.46
665.974	541.06
666.42	527.96
666.867	525.56
667.313	500.96
667.759	486.56
668.205	478.26
668.651	473.56
669.097	474.36
669.543	471.86
669.989	466.96
670.435	467.76
670.881	467.66
671.327	470.26
671.773	495.76
672.219	512.46
672.665	572.66
673.11	613.26
673.556	655.96
674.002	694.16
674.448	677.16
674.893	573.16
675.339	495.26
675.785	465.96
676.23	433.36
676.676	418.36
677.122	402.06
677.567	396.46
678.013	389.66
678.458	372.56
678.904	373.26
679.349	363.16
679.794	369.76
680.24	365.86
680.685	364.36
681.131	367.46
681.576	365.76
682.021	371.46
682.466	358.56
682.912	367.66
683.357	368.66
683.802	396.46
684.247	428.26
684.692	475.96
685.137	525.56
685.583	559.56
686.028	599.06
686.473	543.26
686.918	465.76
687.363	442.46
687.807	411.46
688.252	381.56
688.697	378.96
689.142	355.86
689.587	348.96
690.032	348.46
690.477	359.56
690.921	367.26
691.366	402.36
691.811	415.56
692.255	449.86
692.7	481.86
693.145	540.76
693.589	760.76
694.034	1225.86
694.478	1638.66
694.923	1812.16
695.367	2344.46
695.812	1257.46
696.256	532.76
696.701	393.66
697.145	362.86
697.59	345.16
698.034	345.26
698.478	342.46
698.922	338.86
699.367	344.56
699.811	352.66
700.255	371.66
700.699	395.16
701.143	448.26
701.588	493.46
702.032	530.96
702.476	533.66
702.92	507.76
703.364	525.06
703.808	691.26
704.252	1135.06
704.696	1560.26
705.14	1750.86
705.584	2212.66
706.027	1122.06
706.471	552.26
706.915	416.56
707.359	371.06
707.803	340.66
708.246	335.06
708.69	338.26
709.134	336.86
709.577	328.56
710.021	338.16
710.465	323.46
710.908	322.66
711.352	310.76
711.795	326.16
712.239	369.56
712.682	408.06
713.126	430.76
713.569	472.36
714.012	377.86
714.456	317.86
714.899	307.56
715.342	288.16
715.786	270.96
716.229	275.56
716.672	269.06
717.115	262.96
717.558	262.26
718.002	267.46
718.445	271.66
718.888	301.66
719.331	305.36
719.774	323.76
720.217	317.16
720.66	298.46
721.103	280.06
721.546	269.66
721.989	265.96
722.432	243.56
722.874	248.06
723.317	235.26
723.76	248.56
724.203	274.46
724.645	338.26
725.088	474.96
725.531	601.06
725.974	668.66
726.416	570.36
726.859	319.16
727.301	263.96
727.744	245.86
728.187	244.16
728.629	260.36
729.071	256.56
729.514	272.36
729.956	288.96
730.399	299.56
730.841	297.66
731.283	287.86
731.726	280.06
732.168	274.16
732.61	281.76
733.053	306.76
733.495	336.76
733.937	373.86
734.379	421.56
734.821	469.16
735.263	584.96
735.705	919.66
736.148	1733.26
736.59	2755.76
737.032	3178.26
737.474	2606.06
737.916	871.76
738.357	456.76
738.799	351.46
739.241	313.66
739.683	305.06
740.125	312.16
740.567	310.26
741.008	331.06
741.45	335.26
741.892	338.56
742.334	378.56
742.775	376.46
743.217	364.36
743.658	290.66
744.1	276.16
744.542	282.66
744.983	333.96
745.425	373.76
745.866	374.16
746.307	298.46
746.749	297.06
747.19	347.06
747.632	492.06
748.073	982.06
748.514	2046.16
748.956	3035.76
749.397	3805.16
749.838	3175.36
750.279	3082.56
750.72	1584.16
751.162	584.26
751.603	341.56
752.044	272.46
752.485	220.16
752.926	222.16
753.367	213.56
753.808	208.46
754.249	197.56
754.69	201.96
755.131	191.76
755.572	185.86
756.013	193.76
756.453	196.26
756.894	197.96
757.335	204.86
757.776	203.76
758.216	211.76
758.657	211.66
759.098	216.06
759.538	236.86
759.979	288.66
760.42	410.36
760.86	778.86
761.301	2058.36
761.741	4834.26
762.182	6679.46
762.622	4707.66
763.063	1403.76
