Data from 20171114-ORNL-Ar_H_NY_Subt18_08-04-57-476.txt Node
Date: Tue Nov 14 08:04:57 EST 2017
User: Ender
Spectrometer: HR+D1039
Trigger mode: 0
Integration Time (sec): 2.730000E-2
Scans to average: 10
Electric dark correction enabled: true
Nonlinearity correction enabled: false
Boxcar width: 0
XAxis mode: Wavelengths
Number of Pixels in Spectrum: 2048
>>>>>Begin Spectral Data<<<<<
187.836	-6.02
188.309	-6.02
188.782	-6.02
189.255	1.07
189.728	-0.32
190.201	8.58
190.674	0.88
191.147	1.47
191.619	-2.23
192.092	1.77
192.565	5.07
193.038	0.48
193.511	-1.02
193.984	-1.23
194.456	-7.62
194.929	0.48
195.402	-2.73
195.874	1.38
196.347	-1.52
196.82	-1.12
197.292	10.48
197.765	0.58
198.237	-6.02
198.71	1.17
199.182	-0.02
199.655	3.57
200.127	-2.93
200.6	-1.42
201.072	2.17
201.544	-3.02
202.017	-0.62
202.489	3.48
202.961	-5.92
203.433	-0.02
203.906	-5.42
204.378	-3.12
204.85	-2.53
205.322	-8.23
205.794	-6.83
206.266	2.17
206.739	-8.23
207.211	6.58
207.683	-6.22
208.155	-3.33
208.627	-10.23
209.099	-2.23
209.57	-5.02
210.042	-3.33
210.514	-5.02
210.986	1.08
211.458	-6.33
211.93	-2.12
212.402	3.98
212.873	0.38
213.345	-9.23
213.817	-3.23
214.288	-5.03
214.76	-11.93
215.232	-5.02
215.703	-1.73
216.175	-0.42
216.646	-3.52
217.118	-8.52
217.589	-2.82
218.061	2.27
218.532	0.98
219.004	1.17
219.475	-0.92
219.946	1.27
220.418	-3.72
220.889	4.77
221.36	1.28
221.832	-2.62
222.303	-3.92
222.774	1.88
223.245	-4.22
223.717	-6.93
224.188	3.58
224.659	-9.93
225.13	-1.82
225.601	2.77
226.072	2.68
226.543	2.97
227.014	-1.12
227.485	-2.83
227.956	-6.62
228.427	-0.12
228.898	1.98
229.369	5.77
229.839	-1.73
230.31	-3.73
230.781	10.08
231.252	-1.33
231.722	-2.12
232.193	-0.52
232.664	-3.32
233.135	-1.52
233.605	1.38
234.076	-8.12
234.546	3.97
235.017	3.18
235.487	1.27
235.958	0.27
236.428	1.88
236.899	7.88
237.369	7.38
237.84	0.58
238.31	6.77
238.78	10.68
239.251	2.58
239.721	9.98
240.191	3.88
240.662	-0.72
241.132	1.88
241.602	-2.33
242.072	1.77
242.542	4.27
243.013	-1.73
243.483	8.38
243.953	0.58
244.423	0.58
244.893	-3.12
245.363	12.17
245.833	-0.12
246.303	2.67
246.773	6.08
247.243	6.27
247.712	6.07
248.182	9.07
248.652	13.88
249.122	-3.43
249.592	17.67
250.061	24.67
250.531	34.48
251.001	20.48
251.471	22.27
251.94	20.67
252.41	8.78
252.879	2.88
253.349	12.38
253.818	15.48
254.288	8.68
254.757	4.48
255.227	-0.72
255.696	7.88
256.166	5.88
256.635	12.27
257.105	9.88
257.574	11.97
258.043	12.68
258.513	14.88
258.982	21.08
259.451	12.38
259.92	19.67
260.389	15.68
260.859	19.27
261.328	19.88
261.797	25.28
262.266	13.27
262.735	14.08
263.204	9.57
263.673	1.08
264.142	9.88
264.611	2.88
265.08	1.17
265.549	0.78
266.018	1.48
266.487	3.97
266.955	-0.62
267.424	2.98
267.893	12.18
268.362	3.98
268.83	4.67
269.299	9.98
269.768	11.88
270.236	16.08
270.705	6.48
271.174	7.48
271.642	13.38
272.111	13.88
272.579	19.77
273.048	26.27
273.516	34.98
273.985	31.88
274.453	27.98
274.922	17.38
275.39	10.38
275.858	10.08
276.327	11.98
276.795	23.98
277.263	10.57
277.731	32.07
278.2	60.67
278.668	62.77
279.136	52.67
279.604	26.88
280.072	18.68
280.54	15.88
281.008	13.67
281.477	14.98
281.945	11.98
282.413	19.88
282.881	20.08
283.348	11.88
283.816	19.88
284.284	21.07
284.752	21.17
285.22	19.38
285.688	19.97
286.156	22.88
286.623	48.77
287.091	53.27
287.559	28.27
288.026	19.48
288.494	21.27
288.962	14.38
289.429	8.38
289.897	16.68
290.364	19.98
290.832	19.58
291.3	18.58
291.767	25.48
292.234	23.48
292.702	13.77
293.169	23.38
293.637	30.48
294.104	19.98
294.571	12.17
295.039	13.88
295.506	15.38
295.973	18.77
296.44	21.88
296.908	21.18
297.375	23.98
297.842	22.08
298.309	17.88
298.776	16.18
299.243	23.47
299.71	21.88
300.177	24.18
300.644	32.38
301.111	26.18
301.578	25.48
302.045	21.38
302.512	28.88
302.979	29.27
303.446	27.48
303.913	22.18
304.379	24.38
304.846	33.88
305.313	31.17
305.78	31.38
306.246	25.27
306.713	28.77
307.18	31.08
307.646	29.47
308.113	33.38
308.579	28.98
309.046	23.48
309.512	26.28
309.979	19.07
310.445	33.57
310.912	33.17
311.378	30.77
311.845	32.68
312.311	33.27
312.777	35.67
313.244	35.28
313.71	37.17
314.176	33.48
314.642	31.17
315.109	28.67
315.575	41.08
316.041	44.58
316.507	34.97
316.973	42.57
317.439	39.38
317.905	39.48
318.371	42.08
318.837	37.28
319.303	35.98
319.769	40.88
320.235	34.67
320.701	37.38
321.167	37.57
321.633	40.18
322.099	44.47
322.564	51.38
323.03	45.38
323.496	42.18
323.962	47.38
324.427	43.67
324.893	48.88
325.359	36.67
325.824	38.07
326.29	40.07
326.755	45.17
327.221	45.97
327.686	44.27
328.152	53.88
328.617	38.48
329.083	47.88
329.548	49.38
330.014	51.48
330.479	43.38
330.944	42.97
331.41	42.17
331.875	44.58
332.34	45.08
332.805	47.07
333.271	52.27
333.736	43.58
334.201	54.98
334.666	56.07
335.131	59.17
335.596	50.97
336.061	51.17
336.526	42.88
336.991	49.98
337.456	58.38
337.921	48.77
338.386	47.77
338.851	49.47
339.316	46.08
339.781	47.18
340.246	56.98
340.711	51.38
341.175	54.17
341.64	50.88
342.105	49.98
342.569	56.47
343.034	66.07
343.499	61.48
343.963	51.38
344.428	69.18
344.893	71.67
345.357	68.88
345.822	69.57
346.286	67.17
346.751	71.28
347.215	67.67
347.679	78.58
348.144	99.67
348.608	88.98
349.073	71.48
349.537	80.27
350.001	81.67
350.465	91.88
350.93	83.67
351.394	78.68
351.858	70.58
352.322	83.68
352.786	85.88
353.25	109.48
353.715	109.08
354.179	101.27
354.643	125.78
355.107	130.38
355.571	111.08
356.035	101.67
356.498	117.77
356.962	125.27
357.426	134.77
357.89	117.27
358.354	90.57
358.818	86.08
359.281	77.78
359.745	79.58
360.209	76.27
360.673	73.68
361.136	82.28
361.6	84.67
362.064	83.48
362.527	87.27
362.991	92.58
363.454	85.98
363.918	75.58
364.381	74.48
364.845	83.17
365.308	87.88
365.772	89.98
366.235	85.27
366.698	81.38
367.162	86.27
367.625	88.27
368.088	87.48
368.552	96.98
369.015	91.77
369.478	96.58
369.941	102.07
370.404	95.07
370.867	104.67
371.331	104.57
371.794	115.47
372.257	105.38
372.72	117.77
373.183	111.38
373.646	101.77
374.109	107.08
374.572	108.07
375.035	105.98
375.497	111.97
375.96	102.38
376.423	105.47
376.886	114.78
377.349	110.88
377.811	104.77
378.274	102.08
378.737	108.07
379.199	112.78
379.662	107.08
380.125	116.78
380.587	120.27
381.05	117.78
381.512	131.27
381.975	127.38
382.437	134.38
382.9	120.27
383.362	137.38
383.825	132.88
384.287	147.98
384.75	139.17
385.212	132.77
385.674	140.27
386.136	134.08
386.599	127.07
387.061	127.58
387.523	126.98
387.985	135.88
388.447	145.07
388.91	137.58
389.372	156.78
389.834	146.97
390.296	140.17
390.758	151.88
391.22	168.08
391.682	208.18
392.144	290.57
392.606	222.97
393.068	161.08
393.529	164.67
393.991	146.58
394.453	152.17
394.915	158.57
395.377	188.68
395.838	216.48
396.3	156.98
396.762	136.38
397.224	133.17
397.685	133.77
398.147	131.38
398.608	129.27
399.07	120.98
399.531	131.77
399.993	144.18
400.454	150.48
400.916	146.38
401.377	141.18
401.839	150.38
402.3	148.27
402.762	165.88
403.223	174.38
403.684	172.67
404.145	161.38
404.607	159.48
405.068	162.48
405.529	167.77
405.99	183.27
406.451	170.27
406.913	173.07
407.374	164.77
407.835	169.27
408.296	168.28
408.757	170.38
409.218	181.98
409.679	176.28
410.14	168.78
410.601	174.58
411.062	182.98
411.522	188.88
411.983	193.27
412.444	174.77
412.905	176.88
413.366	182.38
413.826	192.27
414.287	211.27
414.748	257.48
415.208	244.38
415.669	207.47
416.13	201.27
416.59	193.07
417.051	211.58
417.511	215.08
417.972	227.98
418.432	233.77
418.893	283.38
419.353	249.28
419.814	197.48
420.274	177.57
420.734	180.07
421.195	194.27
421.655	191.28
422.115	184.27
422.576	190.97
423.036	187.17
423.496	205.28
423.956	216.58
424.416	231.97
424.876	262.67
425.336	251.17
425.797	259.58
426.257	253.38
426.717	230.17
427.177	224.48
427.637	219.88
428.097	241.17
428.556	242.27
429.016	265.87
429.476	246.78
429.936	265.08
430.396	271.68
430.856	287.67
431.315	312.47
431.775	339.88
432.235	367.87
432.694	343.47
433.154	347.98
433.614	374.88
434.073	327.67
434.533	281.38
434.993	270.77
435.452	273.68
435.912	286.67
436.371	282.58
436.83	279.98
437.29	265.88
437.749	240.88
438.209	243.37
438.668	263.48
439.127	283.27
439.587	252.78
440.046	245.98
440.505	254.48
440.964	277.47
441.424	316.88
441.883	300.97
442.342	255.78
442.801	217.07
443.26	218.57
443.719	212.18
444.178	217.07
444.637	204.78
445.096	212.17
445.555	221.18
446.014	221.28
446.473	222.77
446.932	232.67
447.391	219.07
447.849	214.28
448.308	217.98
448.767	214.88
449.226	229.47
449.685	223.48
450.143	246.48
450.602	230.38
451.061	225.18
451.519	225.28
451.978	225.37
452.436	229.27
452.895	237.88
453.353	245.88
453.812	236.88
454.27	232.57
454.729	229.08
455.187	231.18
455.646	235.97
456.104	234.88
456.562	251.28
457.021	263.48
457.479	255.77
457.937	271.28
458.395	253.88
458.854	241.38
459.312	257.48
459.77	266.48
460.228	245.08
460.686	234.27
461.144	232.27
461.602	235.08
462.06	233.08
462.518	249.88
462.976	246.08
463.434	257.77
463.892	261.57
464.35	265.77
464.808	282.98
465.266	258.27
465.724	267.67
466.181	278.38
466.639	268.07
467.097	283.88
467.555	292.88
468.012	302.98
468.47	300.57
468.928	314.67
469.385	337.88
469.843	341.07
470.3	344.88
470.758	352.27
471.215	379.18
471.673	400.57
472.13	392.88
472.588	405.57
473.045	364.48
473.503	360.58
473.96	379.98
474.417	393.07
474.875	421.97
475.332	456.07
475.789	456.28
476.246	460.08
476.704	468.97
477.161	495.68
477.618	509.57
478.075	557.28
478.532	611.57
478.989	678.68
479.446	785.48
479.903	757.67
480.36	792.77
480.817	854.88
481.274	950.18
481.731	1043.38
482.188	1142.47
482.645	1278.58
483.102	1384.97
483.558	1518.78
484.015	1547.78
484.472	1552.18
484.929	1493.28
485.385	1448.77
485.842	1405.88
486.299	1347.98
486.755	1261.48
487.212	1061.97
487.668	903.17
488.125	837.68
488.582	766.17
489.038	732.98
489.494	697.38
489.951	680.48
490.407	653.67
490.864	636.28
491.32	638.48
491.776	625.48
492.233	633.67
492.689	600.68
493.145	592.38
493.602	582.57
494.058	596.87
494.514	599.88
494.97	623.58
495.426	631.07
495.882	609.07
496.338	594.48
496.794	603.77
497.251	605.27
497.707	626.28
498.163	629.68
498.618	627.58
499.074	639.77
499.53	666.88
499.986	667.58
500.442	632.78
500.898	621.17
501.354	611.67
501.809	615.58
502.265	622.88
502.721	641.97
503.177	649.38
503.632	652.18
504.088	660.28
504.543	696.08
504.999	684.88
505.455	641.17
505.91	616.57
506.366	624.07
506.821	608.77
507.277	603.77
507.732	617.67
508.187	608.68
508.643	617.77
509.098	614.77
509.553	637.08
510.009	648.58
510.464	648.77
510.919	672.77
511.375	675.08
511.83	691.58
512.285	707.88
512.74	745.18
513.195	768.18
513.65	764.98
514.105	749.08
514.56	757.17
515.015	783.58
515.47	791.68
515.925	780.98
516.38	772.57
516.835	780.77
517.29	768.17
517.745	755.38
518.2	754.97
518.655	722.08
519.109	727.98
519.564	728.28
520.019	717.07
520.474	712.17
520.928	711.17
521.383	703.58
521.838	694.57
522.292	689.98
522.747	692.88
523.201	682.67
523.656	675.77
524.11	670.67
524.565	677.27
525.019	675.38
525.474	687.57
525.928	680.67
526.382	668.57
526.837	682.27
527.291	686.68
527.745	685.08
528.2	676.97
528.654	673.98
529.108	673.07
529.562	667.07
530.016	673.48
530.47	670.98
530.925	667.57
531.379	672.57
531.833	683.58
532.287	692.67
532.741	678.98
533.195	681.97
533.649	684.37
534.103	704.68
534.556	694.17
535.01	695.67
535.464	696.87
535.918	703.38
536.372	698.08
536.826	700.17
537.279	691.67
537.733	684.07
538.187	696.37
538.64	690.27
539.094	711.38
539.548	712.38
540.001	698.88
540.455	696.27
540.908	706.98
541.362	717.38
541.815	723.27
542.269	727.47
542.722	727.57
543.175	740.07
543.629	743.17
544.082	758.77
544.536	758.27
544.989	763.38
545.442	770.48
545.895	761.67
546.349	760.88
546.802	753.88
547.255	763.57
547.708	776.18
548.161	785.88
548.614	795.58
549.067	796.48
549.52	794.18
549.973	784.57
550.426	781.67
550.879	767.98
551.332	756.88
551.785	771.77
552.238	771.07
552.691	779.98
553.144	794.77
553.596	816.78
554.049	832.57
554.502	868.68
554.955	890.38
555.407	879.57
555.86	874.57
556.313	861.27
556.765	854.47
557.218	855.88
557.67	854.58
558.123	852.17
558.576	840.57
559.028	849.98
559.48	851.28
559.933	837.18
560.385	815.27
560.838	774.38
561.29	756.98
561.742	758.67
562.195	732.57
562.647	736.48
563.099	749.47
563.551	736.07
564.004	754.97
564.456	725.28
564.908	727.47
565.36	716.48
565.812	694.47
566.264	691.38
566.716	693.17
567.168	691.38
567.62	684.58
568.072	673.38
568.524	657.98
568.976	650.47
569.428	653.18
569.88	642.87
570.332	660.48
570.784	650.08
571.235	651.38
571.687	660.68
572.139	666.38
572.59	684.97
573.042	673.77
573.494	680.17
573.945	680.77
574.397	644.38
574.849	655.77
575.3	665.18
575.752	654.87
576.203	647.77
576.655	655.27
577.106	641.68
577.557	633.08
578.009	635.67
578.46	641.67
578.912	623.38
579.363	624.98
579.814	632.38
580.265	624.88
580.717	635.57
581.168	634.57
581.619	644.48
582.07	648.28
582.521	643.88
582.972	634.88
583.423	643.47
583.875	649.07
584.326	664.27
584.777	702.67
585.227	783.07
585.678	858.07
586.129	948.58
586.58	1018.17
587.031	1100.78
587.482	1245.27
587.933	1414.38
588.384	1236.78
588.834	918.27
589.285	754.97
589.736	736.68
590.186	734.08
590.637	728.27
591.088	693.08
591.538	697.88
591.989	697.07
592.439	686.38
592.89	682.27
593.34	672.57
593.791	675.77
594.241	666.08
594.692	681.48
595.142	663.88
595.593	657.48
596.043	658.47
596.493	670.48
596.943	670.28
597.394	685.88
597.844	676.68
598.294	689.28
598.744	715.57
599.195	728.98
599.645	770.18
600.095	793.17
600.545	856.78
600.995	908.38
601.445	965.88
601.895	1028.17
602.345	1064.57
602.795	1049.07
603.245	995.08
603.695	959.08
604.145	903.27
604.594	867.67
605.044	808.37
605.494	746.47
605.944	715.87
606.393	696.78
606.843	680.48
607.293	697.08
607.743	682.48
608.192	688.47
608.642	707.68
609.091	712.28
609.541	712.87
609.99	713.17
610.44	711.98
610.889	671.48
611.339	654.17
611.788	638.17
612.238	654.28
612.687	683.08
613.136	669.88
613.586	684.78
614.035	682.98
614.484	701.07
614.933	714.48
615.383	692.07
615.832	684.58
616.281	679.48
616.73	639.57
617.179	620.67
617.628	604.08
618.077	588.68
618.526	574.27
618.975	574.17
619.424	577.38
619.873	567.88
620.322	580.37
620.771	562.98
621.22	562.38
621.669	553.48
622.118	545.88
622.567	541.38
623.015	528.87
623.464	523.48
623.913	523.78
624.361	517.08
624.81	513.98
625.259	513.88
625.707	513.28
626.156	517.37
626.604	528.97
627.053	510.58
627.501	514.97
627.95	527.67
628.398	538.67
628.847	530.48
629.295	526.18
629.744	526.47
630.192	533.58
630.64	532.58
631.089	525.17
631.537	533.48
631.985	541.38
632.433	548.38
632.881	564.67
633.33	595.58
633.778	575.57
634.226	522.98
634.674	522.88
635.122	540.28
635.57	553.58
636.018	584.57
636.466	542.48
636.914	511.88
637.362	527.67
637.81	534.08
638.258	535.67
638.705	539.98
639.153	561.87
639.601	564.27
640.049	592.08
640.497	621.88
640.944	637.78
641.392	588.68
641.84	563.08
642.287	548.88
642.735	519.38
643.182	529.98
643.63	528.07
644.078	532.58
644.525	535.58
644.973	548.98
645.42	557.38
645.867	568.68
646.315	590.38
646.762	605.98
647.21	633.17
647.657	657.27
648.104	680.07
648.551	709.48
648.999	757.68
649.446	829.88
649.893	930.08
650.34	1062.08
650.787	1263.38
651.234	1558.18
651.682	2035.67
652.129	2783.88
652.576	4004.08
653.023	5911.87
653.47	8153.07
653.917	10260.97
654.363	11986.77
654.81	13416.58
655.257	12754.98
655.704	8296.37
656.151	4882.38
656.598	3146.58
657.044	2252.07
657.491	1722.97
657.938	1368.88
658.385	1150.38
658.831	999.48
659.278	877.98
659.724	779.67
660.171	730.97
660.618	669.68
661.064	628.78
661.511	607.07
661.957	593.08
662.404	583.48
662.85	593.88
663.296	562.77
663.743	517.17
664.189	487.17
664.635	486.68
665.082	482.87
665.528	477.67
665.974	473.37
666.42	462.47
666.867	461.18
667.313	447.77
667.759	438.58
668.205	433.88
668.651	436.98
669.097	436.77
669.543	462.17
669.989	428.18
670.435	410.98
670.881	408.88
671.327	409.68
671.773	427.27
672.219	445.88
672.665	490.67
673.11	522.97
673.556	569.48
674.002	616.07
674.448	602.88
674.893	496.57
675.339	430.58
675.785	400.57
676.23	385.28
676.676	353.68
677.122	347.88
677.567	335.87
678.013	324.87
678.458	332.77
678.904	327.28
679.349	306.27
679.794	314.77
680.24	317.38
680.685	312.68
681.131	322.07
681.576	309.88
682.021	312.88
682.466	305.58
682.912	316.08
683.357	313.48
683.802	344.88
684.247	371.67
684.692	404.47
685.137	442.87
685.583	488.37
686.028	508.67
686.473	470.67
686.918	399.38
687.363	371.47
687.807	351.17
688.252	327.67
688.697	321.97
689.142	299.27
689.587	296.28
690.032	292.67
690.477	305.28
690.921	310.88
691.366	344.48
691.811	355.47
692.255	382.18
692.7	417.07
693.145	448.28
693.589	615.17
694.034	997.37
694.478	1379.38
694.923	1581.28
695.367	2085.88
695.812	1084.08
696.256	451.77
696.701	331.67
697.145	311.48
697.59	295.27
698.034	287.77
698.478	303.08
698.922	300.78
699.367	290.68
699.811	306.18
700.255	314.48
700.699	341.07
701.143	380.67
701.588	426.78
702.032	463.77
702.476	456.88
702.92	433.28
703.364	444.47
703.808	571.88
704.252	910.48
704.696	1299.17
705.14	1518.28
705.584	1964.58
706.027	967.08
706.471	467.58
706.915	354.67
707.359	315.27
707.803	283.17
708.246	280.08
708.69	284.88
709.134	285.48
709.577	282.18
710.021	282.58
710.465	275.38
710.908	267.37
711.352	270.27
711.795	278.67
712.239	312.68
712.682	351.88
713.126	376.17
713.569	422.87
714.012	332.88
714.456	288.48
714.899	273.48
715.342	244.08
715.786	237.77
716.229	229.97
716.672	232.57
717.115	221.88
717.558	227.38
718.002	224.38
718.445	233.68
718.888	259.47
719.331	263.78
719.774	279.18
720.217	268.37
720.66	253.28
721.103	236.28
721.546	224.38
721.989	227.67
722.432	208.18
722.874	211.88
723.317	196.57
723.76	211.48
724.203	223.58
724.645	272.88
725.088	389.58
725.531	501.78
725.974	589.88
726.416	496.08
726.859	279.67
727.301	216.18
727.744	210.88
728.187	208.28
728.629	215.67
729.071	220.68
729.514	236.68
729.956	245.97
730.399	254.57
730.841	266.78
731.283	243.88
731.726	235.08
732.168	229.18
732.61	236.67
733.053	250.98
733.495	281.08
733.937	318.48
734.379	357.77
734.821	387.77
735.263	476.88
735.705	725.68
736.148	1388.97
736.59	2275.18
737.032	2799.98
737.474	2260.48
737.916	734.68
738.357	384.07
738.799	292.27
739.241	262.98
739.683	259.88
740.125	260.68
740.567	274.57
741.008	270.67
741.45	277.88
741.892	279.68
742.334	308.67
742.775	324.38
743.217	310.17
743.658	240.78
744.1	226.58
744.542	232.27
744.983	278.48
745.425	310.78
745.866	307.27
746.307	257.77
746.749	252.98
747.19	284.08
747.632	390.58
748.073	760.08
748.514	1619.88
748.956	2527.28
749.397	3196.28
749.838	2648.88
750.279	2713.88
750.72	1354.37
751.162	489.18
751.603	286.08
752.044	228.28
752.485	192.38
752.926	188.38
753.367	183.57
753.808	177.67
754.249	170.17
754.69	166.68
755.131	160.18
755.572	164.38
756.013	156.98
756.453	170.58
756.894	171.18
757.335	176.98
757.776	176.98
758.216	174.17
758.657	175.78
759.098	183.38
759.538	194.27
759.979	234.08
760.42	328.77
760.86	609.48
761.301	1572.47
761.741	3869.67
762.182	5877.98
762.622	4144.08
