Data from 20171114-ORNL-Ar_H_NY_Subt18_08-06-53-764.txt Node
Date: Tue Nov 14 08:06:53 EST 2017
User: Ender
Spectrometer: HR+D1039
Trigger mode: 0
Integration Time (sec): 2.730000E-2
Scans to average: 10
Electric dark correction enabled: true
Nonlinearity correction enabled: false
Boxcar width: 0
XAxis mode: Wavelengths
Number of Pixels in Spectrum: 2048
>>>>>Begin Spectral Data<<<<<
187.836	-4.74
188.309	-4.74
188.782	-4.74
189.255	0.26
189.728	0.16
190.201	5.06
190.674	3.56
191.147	4.06
191.619	-5.94
192.092	2.76
192.565	5.96
193.038	-2.04
193.511	-2.74
193.984	0.46
194.456	-6.94
194.929	-1.84
195.402	-1.14
195.874	3.06
196.347	-3.34
196.82	-16.14
197.292	1.96
197.765	-3.24
198.237	-5.84
198.71	2.16
199.182	-5.24
199.655	2.16
200.127	3.76
200.6	5.16
201.072	-1.64
201.544	-2.34
202.017	-0.74
202.489	1.66
202.961	0.06
203.433	-4.44
203.906	-4.64
204.378	-3.54
204.85	0.66
205.322	-11.44
205.794	-2.14
206.266	-2.44
206.739	-3.14
207.211	-0.44
207.683	-11.74
208.155	-2.44
208.627	-0.34
209.099	-3.74
209.57	-8.44
210.042	-2.34
210.514	-1.54
210.986	-5.04
211.458	-6.84
211.93	-3.44
212.402	5.46
212.873	-2.74
213.345	-6.14
213.817	-6.94
214.288	-3.04
214.76	-9.04
215.232	-0.84
215.703	-1.64
216.175	-5.14
216.646	-6.74
217.118	-6.24
217.589	0.36
218.061	-1.54
218.532	-3.44
219.004	-2.14
219.475	-9.34
219.946	-6.14
220.418	-5.24
220.889	-2.44
221.36	-5.74
221.832	-3.94
222.303	-6.64
222.774	1.66
223.245	-8.24
223.717	-5.44
224.188	-2.64
224.659	-9.64
225.13	-8.24
225.601	2.46
226.072	-1.44
226.543	0.76
227.014	-2.84
227.485	0.86
227.956	-7.84
228.427	-3.44
228.898	-0.24
229.369	-0.64
229.839	-5.64
230.31	-2.74
230.781	2.26
231.252	2.56
231.722	-6.34
232.193	-3.14
232.664	3.16
233.135	-1.54
233.605	-2.74
234.076	-4.74
234.546	-5.24
235.017	2.96
235.487	-1.94
235.958	-6.34
236.428	-4.34
236.899	-3.64
237.369	3.36
237.84	-6.24
238.31	4.66
238.78	1.76
239.251	-0.74
239.721	-3.54
240.191	-1.44
240.662	-7.84
241.132	-1.94
241.602	-4.54
242.072	-5.14
242.542	0.76
243.013	-1.24
243.483	-3.04
243.953	2.46
244.423	-3.04
244.893	-6.14
245.363	3.76
245.833	-3.04
246.303	-4.34
246.773	2.26
247.243	-7.84
247.712	-4.74
248.182	0.96
248.652	7.16
249.122	-4.34
249.592	-1.94
250.061	2.16
250.531	7.76
251.001	-1.64
251.471	7.86
251.94	9.86
252.41	1.66
252.879	-8.14
253.349	8.86
253.818	3.86
254.288	2.36
254.757	-1.74
255.227	0.36
255.696	1.66
256.166	7.36
256.635	6.56
257.105	0.36
257.574	5.46
258.043	-1.04
258.513	-4.94
258.982	1.46
259.451	-1.74
259.92	0.16
260.389	3.66
260.859	11.66
261.328	-0.84
261.797	4.96
262.266	5.56
262.735	4.86
263.204	9.06
263.673	1.96
264.142	4.66
264.611	-5.84
265.08	-4.44
265.549	-4.74
266.018	2.36
266.487	-1.34
266.955	0.06
267.424	0.06
267.893	1.36
268.362	1.86
268.83	3.26
269.299	11.76
269.768	-1.04
270.236	10.26
270.705	-6.14
271.174	4.96
271.642	4.26
272.111	2.86
272.579	6.96
273.048	5.56
273.516	0.56
273.985	5.76
274.453	6.56
274.922	9.36
275.39	4.06
275.858	-3.54
276.327	7.46
276.795	17.66
277.263	1.06
277.731	7.76
278.2	13.26
278.668	9.36
279.136	9.96
279.604	2.86
280.072	7.16
280.54	7.36
281.008	8.26
281.477	6.86
281.945	9.16
282.413	13.86
282.881	9.76
283.348	-0.64
283.816	9.66
284.284	3.06
284.752	13.36
285.22	9.16
285.688	11.36
286.156	10.16
286.623	15.56
287.091	11.46
287.559	9.56
288.026	11.46
288.494	9.86
288.962	0.76
289.429	11.16
289.897	9.46
290.364	8.26
290.832	12.56
291.3	7.86
291.767	8.66
292.234	20.16
292.702	7.96
293.169	12.36
293.637	18.16
294.104	15.86
294.571	1.76
295.039	10.46
295.506	8.96
295.973	13.16
296.44	12.06
296.908	15.56
297.375	12.76
297.842	13.06
298.309	9.36
298.776	1.86
299.243	16.06
299.71	15.36
300.177	16.16
300.644	14.96
301.111	18.66
301.578	20.86
302.045	10.76
302.512	20.16
302.979	19.86
303.446	19.86
303.913	9.46
304.379	12.36
304.846	25.46
305.313	18.06
305.78	20.46
306.246	20.56
306.713	19.46
307.18	19.86
307.646	22.46
308.113	25.76
308.579	20.16
309.046	21.36
309.512	19.96
309.979	14.06
310.445	23.16
310.912	20.36
311.378	30.26
311.845	25.66
312.311	21.66
312.777	23.76
313.244	29.46
313.71	33.76
314.176	25.86
314.642	27.46
315.109	28.46
315.575	26.76
316.041	35.16
316.507	30.26
316.973	31.66
317.439	29.16
317.905	31.46
318.371	29.86
318.837	26.76
319.303	24.96
319.769	24.06
320.235	27.16
320.701	31.16
321.167	31.26
321.633	27.66
322.099	24.76
322.564	38.56
323.03	34.06
323.496	32.56
323.962	35.16
324.427	28.56
324.893	39.06
325.359	36.56
325.824	33.56
326.29	27.36
326.755	31.06
327.221	35.46
327.686	31.06
328.152	39.16
328.617	38.56
329.083	40.26
329.548	43.06
330.014	39.96
330.479	36.26
330.944	35.26
331.41	39.06
331.875	48.16
332.34	35.66
332.805	37.56
333.271	40.26
333.736	37.56
334.201	44.26
334.666	46.46
335.131	48.96
335.596	43.56
336.061	46.76
336.526	35.26
336.991	40.56
337.456	41.86
337.921	39.86
338.386	41.86
338.851	38.76
339.316	41.56
339.781	40.56
340.246	46.46
340.711	37.76
341.175	46.36
341.64	38.46
342.105	51.76
342.569	45.76
343.034	49.46
343.499	49.86
343.963	53.36
344.428	60.16
344.893	57.66
345.357	55.66
345.822	58.76
346.286	61.26
346.751	63.06
347.215	59.56
347.679	67.66
348.144	84.16
348.608	78.16
349.073	64.56
349.537	69.76
350.001	72.46
350.465	81.56
350.93	69.66
351.394	74.36
351.858	70.06
352.322	85.66
352.786	76.06
353.25	86.86
353.715	93.06
354.179	82.06
354.643	101.56
355.107	109.36
355.571	90.96
356.035	86.26
356.498	105.26
356.962	98.36
357.426	111.16
357.89	98.56
358.354	86.46
358.818	72.16
359.281	76.36
359.745	71.66
360.209	73.66
360.673	67.76
361.136	74.86
361.6	74.56
362.064	74.96
362.527	84.46
362.991	84.76
363.454	76.66
363.918	75.76
364.381	73.06
364.845	69.76
365.308	80.66
365.772	85.76
366.235	75.96
366.698	79.56
367.162	76.16
367.625	78.86
368.088	75.66
368.552	82.16
369.015	76.16
369.478	87.16
369.941	93.96
370.404	89.66
370.867	94.96
371.331	96.36
371.794	105.96
372.257	87.26
372.72	104.86
373.183	95.66
373.646	87.86
374.109	90.06
374.572	98.76
375.035	95.66
375.497	100.66
375.96	93.96
376.423	92.86
376.886	108.46
377.349	104.06
377.811	91.46
378.274	97.26
378.737	96.26
379.199	108.06
379.662	103.76
380.125	103.86
380.587	103.16
381.05	98.46
381.512	110.56
381.975	112.76
382.437	111.16
382.9	110.36
383.362	118.66
383.825	122.56
384.287	117.86
384.75	112.66
385.212	120.76
385.674	121.26
386.136	123.96
386.599	110.56
387.061	125.56
387.523	121.46
387.985	122.66
388.447	129.56
388.91	125.86
389.372	120.76
389.834	119.46
390.296	121.66
390.758	130.36
391.22	134.16
391.682	146.46
392.144	148.16
392.606	145.96
393.068	140.46
393.529	151.26
393.991	138.76
394.453	127.56
394.915	134.16
395.377	130.06
395.838	133.66
396.3	131.76
396.762	139.96
397.224	131.06
397.685	128.66
398.147	135.26
398.608	130.86
399.07	130.36
399.531	130.16
399.993	139.26
400.454	151.86
400.916	142.76
401.377	149.66
401.839	149.36
402.3	147.86
402.762	163.66
403.223	173.86
403.684	178.86
404.145	161.26
404.607	156.06
405.068	162.26
405.529	164.56
405.99	184.56
406.451	164.36
406.913	168.86
407.374	164.46
407.835	163.56
408.296	164.26
408.757	169.16
409.218	179.36
409.679	172.16
410.14	173.96
410.601	176.66
411.062	183.16
411.522	172.56
411.983	175.46
412.444	172.26
412.905	179.06
413.366	184.66
413.826	195.96
414.287	218.66
414.748	264.26
415.208	249.46
415.669	218.36
416.13	212.16
416.59	209.06
417.051	220.26
417.511	221.06
417.972	236.96
418.432	254.66
418.893	288.26
419.353	255.56
419.814	200.16
420.274	190.76
420.734	177.06
421.195	193.16
421.655	190.56
422.115	193.96
422.576	194.56
423.036	204.66
423.496	213.06
423.956	221.86
424.416	233.46
424.876	266.16
425.336	266.66
425.797	268.66
426.257	257.06
426.717	246.06
427.177	237.26
427.637	217.36
428.097	235.56
428.556	242.66
429.016	266.06
429.476	266.66
429.936	263.76
430.396	272.96
430.856	282.66
431.315	306.46
431.775	346.16
432.235	370.56
432.694	347.16
433.154	363.56
433.614	380.36
434.073	327.06
434.533	278.36
434.993	260.36
435.452	279.96
435.912	289.46
436.371	284.86
436.83	278.26
437.29	265.46
437.749	243.16
438.209	252.56
438.668	273.96
439.127	285.56
439.587	269.66
440.046	252.16
440.505	261.56
440.964	279.56
441.424	330.66
441.883	318.46
442.342	265.36
442.801	232.86
443.26	230.36
443.719	226.96
444.178	222.36
444.637	220.66
445.096	223.16
445.555	235.46
446.014	230.16
446.473	241.26
446.932	240.16
447.391	237.46
447.849	236.26
448.308	229.46
448.767	234.86
449.226	246.16
449.685	247.56
450.143	256.76
450.602	241.56
451.061	229.56
451.519	239.26
451.978	246.26
452.436	231.36
452.895	249.76
453.353	262.56
453.812	244.36
454.27	254.96
454.729	248.16
455.187	250.26
455.646	250.16
456.104	253.26
456.562	267.16
457.021	272.36
457.479	265.46
457.937	280.96
458.395	273.26
458.854	260.76
459.312	271.26
459.77	280.76
460.228	266.36
460.686	257.86
461.144	262.26
461.602	262.86
462.06	262.96
462.518	264.36
462.976	257.96
463.434	273.36
463.892	268.76
464.35	292.46
464.808	302.96
465.266	278.66
465.724	287.66
466.181	289.56
466.639	280.36
467.097	304.36
467.555	316.86
468.012	316.56
468.47	319.06
468.928	340.56
469.385	354.66
469.843	361.26
470.3	364.26
470.758	375.76
471.215	402.96
471.673	415.96
472.13	416.36
472.588	429.16
473.045	384.66
473.503	390.96
473.96	411.16
474.417	414.86
474.875	448.26
475.332	488.36
475.789	475.26
476.246	485.76
476.704	500.16
477.161	522.16
477.618	537.26
478.075	569.36
478.532	628.86
478.989	692.06
479.446	809.46
479.903	768.76
480.36	796.56
480.817	847.46
481.274	934.66
481.731	1030.46
482.188	1110.86
482.645	1232.86
483.102	1318.16
483.558	1441.66
484.015	1477.66
484.472	1449.86
484.929	1407.06
485.385	1370.96
485.842	1341.46
486.299	1283.56
486.755	1262.56
487.212	1067.06
487.668	907.76
488.125	853.86
488.582	776.76
489.038	751.36
489.494	718.86
489.951	702.06
490.407	679.96
490.864	661.96
491.32	659.06
491.776	659.86
492.233	662.26
492.689	633.46
493.145	618.36
493.602	612.76
494.058	631.26
494.514	624.36
494.97	655.76
495.426	675.96
495.882	647.46
496.338	634.46
496.794	643.76
497.251	637.76
497.707	651.56
498.163	644.76
498.618	663.86
499.074	652.56
499.53	686.76
499.986	693.06
500.442	659.46
500.898	646.36
501.354	633.06
501.809	641.16
502.265	647.46
502.721	649.86
503.177	661.76
503.632	667.46
504.088	657.36
504.543	685.46
504.999	709.86
505.455	678.46
505.91	655.66
506.366	654.26
506.821	657.26
507.277	657.76
507.732	652.76
508.187	649.26
508.643	661.96
509.098	664.86
509.553	685.76
510.009	700.96
510.464	701.16
510.919	715.16
511.375	726.46
511.83	739.46
512.285	755.96
512.74	791.66
513.195	814.26
513.65	802.06
514.105	791.16
514.56	801.46
515.015	818.36
515.47	824.66
515.925	812.26
516.38	806.66
516.835	822.16
517.29	808.26
517.745	807.56
518.2	799.86
518.655	778.56
519.109	764.16
519.564	768.26
520.019	768.46
520.474	752.16
520.928	759.06
521.383	741.86
521.838	736.06
522.292	749.96
522.747	749.76
523.201	731.36
523.656	715.06
524.11	722.36
524.565	728.16
525.019	718.26
525.474	723.56
525.928	722.46
526.382	721.76
526.837	721.46
527.291	724.76
527.745	725.06
528.2	723.16
528.654	707.36
529.108	708.66
529.562	714.36
530.016	718.36
530.47	716.16
530.925	716.66
531.379	722.56
531.833	731.06
532.287	733.96
532.741	730.96
533.195	725.46
533.649	732.36
534.103	738.96
534.556	736.26
535.01	737.16
535.464	737.26
535.918	748.16
536.372	745.76
536.826	738.76
537.279	732.76
537.733	738.06
538.187	742.06
538.64	747.16
539.094	746.56
539.548	763.76
540.001	756.36
540.455	760.56
540.908	745.76
541.362	768.96
541.815	777.96
542.269	784.46
542.722	792.06
543.175	796.16
543.629	805.86
544.082	815.76
544.536	828.56
544.989	814.06
545.442	828.46
545.895	830.86
546.349	825.06
546.802	822.06
547.255	834.26
547.708	836.56
548.161	847.36
548.614	855.86
549.067	871.06
549.52	854.06
549.973	853.46
550.426	840.66
550.879	834.06
551.332	835.26
551.785	843.86
552.238	844.26
552.691	852.06
553.144	860.96
553.596	879.46
554.049	901.56
554.502	932.86
554.955	952.56
555.407	937.56
555.86	935.56
556.313	929.26
556.765	915.66
557.218	920.26
557.67	920.36
558.123	907.76
558.576	907.76
559.028	908.16
559.48	923.16
559.933	910.56
560.385	888.46
560.838	845.06
561.29	821.76
561.742	818.16
562.195	803.76
562.647	793.06
563.099	810.66
563.551	804.96
564.004	822.86
564.456	802.96
564.908	791.76
565.36	770.96
565.812	755.26
566.264	753.46
566.716	746.56
567.168	724.06
567.62	740.16
568.072	720.26
568.524	717.66
568.976	705.86
569.428	700.06
569.88	695.96
570.332	720.26
570.784	714.36
571.235	717.26
571.687	732.26
572.139	733.36
572.59	734.86
573.042	740.86
573.494	739.16
573.945	742.96
574.397	714.26
574.849	723.06
575.3	709.56
575.752	710.36
576.203	717.06
576.655	712.96
577.106	699.06
577.557	701.16
578.009	697.46
578.46	695.26
578.912	683.16
579.363	693.76
579.814	698.06
580.265	689.66
580.717	692.26
581.168	702.16
581.619	711.56
582.07	701.96
582.521	696.16
582.972	688.76
583.423	693.56
583.875	696.06
584.326	703.06
584.777	724.46
585.227	737.26
585.678	754.96
586.129	771.96
586.58	804.26
587.031	821.96
587.482	841.66
587.933	884.46
588.384	852.16
588.834	819.36
589.285	802.56
589.736	804.06
590.186	802.66
590.637	793.46
591.088	765.56
591.538	762.86
591.989	759.96
592.439	752.26
592.89	737.56
593.34	731.46
593.791	732.06
594.241	711.76
594.692	719.76
595.142	711.86
595.593	717.56
596.043	728.76
596.493	728.76
596.943	722.66
597.394	743.16
597.844	737.36
598.294	746.96
598.744	781.86
599.195	810.76
599.645	850.76
600.095	896.16
600.545	952.76
600.995	998.26
601.445	1060.36
601.895	1118.16
602.345	1171.56
602.795	1153.66
603.245	1110.36
603.695	1057.56
604.145	992.06
604.594	948.56
605.044	885.16
605.494	832.36
605.944	770.66
606.393	762.56
606.843	757.66
607.293	754.36
607.743	749.56
608.192	759.56
608.642	773.56
609.091	780.96
609.541	786.06
609.99	778.26
610.44	786.86
610.889	746.16
611.339	718.46
611.788	704.36
612.238	716.46
612.687	716.86
613.136	704.06
613.586	724.66
614.035	720.06
614.484	727.36
614.933	735.56
615.383	730.16
615.832	723.06
616.281	714.66
616.73	690.66
617.179	671.26
617.628	651.06
618.077	644.06
618.526	634.46
618.975	637.26
619.424	629.56
619.873	631.66
620.322	638.76
620.771	617.86
621.22	626.86
621.669	609.16
622.118	607.96
622.567	602.76
623.015	579.76
623.464	580.86
623.913	576.26
624.361	569.56
624.81	561.06
625.259	569.96
625.707	569.16
626.156	571.46
626.604	587.36
627.053	581.96
627.501	572.46
627.95	587.96
628.398	597.46
628.847	587.86
629.295	589.76
629.744	588.46
630.192	587.06
630.64	572.96
631.089	563.26
631.537	560.46
631.985	537.16
632.433	547.86
632.881	541.76
633.33	539.66
633.778	540.66
634.226	535.86
634.674	553.16
635.122	557.06
635.57	552.66
636.018	560.36
636.466	565.66
636.914	564.16
637.362	580.36
637.81	587.76
638.258	593.26
638.705	586.16
639.153	623.36
639.601	631.86
640.049	660.56
640.497	686.06
640.944	707.76
641.392	665.26
641.84	620.56
642.287	596.36
642.735	585.66
643.182	571.16
643.63	581.66
644.078	571.06
644.525	586.96
644.973	597.56
645.42	609.56
645.867	624.86
646.315	652.46
646.762	662.76
647.21	690.86
647.657	709.66
648.104	744.06
648.551	764.16
648.999	828.66
649.446	892.66
649.893	965.46
650.34	1104.56
650.787	1318.26
651.234	1616.56
651.682	2097.46
652.129	2838.06
652.576	4030.16
653.023	5884.76
653.47	7972.96
653.917	9909.36
654.363	11408.76
654.81	12600.06
655.257	11987.76
655.704	7926.26
656.151	4777.96
656.598	3153.56
657.044	2253.36
657.491	1748.06
657.938	1423.46
658.385	1196.46
658.831	1043.56
659.278	938.46
659.724	829.66
660.171	780.66
660.618	712.56
661.064	688.96
661.511	670.56
661.957	658.56
662.404	646.26
662.85	658.46
663.296	629.36
663.743	565.06
664.189	541.66
664.635	543.96
665.082	537.76
665.528	539.26
665.974	532.36
666.42	522.26
666.867	519.46
667.313	501.86
667.759	480.56
668.205	458.46
668.651	460.36
669.097	456.16
669.543	453.66
669.989	455.66
670.435	455.86
670.881	452.56
671.327	460.86
671.773	480.46
672.219	508.16
672.665	556.96
673.11	603.76
673.556	650.96
674.002	687.86
674.448	671.36
674.893	576.16
675.339	493.76
675.785	455.66
676.23	438.46
676.676	410.56
677.122	397.66
677.567	382.16
678.013	377.26
678.458	373.46
678.904	375.36
679.349	367.16
679.794	364.86
680.24	359.66
680.685	354.06
681.131	358.66
681.576	360.56
682.021	366.86
682.466	356.36
682.912	359.36
683.357	369.06
683.802	396.86
684.247	426.56
684.692	475.06
685.137	508.96
685.583	558.26
686.028	578.86
686.473	534.26
686.918	462.56
687.363	426.36
687.807	403.66
688.252	379.46
688.697	361.36
689.142	341.56
689.587	349.76
690.032	337.36
690.477	347.96
690.921	365.16
691.366	387.66
691.811	403.06
692.255	433.36
692.7	468.26
693.145	519.76
693.589	725.56
694.034	1170.16
694.478	1594.26
694.923	1807.26
695.367	2347.06
695.812	1246.16
696.256	514.96
696.701	383.76
697.145	362.46
697.59	334.16
698.034	328.66
698.478	333.56
698.922	328.86
699.367	328.96
699.811	344.86
700.255	361.56
700.699	390.46
701.143	434.86
701.588	490.26
702.032	530.16
702.476	526.46
702.92	502.66
703.364	510.76
703.808	662.36
704.252	1079.36
704.696	1504.56
705.14	1736.56
705.584	2209.76
706.027	1100.26
706.471	535.96
706.915	414.86
707.359	357.66
707.803	331.76
708.246	318.56
708.69	325.66
709.134	322.56
709.577	321.16
710.021	317.36
710.465	321.06
710.908	302.76
711.352	309.26
711.795	319.56
712.239	363.16
712.682	404.06
713.126	421.66
713.569	463.06
714.012	370.76
714.456	310.76
714.899	297.56
715.342	279.86
715.786	268.96
716.229	266.86
716.672	268.76
717.115	252.66
717.558	255.86
718.002	259.56
718.445	269.96
718.888	290.86
719.331	306.76
719.774	316.06
720.217	303.06
720.66	294.66
721.103	279.36
721.546	257.56
721.989	253.96
722.432	240.36
722.874	245.96
723.317	233.16
723.76	240.86
724.203	263.06
724.645	329.06
725.088	460.46
725.531	584.26
725.974	651.46
726.416	566.56
726.859	318.66
727.301	260.66
727.744	243.46
728.187	238.26
728.629	247.06
729.071	254.66
729.514	264.96
729.956	270.76
730.399	291.86
730.841	297.86
731.283	292.76
731.726	279.66
732.168	271.76
732.61	279.06
733.053	288.06
733.495	326.76
733.937	359.36
734.379	412.16
734.821	453.96
735.263	554.66
735.705	869.26
736.148	1652.66
736.59	2688.56
737.032	3179.96
737.474	2573.56
737.916	840.96
738.357	442.16
738.799	344.76
739.241	312.06
739.683	290.16
740.125	305.86
740.567	313.96
741.008	324.26
741.45	324.86
741.892	328.86
742.334	369.96
742.775	367.86
743.217	357.26
743.658	288.06
744.1	265.56
744.542	281.96
744.983	330.96
745.425	367.76
745.866	363.06
746.307	287.56
746.749	290.16
747.19	335.76
747.632	479.06
748.073	910.06
748.514	1937.56
748.956	2962.66
749.397	3707.96
749.838	3081.06
750.279	3071.96
750.72	1563.56
751.162	569.46
751.603	334.16
752.044	258.76
752.485	224.36
752.926	213.46
753.367	211.56
753.808	200.26
754.249	204.96
754.69	191.06
755.131	187.86
755.572	188.16
756.013	190.06
756.453	193.66
756.894	201.66
757.335	203.76
757.776	203.66
758.216	201.56
758.657	202.26
759.098	207.46
759.538	229.16
759.979	271.16
760.42	396.46
760.86	733.56
761.301	1924.86
761.741	4627.36
762.182	6685.86
762.622	4691.86
763.063	1359.96
763.503	558.46
763.943	340.76
