Data from 20171114-ORNL-Ar_H_NY_Subt18_08-05-46-885.txt Node
Date: Tue Nov 14 08:05:46 EST 2017
User: Ender
Spectrometer: HR+D1039
Trigger mode: 0
Integration Time (sec): 2.730000E-2
Scans to average: 10
Electric dark correction enabled: true
Nonlinearity correction enabled: false
Boxcar width: 0
XAxis mode: Wavelengths
Number of Pixels in Spectrum: 2048
>>>>>Begin Spectral Data<<<<<
187.836	-4.98
188.309	-4.98
188.782	-4.98
189.255	-2.08
189.728	-3.48
190.201	7.32
190.674	4.22
191.147	2.92
191.619	-8.38
192.092	2.82
192.565	2.72
193.038	0.82
193.511	1.82
193.984	-3.58
194.456	0.02
194.929	2.42
195.402	-0.88
195.874	-1.78
196.347	2.42
196.82	-7.78
197.292	-1.08
197.765	-4.98
198.237	-1.68
198.71	-2.38
199.182	-3.08
199.655	-1.48
200.127	3.12
200.6	-4.08
201.072	-5.98
201.544	-0.28
202.017	1.32
202.489	-0.78
202.961	5.52
203.433	-0.98
203.906	-1.48
204.378	-6.28
204.85	-7.08
205.322	-8.38
205.794	0.72
206.266	0.62
206.739	-4.28
207.211	-1.88
207.683	-5.28
208.155	-10.58
208.627	-4.48
209.099	-4.08
209.57	-6.88
210.042	-7.08
210.514	-7.38
210.986	2.62
211.458	-5.28
211.93	-1.78
212.402	4.62
212.873	-7.08
213.345	-6.28
213.817	-8.38
214.288	-8.98
214.76	-10.88
215.232	1.42
215.703	-0.68
216.175	-1.38
216.646	-7.38
217.118	-3.88
217.589	-4.88
218.061	-3.98
218.532	-7.48
219.004	-4.48
219.475	-2.58
219.946	-0.18
220.418	-7.78
220.889	2.32
221.36	2.62
221.832	-3.58
222.303	-10.58
222.774	-0.28
223.245	-8.88
223.717	-5.68
224.188	-5.68
224.659	-6.48
225.13	-5.88
225.601	-9.38
226.072	-6.08
226.543	-2.48
227.014	-0.18
227.485	1.02
227.956	-10.98
228.427	-5.18
228.898	-2.78
229.369	4.12
229.839	-2.28
230.31	-6.28
230.781	4.02
231.252	-4.98
231.722	-3.68
232.193	-3.68
232.664	-3.48
233.135	-4.28
233.605	1.82
234.076	-5.08
234.546	3.72
235.017	1.62
235.487	5.02
235.958	3.42
236.428	0.02
236.899	7.52
237.369	3.62
237.84	-0.48
238.31	4.82
238.78	6.82
239.251	5.42
239.721	7.02
240.191	3.82
240.662	0.02
241.132	1.22
241.602	4.12
242.072	-0.98
242.542	3.72
243.013	-1.08
243.483	5.92
243.953	4.72
244.423	-0.98
244.893	-3.68
245.363	1.52
245.833	0.82
246.303	2.92
246.773	4.12
247.243	2.82
247.712	9.92
248.182	4.52
248.652	9.02
249.122	-3.18
249.592	10.22
250.061	19.42
250.531	34.32
251.001	19.82
251.471	21.82
251.94	22.12
252.41	5.02
252.879	3.92
253.349	13.02
253.818	8.02
254.288	6.12
254.757	5.72
255.227	2.12
255.696	3.32
256.166	10.82
256.635	9.42
257.105	6.72
257.574	7.32
258.043	13.22
258.513	10.82
258.982	16.52
259.451	10.42
259.92	15.62
260.389	15.12
260.859	19.62
261.328	9.52
261.797	23.72
262.266	2.82
262.735	16.82
263.204	8.72
263.673	-2.08
264.142	3.52
264.611	-1.28
265.08	3.82
265.549	3.12
266.018	6.82
266.487	0.02
266.955	-2.98
267.424	-1.88
267.893	10.82
268.362	4.92
268.83	6.32
269.299	9.82
269.768	7.72
270.236	11.12
270.705	8.72
271.174	3.72
271.642	8.32
272.111	13.02
272.579	15.42
273.048	26.22
273.516	23.22
273.985	26.82
274.453	23.62
274.922	16.72
275.39	13.12
275.858	5.42
276.327	13.82
276.795	17.92
277.263	11.92
277.731	26.82
278.2	55.52
278.668	64.02
279.136	53.02
279.604	27.12
280.072	25.92
280.54	15.02
281.008	9.02
281.477	16.22
281.945	13.32
282.413	16.22
282.881	12.72
283.348	6.22
283.816	22.52
284.284	19.42
284.752	19.52
285.22	14.92
285.688	22.62
286.156	17.62
286.623	45.32
287.091	49.32
287.559	34.92
288.026	18.92
288.494	14.42
288.962	6.52
289.429	12.92
289.897	22.72
290.364	7.62
290.832	12.32
291.3	16.82
291.767	22.02
292.234	20.52
292.702	10.52
293.169	18.62
293.637	24.72
294.104	18.92
294.571	11.22
295.039	15.62
295.506	14.02
295.973	21.12
296.44	13.82
296.908	17.42
297.375	15.72
297.842	18.22
298.309	20.12
298.776	18.52
299.243	24.02
299.71	12.42
300.177	27.82
300.644	19.92
301.111	22.82
301.578	23.32
302.045	19.22
302.512	24.12
302.979	25.42
303.446	23.02
303.913	17.32
304.379	15.42
304.846	25.82
305.313	25.72
305.78	20.42
306.246	23.12
306.713	25.62
307.18	24.42
307.646	31.02
308.113	28.72
308.579	30.22
309.046	25.22
309.512	27.62
309.979	24.92
310.445	31.42
310.912	30.52
311.378	37.52
311.845	30.42
312.311	31.82
312.777	36.52
313.244	37.02
313.71	36.82
314.176	28.52
314.642	30.82
315.109	38.12
315.575	35.72
316.041	35.22
316.507	36.22
316.973	39.82
317.439	36.92
317.905	40.52
318.371	37.62
318.837	33.52
319.303	31.92
319.769	36.42
320.235	31.02
320.701	38.52
321.167	37.72
321.633	31.52
322.099	42.32
322.564	53.92
323.03	43.62
323.496	40.62
323.962	43.72
324.427	35.92
324.893	47.92
325.359	45.52
325.824	38.12
326.29	43.02
326.755	40.12
327.221	44.82
327.686	43.12
328.152	48.72
328.617	41.02
329.083	46.32
329.548	53.72
330.014	49.02
330.479	36.32
330.944	41.42
331.41	43.82
331.875	41.22
332.34	43.32
332.805	45.92
333.271	52.42
333.736	51.22
334.201	53.72
334.666	56.42
335.131	50.92
335.596	52.72
336.061	52.72
336.526	41.22
336.991	52.62
337.456	56.52
337.921	50.42
338.386	43.72
338.851	42.02
339.316	44.82
339.781	55.72
340.246	50.02
340.711	48.02
341.175	57.32
341.64	49.92
342.105	52.42
342.569	57.42
343.034	62.12
343.499	53.72
343.963	49.42
344.428	64.42
344.893	65.52
345.357	65.42
345.822	63.82
346.286	70.82
346.751	77.22
347.215	75.32
347.679	75.42
348.144	100.12
348.608	87.32
349.073	70.72
349.537	73.12
350.001	80.12
350.465	94.62
350.93	82.22
351.394	80.52
351.858	70.42
352.322	93.72
352.786	87.62
353.25	96.42
353.715	109.02
354.179	100.32
354.643	126.22
355.107	130.32
355.571	106.32
356.035	99.82
356.498	121.62
356.962	131.62
357.426	130.52
357.89	116.02
358.354	93.62
358.818	84.32
359.281	80.92
359.745	78.62
360.209	72.42
360.673	83.92
361.136	78.32
361.6	87.12
362.064	87.22
362.527	89.62
362.991	90.22
363.454	79.22
363.918	76.62
364.381	78.72
364.845	78.32
365.308	75.02
365.772	85.72
366.235	92.82
366.698	85.52
367.162	91.72
367.625	86.32
368.088	88.42
368.552	85.82
369.015	90.32
369.478	93.32
369.941	99.52
370.404	95.12
370.867	101.82
371.331	109.92
371.794	110.52
372.257	117.12
372.72	114.02
373.183	106.82
373.646	105.42
374.109	105.82
374.572	106.72
375.035	110.52
375.497	114.42
375.96	109.22
376.423	102.42
376.886	112.92
377.349	108.82
377.811	101.72
378.274	104.22
378.737	104.62
379.199	111.72
379.662	114.82
380.125	119.92
380.587	125.22
381.05	118.02
381.512	134.92
381.975	139.72
382.437	134.22
382.9	127.12
383.362	139.32
383.825	143.52
384.287	147.62
384.75	147.52
385.212	137.62
385.674	144.32
386.136	143.32
386.599	123.32
387.061	131.12
387.523	130.92
387.985	136.02
388.447	143.62
388.91	146.92
389.372	152.92
389.834	156.22
390.296	150.02
390.758	154.32
391.22	166.42
391.682	219.92
392.144	304.12
392.606	234.62
393.068	167.02
393.529	170.42
393.991	153.62
394.453	148.62
394.915	152.92
395.377	190.42
395.838	213.22
396.3	157.92
396.762	143.12
397.224	134.42
397.685	133.72
398.147	134.92
398.608	129.42
399.07	133.62
399.531	135.22
399.993	141.42
400.454	151.22
400.916	148.82
401.377	144.02
401.839	154.32
402.3	153.22
402.762	161.42
403.223	179.02
403.684	170.02
404.145	169.02
404.607	159.52
405.068	171.52
405.529	168.22
405.99	196.42
406.451	175.82
406.913	179.62
407.374	167.82
407.835	165.02
408.296	170.32
408.757	173.32
409.218	188.12
409.679	180.92
410.14	174.42
410.601	176.32
411.062	180.72
411.522	191.72
411.983	187.62
412.444	182.72
412.905	177.52
413.366	181.92
413.826	193.52
414.287	214.62
414.748	256.02
415.208	245.32
415.669	214.92
416.13	211.72
416.59	205.52
417.051	212.92
417.511	218.52
417.972	238.02
418.432	245.32
418.893	288.92
419.353	249.62
419.814	201.72
420.274	184.52
420.734	183.92
421.195	198.32
421.655	198.73
422.115	188.82
422.576	193.72
423.036	195.22
423.496	198.72
423.956	213.92
424.416	225.72
424.876	260.12
425.336	264.42
425.797	256.52
426.257	256.32
426.717	234.32
427.177	230.32
427.637	224.72
428.097	233.62
428.556	253.22
429.016	275.82
429.476	258.42
429.936	276.42
430.396	285.92
430.856	291.62
431.315	315.72
431.775	350.62
432.235	378.62
432.694	355.02
433.154	361.92
433.614	393.32
434.073	340.32
434.533	284.42
434.993	270.62
435.452	285.62
435.912	292.02
436.371	284.82
436.83	288.23
437.29	270.42
437.749	253.42
438.209	250.82
438.668	271.92
439.127	285.12
439.587	262.12
440.046	246.22
440.505	257.52
440.964	279.02
441.424	328.42
441.883	311.02
442.342	260.42
442.801	220.12
443.26	215.42
443.719	220.92
444.178	213.62
444.637	205.42
445.096	218.62
445.555	216.32
446.014	223.02
446.473	226.92
446.932	232.02
447.391	222.02
447.849	227.12
448.308	216.52
448.767	225.52
449.226	234.32
449.685	231.82
450.143	247.42
450.602	237.52
451.061	227.52
451.519	236.92
451.978	232.52
452.436	229.92
452.895	239.23
453.353	244.92
453.812	242.52
454.27	234.22
454.729	231.92
455.187	237.52
455.646	242.62
456.104	245.92
456.562	258.62
457.021	276.02
457.479	260.72
457.937	277.12
458.395	262.72
458.854	248.62
459.312	261.32
459.77	272.82
460.228	262.02
460.686	237.42
461.144	249.52
461.602	245.72
462.06	238.12
462.518	249.72
462.976	261.72
463.434	255.32
463.892	265.42
464.35	274.72
464.808	288.02
465.266	258.82
465.724	276.62
466.181	273.52
466.639	270.12
467.097	295.22
467.555	300.42
468.012	301.32
468.47	313.52
468.928	327.82
469.385	345.23
469.843	350.12
470.3	352.82
470.758	354.42
471.215	391.02
471.673	411.02
472.13	408.72
472.588	420.82
473.045	373.52
473.503	374.82
473.96	397.12
474.417	405.72
474.875	430.02
475.332	474.82
475.789	463.42
476.246	474.52
476.704	493.62
477.161	516.82
477.618	525.02
478.075	557.52
478.532	620.32
478.989	697.52
479.446	811.62
479.903	769.52
480.36	804.92
480.817	871.72
481.274	963.43
481.731	1088.53
482.188	1166.82
482.645	1295.83
483.102	1415.53
483.558	1554.93
484.015	1613.72
484.472	1582.03
484.929	1524.43
485.385	1485.52
485.842	1437.42
486.299	1386.52
486.755	1296.02
487.212	1108.03
487.668	929.92
488.125	857.22
488.582	783.52
489.038	741.62
489.494	725.82
489.951	684.22
490.407	665.52
490.864	650.52
491.32	644.12
491.776	635.92
492.233	639.82
492.689	618.42
493.145	604.02
493.602	597.62
494.058	615.82
494.514	615.23
494.97	644.62
495.426	650.52
495.882	618.12
496.338	613.12
496.794	630.12
497.251	625.82
497.707	645.23
498.163	644.92
498.618	648.02
499.074	646.62
499.53	684.52
499.986	685.22
500.442	654.92
500.898	634.02
501.354	629.92
501.809	637.42
502.265	648.52
502.721	662.12
503.177	678.12
503.632	666.82
504.088	681.72
504.543	709.62
504.999	712.12
505.455	661.92
505.91	637.42
506.366	642.72
506.821	628.82
507.277	620.12
507.732	617.12
508.187	624.82
508.643	634.12
509.098	635.32
509.553	653.12
510.009	664.02
510.464	670.12
510.919	689.52
511.375	690.82
511.83	698.82
512.285	731.52
512.74	762.42
513.195	795.62
513.65	779.23
514.105	764.02
514.56	778.32
515.015	796.73
515.47	804.12
515.925	785.12
516.38	796.52
516.835	795.12
517.29	791.52
517.745	787.32
518.2	770.32
518.655	750.82
519.109	749.52
519.564	746.82
520.019	737.82
520.474	726.42
520.928	716.92
521.383	721.02
521.838	705.32
522.292	704.82
522.747	708.52
523.201	702.42
523.656	700.52
524.11	694.42
524.565	694.42
525.019	685.62
525.474	705.32
525.928	704.73
526.382	697.02
526.837	689.02
527.291	696.72
527.745	695.32
528.2	695.02
528.654	689.92
529.108	687.02
529.562	690.12
530.016	685.02
530.47	693.72
530.925	694.02
531.379	698.32
531.833	707.72
532.287	701.42
532.741	706.02
533.195	697.32
533.649	716.02
534.103	713.82
534.556	708.42
535.01	705.72
535.464	700.52
535.918	719.42
536.372	727.72
536.826	723.42
537.279	706.02
537.733	714.42
538.187	714.22
538.64	714.12
539.094	719.82
539.548	725.82
540.001	723.12
540.455	728.42
540.908	722.92
541.362	733.42
541.815	749.42
542.269	762.32
542.722	764.32
543.175	762.92
543.629	780.12
544.082	775.92
544.536	789.82
544.989	787.62
545.442	792.12
545.895	789.22
546.349	789.32
546.802	784.72
547.255	806.52
547.708	806.12
548.161	821.62
548.614	807.72
549.067	829.22
549.52	813.42
549.973	809.52
550.426	802.72
550.879	787.52
551.332	788.32
551.785	796.22
552.238	810.22
552.691	806.62
553.144	825.12
553.596	841.02
554.049	859.12
554.502	887.82
554.955	910.42
555.407	908.52
555.86	891.62
556.313	894.32
556.765	877.22
557.218	869.92
557.67	876.92
558.123	866.72
558.576	863.52
559.028	869.92
559.48	883.62
559.933	872.62
560.385	836.62
560.838	796.82
561.29	769.12
561.742	780.12
562.195	753.62
562.647	749.32
563.099	767.42
563.551	764.52
564.004	777.72
564.456	766.42
564.908	761.42
565.36	741.42
565.812	733.12
566.264	720.82
566.716	714.42
567.168	709.02
567.62	710.02
568.072	701.82
568.524	692.23
568.976	690.02
569.428	675.42
569.88	667.12
570.332	663.92
570.784	681.42
571.235	679.92
571.687	688.82
572.139	695.52
572.59	710.52
573.042	703.82
573.494	706.22
573.945	700.92
574.397	677.12
574.849	679.92
575.3	693.62
575.752	683.42
576.203	670.82
576.655	674.32
577.106	670.02
577.557	663.73
578.009	659.02
578.46	661.22
578.912	655.02
579.363	662.12
579.814	659.72
580.265	662.72
580.717	660.62
581.168	664.42
581.619	670.12
582.07	675.73
582.521	672.32
582.972	664.32
583.423	676.72
583.875	673.22
584.326	698.92
584.777	744.12
585.227	810.92
585.678	902.62
586.129	988.72
586.58	1051.73
587.031	1142.22
587.482	1308.12
587.933	1483.82
588.384	1291.22
588.834	963.42
589.285	800.42
589.736	777.42
590.186	765.32
590.637	755.12
591.088	738.52
591.538	725.92
591.989	717.22
592.439	710.72
592.89	706.92
593.34	694.02
593.791	694.02
594.241	693.62
594.692	693.82
595.142	697.42
595.593	685.82
596.043	696.42
596.493	708.72
596.943	694.02
597.394	710.42
597.844	701.72
598.294	720.12
598.744	738.42
599.195	768.72
599.645	797.12
600.095	827.22
600.545	891.62
600.995	955.12
601.445	1003.12
601.895	1068.23
602.345	1106.42
602.795	1095.03
603.245	1042.72
603.695	994.32
604.145	939.63
604.594	897.32
605.044	842.12
605.494	783.02
605.944	744.72
606.393	743.22
606.843	726.52
607.293	716.52
607.743	714.32
608.192	729.92
608.642	748.72
609.091	751.92
609.541	758.62
609.99	760.82
610.44	757.02
610.889	699.23
611.339	684.52
611.788	675.32
612.238	685.62
612.687	695.82
613.136	704.62
613.586	726.02
614.035	718.32
614.484	742.72
614.933	733.62
615.383	737.42
615.832	729.52
616.281	709.02
616.73	671.22
617.179	648.52
617.628	631.52
618.077	625.72
618.526	603.02
618.975	601.12
619.424	609.52
619.873	605.42
620.322	604.22
620.771	593.92
621.22	584.82
621.669	574.52
622.118	573.22
622.567	571.52
623.015	556.42
623.464	557.72
623.913	540.72
624.361	538.92
624.81	533.92
625.259	537.42
625.707	544.73
626.156	545.72
626.604	559.42
627.053	551.92
627.501	552.62
627.95	557.23
628.398	559.42
628.847	554.32
629.295	553.42
629.744	557.92
630.192	553.82
630.64	556.52
631.089	560.72
631.537	559.62
631.985	568.42
632.433	579.82
632.881	591.92
633.33	639.72
633.778	626.12
634.226	551.02
634.674	568.23
635.122	551.32
635.57	582.52
636.018	616.62
636.466	560.02
636.914	548.82
637.362	550.82
637.81	555.22
638.258	564.32
638.705	566.42
639.153	591.42
639.601	598.82
640.049	621.72
640.497	656.52
640.944	660.62
641.392	621.92
641.84	595.72
642.287	571.22
642.735	563.72
643.182	556.42
643.63	550.72
644.078	553.32
644.525	571.02
644.973	580.32
645.42	583.72
645.867	596.72
646.315	616.52
646.762	641.32
647.21	674.62
647.657	702.82
648.104	733.52
648.551	747.72
648.999	812.32
649.446	885.82
649.893	971.22
650.34	1123.03
650.787	1347.53
651.234	1665.43
651.682	2168.82
652.129	2973.62
652.576	4293.22
653.023	6339.22
653.47	8694.62
653.917	10943.32
654.363	12669.12
654.81	14076.83
655.257	13407.92
655.704	8740.62
656.151	5149.62
656.598	3328.63
657.044	2356.82
657.491	1823.43
657.938	1460.53
658.385	1218.33
658.831	1048.62
659.278	923.72
659.724	835.12
660.171	763.42
660.618	695.82
661.064	678.52
661.511	646.92
661.957	632.02
662.404	628.22
662.85	636.02
663.296	600.82
663.743	541.22
664.189	518.42
664.635	512.92
665.082	511.02
665.528	496.32
665.974	503.62
666.42	489.22
666.867	489.12
667.313	468.02
667.759	464.22
668.205	470.22
668.651	473.32
669.097	467.52
669.543	480.32
669.989	453.92
670.435	433.62
670.881	432.73
671.327	434.12
671.773	452.12
672.219	472.22
672.665	520.72
673.11	554.92
673.556	600.52
674.002	645.02
674.448	633.92
674.893	520.52
675.339	454.52
675.785	426.02
676.23	401.12
676.676	378.32
677.122	367.72
677.567	358.62
678.013	354.72
678.458	342.32
678.904	350.62
679.349	331.12
679.794	339.72
680.24	332.52
680.685	334.62
681.131	329.72
681.576	338.42
682.021	337.92
682.466	336.82
682.912	329.22
683.357	334.32
683.802	362.82
684.247	391.42
684.692	436.62
685.137	478.52
685.583	516.52
686.028	544.22
686.473	493.52
686.918	424.92
687.363	397.02
687.807	376.12
688.252	349.52
688.697	347.42
689.142	323.82
689.587	322.42
690.032	306.12
690.477	328.52
690.921	337.62
691.366	365.02
691.811	385.12
692.255	414.12
692.7	436.92
693.145	478.52
693.589	655.82
694.034	1072.93
694.478	1470.52
694.923	1675.22
695.367	2179.62
695.812	1142.32
696.256	474.52
696.701	358.62
697.145	324.72
697.59	314.42
698.034	308.42
698.478	319.02
698.922	312.82
699.367	317.42
699.811	319.92
700.255	333.73
700.699	369.52
701.143	396.62
701.588	449.62
702.032	486.02
702.476	487.82
702.92	467.12
703.364	472.22
703.808	598.52
704.252	961.62
704.696	1382.63
705.14	1609.92
705.584	2049.53
706.027	1021.02
706.471	499.52
706.915	381.12
707.359	339.32
707.803	309.82
708.246	295.42
708.69	299.02
709.134	301.72
709.577	291.02
710.021	302.42
710.465	292.12
710.908	285.92
711.352	279.52
711.795	295.92
712.239	332.22
712.682	364.82
713.126	408.42
713.569	452.42
714.012	350.32
714.456	317.12
714.899	279.02
715.342	262.23
715.786	244.32
716.229	241.92
716.672	246.32
717.115	236.32
717.558	245.42
718.002	242.12
718.445	252.12
718.888	272.92
719.331	279.73
719.774	288.72
720.217	286.72
720.66	273.42
721.103	260.32
721.546	247.12
721.989	234.52
722.432	216.82
722.874	225.02
723.317	218.62
723.76	224.72
724.203	244.92
724.645	306.22
725.088	418.62
725.531	543.02
725.974	616.42
726.416	524.42
726.859	289.52
727.301	231.42
727.744	219.82
728.187	221.42
728.629	228.92
729.071	223.42
729.514	246.42
729.956	259.12
730.399	265.62
730.841	268.22
731.283	263.52
731.726	251.62
732.168	249.92
732.61	253.52
733.053	266.32
733.495	300.92
733.937	339.32
734.379	382.32
734.821	409.92
735.263	515.62
735.705	778.82
736.148	1474.22
736.59	2434.62
737.032	2934.73
737.474	2385.02
737.916	772.22
738.357	403.92
738.799	313.12
739.241	285.02
739.683	270.02
740.125	276.92
740.567	284.42
741.008	303.02
741.45	296.72
741.892	299.82
742.334	329.73
742.775	345.72
743.217	322.12
743.658	260.12
744.1	238.62
744.542	242.12
744.983	301.92
745.425	321.92
745.866	326.92
746.307	268.72
746.749	273.12
747.19	306.62
747.632	419.62
748.073	814.22
748.514	1745.13
748.956	2706.72
749.397	3382.12
749.838	2812.82
750.279	2835.22
750.72	1420.73
751.162	514.92
751.603	300.32
752.044	235.92
752.485	205.92
752.926	201.92
753.367	192.22
753.808	181.32
754.249	186.82
754.69	168.22
755.131	175.42
755.572	169.52
756.013	174.92
756.453	171.32
756.894	183.72
757.335	183.22
757.776	183.82
758.216	194.82
758.657	187.22
759.098	195.62
759.538	210.92
759.979	254.02
760.42	353.52
760.86	655.72
761.301	1690.82
761.741	4123.82
762.182	6156.92
762.622	4360.02
