Data from 20171114-ORNL-Ar_H_NY_Subt18_08-07-09-870.txt Node
Date: Tue Nov 14 08:07:09 EST 2017
User: Ender
Spectrometer: HR+D1039
Trigger mode: 0
Integration Time (sec): 2.730000E-2
Scans to average: 10
Electric dark correction enabled: true
Nonlinearity correction enabled: false
Boxcar width: 0
XAxis mode: Wavelengths
Number of Pixels in Spectrum: 2048
>>>>>Begin Spectral Data<<<<<
187.836	-1.16
188.309	-1.16
188.782	-1.16
189.255	0.24
189.728	-5.56
190.201	0.94
190.674	0.54
191.147	3.94
191.619	-5.86
192.092	2.14
192.565	1.44
193.038	1.94
193.511	3.34
193.984	1.04
194.456	2.54
194.929	-1.26
195.402	-0.96
195.874	-3.36
196.347	-3.96
196.82	-4.06
197.292	6.54
197.765	-2.86
198.237	-7.86
198.71	5.24
199.182	-2.36
199.655	0.14
200.127	0.84
200.6	-1.16
201.072	-2.06
201.544	-2.26
202.017	-1.06
202.489	6.74
202.961	1.24
203.433	-2.66
203.906	-6.66
204.378	-7.86
204.85	-6.46
205.322	-5.76
205.794	-2.16
206.266	-2.36
206.739	-2.06
207.211	-2.26
207.683	-10.26
208.155	0.54
208.627	-5.16
209.099	-1.06
209.57	-11.66
210.042	-3.96
210.514	1.24
210.986	-2.36
211.458	-8.06
211.93	2.14
212.402	-2.06
212.873	-3.36
213.345	-5.96
213.817	-16.66
214.288	-3.86
214.76	-15.96
215.232	-5.46
215.703	2.64
216.175	-7.16
216.646	-6.06
217.118	-4.46
217.589	0.04
218.061	-3.76
218.532	-1.56
219.004	3.24
219.475	-7.06
219.946	-5.96
220.418	-4.16
220.889	4.34
221.36	-3.46
221.832	-4.56
222.303	-10.96
222.774	4.04
223.245	-7.26
223.717	-7.16
224.188	-5.16
224.659	-7.46
225.13	-5.86
225.601	-5.56
226.072	2.44
226.543	-8.76
227.014	-0.36
227.485	-1.86
227.956	-5.76
228.427	1.44
228.898	0.04
229.369	0.74
229.839	-7.06
230.31	-8.26
230.781	2.64
231.252	1.94
231.722	-7.36
232.193	-2.56
232.664	-0.16
233.135	0.34
233.605	-0.36
234.076	-7.76
234.546	-3.46
235.017	2.34
235.487	1.04
235.958	-4.86
236.428	-3.86
236.899	-2.06
237.369	-7.26
237.84	-7.66
238.31	5.54
238.78	1.64
239.251	-5.16
239.721	-0.76
240.191	-0.16
240.662	-3.86
241.132	-3.06
241.602	-6.76
242.072	-2.56
242.542	1.54
243.013	-5.36
243.483	4.04
243.953	1.44
244.423	-3.76
244.893	-3.46
245.363	-2.96
245.833	0.14
246.303	-3.46
246.773	-1.06
247.243	-1.76
247.712	-3.56
248.182	3.64
248.652	2.84
249.122	-11.16
249.592	-1.36
250.061	0.74
250.531	4.64
251.001	-6.06
251.471	-0.96
251.94	8.84
252.41	0.34
252.879	-6.16
253.349	3.84
253.818	-1.76
254.288	-3.36
254.757	-4.36
255.227	-2.86
255.696	-1.76
256.166	2.04
256.635	0.24
257.105	3.44
257.574	-2.56
258.043	-1.16
258.513	-7.46
258.982	1.24
259.451	-10.96
259.92	-1.76
260.389	-4.56
260.859	6.54
261.328	-6.46
261.797	-1.86
262.266	0.24
262.735	2.84
263.204	-2.36
263.673	-3.76
264.142	3.44
264.611	-2.46
265.08	-0.46
265.549	-2.16
266.018	3.04
266.487	-7.26
266.955	-4.76
267.424	-5.26
267.893	0.94
268.362	-2.06
268.83	2.04
269.299	9.64
269.768	-2.06
270.236	2.24
270.705	-0.16
271.174	2.54
271.642	3.64
272.111	-6.46
272.579	0.94
273.048	1.14
273.516	1.74
273.985	-4.26
274.453	10.74
274.922	10.04
275.39	4.74
275.858	-0.26
276.327	6.04
276.795	14.44
277.263	5.34
277.731	8.74
278.2	3.34
278.668	3.14
279.136	5.24
279.604	2.04
280.072	6.64
280.54	9.74
281.008	2.24
281.477	11.14
281.945	4.84
282.413	7.44
282.881	10.74
283.348	-1.56
283.816	12.04
284.284	11.54
284.752	15.04
285.22	5.34
285.688	10.24
286.156	18.54
286.623	6.94
287.091	2.04
287.559	11.44
288.026	6.94
288.494	9.44
288.962	0.94
289.429	9.04
289.897	14.14
290.364	6.84
290.832	11.04
291.3	9.54
291.767	9.04
292.234	11.34
292.702	5.54
293.169	8.54
293.637	13.24
294.104	16.04
294.571	9.94
295.039	10.04
295.506	6.74
295.973	9.14
296.44	11.74
296.908	12.84
297.375	9.04
297.842	12.84
298.309	8.74
298.776	12.04
299.243	16.04
299.71	13.54
300.177	14.74
300.644	16.84
301.111	14.84
301.578	16.54
302.045	6.74
302.512	21.04
302.979	24.14
303.446	12.94
303.913	12.94
304.379	8.44
304.846	21.14
305.313	17.54
305.78	9.84
306.246	21.54
306.713	19.34
307.18	18.34
307.646	12.54
308.113	20.54
308.579	11.54
309.046	22.64
309.512	17.14
309.979	16.94
310.445	20.24
310.912	21.94
311.378	25.44
311.845	23.24
312.311	26.54
312.777	20.44
313.244	25.14
313.71	28.64
314.176	26.54
314.642	19.84
315.109	19.04
315.575	26.14
316.041	34.24
316.507	25.84
316.973	32.14
317.439	28.14
317.905	25.04
318.371	27.24
318.837	25.24
319.303	26.44
319.769	26.74
320.235	26.74
320.701	24.44
321.167	27.14
321.633	24.94
322.099	28.64
322.564	31.04
323.03	30.14
323.496	31.54
323.962	30.04
324.427	32.14
324.893	41.04
325.359	28.14
325.824	38.24
326.29	26.24
326.755	26.54
327.221	30.84
327.686	30.74
328.152	36.34
328.617	30.04
329.083	44.84
329.548	48.44
330.014	42.74
330.479	32.54
330.944	34.24
331.41	33.94
331.875	43.74
332.34	39.34
332.805	35.04
333.271	35.34
333.736	34.64
334.201	39.64
334.666	40.84
335.131	43.94
335.596	46.04
336.061	44.14
336.526	33.14
336.991	37.34
337.456	43.94
337.921	43.74
338.386	39.54
338.851	39.64
339.316	40.84
339.781	42.64
340.246	51.04
340.711	44.94
341.175	46.14
341.64	37.44
342.105	40.84
342.569	50.24
343.034	50.54
343.499	48.64
343.963	45.54
344.428	52.34
344.893	47.24
345.357	53.24
345.822	51.64
346.286	60.84
346.751	63.44
347.215	48.74
347.679	66.54
348.144	79.94
348.608	70.84
349.073	56.84
349.537	58.94
350.001	71.44
350.465	73.34
350.93	73.94
351.394	69.14
351.858	68.24
352.322	71.14
352.786	72.24
353.25	83.54
353.715	90.94
354.179	87.34
354.643	99.64
355.107	104.74
355.571	84.94
356.035	83.94
356.498	97.84
356.962	90.64
357.426	102.64
357.89	94.34
358.354	77.94
358.818	68.84
359.281	70.94
359.745	71.44
360.209	75.14
360.673	66.04
361.136	74.84
361.6	70.74
362.064	81.54
362.527	67.34
362.991	86.14
363.454	75.44
363.918	72.74
364.381	72.14
364.845	71.94
365.308	77.14
365.772	76.74
366.235	76.34
366.698	75.94
367.162	76.34
367.625	75.34
368.088	71.54
368.552	82.34
369.015	80.54
369.478	94.24
369.941	90.24
370.404	83.94
370.867	91.64
371.331	91.24
371.794	99.74
372.257	90.34
372.72	99.24
373.183	94.14
373.646	86.64
374.109	89.04
374.572	91.54
375.035	95.44
375.497	96.04
375.96	98.04
376.423	96.24
376.886	98.14
377.349	102.04
377.811	95.84
378.274	102.44
378.737	99.04
379.199	106.44
379.662	100.64
380.125	111.84
380.587	100.44
381.05	101.94
381.512	107.94
381.975	112.94
382.437	109.94
382.9	108.94
383.362	120.14
383.825	120.34
384.287	114.54
384.75	105.14
385.212	120.34
385.674	123.34
386.136	129.24
386.599	111.74
387.061	118.04
387.523	112.44
387.985	120.44
388.447	129.14
388.91	123.84
389.372	115.84
389.834	126.14
390.296	128.54
390.758	121.54
391.22	125.24
391.682	135.94
392.144	142.64
392.606	138.04
393.068	139.64
393.529	152.24
393.991	141.14
394.453	129.54
394.915	125.14
395.377	129.64
395.838	134.54
396.3	138.74
396.762	135.04
397.224	124.84
397.685	131.14
398.147	132.34
398.608	128.94
399.07	128.34
399.531	139.54
399.993	138.54
400.454	153.34
400.916	142.54
401.377	142.34
401.839	147.24
402.3	152.74
402.762	163.54
403.223	170.04
403.684	171.14
404.145	153.94
404.607	151.04
405.068	160.24
405.529	167.14
405.99	177.74
406.451	166.74
406.913	170.34
407.374	162.74
407.835	156.14
408.296	161.14
408.757	163.34
409.218	177.74
409.679	172.94
410.14	171.64
410.601	171.64
411.062	181.64
411.522	179.84
411.983	179.54
412.444	170.04
412.905	177.74
413.366	192.24
413.826	199.54
414.287	224.94
414.748	271.94
415.208	257.24
415.669	215.44
416.13	213.34
416.59	206.84
417.051	229.84
417.511	226.24
417.972	241.84
418.432	254.44
418.893	294.04
419.353	255.94
419.814	195.64
420.274	188.34
420.734	187.64
421.195	198.14
421.655	192.64
422.115	200.44
422.576	192.94
423.036	203.34
423.496	210.14
423.956	224.84
424.416	240.44
424.876	275.84
425.336	263.94
425.797	271.54
426.257	250.24
426.717	240.44
427.177	236.84
427.637	226.14
428.097	236.74
428.556	249.44
429.016	263.44
429.476	262.44
429.936	263.74
430.396	277.64
430.856	289.64
431.315	301.74
431.775	347.84
432.235	374.54
432.694	345.64
433.154	358.04
433.614	377.44
434.073	327.14
434.533	282.14
434.993	264.64
435.452	285.14
435.912	287.24
436.371	277.04
436.83	279.34
437.29	263.34
437.749	252.14
438.209	252.04
438.668	277.44
439.127	287.04
439.587	265.44
440.046	250.24
440.505	254.04
440.964	282.64
441.424	315.24
441.883	308.94
442.342	264.44
442.801	234.74
443.26	235.94
443.719	231.94
444.178	222.64
444.637	218.64
445.096	236.44
445.555	233.84
446.014	230.64
446.473	231.44
446.932	237.74
447.391	235.14
447.849	235.74
448.308	233.44
448.767	233.64
449.226	244.84
449.685	246.34
450.143	260.24
450.602	244.84
451.061	233.64
451.519	239.14
451.978	236.44
452.436	247.24
452.895	246.24
453.353	263.74
453.812	253.24
454.27	248.74
454.729	251.34
455.187	258.14
455.646	252.84
456.104	259.24
456.562	265.04
457.021	286.94
457.479	274.54
457.937	284.34
458.395	274.24
458.854	259.64
459.312	259.84
459.77	285.34
460.228	268.14
460.686	262.14
461.144	265.24
461.602	259.64
462.06	255.44
462.518	275.34
462.976	268.54
463.434	278.44
463.892	284.44
464.35	289.64
464.808	302.54
465.266	273.44
465.724	285.64
466.181	284.24
466.639	286.64
467.097	304.04
467.555	320.24
468.012	321.44
468.47	315.54
468.928	345.54
469.385	363.54
469.843	365.94
470.3	361.44
470.758	379.84
471.215	398.44
471.673	424.74
472.13	420.64
472.588	438.34
473.045	392.94
473.503	389.64
473.96	416.34
474.417	430.54
474.875	449.24
475.332	494.74
475.789	489.14
476.246	481.74
476.704	510.84
477.161	527.04
477.618	539.34
478.075	580.24
478.532	627.94
478.989	703.34
479.446	808.84
479.903	769.04
480.36	802.64
480.817	848.84
481.274	953.14
481.731	1048.44
482.188	1121.64
482.645	1240.34
483.102	1328.04
483.558	1441.54
484.015	1495.34
484.472	1460.14
484.929	1423.64
485.385	1375.84
485.842	1357.14
486.299	1304.64
486.755	1251.24
487.212	1075.74
487.668	915.24
488.125	849.24
488.582	790.44
489.038	763.84
489.494	732.54
489.951	706.14
490.407	691.94
490.864	674.44
491.32	668.34
491.776	669.04
492.233	659.14
492.689	628.84
493.145	627.54
493.602	629.94
494.058	648.94
494.514	641.44
494.97	661.54
495.426	672.64
495.882	647.04
496.338	626.84
496.794	655.14
497.251	640.44
497.707	664.24
498.163	653.44
498.618	666.14
499.074	666.64
499.53	701.64
499.986	688.74
500.442	660.24
500.898	644.54
501.354	644.24
501.809	647.24
502.265	645.44
502.721	663.54
503.177	660.14
503.632	665.94
504.088	672.04
504.543	693.54
504.999	707.94
505.455	685.34
505.91	664.04
506.366	678.44
506.821	659.94
507.277	659.14
507.732	663.54
508.187	668.84
508.643	673.04
509.098	669.94
509.553	690.84
510.009	701.64
510.464	715.54
510.919	727.84
511.375	720.34
511.83	745.44
512.285	760.94
512.74	787.14
513.195	822.44
513.65	809.44
514.105	797.24
514.56	803.74
515.015	829.74
515.47	835.64
515.925	815.94
516.38	828.24
516.835	825.44
517.29	820.64
517.745	817.14
518.2	801.54
518.655	783.44
519.109	781.24
519.564	780.04
520.019	768.34
520.474	751.34
520.928	764.14
521.383	763.34
521.838	741.94
522.292	756.34
522.747	751.04
523.201	739.34
523.656	734.54
524.11	739.64
524.565	733.34
525.019	716.24
525.474	732.34
525.928	721.44
526.382	734.54
526.837	739.34
527.291	739.14
527.745	739.84
528.2	728.14
528.654	718.94
529.108	716.74
529.562	725.14
530.016	722.74
530.47	719.64
530.925	735.54
531.379	728.04
531.833	739.14
532.287	734.54
532.741	735.44
533.195	733.44
533.649	741.74
534.103	743.44
534.556	736.04
535.01	742.44
535.464	736.14
535.918	754.14
536.372	742.94
536.826	753.34
537.279	732.64
537.733	745.04
538.187	754.94
538.64	744.24
539.094	754.74
539.548	748.94
540.001	759.84
540.455	749.14
540.908	756.74
541.362	779.24
541.815	782.14
542.269	801.44
542.722	797.34
543.175	808.64
543.629	803.84
544.082	833.34
544.536	819.74
544.989	835.34
545.442	832.34
545.895	821.74
546.349	834.44
546.802	831.84
547.255	844.74
547.708	849.04
548.161	864.74
548.614	868.84
549.067	864.54
549.52	871.34
549.973	850.44
550.426	852.84
550.879	854.64
551.332	844.14
551.785	842.14
552.238	853.74
552.691	852.44
553.144	888.14
553.596	898.74
554.049	912.34
554.502	944.74
554.955	965.94
555.407	959.64
555.86	947.14
556.313	941.44
556.765	928.74
557.218	923.54
557.67	936.04
558.123	925.24
558.576	918.14
559.028	914.74
559.48	927.24
559.933	918.94
560.385	895.84
560.838	857.84
561.29	825.54
561.742	830.94
562.195	809.94
562.647	808.94
563.099	811.24
563.551	810.74
564.004	827.74
564.456	817.24
564.908	796.94
565.36	783.34
565.812	769.54
566.264	756.74
566.716	753.14
567.168	745.44
567.62	749.14
568.072	732.64
568.524	724.74
568.976	712.14
569.428	706.74
569.88	722.54
570.332	720.04
570.784	721.34
571.235	725.34
571.687	724.64
572.139	735.44
572.59	751.94
573.042	749.94
573.494	744.94
573.945	739.94
574.397	717.74
574.849	735.44
575.3	722.64
575.752	715.04
576.203	711.84
576.655	718.74
577.106	705.84
577.557	697.94
578.009	700.24
578.46	699.54
578.912	684.24
579.363	698.64
579.814	691.84
580.265	703.14
580.717	701.94
581.168	706.74
581.619	711.84
582.07	714.74
582.521	698.64
582.972	700.04
583.423	704.84
583.875	716.34
584.326	709.54
584.777	739.74
585.227	747.94
585.678	748.94
586.129	771.24
586.58	776.44
587.031	806.24
587.482	844.14
587.933	859.44
588.384	844.64
588.834	810.84
589.285	810.64
589.736	802.64
590.186	806.74
590.637	800.34
591.088	774.04
591.538	770.34
591.989	765.24
592.439	747.34
592.89	744.04
593.34	745.84
593.791	734.74
594.241	727.84
594.692	730.24
595.142	728.14
595.593	720.54
596.043	729.44
596.493	735.14
596.943	736.84
597.394	752.24
597.844	762.84
598.294	763.34
598.744	793.84
599.195	812.84
599.645	860.44
600.095	898.74
600.545	953.74
600.995	1008.94
601.445	1067.24
601.895	1140.64
602.345	1176.04
602.795	1170.34
603.245	1119.14
603.695	1065.64
604.145	1007.04
604.594	960.14
605.044	911.84
605.494	838.34
605.944	795.44
606.393	781.64
606.843	753.84
607.293	754.14
607.743	751.84
608.192	773.44
608.642	778.34
609.091	786.14
609.541	786.84
609.99	789.44
610.44	786.34
610.889	740.04
611.339	728.24
611.788	710.34
612.238	713.94
612.687	722.54
613.136	719.54
613.586	736.04
614.035	729.94
614.484	732.14
614.933	731.94
615.383	731.54
615.832	725.14
616.281	723.44
616.73	696.34
617.179	683.54
617.628	667.84
618.077	656.44
618.526	639.74
618.975	643.14
619.424	647.54
619.873	641.34
620.322	644.94
620.771	630.44
621.22	617.94
621.669	606.54
622.118	605.94
622.567	606.64
623.015	582.34
623.464	586.34
623.913	580.74
624.361	580.14
624.81	569.04
625.259	575.94
625.707	578.54
626.156	588.34
626.604	591.84
627.053	587.24
627.501	586.24
627.95	588.14
628.398	609.04
628.847	586.54
629.295	592.84
629.744	583.64
630.192	595.24
630.64	582.94
631.089	569.14
631.537	566.84
631.985	548.14
632.433	543.64
632.881	543.14
633.33	549.34
633.778	533.74
634.226	548.04
634.674	553.94
635.122	551.14
635.57	578.84
636.018	575.44
636.466	587.44
636.914	574.54
637.362	591.44
637.81	600.64
638.258	603.64
638.705	598.44
639.153	627.24
639.601	636.34
640.049	668.74
640.497	700.84
640.944	722.04
641.392	678.84
641.84	637.34
642.287	600.44
642.735	578.94
643.182	582.74
643.63	576.04
644.078	582.04
644.525	597.94
644.973	604.04
645.42	611.54
645.867	629.24
646.315	649.64
646.762	671.74
647.21	700.64
647.657	715.94
648.104	754.54
648.551	774.64
648.999	823.34
649.446	895.44
649.893	986.74
650.34	1132.74
650.787	1338.54
651.234	1660.44
651.682	2108.14
652.129	2860.14
652.576	4083.64
653.023	5977.14
653.47	8068.34
653.917	10008.24
654.363	11514.04
654.81	12713.04
655.257	12024.54
655.704	7976.44
656.151	4805.84
656.598	3175.54
657.044	2276.14
657.491	1776.94
657.938	1424.64
658.385	1200.14
658.831	1049.54
659.278	948.04
659.724	847.44
660.171	774.44
660.618	711.74
661.064	681.54
661.511	668.64
661.957	666.34
662.404	655.64
662.85	665.24
663.296	621.74
663.743	569.64
664.189	544.34
664.635	547.04
665.082	547.94
665.528	541.94
665.974	531.84
666.42	523.54
666.867	520.64
667.313	498.94
667.759	484.74
668.205	467.34
668.651	466.94
669.097	461.84
669.543	446.04
669.989	453.74
670.435	452.24
670.881	452.44
671.327	462.84
671.773	486.44
672.219	506.94
672.665	565.74
673.11	604.54
673.556	658.64
674.002	696.74
674.448	682.04
674.893	575.24
675.339	500.64
675.785	456.94
676.23	438.04
676.676	400.94
677.122	401.44
677.567	386.34
678.013	380.14
678.458	377.54
678.904	374.94
679.349	352.34
679.794	368.24
680.24	368.54
680.685	363.24
681.131	368.14
681.576	368.04
682.021	364.04
682.466	361.94
682.912	363.84
683.357	372.04
683.802	404.74
684.247	430.34
684.692	464.64
685.137	511.14
685.583	551.94
686.028	577.34
686.473	539.44
686.918	463.24
687.363	439.54
687.807	411.54
688.252	375.94
688.697	370.54
689.142	352.54
689.587	343.44
690.032	344.64
690.477	362.24
690.921	363.84
691.366	404.94
691.811	413.34
692.255	458.64
692.7	488.34
693.145	523.54
693.589	731.24
694.034	1182.64
694.478	1615.84
694.923	1812.44
695.367	2354.44
695.812	1256.74
696.256	529.24
696.701	381.24
697.145	361.14
697.59	342.94
698.034	340.84
698.478	340.54
698.922	325.54
699.367	336.74
699.811	342.64
700.255	365.34
700.699	400.64
701.143	436.24
701.588	491.64
702.032	539.94
702.476	535.34
702.92	511.64
703.364	522.04
703.808	661.54
704.252	1090.34
704.696	1529.24
705.14	1753.34
705.584	2234.44
706.027	1118.44
706.471	548.94
706.915	418.24
707.359	371.14
707.803	332.04
708.246	323.84
708.69	322.24
709.134	322.14
709.577	325.54
710.021	329.34
710.465	315.24
710.908	308.44
711.352	311.04
711.795	322.34
712.239	368.14
712.682	402.44
713.126	428.54
713.569	471.24
714.012	372.44
714.456	315.74
714.899	302.44
715.342	284.94
715.786	265.24
716.229	264.74
716.672	257.34
717.115	252.34
717.558	260.44
718.002	262.94
718.445	272.24
718.888	295.64
719.331	300.24
719.774	321.34
720.217	318.84
720.66	295.64
721.103	280.24
721.546	259.64
721.989	256.84
722.432	235.54
722.874	250.64
723.317	236.64
723.76	245.74
724.203	265.24
724.645	336.24
725.088	460.34
725.531	584.54
725.974	674.64
726.416	579.04
726.859	315.04
727.301	258.44
727.744	239.14
728.187	245.84
728.629	241.14
729.071	254.84
729.514	265.74
729.956	283.54
730.399	298.74
730.841	302.64
731.283	286.54
731.726	275.34
732.168	275.84
732.61	279.14
733.053	312.84
733.495	332.84
733.937	371.84
734.379	414.34
734.821	461.84
735.263	568.54
735.705	892.84
736.148	1665.84
736.59	2733.04
737.032	3213.04
737.474	2604.14
737.916	863.94
738.357	446.84
738.799	342.24
739.241	310.74
739.683	294.74
740.125	307.14
740.567	312.64
741.008	331.14
741.45	334.74
741.892	330.14
742.334	356.04
742.775	379.04
743.217	355.84
743.658	288.94
744.1	262.14
744.542	274.34
744.983	340.24
745.425	371.34
745.866	367.44
746.307	296.44
746.749	291.94
747.19	335.14
747.632	486.64
748.073	939.94
748.514	1976.34
748.956	2993.14
749.397	3771.24
749.838	3130.64
750.279	3099.64
750.72	1568.94
751.162	572.44
751.603	335.64
752.044	256.54
752.485	230.24
752.926	224.84
753.367	211.84
753.808	207.34
754.249	193.64
754.69	197.04
755.131	186.94
755.572	188.04
756.013	185.34
756.453	190.34
756.894	200.64
757.335	203.74
757.776	209.24
758.216	204.54
758.657	204.44
759.098	208.54
759.538	236.64
759.979	287.94
760.42	403.14
760.86	749.24
761.301	1945.94
761.741	4719.94
762.182	6754.84
762.622	4771.94
763.063	1377.84
763.503	564.64
