Data from 20171114-ORNL-Ar_H_NY_Subt18_08-08-18-114.txt Node
Date: Tue Nov 14 08:08:18 EST 2017
User: Ender
Spectrometer: HR+D1039
Trigger mode: 0
Integration Time (sec): 2.730000E-2
Scans to average: 10
Electric dark correction enabled: true
Nonlinearity correction enabled: false
Boxcar width: 0
XAxis mode: Wavelengths
Number of Pixels in Spectrum: 2048
>>>>>Begin Spectral Data<<<<<
187.836	-7.06
188.309	-7.06
188.782	-7.06
189.255	2.34
189.728	-2.46
190.201	6.14
190.674	-3.06
191.147	8.84
191.619	-2.96
192.092	2.74
192.565	4.74
193.038	-0.56
193.511	-0.46
193.984	-1.36
194.456	-3.96
194.929	-0.56
195.402	0.84
195.874	-3.16
196.347	-3.66
196.82	-8.46
197.292	6.44
197.765	1.94
198.237	-8.76
198.71	-1.36
199.182	-6.56
199.655	1.44
200.127	-0.66
200.6	0.44
201.072	-4.96
201.544	-10.96
202.017	-5.46
202.489	5.04
202.961	-2.26
203.433	-6.86
203.906	-7.56
204.378	-9.76
204.85	-5.86
205.322	-10.86
205.794	-4.96
206.266	-4.96
206.739	-6.36
207.211	-1.56
207.683	-4.86
208.155	-5.26
208.627	-7.16
209.099	-2.26
209.57	-13.36
210.042	-5.16
210.514	-5.86
210.986	-15.06
211.458	-7.06
211.93	-6.36
212.402	1.64
212.873	-10.56
213.345	-10.46
213.817	-16.26
214.288	0.04
214.76	-11.16
215.232	-9.66
215.703	-6.26
216.175	-5.36
216.646	-2.46
217.118	-8.06
217.589	-4.76
218.061	-5.76
218.532	-2.06
219.004	-5.76
219.475	-7.36
219.946	0.44
220.418	-0.06
220.889	-1.66
221.36	-3.76
221.832	1.14
222.303	-10.46
222.774	-2.46
223.245	-13.06
223.717	-8.76
224.188	-5.06
224.659	-11.96
225.13	-8.06
225.601	-3.16
226.072	-1.26
226.543	-5.96
227.014	-4.06
227.485	-1.36
227.956	-7.06
228.427	-2.46
228.898	0.54
229.369	0.74
229.839	-3.76
230.31	-6.56
230.781	-0.26
231.252	-6.96
231.722	-5.76
232.193	-5.66
232.664	-4.16
233.135	-5.26
233.605	-1.06
234.076	-7.76
234.546	3.64
235.017	1.84
235.487	-2.16
235.958	2.24
236.428	1.64
236.899	2.34
237.369	4.04
237.84	5.44
238.31	4.94
238.78	3.44
239.251	-0.16
239.721	2.44
240.191	-5.76
240.662	-6.96
241.132	-2.66
241.602	-5.16
242.072	1.34
242.542	5.24
243.013	-2.16
243.483	4.34
243.953	3.34
244.423	-3.76
244.893	-11.26
245.363	2.54
245.833	-3.86
246.303	-3.16
246.773	4.94
247.243	-0.86
247.712	2.24
248.182	8.74
248.652	3.64
249.122	-11.16
249.592	12.34
250.061	15.04
250.531	27.44
251.001	8.94
251.471	16.54
251.94	14.84
252.41	5.54
252.879	-4.76
253.349	6.44
253.818	10.54
254.288	1.54
254.757	5.04
255.227	-5.36
255.696	2.14
256.166	5.04
256.635	2.54
257.105	9.54
257.574	7.04
258.043	14.44
258.513	10.64
258.982	13.24
259.451	1.74
259.92	10.34
260.389	2.84
260.859	12.54
261.328	4.04
261.797	13.04
262.266	7.74
262.735	6.54
263.204	1.84
263.673	0.24
264.142	5.64
264.611	-3.26
265.08	0.44
265.549	-2.66
266.018	1.04
266.487	1.24
266.955	-2.36
267.424	-1.66
267.893	8.64
268.362	1.94
268.83	7.54
269.299	9.24
269.768	6.84
270.236	1.44
270.705	3.64
271.174	-0.46
271.642	5.64
272.111	3.24
272.579	16.84
273.048	18.84
273.516	23.84
273.985	26.04
274.453	19.74
274.922	18.94
275.39	8.14
275.858	0.34
276.327	4.54
276.795	12.74
277.263	6.04
277.731	30.74
278.2	46.04
278.668	48.74
279.136	36.64
279.604	12.14
280.072	10.14
280.54	11.74
281.008	4.74
281.477	16.64
281.945	12.44
282.413	8.94
282.881	10.14
283.348	8.54
283.816	15.74
284.284	16.94
284.752	17.24
285.22	13.14
285.688	12.04
286.156	19.14
286.623	45.44
287.091	47.44
287.559	24.34
288.026	12.74
288.494	14.54
288.962	1.34
289.429	12.64
289.897	15.44
290.364	11.74
290.832	12.14
291.3	8.74
291.767	21.34
292.234	14.64
292.702	10.14
293.169	17.54
293.637	20.14
294.104	17.84
294.571	13.14
295.039	7.64
295.506	16.94
295.973	17.04
296.44	18.64
296.908	16.64
297.375	10.94
297.842	20.54
298.309	15.24
298.776	11.84
299.243	17.84
299.71	6.94
300.177	17.94
300.644	19.84
301.111	22.64
301.578	23.44
302.045	16.04
302.512	17.34
302.979	27.24
303.446	24.94
303.913	17.54
304.379	16.44
304.846	27.14
305.313	25.74
305.78	18.74
306.246	25.04
306.713	23.94
307.18	21.84
307.646	25.64
308.113	31.64
308.579	19.94
309.046	22.44
309.512	28.94
309.979	17.34
310.445	28.34
310.912	26.94
311.378	27.14
311.845	21.74
312.311	32.64
312.777	30.64
313.244	27.34
313.71	34.14
314.176	31.34
314.642	20.94
315.109	26.54
315.575	30.24
316.041	33.74
316.507	39.54
316.973	37.94
317.439	30.84
317.905	29.74
318.371	35.44
318.837	34.64
319.303	26.64
319.769	33.04
320.235	27.84
320.701	27.84
321.167	36.04
321.633	24.84
322.099	30.44
322.564	44.44
323.03	42.04
323.496	37.14
323.962	33.34
324.427	32.74
324.893	37.74
325.359	36.24
325.824	41.64
326.29	32.04
326.755	37.24
327.221	36.94
327.686	36.54
328.152	42.14
328.617	35.14
329.083	44.14
329.548	45.24
330.014	41.04
330.479	41.44
330.944	39.44
331.41	42.44
331.875	40.84
332.34	45.54
332.805	38.44
333.271	44.04
333.736	39.94
334.201	50.84
334.666	50.04
335.131	49.84
335.596	52.04
336.061	47.04
336.526	40.84
336.991	41.44
337.456	52.14
337.921	47.94
338.386	43.04
338.851	41.94
339.316	46.74
339.781	48.24
340.246	53.34
340.711	50.84
341.175	49.04
341.64	45.34
342.105	50.04
342.569	52.24
343.034	53.44
343.499	55.14
343.963	46.44
344.428	55.64
344.893	58.94
345.357	55.24
345.822	55.84
346.286	61.44
346.751	67.54
347.215	60.94
347.679	71.04
348.144	94.04
348.608	75.94
349.073	63.54
349.537	66.74
350.001	76.74
350.465	80.24
350.93	78.34
351.394	78.44
351.858	73.94
352.322	86.74
352.786	82.54
353.25	97.94
353.715	111.04
354.179	102.04
354.643	120.94
355.107	129.84
355.571	103.04
356.035	101.54
356.498	110.04
356.962	121.74
357.426	127.04
357.89	116.54
358.354	89.94
358.818	82.14
359.281	79.14
359.745	74.64
360.209	79.34
360.673	77.24
361.136	71.44
361.6	83.54
362.064	79.64
362.527	78.64
362.991	87.64
363.454	84.94
363.918	73.14
364.381	74.64
364.845	84.24
365.308	81.04
365.772	89.24
366.235	79.24
366.698	79.24
367.162	82.74
367.625	89.74
368.088	88.34
368.552	86.54
369.015	84.54
369.478	92.64
369.941	101.34
370.404	87.14
370.867	100.44
371.331	105.24
371.794	122.24
372.257	106.94
372.72	119.14
373.183	107.24
373.646	98.54
374.109	102.14
374.572	108.44
375.035	106.74
375.497	111.24
375.96	102.04
376.423	100.54
376.886	113.24
377.349	110.64
377.811	102.04
378.274	108.34
378.737	102.84
379.199	111.54
379.662	104.24
380.125	113.14
380.587	110.64
381.05	118.34
381.512	130.54
381.975	136.64
382.437	127.44
382.9	122.24
383.362	132.24
383.825	134.24
384.287	148.14
384.75	141.74
385.212	135.04
385.674	134.64
386.136	136.74
386.599	123.14
387.061	124.34
387.523	134.94
387.985	135.04
388.447	145.14
388.91	144.04
389.372	154.24
389.834	154.54
390.296	138.94
390.758	157.04
391.22	169.64
391.682	214.34
392.144	302.54
392.606	233.74
393.068	164.24
393.529	167.44
393.991	152.14
394.453	148.44
394.915	157.54
395.377	192.84
395.838	217.94
396.3	156.34
396.762	139.64
397.224	134.64
397.685	132.64
398.147	128.54
398.608	123.04
399.07	127.14
399.531	131.14
399.993	150.24
400.454	154.04
400.916	141.94
401.377	147.74
401.839	150.54
402.3	149.74
402.762	163.94
403.223	179.54
403.684	171.94
404.145	158.34
404.607	154.94
405.068	163.34
405.529	165.14
405.99	188.54
406.451	177.64
406.913	173.94
407.374	166.74
407.835	158.94
408.296	166.34
408.757	165.04
409.218	191.44
409.679	173.64
410.14	178.44
410.601	178.84
411.062	178.94
411.522	182.94
411.983	193.64
412.444	174.14
412.905	178.54
413.366	179.84
413.826	191.04
414.287	217.04
414.748	262.24
415.208	247.04
415.669	217.24
416.13	207.44
416.59	204.84
417.051	208.64
417.511	217.34
417.972	233.14
418.432	243.94
418.893	278.94
419.353	244.84
419.814	194.24
420.274	186.24
420.734	182.24
421.195	201.64
421.655	205.74
422.115	196.84
422.576	199.14
423.036	194.14
423.496	202.64
423.956	212.94
424.416	226.14
424.876	258.64
425.336	254.94
425.797	267.84
426.257	255.74
426.717	237.14
427.177	232.14
427.637	222.84
428.097	229.94
428.556	239.24
429.016	264.64
429.476	269.14
429.936	272.84
430.396	267.84
430.856	294.64
431.315	314.34
431.775	358.44
432.235	385.14
432.694	351.14
433.154	369.04
433.614	398.94
434.073	345.64
434.533	289.44
434.993	273.04
435.452	277.44
435.912	294.74
436.371	294.94
436.83	283.34
437.29	271.34
437.749	249.84
438.209	243.64
438.668	268.84
439.127	288.44
439.587	266.24
440.046	244.04
440.505	262.54
440.964	285.04
441.424	329.34
441.883	314.34
442.342	265.54
442.801	219.94
443.26	220.04
443.719	221.54
444.178	219.74
444.637	205.94
445.096	218.24
445.555	227.04
446.014	217.34
446.473	229.04
446.932	238.14
447.391	227.84
447.849	230.24
448.308	221.74
448.767	219.34
449.226	230.14
449.685	240.24
450.143	244.14
450.602	232.34
451.061	231.74
451.519	235.64
451.978	230.34
452.436	230.24
452.895	240.74
453.353	255.84
453.812	244.24
454.27	243.64
454.729	239.44
455.187	235.84
455.646	242.14
456.104	245.94
456.562	260.84
457.021	268.74
457.479	259.94
457.937	274.44
458.395	256.24
458.854	247.14
459.312	249.74
459.77	275.34
460.228	256.44
460.686	239.84
461.144	251.84
461.602	240.64
462.06	239.74
462.518	251.84
462.976	252.84
463.434	250.24
463.892	259.84
464.35	269.14
464.808	286.74
465.266	262.54
465.724	264.44
466.181	275.44
466.639	275.34
467.097	291.14
467.555	291.74
468.012	296.94
468.47	306.94
468.928	326.14
469.385	342.84
469.843	342.74
470.3	352.04
470.758	370.44
471.215	382.74
471.673	416.24
472.13	415.04
472.588	422.24
473.045	377.34
473.503	372.14
473.96	395.64
474.417	394.74
474.875	421.64
475.332	483.74
475.789	452.64
476.246	460.54
476.704	480.94
477.161	517.24
477.618	526.94
478.075	565.04
478.532	615.84
478.989	694.34
479.446	800.74
479.903	770.54
480.36	804.44
480.817	852.44
481.274	959.54
481.731	1058.64
482.188	1162.24
482.645	1288.04
483.102	1389.14
483.558	1534.74
484.015	1580.74
484.472	1551.44
484.929	1494.34
485.385	1457.24
485.842	1409.34
486.299	1353.24
486.755	1286.34
487.212	1084.14
487.668	920.84
488.125	848.84
488.582	762.74
489.038	733.74
489.494	702.84
489.951	678.54
490.407	660.34
490.864	641.94
491.32	639.74
491.776	635.44
492.233	645.54
492.689	609.34
493.145	602.64
493.602	587.94
494.058	606.44
494.514	628.74
494.97	631.44
495.426	650.54
495.882	612.14
496.338	610.64
496.794	607.84
497.251	606.84
497.707	625.14
498.163	625.24
498.618	636.84
499.074	641.54
499.53	666.54
499.986	663.14
500.442	659.54
500.898	629.24
501.354	618.64
501.809	638.24
502.265	636.34
502.721	648.34
503.177	669.74
503.632	660.34
504.088	672.34
504.543	700.34
504.999	709.64
505.455	645.74
505.91	621.14
506.366	618.94
506.821	623.24
507.277	623.94
507.732	620.04
508.187	622.04
508.643	623.44
509.098	630.04
509.553	650.24
510.009	641.14
510.464	660.04
510.919	688.04
511.375	680.64
511.83	701.24
512.285	712.14
512.74	749.44
513.195	772.24
513.65	759.54
514.105	769.04
514.56	759.04
515.015	791.64
515.47	797.84
515.925	775.84
516.38	782.84
516.835	786.04
517.29	768.34
517.745	763.54
518.2	756.64
518.655	738.14
519.109	729.84
519.564	732.14
520.019	730.64
520.474	716.84
520.928	716.74
521.383	708.44
521.838	707.44
522.292	699.04
522.747	695.84
523.201	688.84
523.656	688.14
524.11	689.24
524.565	688.44
525.019	683.34
525.474	696.74
525.928	691.54
526.382	689.14
526.837	687.04
527.291	702.04
527.745	693.54
528.2	690.94
528.654	683.94
529.108	671.64
529.562	691.64
530.016	682.44
530.47	689.64
530.925	683.14
531.379	695.54
531.833	699.04
532.287	688.74
532.741	687.44
533.195	700.14
533.649	703.04
534.103	704.34
534.556	699.04
535.01	696.24
535.464	697.54
535.918	710.54
536.372	709.34
536.826	708.44
537.279	688.74
537.733	698.64
538.187	703.94
538.64	705.74
539.094	711.84
539.548	724.14
540.001	712.04
540.455	716.44
540.908	726.24
541.362	726.04
541.815	744.14
542.269	758.84
542.722	765.84
543.175	758.74
543.629	766.54
544.082	781.54
544.536	781.94
544.989	776.74
545.442	788.94
545.895	783.04
546.349	775.14
546.802	786.54
547.255	779.24
547.708	801.04
548.161	806.64
548.614	812.74
549.067	814.54
549.52	808.74
549.973	798.34
550.426	798.34
550.879	785.84
551.332	782.54
551.785	806.24
552.238	798.44
552.691	815.44
553.144	825.14
553.596	834.74
554.049	856.04
554.502	885.74
554.955	909.04
555.407	901.34
555.86	891.64
556.313	879.24
556.765	873.74
557.218	870.34
557.67	860.54
558.123	866.64
558.576	858.94
559.028	867.44
559.48	867.34
559.933	871.24
560.385	828.34
560.838	797.04
561.29	778.84
561.742	772.44
562.195	762.34
562.647	762.44
563.099	776.04
563.551	763.84
564.004	775.44
564.456	770.44
564.908	762.14
565.36	738.04
565.812	728.24
566.264	723.54
566.716	734.44
567.168	708.64
567.62	722.54
568.072	706.24
568.524	686.94
568.976	692.94
569.428	672.24
569.88	663.54
570.332	675.64
570.784	682.24
571.235	678.64
571.687	688.24
572.139	700.24
572.59	709.74
573.042	710.24
573.494	709.24
573.945	710.24
574.397	683.44
574.849	685.04
575.3	681.74
575.752	679.24
576.203	669.74
576.655	682.54
577.106	660.14
577.557	669.14
578.009	665.84
578.46	656.74
578.912	658.24
579.363	666.24
579.814	657.24
580.265	654.64
580.717	664.84
581.168	670.04
581.619	672.64
582.07	673.74
582.521	668.04
582.972	673.84
583.423	671.84
583.875	681.24
584.326	703.24
584.777	752.14
585.227	828.74
585.678	929.04
586.129	1016.44
586.58	1081.94
587.031	1176.14
587.482	1320.14
587.933	1511.74
588.384	1309.84
588.834	965.94
589.285	815.84
589.736	772.64
590.186	773.14
590.637	753.44
591.088	741.64
591.538	739.74
591.989	733.04
592.439	726.24
592.89	718.54
593.34	703.44
593.791	706.64
594.241	703.54
594.692	705.14
595.142	702.54
595.593	702.14
596.043	702.04
596.493	712.74
596.943	712.34
597.394	713.14
597.844	711.54
598.294	726.54
598.744	747.94
599.195	778.34
599.645	820.84
600.095	852.64
600.545	919.14
600.995	963.94
601.445	1029.34
601.895	1085.84
602.345	1135.24
602.795	1103.64
603.245	1059.74
603.695	1003.24
604.145	953.14
604.594	911.54
605.044	851.94
605.494	798.44
605.944	752.44
606.393	737.14
606.843	723.34
607.293	737.34
607.743	724.94
608.192	753.14
608.642	755.04
609.091	758.94
609.541	790.14
609.99	774.34
610.44	779.84
610.889	717.14
611.339	702.34
611.788	681.94
612.238	702.04
612.687	721.44
613.136	717.64
613.586	738.04
614.035	734.44
614.484	752.54
614.933	766.94
615.383	740.54
615.832	733.64
616.281	725.84
616.73	693.74
617.179	668.34
617.628	648.64
618.077	633.34
618.526	626.34
618.975	611.84
619.424	620.54
619.873	610.04
620.322	617.64
620.771	603.14
621.22	607.34
621.669	596.74
622.118	588.44
622.567	586.54
623.015	574.44
623.464	570.04
623.913	563.54
624.361	556.94
624.81	559.54
625.259	558.44
625.707	556.54
626.156	548.24
626.604	574.34
627.053	562.24
627.501	558.44
627.95	562.34
628.398	576.84
628.847	562.94
629.295	570.34
629.744	573.04
630.192	565.44
630.64	565.54
631.089	572.74
631.537	587.44
631.985	592.24
632.433	605.74
632.881	610.74
633.33	665.44
633.778	650.14
634.226	568.24
634.674	588.24
635.122	583.04
635.57	601.84
636.018	628.24
636.466	590.24
636.914	560.44
637.362	574.64
637.81	568.54
638.258	578.34
638.705	589.04
639.153	610.34
639.601	613.74
640.049	636.04
640.497	665.24
640.944	695.94
641.392	635.94
641.84	620.44
642.287	581.14
642.735	569.74
643.182	571.24
643.63	578.14
644.078	575.44
644.525	593.64
644.973	594.04
645.42	606.54
645.867	635.14
646.315	639.84
646.762	663.64
647.21	692.94
647.657	712.04
648.104	756.94
648.551	782.84
648.999	855.14
649.446	940.64
649.893	1024.04
650.34	1177.54
650.787	1420.74
651.234	1760.64
651.682	2293.04
652.129	3164.04
652.576	4545.64
653.023	6736.84
653.47	9182.04
653.917	11353.84
654.363	13006.44
654.81	14296.14
655.257	13583.04
655.704	8926.54
656.151	5255.54
656.598	3404.54
657.044	2417.54
657.491	1875.74
657.938	1490.04
658.385	1242.34
658.831	1082.14
659.278	951.04
659.724	857.54
660.171	789.04
660.618	733.04
661.064	691.74
661.511	670.64
661.957	657.74
662.404	648.14
662.85	653.64
663.296	630.04
663.743	565.04
664.189	543.04
664.635	538.84
665.082	526.84
665.528	532.24
665.974	524.94
666.42	508.94
666.867	515.84
667.313	496.54
667.759	489.84
668.205	485.74
668.651	486.74
669.097	486.84
669.543	513.04
669.989	479.34
670.435	456.44
670.881	452.54
671.327	452.44
671.773	481.34
672.219	501.94
672.665	550.24
673.11	594.04
673.556	632.44
674.002	668.14
674.448	647.74
674.893	542.64
675.339	471.84
675.785	445.14
676.23	417.04
676.676	396.64
677.122	383.84
677.567	371.54
678.013	369.94
678.458	366.04
678.904	359.44
679.349	352.34
679.794	359.64
680.24	345.24
680.685	352.14
681.131	345.94
681.576	353.54
682.021	354.14
682.466	344.24
682.912	346.04
683.357	353.34
683.802	386.44
684.247	413.74
684.692	451.24
685.137	493.74
685.583	537.04
686.028	557.04
686.473	522.44
686.918	461.24
687.363	408.64
687.807	400.54
688.252	363.94
688.697	356.94
689.142	329.74
689.587	329.04
690.032	321.24
690.477	339.84
690.921	354.54
691.366	387.64
691.811	404.84
692.255	428.04
692.7	472.74
693.145	508.94
693.589	709.64
694.034	1159.34
694.478	1547.64
694.923	1722.84
695.367	2238.84
695.812	1196.74
696.256	497.74
696.701	375.44
697.145	341.84
697.59	337.54
698.034	323.24
698.478	329.14
698.922	326.74
699.367	331.64
699.811	336.84
700.255	364.54
700.699	384.34
701.143	434.54
701.588	473.84
702.032	518.14
702.476	514.14
702.92	495.44
703.364	508.04
703.808	663.24
704.252	1058.64
704.696	1476.74
705.14	1654.04
705.584	2119.34
706.027	1056.24
706.471	518.74
706.915	400.44
707.359	360.24
707.803	321.64
708.246	312.84
708.69	310.34
709.134	315.14
709.577	317.14
710.021	319.64
710.465	309.44
710.908	296.04
711.352	298.34
711.795	312.44
712.239	357.44
712.682	378.44
713.126	415.14
713.569	466.44
714.012	369.24
714.456	322.44
714.899	296.24
715.342	276.34
715.786	263.94
716.229	257.04
716.672	258.74
717.115	250.94
717.558	252.44
718.002	253.14
718.445	267.34
718.888	288.94
719.331	299.24
719.774	308.84
720.217	299.64
720.66	288.94
721.103	267.94
721.546	255.64
721.989	250.14
722.432	238.64
722.874	231.44
723.317	229.14
723.76	239.54
724.203	258.94
724.645	325.24
725.088	457.44
725.531	583.14
725.974	644.34
726.416	548.14
726.859	308.84
727.301	239.64
727.744	242.14
728.187	236.14
728.629	241.64
729.071	239.94
729.514	250.64
729.956	272.24
730.399	284.54
730.841	291.74
731.283	278.04
731.726	259.04
732.168	269.34
732.61	270.44
733.053	292.04
733.495	312.44
733.937	356.44
734.379	403.14
734.821	444.24
735.263	553.44
735.705	856.54
736.148	1632.34
736.59	2599.54
737.032	3008.24
737.474	2457.34
737.916	808.14
738.357	430.14
738.799	328.44
739.241	304.84
739.683	284.84
740.125	296.04
740.567	296.54
741.008	315.14
741.45	321.84
741.892	323.54
742.334	349.24
742.775	368.14
743.217	340.34
743.658	276.54
744.1	259.14
744.542	257.64
744.983	305.54
745.425	337.64
745.866	344.74
746.307	283.24
746.749	287.14
747.19	328.04
747.632	465.04
748.073	920.54
748.514	1923.44
748.956	2849.04
749.397	3587.64
749.838	2965.14
750.279	2915.44
750.72	1485.24
751.162	547.34
751.603	314.74
752.044	255.24
752.485	216.64
752.926	205.64
753.367	206.54
753.808	197.44
754.249	193.24
754.69	177.34
755.131	183.84
755.572	178.94
756.013	181.64
756.453	182.34
756.894	178.24
757.335	188.94
757.776	198.44
758.216	195.44
758.657	198.44
759.098	208.84
759.538	230.44
759.979	271.94
760.42	382.04
760.86	740.24
761.301	1910.14
761.741	4511.94
762.182	6285.04
