Data from 20171114-ORNL-Ar_H_NY_Subt18_08-06-14-728.txt Node
Date: Tue Nov 14 08:06:14 EST 2017
User: Ender
Spectrometer: HR+D1039
Trigger mode: 0
Integration Time (sec): 2.730000E-2
Scans to average: 10
Electric dark correction enabled: true
Nonlinearity correction enabled: false
Boxcar width: 0
XAxis mode: Wavelengths
Number of Pixels in Spectrum: 2048
>>>>>Begin Spectral Data<<<<<
187.836	-3.16
188.309	-3.16
188.782	-3.16
189.255	0.24
189.728	-0.56
190.201	5.44
190.674	1.04
191.147	5.54
191.619	-9.66
192.092	-1.76
192.565	10.14
193.038	-3.36
193.511	2.04
193.984	-2.96
194.456	-1.56
194.929	1.74
195.402	-3.96
195.874	0.74
196.347	-3.76
196.82	-5.16
197.292	2.14
197.765	1.44
198.237	-2.56
198.71	0.14
199.182	-0.06
199.655	1.34
200.127	2.84
200.6	-0.66
201.072	-9.26
201.544	-1.96
202.017	-1.76
202.489	2.84
202.961	1.54
203.433	-11.26
203.906	-5.16
204.378	-10.56
204.85	5.64
205.322	-4.26
205.794	-0.36
206.266	-1.76
206.739	-7.46
207.211	5.04
207.683	-12.76
208.155	-4.56
208.627	-4.46
209.099	-3.46
209.57	-8.16
210.042	-1.96
210.514	-4.36
210.986	-5.86
211.458	-12.56
211.93	0.94
212.402	2.74
212.873	-6.46
213.345	-16.86
213.817	-8.16
214.288	-1.66
214.76	-6.46
215.232	-0.16
215.703	-1.26
216.175	-3.36
216.646	-8.66
217.118	-2.96
217.589	-7.06
218.061	-4.86
218.532	-4.16
219.004	-1.16
219.475	-4.76
219.946	1.84
220.418	-5.16
220.889	-0.26
221.36	2.14
221.832	2.24
222.303	-8.86
222.774	4.24
223.245	-7.86
223.717	-5.76
224.188	-3.46
224.659	-6.36
225.13	-4.26
225.601	-1.56
226.072	2.64
226.543	-2.26
227.014	0.84
227.485	-3.66
227.956	-4.06
228.427	-4.06
228.898	-3.86
229.369	3.54
229.839	-0.16
230.31	-4.06
230.781	2.14
231.252	5.34
231.722	-4.56
232.193	-4.76
232.664	2.54
233.135	0.04
233.605	2.94
234.076	-3.56
234.546	-6.26
235.017	2.34
235.487	-2.76
235.958	1.74
236.428	-11.56
236.899	1.24
237.369	7.34
237.84	0.04
238.31	6.44
238.78	5.84
239.251	-2.76
239.721	7.04
240.191	0.64
240.662	1.24
241.132	1.14
241.602	-6.66
242.072	4.34
242.542	8.74
243.013	-4.66
243.483	7.14
243.953	3.64
244.423	-2.96
244.893	-4.06
245.363	4.04
245.833	3.64
246.303	2.84
246.773	4.24
247.243	7.74
247.712	5.04
248.182	8.84
248.652	4.14
249.122	-5.16
249.592	15.94
250.061	17.14
250.531	31.04
251.001	17.44
251.471	21.54
251.94	24.94
252.41	10.54
252.879	0.34
253.349	13.94
253.818	9.44
254.288	1.54
254.757	-2.46
255.227	-0.56
255.696	7.54
256.166	5.24
256.635	3.34
257.105	9.64
257.574	10.14
258.043	7.24
258.513	11.04
258.982	22.04
259.451	9.74
259.92	19.24
260.389	8.94
260.859	15.44
261.328	13.64
261.797	21.04
262.266	8.54
262.735	13.04
263.204	7.14
263.673	3.84
264.142	10.04
264.611	0.04
265.08	-1.26
265.549	-1.06
266.018	9.24
266.487	-1.96
266.955	-4.86
267.424	-0.56
267.893	6.74
268.362	-0.56
268.83	4.64
269.299	10.94
269.768	7.84
270.236	11.84
270.705	6.54
271.174	9.34
271.642	7.84
272.111	11.24
272.579	19.44
273.048	21.54
273.516	34.04
273.985	25.84
274.453	22.74
274.922	22.24
275.39	6.74
275.858	9.34
276.327	11.24
276.795	15.64
277.263	8.84
277.731	31.14
278.2	60.94
278.668	56.34
279.136	49.54
279.604	18.14
280.072	13.84
280.54	12.74
281.008	17.44
281.477	11.54
281.945	12.54
282.413	15.14
282.881	17.14
283.348	9.64
283.816	13.34
284.284	17.64
284.752	18.74
285.22	17.94
285.688	10.74
286.156	20.04
286.623	47.04
287.091	56.84
287.559	27.04
288.026	22.74
288.494	21.34
288.962	1.24
289.429	7.74
289.897	15.24
290.364	19.54
290.832	16.94
291.3	11.94
291.767	18.84
292.234	21.04
292.702	9.74
293.169	18.34
293.637	22.14
294.104	20.04
294.571	9.54
295.039	10.04
295.506	20.04
295.973	17.24
296.44	15.14
296.908	20.34
297.375	14.34
297.842	22.74
298.309	20.74
298.776	20.84
299.243	25.54
299.71	12.34
300.177	18.54
300.644	25.34
301.111	25.44
301.578	24.84
302.045	20.54
302.512	22.44
302.979	28.64
303.446	25.94
303.913	20.34
304.379	23.94
304.846	31.24
305.313	24.84
305.78	23.64
306.246	27.44
306.713	25.24
307.18	33.64
307.646	30.34
308.113	29.24
308.579	24.44
309.046	23.84
309.512	27.14
309.979	20.54
310.445	28.84
310.912	27.84
311.378	34.34
311.845	33.44
312.311	32.44
312.777	36.24
313.244	35.84
313.71	39.84
314.176	35.94
314.642	34.24
315.109	36.34
315.575	41.54
316.041	37.44
316.507	35.54
316.973	33.74
317.439	33.44
317.905	39.04
318.371	37.74
318.837	35.24
319.303	33.84
319.769	35.94
320.235	38.54
320.701	34.84
321.167	37.24
321.633	35.84
322.099	37.34
322.564	46.04
323.03	40.84
323.496	39.44
323.962	44.04
324.427	37.14
324.893	43.74
325.359	40.84
325.824	43.64
326.29	34.24
326.755	40.64
327.221	44.04
327.686	44.64
328.152	50.64
328.617	45.24
329.083	54.64
329.548	55.54
330.014	45.14
330.479	36.34
330.944	43.24
331.41	44.74
331.875	43.04
332.34	51.64
332.805	45.84
333.271	55.94
333.736	47.24
334.201	54.94
334.666	57.74
335.131	53.74
335.596	50.54
336.061	50.94
336.526	44.24
336.991	54.94
337.456	63.74
337.921	43.64
338.386	50.84
338.851	44.54
339.316	50.24
339.781	51.74
340.246	59.14
340.711	46.84
341.175	56.44
341.64	44.54
342.105	51.34
342.569	58.94
343.034	60.54
343.499	61.64
343.963	57.54
344.428	65.14
344.893	65.24
345.357	67.04
345.822	65.54
346.286	67.64
346.751	75.64
347.215	67.14
347.679	80.44
348.144	100.04
348.608	83.14
349.073	72.34
349.537	78.84
350.001	84.24
350.465	93.84
350.93	82.74
351.394	80.14
351.858	78.24
352.322	84.64
352.786	96.84
353.25	108.64
353.715	119.24
354.179	107.84
354.643	128.24
355.107	133.24
355.571	113.54
356.035	114.04
356.498	123.94
356.962	126.04
357.426	138.74
357.89	126.04
358.354	93.64
358.818	88.94
359.281	89.24
359.745	83.44
360.209	86.24
360.673	78.34
361.136	81.74
361.6	85.94
362.064	87.44
362.527	89.74
362.991	83.14
363.454	85.44
363.918	79.64
364.381	86.84
364.845	86.34
365.308	95.04
365.772	83.64
366.235	93.04
366.698	84.94
367.162	91.44
367.625	92.44
368.088	86.24
368.552	96.24
369.015	100.44
369.478	96.74
369.941	107.64
370.404	99.24
370.867	113.94
371.331	110.14
371.794	127.74
372.257	115.24
372.72	120.34
373.183	113.84
373.646	111.04
374.109	107.74
374.572	112.94
375.035	115.14
375.497	115.94
375.96	114.84
376.423	108.04
376.886	120.44
377.349	120.34
377.811	105.14
378.274	113.24
378.737	114.34
379.199	119.44
379.662	113.94
380.125	126.64
380.587	131.94
381.05	135.14
381.512	135.34
381.975	140.14
382.437	136.94
382.9	135.64
383.362	138.54
383.825	148.44
384.287	160.54
384.75	148.94
385.212	147.14
385.674	144.54
386.136	139.64
386.599	133.54
387.061	135.94
387.523	136.94
387.985	136.54
388.447	156.14
388.91	153.24
389.372	176.74
389.834	162.14
390.296	148.94
390.758	162.74
391.22	177.64
391.682	223.14
392.144	310.94
392.606	239.54
393.068	173.84
393.529	166.34
393.991	161.64
394.453	157.34
394.915	165.04
395.377	197.64
395.838	220.14
396.3	157.34
396.762	148.24
397.224	135.54
397.685	139.84
398.147	139.14
398.608	134.94
399.07	127.24
399.531	141.44
399.993	148.44
400.454	155.84
400.916	151.24
401.377	149.54
401.839	159.24
402.3	157.34
402.762	170.84
403.223	183.64
403.684	178.44
404.145	171.14
404.607	169.34
405.068	173.94
405.529	179.34
405.99	200.34
406.451	181.34
406.913	177.94
407.374	171.74
407.835	165.84
408.296	167.24
408.757	181.54
409.218	193.44
409.679	182.64
410.14	186.64
410.601	186.64
411.062	194.54
411.522	200.14
411.983	205.04
412.444	186.34
412.905	192.34
413.366	185.74
413.826	203.94
414.287	231.84
414.748	269.04
415.208	257.54
415.669	218.74
416.13	210.34
416.59	210.54
417.051	220.74
417.511	229.14
417.972	247.84
418.432	255.44
418.893	296.94
419.353	260.84
419.814	207.24
420.274	190.94
420.734	188.04
421.195	210.04
421.655	204.04
422.115	199.54
422.576	205.44
423.036	207.04
423.496	228.04
423.956	223.24
424.416	243.74
424.876	271.34
425.336	272.24
425.797	271.74
426.257	266.64
426.717	254.24
427.177	235.04
427.637	239.24
428.097	243.34
428.556	253.74
429.016	277.24
429.476	275.84
429.936	287.64
430.396	294.14
430.856	310.54
431.315	336.24
431.775	370.74
432.235	400.84
432.694	369.34
433.154	373.54
433.614	409.94
434.073	359.24
434.533	304.54
434.993	281.64
435.452	294.14
435.912	311.14
436.371	301.64
436.83	300.24
437.29	282.14
437.749	258.84
438.209	257.24
438.668	285.84
439.127	300.14
439.587	271.54
440.046	265.44
440.505	275.04
440.964	292.14
441.424	338.74
441.883	321.94
442.342	271.74
442.801	235.54
443.26	230.84
443.719	233.74
444.178	229.44
444.637	215.44
445.096	234.64
445.555	228.74
446.014	233.94
446.473	234.04
446.932	249.34
447.391	229.84
447.849	239.24
448.308	222.64
448.767	222.44
449.226	248.44
449.685	247.44
450.143	254.04
450.602	240.44
451.061	234.74
451.519	240.34
451.978	244.54
452.436	244.64
452.895	253.64
453.353	265.44
453.812	253.24
454.27	250.34
454.729	246.14
455.187	255.64
455.646	253.54
456.104	257.04
456.562	271.64
457.021	279.94
457.479	270.24
457.937	287.94
458.395	275.44
458.854	249.34
459.312	266.74
459.77	289.84
460.228	271.24
460.686	256.04
461.144	262.54
461.602	259.24
462.06	254.84
462.518	255.54
462.976	268.44
463.434	268.34
463.892	265.84
464.35	287.24
464.808	304.64
465.266	271.24
465.724	278.34
466.181	282.44
466.639	282.24
467.097	301.84
467.555	311.04
468.012	308.34
468.47	323.84
468.928	341.84
469.385	352.44
469.843	360.24
470.3	364.94
470.758	374.14
471.215	396.34
471.673	415.54
472.13	422.14
472.588	437.64
473.045	396.44
473.503	384.44
473.96	405.24
474.417	419.94
474.875	448.44
475.332	484.24
475.789	475.84
476.246	484.34
476.704	509.34
477.161	525.34
477.618	539.24
478.075	587.74
478.532	644.84
478.989	723.24
479.446	830.14
479.903	805.14
480.36	836.24
480.817	903.94
481.274	1017.14
481.731	1123.74
482.188	1220.04
482.645	1356.84
483.102	1480.74
483.558	1612.74
484.015	1662.14
484.472	1637.14
484.929	1579.34
485.385	1540.84
485.842	1503.44
486.299	1426.54
486.755	1357.24
487.212	1139.64
487.668	960.74
488.125	892.44
488.582	803.14
489.038	782.84
489.494	738.34
489.951	716.04
490.407	690.74
490.864	671.74
491.32	673.54
491.776	674.34
492.233	673.54
492.689	636.34
493.145	627.74
493.602	615.84
494.058	646.94
494.514	641.14
494.97	664.34
495.426	667.64
495.882	638.24
496.338	631.74
496.794	643.24
497.251	631.04
497.707	657.24
498.163	657.94
498.618	667.34
499.074	664.24
499.53	699.64
499.986	703.54
500.442	681.04
500.898	659.74
501.354	647.84
501.809	657.44
502.265	660.24
502.721	681.74
503.177	700.64
503.632	688.04
504.088	698.04
504.543	742.84
504.999	738.74
505.455	679.44
505.91	656.84
506.366	661.54
506.821	650.54
507.277	643.44
507.732	644.54
508.187	643.14
508.643	652.74
509.098	667.14
509.553	682.34
510.009	679.94
510.464	700.44
510.919	707.44
511.375	720.24
511.83	733.64
512.285	750.04
512.74	783.04
513.195	815.54
513.65	793.24
514.105	797.24
514.56	794.44
515.015	814.14
515.47	829.44
515.925	805.04
516.38	813.64
516.835	815.74
517.29	808.84
517.745	792.74
518.2	791.14
518.655	765.84
519.109	770.64
519.564	762.94
520.019	758.14
520.474	742.54
520.928	741.04
521.383	745.44
521.838	734.34
522.292	727.54
522.747	728.64
523.201	722.04
523.656	709.54
524.11	721.14
524.565	711.64
525.019	716.04
525.474	715.94
525.928	718.64
526.382	728.94
526.837	728.24
527.291	717.44
527.745	719.14
528.2	719.24
528.654	706.14
529.108	709.84
529.562	709.74
530.016	715.74
530.47	712.74
530.925	716.64
531.379	717.34
531.833	731.24
532.287	721.54
532.741	735.94
533.195	724.74
533.649	737.24
534.103	743.44
534.556	736.04
535.01	735.14
535.464	722.44
535.918	742.84
536.372	747.04
536.826	734.34
537.279	729.34
537.733	734.44
538.187	740.14
538.64	734.34
539.094	750.64
539.548	745.44
540.001	740.14
540.455	748.04
540.908	748.54
541.362	757.84
541.815	766.44
542.269	783.74
542.722	784.64
543.175	794.64
543.629	794.24
544.082	810.64
544.536	805.54
544.989	806.94
545.442	812.34
545.895	813.44
546.349	816.04
546.802	814.84
547.255	811.94
547.708	830.64
548.161	841.44
548.614	846.34
549.067	852.34
549.52	844.94
549.973	838.04
550.426	845.04
550.879	822.64
551.332	818.24
551.785	834.54
552.238	835.14
552.691	832.24
553.144	849.24
553.596	869.34
554.049	886.14
554.502	916.64
554.955	928.74
555.407	944.64
555.86	915.74
556.313	927.24
556.765	923.54
557.218	913.44
557.67	907.14
558.123	897.64
558.576	900.84
559.028	893.64
559.48	896.94
559.933	890.84
560.385	865.94
560.838	829.64
561.29	809.34
561.742	799.84
562.195	782.94
562.647	780.74
563.099	785.84
563.551	792.34
564.004	808.44
564.456	793.64
564.908	781.14
565.36	767.34
565.812	748.94
566.264	748.04
566.716	744.64
567.168	735.84
567.62	745.24
568.072	714.64
568.524	714.74
568.976	705.04
569.428	691.74
569.88	694.54
570.332	700.14
570.784	696.14
571.235	691.64
571.687	710.94
572.139	720.94
572.59	725.44
573.042	727.84
573.494	730.84
573.945	718.14
574.397	707.34
574.849	703.14
575.3	700.04
575.752	707.34
576.203	694.94
576.655	705.34
577.106	695.34
577.557	683.64
578.009	691.24
578.46	683.94
578.912	678.24
579.363	677.84
579.814	688.94
580.265	671.54
580.717	689.34
581.168	682.84
581.619	693.54
582.07	691.14
582.521	695.24
582.972	681.24
583.423	693.94
583.875	709.24
584.326	708.94
584.777	765.04
585.227	848.24
585.678	927.54
586.129	1020.14
586.58	1103.34
587.031	1193.44
587.482	1360.54
587.933	1529.84
588.384	1344.34
588.834	999.54
589.285	821.94
589.736	805.84
590.186	794.54
590.637	783.34
591.088	756.34
591.538	752.04
591.989	743.54
592.439	743.04
592.89	732.84
593.34	731.24
593.791	725.24
594.241	721.24
594.692	719.84
595.142	711.84
595.593	719.04
596.043	731.94
596.493	725.04
596.943	721.74
597.394	737.84
597.844	724.04
598.294	740.84
598.744	769.24
599.195	793.44
599.645	826.14
600.095	870.34
600.545	931.74
600.995	981.44
601.445	1046.04
601.895	1113.44
602.345	1146.84
602.795	1125.24
603.245	1074.84
603.695	1031.54
604.145	982.84
604.594	930.54
605.044	872.84
605.494	819.34
605.944	760.04
606.393	765.34
606.843	745.14
607.293	742.04
607.743	745.74
608.192	761.84
608.642	778.94
609.091	784.94
609.541	788.14
609.99	788.54
610.44	791.54
610.889	737.04
611.339	718.84
611.788	696.44
612.238	712.84
612.687	725.64
613.136	733.54
613.586	749.34
614.035	751.64
614.484	772.44
614.933	772.54
615.383	769.84
615.832	743.54
616.281	742.84
616.73	704.34
617.179	684.94
617.628	664.74
618.077	653.24
618.526	634.64
618.975	625.14
619.424	627.24
619.873	622.24
620.322	630.44
620.771	614.64
621.22	618.24
621.669	599.84
622.118	602.24
622.567	595.84
623.015	574.74
623.464	581.24
623.913	564.84
624.361	559.54
624.81	563.34
625.259	560.94
625.707	555.54
626.156	563.84
626.604	579.94
627.053	571.64
627.501	564.84
627.95	574.24
628.398	587.94
628.847	579.34
629.295	582.44
629.744	584.34
630.192	575.54
630.64	578.04
631.089	574.14
631.537	593.24
631.985	601.24
632.433	609.14
632.881	617.14
633.33	678.04
633.778	650.24
634.226	574.64
634.674	578.34
635.122	586.14
635.57	605.64
636.018	629.84
636.466	588.64
636.914	580.34
637.362	579.64
637.81	583.54
638.258	591.84
638.705	579.14
639.153	613.44
639.601	622.34
640.049	654.44
640.497	677.64
640.944	708.54
641.392	654.94
641.84	612.44
642.287	597.54
642.735	583.54
643.182	579.54
643.63	580.64
644.078	588.64
644.525	604.84
644.973	604.24
645.42	612.44
645.867	627.14
646.315	649.64
646.762	666.84
647.21	704.64
647.657	723.54
648.104	757.84
648.551	772.74
648.999	846.94
649.446	923.74
649.893	1027.84
650.34	1187.84
650.787	1416.74
651.234	1739.64
651.682	2282.44
652.129	3136.94
652.576	4533.34
653.023	6698.44
653.47	9165.04
653.917	11495.84
654.363	13286.94
654.81	14649.84
655.257	13926.84
655.704	9148.04
656.151	5408.24
656.598	3500.54
657.044	2457.44
657.491	1900.14
657.938	1522.54
658.385	1267.24
658.831	1098.24
659.278	980.14
659.724	868.84
660.171	791.84
660.618	733.84
661.064	699.74
661.511	676.24
661.957	663.44
662.404	651.24
662.85	664.14
663.296	632.24
663.743	564.84
664.189	550.14
664.635	538.34
665.082	534.44
665.528	537.14
665.974	523.44
666.42	519.64
666.867	514.44
667.313	500.74
667.759	497.34
668.205	488.84
668.651	489.04
669.097	493.54
669.543	511.74
669.989	471.84
670.435	456.44
670.881	448.54
671.327	460.04
671.773	474.14
672.219	498.74
672.665	538.44
673.11	583.44
673.556	637.64
674.002	673.54
674.448	645.84
674.893	546.94
675.339	473.04
675.785	434.94
676.23	426.14
676.676	394.64
677.122	387.04
677.567	371.84
678.013	365.44
678.458	363.74
678.904	363.24
679.349	350.14
679.794	348.94
680.24	352.84
680.685	346.44
681.131	358.24
681.576	355.94
682.021	357.54
682.466	354.44
682.912	350.14
683.357	351.54
683.802	384.24
684.247	413.64
684.692	447.24
685.137	493.04
685.583	532.54
686.028	566.04
686.473	524.84
686.918	451.54
687.363	412.44
687.807	390.74
688.252	370.64
688.697	361.94
689.142	339.84
689.587	330.54
690.032	325.44
690.477	341.04
690.921	356.84
691.366	378.44
691.811	398.84
692.255	435.04
692.7	466.14
693.145	503.94
693.589	703.54
694.034	1128.54
694.478	1529.34
694.923	1742.14
695.367	2274.24
695.812	1201.74
696.256	497.44
696.701	373.64
697.145	356.74
697.59	326.84
698.034	319.94
698.478	322.14
698.922	319.84
699.367	327.84
699.811	343.34
700.255	359.04
700.699	387.24
701.143	428.14
701.588	485.44
702.032	520.94
702.476	515.44
702.92	491.84
703.364	496.34
703.808	630.74
704.252	1033.54
704.696	1442.44
705.14	1674.24
705.584	2124.04
706.027	1052.44
706.471	525.24
706.915	398.94
707.359	347.54
707.803	312.24
708.246	310.74
708.69	311.14
709.134	312.14
709.577	314.04
710.021	322.94
710.465	307.94
710.908	303.04
711.352	298.84
711.795	316.34
712.239	350.24
712.682	387.64
713.126	416.34
713.569	464.54
714.012	378.24
714.456	330.64
714.899	303.44
715.342	277.04
715.786	260.34
716.229	256.64
716.672	251.04
717.115	251.64
717.558	249.84
718.002	251.44
718.445	259.64
718.888	290.54
719.331	294.34
719.774	314.04
720.217	303.94
720.66	279.74
721.103	271.34
721.546	250.04
721.989	254.34
722.432	225.34
722.874	235.14
723.317	231.34
723.76	230.24
724.203	262.84
724.645	324.24
725.088	440.64
725.531	576.44
725.974	642.24
726.416	549.34
726.859	306.74
727.301	241.24
727.744	240.84
728.187	233.24
728.629	239.14
729.071	241.24
729.514	262.84
729.956	273.04
730.399	281.24
730.841	286.64
731.283	265.94
731.726	266.64
732.168	258.24
732.61	269.24
733.053	288.94
733.495	315.14
733.937	355.24
734.379	399.24
734.821	436.54
735.263	537.14
735.705	830.24
736.148	1554.94
736.59	2567.04
737.032	3067.34
737.474	2479.54
737.916	811.84
738.357	425.04
738.799	320.54
739.241	300.34
739.683	286.44
740.125	286.44
740.567	299.84
741.008	314.04
741.45	319.04
741.892	318.94
742.334	344.74
742.775	358.04
743.217	334.64
743.658	271.84
744.1	249.14
744.542	259.14
744.983	306.34
745.425	342.94
745.866	350.64
746.307	285.24
746.749	288.54
747.19	323.84
747.632	448.34
748.073	862.34
748.514	1835.24
748.956	2834.14
749.397	3553.94
749.838	2951.54
750.279	2972.84
750.72	1496.44
751.162	543.84
751.603	317.24
752.044	252.64
752.485	221.54
752.926	211.64
753.367	204.84
753.808	196.34
754.249	192.94
754.69	188.74
755.131	183.14
755.572	181.84
756.013	174.94
756.453	190.24
756.894	195.04
757.335	190.14
757.776	192.74
758.216	194.04
758.657	204.84
759.098	200.14
759.538	224.94
759.979	267.24
760.42	370.04
760.86	695.54
761.301	1783.84
761.741	4372.24
762.182	6379.64
