Data from 20171114-ORNL-Ar_H_NY_Subt18_08-04-40-279.txt Node
Date: Tue Nov 14 08:04:40 EST 2017
User: Ender
Spectrometer: HR+D1039
Trigger mode: 0
Integration Time (sec): 2.730000E-2
Scans to average: 10
Electric dark correction enabled: true
Nonlinearity correction enabled: false
Boxcar width: 0
XAxis mode: Wavelengths
Number of Pixels in Spectrum: 2048
>>>>>Begin Spectral Data<<<<<
187.836	-5.25
188.309	-5.25
188.782	-5.25
189.255	1.35
189.728	-2.35
190.201	3.85
190.674	-2.45
191.147	1.65
191.619	-8.75
192.092	-1.65
192.565	4.25
193.038	1.15
193.511	-0.95
193.984	5.65
194.456	-0.35
194.929	0.95
195.402	0.05
195.874	2.85
196.347	-3.85
196.82	-6.65
197.292	9.55
197.765	-4.95
198.237	-7.25
198.71	-0.15
199.182	-5.55
199.655	3.75
200.127	4.85
200.6	-5.05
201.072	-2.65
201.544	-1.25
202.017	-5.05
202.489	1.75
202.961	-0.95
203.433	-1.05
203.906	-6.15
204.378	-7.45
204.85	-2.75
205.322	-8.75
205.794	-2.75
206.266	-11.75
206.739	-4.65
207.211	1.45
207.683	-6.75
208.155	-3.15
208.627	-4.85
209.099	-1.05
209.57	-0.65
210.042	-2.55
210.514	-3.15
210.986	-1.15
211.458	-11.45
211.93	-0.15
212.402	-1.15
212.873	-8.35
213.345	-9.85
213.817	-10.75
214.288	-6.05
214.76	-4.65
215.232	-0.95
215.703	-3.85
216.175	1.45
216.646	-3.75
217.118	-2.75
217.589	-4.45
218.061	-3.85
218.532	-9.25
219.004	-11.45
219.475	-6.15
219.946	-2.15
220.418	-2.65
220.889	-3.65
221.36	1.05
221.832	-6.35
222.303	-10.55
222.774	-1.25
223.245	-7.25
223.717	-4.85
224.188	-2.05
224.659	-5.75
225.13	-3.05
225.601	-4.65
226.072	-1.05
226.543	-2.85
227.014	-2.75
227.485	0.05
227.956	-4.35
228.427	-2.95
228.898	3.95
229.369	4.95
229.839	-6.25
230.31	-1.65
230.781	7.95
231.252	-0.65
231.722	-4.25
232.193	-6.85
232.664	-0.55
233.135	0.75
233.605	5.85
234.076	-3.85
234.546	0.55
235.017	5.35
235.487	-0.65
235.958	-2.25
236.428	-3.25
236.899	1.55
237.369	6.85
237.84	-3.05
238.31	4.05
238.78	1.55
239.251	9.85
239.721	3.45
240.191	0.15
240.662	1.15
241.132	2.05
241.602	-2.35
242.072	3.75
242.542	8.65
243.013	-1.35
243.483	8.75
243.953	10.55
244.423	3.45
244.893	4.85
245.363	5.95
245.833	2.85
246.303	3.05
246.773	12.25
247.243	2.45
247.712	6.75
248.182	7.65
248.652	11.55
249.122	0.85
249.592	12.25
250.061	22.95
250.531	31.65
251.001	19.95
251.471	17.05
251.94	28.55
252.41	9.35
252.879	2.95
253.349	12.35
253.818	8.65
254.288	10.45
254.757	5.75
255.227	0.95
255.696	4.55
256.166	4.85
256.635	3.95
257.105	2.05
257.574	7.35
258.043	4.25
258.513	11.35
258.982	16.05
259.451	5.95
259.92	12.35
260.389	16.65
260.859	19.35
261.328	14.75
261.797	15.65
262.266	2.55
262.735	17.55
263.204	11.05
263.673	4.75
264.142	3.35
264.611	-1.25
265.08	-2.35
265.549	4.65
266.018	0.15
266.487	-2.05
266.955	-1.05
267.424	4.05
267.893	9.55
268.362	4.65
268.83	1.25
269.299	9.05
269.768	12.55
270.236	11.85
270.705	7.05
271.174	1.95
271.642	5.15
272.111	12.35
272.579	19.05
273.048	22.25
273.516	26.45
273.985	21.25
274.453	28.25
274.922	25.05
275.39	15.55
275.858	4.15
276.327	15.25
276.795	17.35
277.263	14.05
277.731	28.45
278.2	58.25
278.668	56.45
279.136	55.55
279.604	23.65
280.072	10.05
280.54	13.75
281.008	11.65
281.477	15.55
281.945	9.45
282.413	15.75
282.881	22.55
283.348	15.15
283.816	16.35
284.284	17.85
284.752	26.35
285.22	15.35
285.688	19.25
286.156	20.75
286.623	51.35
287.091	57.85
287.559	28.75
288.026	20.75
288.494	15.15
288.962	7.05
289.429	9.55
289.897	19.75
290.364	12.95
290.832	15.75
291.3	17.05
291.767	20.75
292.234	19.65
292.702	18.85
293.169	24.25
293.637	19.15
294.104	19.85
294.571	10.15
295.039	15.25
295.506	9.45
295.973	17.05
296.44	15.45
296.908	15.25
297.375	17.35
297.842	23.15
298.309	17.65
298.776	7.75
299.243	22.95
299.71	11.45
300.177	23.25
300.644	19.65
301.111	17.75
301.578	25.65
302.045	17.25
302.512	24.85
302.979	22.25
303.446	22.35
303.913	18.95
304.379	17.75
304.846	26.95
305.313	28.55
305.78	27.35
306.246	28.25
306.713	28.75
307.18	25.25
307.646	29.05
308.113	28.85
308.579	30.35
309.046	27.35
309.512	29.95
309.979	16.95
310.445	28.65
310.912	32.15
311.378	29.35
311.845	32.95
312.311	29.15
312.777	37.15
313.244	34.75
313.71	38.25
314.176	34.45
314.642	37.65
315.109	33.05
315.575	35.05
316.041	45.05
316.507	35.05
316.973	43.65
317.439	34.85
317.905	38.45
318.371	36.65
318.837	32.65
319.303	38.45
319.769	38.25
320.235	35.55
320.701	42.75
321.167	42.65
321.633	37.75
322.099	46.95
322.564	43.75
323.03	43.15
323.496	36.25
323.962	42.25
324.427	43.05
324.893	42.35
325.359	40.35
325.824	33.65
326.29	39.55
326.755	36.75
327.221	41.15
327.686	40.65
328.152	46.85
328.617	42.75
329.083	43.65
329.548	54.85
330.014	45.35
330.479	43.15
330.944	40.25
331.41	36.55
331.875	44.65
332.34	41.75
332.805	38.25
333.271	46.15
333.736	49.95
334.201	49.85
334.666	51.15
335.131	44.35
335.596	56.55
336.061	46.45
336.526	39.65
336.991	47.25
337.456	56.95
337.921	53.25
338.386	41.95
338.851	45.35
339.316	47.15
339.781	46.85
340.246	46.75
340.711	43.25
341.175	51.15
341.64	43.75
342.105	57.55
342.569	55.45
343.034	59.45
343.499	53.65
343.963	56.15
344.428	64.25
344.893	58.75
345.357	60.35
345.822	59.45
346.286	67.55
346.751	69.55
347.215	71.75
347.679	76.55
348.144	102.45
348.608	84.95
349.073	72.05
349.537	74.95
350.001	74.75
350.465	86.45
350.93	81.35
351.394	85.25
351.858	72.65
352.322	85.15
352.786	86.65
353.25	93.35
353.715	106.85
354.179	102.25
354.643	118.55
355.107	126.45
355.571	102.25
356.035	98.15
356.498	115.25
356.962	114.35
357.426	126.45
357.89	111.95
358.354	86.95
358.818	83.75
359.281	79.25
359.745	78.55
360.209	72.35
360.673	81.25
361.136	77.75
361.6	82.65
362.064	83.15
362.527	83.25
362.991	90.75
363.454	73.25
363.918	73.65
364.381	77.35
364.845	81.25
365.308	84.65
365.772	80.15
366.235	81.45
366.698	80.65
367.162	83.75
367.625	78.85
368.088	89.55
368.552	84.05
369.015	84.95
369.478	88.85
369.941	99.95
370.404	95.75
370.867	106.15
371.331	107.15
371.794	112.15
372.257	97.45
372.72	110.55
373.183	103.45
373.646	103.55
374.109	99.85
374.572	103.75
375.035	102.05
375.497	97.25
375.96	98.35
376.423	100.65
376.886	110.65
377.349	110.15
377.811	94.25
378.274	102.05
378.737	98.45
379.199	111.05
379.662	108.25
380.125	113.95
380.587	115.85
381.05	119.35
381.512	119.35
381.975	124.65
382.437	122.55
382.9	121.15
383.362	123.05
383.825	132.95
384.287	135.95
384.75	142.25
385.212	134.85
385.674	132.15
386.136	130.95
386.599	115.85
387.061	118.25
387.523	123.55
387.985	129.45
388.447	134.75
388.91	131.65
389.372	148.05
389.834	134.15
390.296	131.95
390.758	148.55
391.22	155.65
391.682	197.55
392.144	275.35
392.606	213.75
393.068	161.75
393.529	162.15
393.991	148.55
394.453	139.35
394.915	149.85
395.377	180.15
395.838	197.75
396.3	144.75
396.762	130.65
397.224	125.95
397.685	119.35
398.147	126.25
398.608	117.05
399.07	125.05
399.531	127.35
399.993	142.35
400.454	146.45
400.916	137.95
401.377	139.15
401.839	141.05
402.3	142.05
402.762	158.95
403.223	166.95
403.684	165.55
404.145	150.35
404.607	149.45
405.068	161.35
405.529	161.75
405.99	175.25
406.451	166.35
406.913	160.95
407.374	151.05
407.835	141.35
408.296	160.45
408.757	161.75
409.218	171.35
409.679	171.05
410.14	167.85
410.601	165.75
411.062	169.15
411.522	181.95
411.983	174.85
412.444	164.15
412.905	168.35
413.366	173.05
413.826	182.35
414.287	207.15
414.748	249.35
415.208	226.65
415.669	206.85
416.13	192.95
416.59	187.45
417.051	192.85
417.511	212.55
417.972	220.95
418.432	236.65
418.893	273.55
419.353	238.55
419.814	186.55
420.274	175.35
420.734	169.25
421.195	186.15
421.655	190.65
422.115	172.45
422.576	169.85
423.036	181.25
423.496	198.65
423.956	208.85
424.416	217.75
424.876	251.65
425.336	242.85
425.797	246.75
426.257	238.25
426.717	225.35
427.177	215.15
427.637	209.75
428.097	226.25
428.556	230.15
429.016	251.35
429.476	244.55
429.936	260.15
430.396	260.75
430.856	267.35
431.315	292.75
431.775	335.15
432.235	352.55
432.694	331.55
433.154	339.85
433.614	362.95
434.073	321.15
434.533	262.25
434.993	257.45
435.452	264.45
435.912	276.95
436.371	263.55
436.83	257.55
437.29	253.25
437.749	225.35
438.209	231.35
438.668	255.05
439.127	273.85
439.587	252.45
440.046	233.75
440.505	242.15
440.964	264.05
441.424	303.55
441.883	286.25
442.342	240.95
442.801	205.25
443.26	203.85
443.719	207.75
444.178	206.05
444.637	200.55
445.096	203.15
445.555	205.35
446.014	210.35
446.473	209.75
446.932	214.85
447.391	209.75
447.849	213.85
448.308	206.35
448.767	204.55
449.226	215.65
449.685	223.75
450.143	231.25
450.602	223.95
451.061	211.25
451.519	213.05
451.978	217.55
452.436	224.15
452.895	221.75
453.353	236.55
453.812	225.95
454.27	222.15
454.729	220.95
455.187	222.35
455.646	229.75
456.104	230.15
456.562	239.75
457.021	242.45
457.479	238.75
457.937	247.45
458.395	239.55
458.854	238.55
459.312	240.35
459.77	256.05
460.228	241.15
460.686	229.85
461.144	231.95
461.602	223.35
462.06	222.85
462.518	235.45
462.976	240.95
463.434	244.85
463.892	249.65
464.35	263.95
464.808	270.95
465.266	247.75
465.724	259.85
466.181	261.95
466.639	253.15
467.097	272.05
467.555	281.95
468.012	288.65
468.47	288.35
468.928	308.45
469.385	318.85
469.843	328.95
470.3	326.55
470.758	329.35
471.215	354.35
471.673	377.25
472.13	379.25
472.588	380.65
473.045	342.85
473.503	354.05
473.96	375.45
474.417	376.05
474.875	405.95
475.332	443.85
475.789	436.05
476.246	440.75
476.704	452.85
477.161	480.25
477.618	480.55
478.075	518.65
478.532	574.65
478.989	639.65
479.446	746.45
479.903	727.85
480.36	768.85
480.817	813.65
481.274	903.15
481.731	1007.65
482.188	1089.35
482.645	1235.05
483.102	1326.15
483.558	1448.65
484.015	1507.65
484.472	1480.95
484.929	1441.55
485.385	1399.65
485.842	1357.35
486.299	1290.85
486.755	1227.35
487.212	1031.45
487.668	871.25
488.125	797.15
488.582	729.05
489.038	707.05
489.494	674.05
489.951	647.45
490.407	636.95
490.864	610.15
491.32	598.95
491.776	602.65
492.233	598.25
492.689	577.05
493.145	562.75
493.602	551.65
494.058	571.25
494.514	573.35
494.97	593.45
495.426	607.25
495.882	580.55
496.338	573.45
496.794	590.75
497.251	574.15
497.707	600.75
498.163	600.85
498.618	604.85
499.074	605.25
499.53	638.15
499.986	634.25
500.442	610.95
500.898	588.95
501.354	584.35
501.809	606.65
502.265	609.55
502.721	618.35
503.177	632.95
503.632	623.65
504.088	644.45
504.543	663.05
504.999	663.05
505.455	625.75
505.91	591.65
506.366	592.35
506.821	592.65
507.277	585.35
507.732	592.85
508.187	573.65
508.643	588.65
509.098	589.85
509.553	611.65
510.009	621.65
510.464	628.75
510.919	653.85
511.375	649.15
511.83	660.95
512.285	670.45
512.74	713.55
513.195	732.15
513.65	722.35
514.105	722.25
514.56	725.65
515.015	751.15
515.47	763.45
515.925	745.25
516.38	742.15
516.835	749.35
517.29	737.55
517.745	728.95
518.2	711.05
518.655	710.25
519.109	701.15
519.564	698.65
520.019	691.15
520.474	686.15
520.928	682.75
521.383	682.25
521.838	671.55
522.292	659.15
522.747	658.65
523.201	662.15
523.656	650.15
524.11	638.75
524.565	642.25
525.019	640.65
525.474	654.85
525.928	651.05
526.382	641.75
526.837	648.25
527.291	655.35
527.745	647.95
528.2	657.35
528.654	640.95
529.108	634.25
529.562	643.45
530.016	647.35
530.47	642.05
530.925	649.05
531.379	647.25
531.833	668.15
532.287	655.15
532.741	660.85
533.195	663.55
533.649	666.45
534.103	682.75
534.556	656.15
535.01	664.45
535.464	666.25
535.918	674.05
536.372	667.55
536.826	671.75
537.279	660.45
537.733	658.05
538.187	666.05
538.64	663.05
539.094	669.35
539.548	677.05
540.001	669.15
540.455	659.05
540.908	674.45
541.362	692.25
541.815	689.85
542.269	699.75
542.722	699.35
543.175	708.25
543.629	707.95
544.082	726.25
544.536	731.55
544.989	719.95
545.442	735.95
545.895	737.45
546.349	727.15
546.802	730.05
547.255	739.85
547.708	742.85
548.161	750.45
548.614	769.95
549.067	768.85
549.52	755.75
549.973	755.15
550.426	749.85
550.879	743.75
551.332	732.95
551.785	753.25
552.238	748.85
552.691	750.95
553.144	771.95
553.596	777.45
554.049	798.95
554.502	829.65
554.955	845.95
555.407	836.95
555.86	826.95
556.313	818.75
556.765	806.55
557.218	814.85
557.67	825.25
558.123	806.05
558.576	801.35
559.028	801.05
559.48	813.95
559.933	801.85
560.385	772.65
560.838	746.45
561.29	720.65
561.742	723.75
562.195	698.15
562.647	710.35
563.099	706.15
563.551	712.55
564.004	721.35
564.456	704.55
564.908	698.65
565.36	688.25
565.812	667.25
566.264	661.75
566.716	658.65
567.168	648.45
567.62	665.85
568.072	641.45
568.524	630.55
568.976	631.85
569.428	606.65
569.88	622.55
570.332	621.25
570.784	620.55
571.235	622.15
571.687	631.85
572.139	640.55
572.59	648.15
573.042	651.95
573.494	650.65
573.945	641.35
574.397	619.85
574.849	626.25
575.3	628.15
575.752	626.25
576.203	627.45
576.655	625.25
577.106	608.05
577.557	604.95
578.009	606.05
578.46	604.25
578.912	593.55
579.363	602.35
579.814	607.05
580.265	596.75
580.717	604.85
581.168	607.75
581.619	615.65
582.07	623.55
582.521	604.65
582.972	608.25
583.423	604.45
583.875	618.05
584.326	629.15
584.777	678.35
585.227	739.75
585.678	817.05
586.129	902.75
586.58	969.05
587.031	1032.45
587.482	1202.75
587.933	1356.05
588.384	1176.65
588.834	877.45
589.285	728.75
589.736	708.25
590.186	704.05
590.637	686.45
591.088	671.55
591.538	660.55
591.989	663.25
592.439	655.85
592.89	653.65
593.34	628.65
593.791	633.35
594.241	641.15
594.692	639.65
595.142	627.45
595.593	616.65
596.043	633.65
596.493	639.45
596.943	639.25
597.394	647.75
597.844	639.45
598.294	645.45
598.744	680.55
599.195	698.65
599.645	723.65
600.095	764.05
600.545	809.75
600.995	868.95
601.445	912.85
601.895	979.65
602.345	1015.55
602.795	1000.75
603.245	956.45
603.695	912.15
604.145	861.05
604.594	816.35
605.044	767.25
605.494	704.25
605.944	664.75
606.393	669.05
606.843	637.15
607.293	650.45
607.743	645.35
608.192	661.35
608.642	676.75
609.091	687.55
609.541	679.15
609.99	687.45
610.44	682.75
610.889	641.95
611.339	620.45
611.788	604.85
612.238	611.45
612.687	635.15
613.136	645.35
613.586	646.95
614.035	659.35
614.484	668.15
614.933	671.05
615.383	663.55
615.832	656.35
616.281	643.95
616.73	611.45
617.179	594.35
617.628	580.15
618.077	555.45
618.526	542.65
618.975	537.15
619.424	547.45
619.873	538.85
620.322	547.05
620.771	543.35
621.22	534.75
621.669	517.35
622.118	517.25
622.567	514.35
623.015	504.75
623.464	508.85
623.913	497.25
624.361	494.65
624.81	485.35
625.259	490.35
625.707	486.85
626.156	483.65
626.604	501.35
627.053	492.95
627.501	490.75
627.95	495.75
628.398	511.75
628.847	501.55
629.295	506.65
629.744	507.25
630.192	500.25
630.64	499.35
631.089	501.75
631.537	512.65
631.985	515.45
632.433	524.65
632.881	513.85
633.33	579.95
633.778	555.85
634.226	498.05
634.674	501.85
635.122	502.45
635.57	516.75
636.018	540.45
636.466	509.35
636.914	489.25
637.362	502.45
637.81	505.15
638.258	511.15
638.705	508.65
639.153	532.65
639.601	537.25
640.049	555.85
640.497	592.25
640.944	602.85
641.392	562.35
641.84	541.45
642.287	511.35
642.735	493.05
643.182	496.65
643.63	494.45
644.078	497.95
644.525	514.45
644.973	514.95
645.42	520.25
645.867	538.55
646.315	559.05
646.762	575.35
647.21	607.55
647.657	615.85
648.104	659.45
648.551	680.95
648.999	719.45
649.446	788.25
649.893	861.95
650.34	998.05
650.787	1189.55
651.234	1472.75
651.682	1913.25
652.129	2615.05
652.576	3759.15
653.023	5583.85
653.47	7714.35
653.917	9748.95
654.363	11415.45
654.81	12784.45
655.257	12191.35
655.704	7880.65
656.151	4638.95
656.598	2996.05
657.044	2123.45
657.491	1628.65
657.938	1307.45
658.385	1080.75
658.831	941.85
659.278	838.45
659.724	744.65
660.171	691.05
660.618	633.25
661.064	598.15
661.511	577.05
661.957	562.75
662.404	557.05
662.85	559.25
663.296	532.85
663.743	484.45
664.189	465.55
664.635	458.95
665.082	457.15
665.528	457.25
665.974	448.35
666.42	448.95
666.867	433.05
667.313	417.65
667.759	413.85
668.205	412.55
668.651	421.55
669.097	419.35
669.543	432.55
669.989	396.75
670.435	382.35
670.881	378.95
671.327	387.45
671.773	404.65
672.219	422.65
672.665	469.15
673.11	492.25
673.556	535.45
674.002	572.85
674.448	564.25
674.893	470.15
675.339	415.85
675.785	377.95
676.23	355.35
676.676	336.45
677.122	330.15
677.567	322.55
678.013	324.15
678.458	320.15
678.904	307.55
679.349	300.15
679.794	297.95
680.24	297.35
680.685	297.75
681.131	296.35
681.576	302.95
682.021	304.35
682.466	306.95
682.912	294.05
683.357	300.55
683.802	320.55
684.247	350.65
684.692	383.15
685.137	422.05
685.583	461.25
686.028	483.85
686.473	440.75
686.918	375.75
687.363	357.35
687.807	325.65
688.252	315.15
688.697	300.45
689.142	288.45
689.587	277.55
690.032	280.85
690.477	287.25
690.921	300.15
691.366	324.35
691.811	343.95
692.255	369.75
692.7	397.25
693.145	430.45
693.589	576.05
694.034	935.65
694.478	1289.65
694.923	1510.55
695.367	1979.55
695.812	1031.35
696.256	428.95
696.701	315.15
697.145	293.95
697.59	282.15
698.034	279.55
698.478	279.75
698.922	267.45
699.367	283.25
699.811	289.45
700.255	298.25
700.699	324.75
701.143	363.05
701.588	405.85
702.032	446.35
702.476	439.65
702.92	414.65
703.364	411.45
703.808	531.65
704.252	855.35
704.696	1210.35
705.14	1445.35
705.584	1845.35
706.027	916.15
706.471	435.65
706.915	342.35
707.359	297.35
707.803	271.25
708.246	268.15
708.69	262.55
709.134	265.85
709.577	266.45
710.021	272.75
710.465	263.45
710.908	249.05
711.352	251.05
711.795	266.35
712.239	296.45
712.682	323.85
713.126	364.45
713.569	400.25
714.012	316.65
714.456	274.35
714.899	254.15
715.342	237.15
715.786	216.65
716.229	218.25
716.672	213.25
717.115	208.85
717.558	219.55
718.002	214.35
718.445	223.25
718.888	238.05
719.331	252.45
719.774	258.55
720.217	255.45
720.66	244.25
721.103	230.45
721.546	214.05
721.989	208.75
722.432	190.25
722.874	203.55
723.317	194.75
723.76	203.15
724.203	216.45
724.645	261.85
725.088	366.45
725.531	479.45
725.974	548.75
726.416	463.35
726.859	261.35
727.301	207.45
727.744	203.35
728.187	199.75
728.629	199.25
729.071	216.45
729.514	220.05
729.956	229.65
730.399	231.25
730.841	249.65
731.283	234.65
731.726	221.15
732.168	224.15
732.61	227.85
733.053	241.25
733.495	264.65
733.937	296.35
734.379	341.45
734.821	364.25
735.263	445.55
735.705	678.95
736.148	1300.15
736.59	2164.45
737.032	2652.25
737.474	2154.45
737.916	685.55
738.357	358.05
738.799	277.45
739.241	251.45
739.683	236.05
740.125	248.05
740.567	244.35
741.008	272.05
741.45	265.95
741.892	271.95
742.334	288.35
742.775	302.35
743.217	287.05
743.658	232.05
744.1	216.65
744.542	217.35
744.983	262.15
745.425	289.35
745.866	293.15
746.307	227.85
746.749	239.75
747.19	269.05
747.632	362.85
748.073	712.25
748.514	1535.25
748.956	2419.55
749.397	3022.85
749.838	2522.65
750.279	2572.15
750.72	1281.85
751.162	460.65
751.603	267.15
752.044	208.95
752.485	183.25
752.926	172.45
753.367	168.85
753.808	166.35
754.249	159.95
754.69	158.85
755.131	144.45
755.572	150.65
756.013	144.05
756.453	153.85
756.894	156.15
757.335	158.85
757.776	167.55
758.216	159.15
758.657	157.55
759.098	165.65
759.538	182.15
759.979	224.15
760.42	308.55
760.86	568.55
761.301	1478.75
761.741	3668.65
762.182	5622.05
762.622	3976.15
