Data from 20171114-ORNL-Ar_H_NY_Subt18_08-08-37-222.txt Node
Date: Tue Nov 14 08:08:37 EST 2017
User: Ender
Spectrometer: HR+D1039
Trigger mode: 0
Integration Time (sec): 2.730000E-2
Scans to average: 10
Electric dark correction enabled: true
Nonlinearity correction enabled: false
Boxcar width: 0
XAxis mode: Wavelengths
Number of Pixels in Spectrum: 2048
>>>>>Begin Spectral Data<<<<<
187.836	-6.84
188.309	-6.84
188.782	-6.84
189.255	0.66
189.728	-2.14
190.201	4.96
190.674	-1.84
191.147	4.36
191.619	-8.74
192.092	0.36
192.565	5.76
193.038	1.16
193.511	3.56
193.984	-1.34
194.456	-0.64
194.929	-1.54
195.402	-0.34
195.874	2.56
196.347	-2.84
196.82	-5.04
197.292	4.56
197.765	3.06
198.237	-3.34
198.71	6.46
199.182	-3.24
199.655	1.76
200.127	4.16
200.6	-2.44
201.072	-3.74
201.544	-3.34
202.017	-2.34
202.489	-2.44
202.961	-0.64
203.433	-4.04
203.906	-6.44
204.378	-10.64
204.85	0.16
205.322	-8.14
205.794	-1.84
206.266	-5.84
206.739	-9.84
207.211	1.76
207.683	-6.64
208.155	-5.44
208.627	-8.84
209.099	0.96
209.57	-8.24
210.042	-8.74
210.514	-1.84
210.986	-0.74
211.458	-6.84
211.93	-11.84
212.402	-3.84
212.873	-6.94
213.345	-9.54
213.817	-11.34
214.288	-1.74
214.76	-9.84
215.232	-4.84
215.703	-5.14
216.175	-3.34
216.646	-11.34
217.118	-2.14
217.589	-4.14
218.061	2.46
218.532	-8.84
219.004	-2.54
219.475	-4.04
219.946	-1.84
220.418	-1.94
220.889	6.56
221.36	-0.94
221.832	-1.24
222.303	-13.44
222.774	1.66
223.245	-13.74
223.717	-6.24
224.188	-2.04
224.659	-7.04
225.13	-2.74
225.601	1.66
226.072	0.76
226.543	-4.94
227.014	-3.54
227.485	-4.64
227.956	-4.64
228.427	-0.84
228.898	-5.64
229.369	1.86
229.839	-4.74
230.31	-9.64
230.781	-1.04
231.252	0.26
231.722	-7.44
232.193	-1.34
232.664	-4.84
233.135	-2.74
233.605	-8.54
234.076	-5.44
234.546	-2.84
235.017	4.76
235.487	-1.94
235.958	-1.64
236.428	-2.44
236.899	-1.74
237.369	-4.34
237.84	-1.54
238.31	0.06
238.78	-0.24
239.251	-7.14
239.721	-4.94
240.191	-5.24
240.662	-2.24
241.132	-1.04
241.602	-7.94
242.072	-2.44
242.542	-2.14
243.013	-0.74
243.483	-0.44
243.953	-0.84
244.423	-1.04
244.893	-9.54
245.363	-0.44
245.833	-2.04
246.303	-0.54
246.773	1.96
247.243	1.26
247.712	-6.04
248.182	1.96
248.652	-3.24
249.122	-2.54
249.592	4.46
250.061	2.16
250.531	15.56
251.001	2.66
251.471	7.26
251.94	12.26
252.41	3.66
252.879	-7.34
253.349	7.86
253.818	10.06
254.288	3.86
254.757	-1.44
255.227	-4.64
255.696	2.26
256.166	3.46
256.635	1.96
257.105	5.06
257.574	-0.24
258.043	1.86
258.513	-3.14
258.982	4.16
259.451	-8.84
259.92	-1.34
260.389	-0.74
260.859	8.56
261.328	5.16
261.797	3.76
262.266	-0.24
262.735	0.76
263.204	6.86
263.673	-1.84
264.142	4.96
264.611	-1.94
265.08	-1.54
265.549	-6.94
266.018	1.06
266.487	-6.14
266.955	-6.64
267.424	-3.24
267.893	3.46
268.362	-0.24
268.83	0.26
269.299	8.56
269.768	2.16
270.236	3.26
270.705	-0.34
271.174	1.96
271.642	3.96
272.111	2.46
272.579	2.86
273.048	8.46
273.516	6.56
273.985	11.76
274.453	12.66
274.922	12.96
275.39	5.46
275.858	-4.04
276.327	7.06
276.795	13.46
277.263	-2.24
277.731	14.36
278.2	18.26
278.668	20.96
279.136	22.06
279.604	4.66
280.072	9.86
280.54	5.56
281.008	6.36
281.477	9.96
281.945	10.66
282.413	12.96
282.881	13.76
283.348	2.76
283.816	11.76
284.284	6.96
284.752	17.36
285.22	11.66
285.688	8.76
286.156	10.56
286.623	23.26
287.091	20.36
287.559	14.06
288.026	10.76
288.494	7.66
288.962	1.06
289.429	4.16
289.897	14.16
290.364	11.56
290.832	11.76
291.3	14.46
291.767	12.26
292.234	12.56
292.702	12.36
293.169	10.66
293.637	21.86
294.104	11.36
294.571	2.16
295.039	5.16
295.506	9.46
295.973	7.96
296.44	15.16
296.908	20.56
297.375	9.36
297.842	13.26
298.309	9.76
298.776	13.36
299.243	19.66
299.71	7.66
300.177	13.76
300.644	15.06
301.111	11.26
301.578	15.56
302.045	10.06
302.512	13.86
302.979	18.96
303.446	15.76
303.913	9.86
304.379	15.06
304.846	20.96
305.313	16.56
305.78	15.16
306.246	21.26
306.713	16.46
307.18	18.66
307.646	25.76
308.113	20.26
308.579	19.56
309.046	16.66
309.512	21.66
309.979	15.76
310.445	19.96
310.912	22.26
311.378	23.56
311.845	22.66
312.311	27.36
312.777	29.66
313.244	23.76
313.71	29.16
314.176	24.96
314.642	26.26
315.109	23.16
315.575	26.56
316.041	28.46
316.507	20.06
316.973	28.46
317.439	25.06
317.905	28.26
318.371	30.96
318.837	28.16
319.303	24.86
319.769	23.26
320.235	25.96
320.701	24.36
321.167	31.06
321.633	31.76
322.099	27.76
322.564	34.76
323.03	33.66
323.496	28.86
323.962	35.66
324.427	26.76
324.893	36.46
325.359	30.76
325.824	27.86
326.29	28.96
326.755	30.96
327.221	34.76
327.686	30.16
328.152	39.66
328.617	36.76
329.083	41.56
329.548	38.06
330.014	40.56
330.479	41.16
330.944	34.36
331.41	31.46
331.875	38.46
332.34	37.96
332.805	35.36
333.271	39.66
333.736	34.46
334.201	39.96
334.666	43.96
335.131	48.16
335.596	43.96
336.061	40.56
336.526	32.86
336.991	41.86
337.456	48.66
337.921	45.96
338.386	36.26
338.851	40.06
339.316	40.26
339.781	39.06
340.246	41.36
340.711	39.46
341.175	41.36
341.64	39.26
342.105	44.36
342.569	50.46
343.034	53.26
343.499	51.36
343.963	42.16
344.428	58.86
344.893	57.36
345.357	51.86
345.822	51.16
346.286	60.46
346.751	63.16
347.215	60.76
347.679	62.56
348.144	83.36
348.608	69.46
349.073	62.86
349.537	70.46
350.001	64.46
350.465	74.46
350.93	70.26
351.394	69.06
351.858	62.86
352.322	75.16
352.786	70.06
353.25	87.06
353.715	102.86
354.179	89.16
354.643	113.26
355.107	115.26
355.571	99.56
356.035	85.56
356.498	102.66
356.962	104.46
357.426	115.46
357.89	102.36
358.354	87.46
358.818	76.56
359.281	67.86
359.745	68.86
360.209	67.66
360.673	71.76
361.136	75.86
361.6	78.86
362.064	76.16
362.527	73.96
362.991	82.46
363.454	70.06
363.918	69.76
364.381	70.66
364.845	78.56
365.308	79.76
365.772	74.86
366.235	79.16
366.698	78.86
367.162	75.16
367.625	79.66
368.088	82.66
368.552	82.76
369.015	81.76
369.478	81.86
369.941	89.86
370.404	80.76
370.867	94.76
371.331	99.16
371.794	102.06
372.257	89.26
372.72	101.96
373.183	98.36
373.646	89.76
374.109	88.86
374.572	90.46
375.035	94.26
375.497	94.96
375.96	98.16
376.423	96.46
376.886	106.96
377.349	102.26
377.811	96.86
378.274	95.96
378.737	93.56
379.199	101.76
379.662	103.06
380.125	104.96
380.587	101.26
381.05	107.16
381.512	108.76
381.975	119.66
382.437	121.66
382.9	116.06
383.362	117.16
383.825	121.76
384.287	126.06
384.75	117.46
385.212	121.76
385.674	129.76
386.136	123.86
386.599	106.26
387.061	112.56
387.523	116.66
387.985	126.46
388.447	135.46
388.91	125.26
389.372	131.66
389.834	136.86
390.296	122.96
390.758	135.86
391.22	141.66
391.682	163.16
392.144	211.86
392.606	174.46
393.068	147.36
393.529	143.56
393.991	137.86
394.453	130.06
394.915	138.06
395.377	148.46
395.838	164.86
396.3	136.26
396.762	135.16
397.224	135.56
397.685	132.56
398.147	121.96
398.608	124.76
399.07	128.86
399.531	131.26
399.993	136.16
400.454	147.96
400.916	141.86
401.377	141.86
401.839	141.16
402.3	143.46
402.762	154.76
403.223	173.06
403.684	167.86
404.145	149.96
404.607	149.96
405.068	155.56
405.529	162.36
405.99	175.76
406.451	161.46
406.913	164.76
407.374	160.46
407.835	156.76
408.296	161.76
408.757	158.66
409.218	185.46
409.679	173.86
410.14	170.36
410.601	164.56
411.062	172.26
411.522	178.76
411.983	178.96
412.444	171.26
412.905	173.46
413.366	176.66
413.826	190.46
414.287	213.96
414.748	259.36
415.208	242.66
415.669	207.56
416.13	202.36
416.59	202.46
417.051	204.66
417.511	217.96
417.972	233.56
418.432	244.46
418.893	283.06
419.353	249.36
419.814	194.76
420.274	178.36
420.734	182.16
421.195	198.46
421.655	193.96
422.115	188.46
422.576	196.06
423.036	191.26
423.496	208.36
423.956	211.06
424.416	216.56
424.876	264.16
425.336	259.96
425.797	261.76
426.257	260.16
426.717	240.46
427.177	230.76
427.637	217.66
428.097	229.46
428.556	241.56
429.016	266.66
429.476	256.86
429.936	266.66
430.396	270.56
430.856	288.26
431.315	306.36
431.775	337.66
432.235	375.36
432.694	343.96
433.154	346.46
433.614	374.26
434.073	330.36
434.533	276.06
434.993	262.06
435.452	272.96
435.912	287.16
436.371	280.76
436.83	279.66
437.29	258.46
437.749	245.06
438.209	239.86
438.668	267.36
439.127	282.76
439.587	257.56
440.046	244.76
440.505	260.86
440.964	270.56
441.424	321.66
441.883	304.86
442.342	262.36
442.801	228.06
443.26	230.46
443.719	220.86
444.178	222.56
444.637	214.76
445.096	219.26
445.555	227.46
446.014	227.26
446.473	224.66
446.932	237.36
447.391	225.66
447.849	229.26
448.308	221.86
448.767	219.96
449.226	234.26
449.685	237.66
450.143	248.76
450.602	238.76
451.061	225.16
451.519	229.66
451.978	236.36
452.436	228.06
452.895	240.96
453.353	257.76
453.812	241.46
454.27	239.96
454.729	237.86
455.187	236.96
455.646	246.56
456.104	244.16
456.562	259.36
457.021	266.16
457.479	258.06
457.937	269.66
458.395	263.86
458.854	250.56
459.312	252.26
459.77	273.46
460.228	256.56
460.686	245.36
461.144	245.26
461.602	251.36
462.06	241.66
462.518	252.56
462.976	256.06
463.434	259.06
463.892	264.86
464.35	272.96
464.808	290.46
465.266	264.36
465.724	265.56
466.181	272.06
466.639	268.96
467.097	288.56
467.555	296.66
468.012	307.46
468.47	316.76
468.928	322.26
469.385	338.76
469.843	337.76
470.3	352.66
470.758	361.26
471.215	383.26
471.673	410.56
472.13	407.66
472.588	421.26
473.045	382.46
473.503	374.06
473.96	395.86
474.417	409.86
474.875	442.26
475.332	480.36
475.789	456.06
476.246	467.26
476.704	474.56
477.161	502.06
477.618	514.76
478.075	560.26
478.532	608.46
478.989	679.26
479.446	794.16
479.903	745.76
480.36	777.46
480.817	825.46
481.274	924.76
481.731	1019.26
482.188	1082.36
482.645	1226.66
483.102	1310.86
483.558	1431.96
484.015	1467.86
484.472	1439.86
484.929	1395.06
485.385	1356.46
485.842	1323.36
486.299	1282.96
486.755	1236.36
487.212	1049.06
487.668	897.66
488.125	821.86
488.582	766.76
489.038	733.86
489.494	706.56
489.951	669.36
490.407	649.46
490.864	638.26
491.32	626.86
491.776	639.26
492.233	641.86
492.689	610.26
493.145	598.26
493.602	595.86
494.058	610.06
494.514	602.26
494.97	638.76
495.426	649.66
495.882	611.56
496.338	606.86
496.794	614.86
497.251	609.56
497.707	629.26
498.163	628.16
498.618	630.86
499.074	642.56
499.53	670.86
499.986	665.06
500.442	640.56
500.898	621.66
501.354	615.26
501.809	623.26
502.265	630.86
502.721	647.26
503.177	650.66
503.632	645.06
504.088	659.46
504.543	670.46
504.999	689.46
505.455	647.36
505.91	623.86
506.366	626.96
506.821	626.06
507.277	626.66
507.732	637.26
508.187	638.86
508.643	641.86
509.098	636.16
509.553	648.76
510.009	671.96
510.464	681.86
510.919	696.96
511.375	695.46
511.83	704.26
512.285	717.86
512.74	752.56
513.195	776.86
513.65	766.96
514.105	761.36
514.56	762.46
515.015	779.46
515.47	804.06
515.925	763.36
516.38	773.16
516.835	779.26
517.29	776.86
517.745	772.46
518.2	750.96
518.655	742.16
519.109	740.16
519.564	734.36
520.019	723.36
520.474	715.36
520.928	716.56
521.383	722.76
521.838	706.66
522.292	705.96
522.747	710.76
523.201	706.06
523.656	699.86
524.11	695.96
524.565	684.66
525.019	689.26
525.474	693.76
525.928	692.06
526.382	700.06
526.837	708.66
527.291	709.26
527.745	695.86
528.2	700.76
528.654	693.66
529.108	686.56
529.562	695.36
530.016	693.66
530.47	690.96
530.925	682.06
531.379	701.36
531.833	703.76
532.287	698.26
532.741	698.46
533.195	700.56
533.649	707.66
534.103	721.46
534.556	704.16
535.01	707.06
535.464	705.26
535.918	715.86
536.372	711.66
536.826	715.56
537.279	706.86
537.733	717.46
538.187	720.56
538.64	707.06
539.094	722.06
539.548	722.06
540.001	726.26
540.455	727.86
540.908	735.56
541.362	746.36
541.815	747.56
542.269	759.36
542.722	766.36
543.175	756.96
543.629	772.06
544.082	779.86
544.536	786.16
544.989	788.96
545.442	793.56
545.895	790.06
546.349	792.46
546.802	796.16
547.255	802.06
547.708	810.26
548.161	820.56
548.614	826.96
549.067	836.56
549.52	820.46
549.973	808.06
550.426	818.96
550.879	804.56
551.332	805.76
551.785	812.26
552.238	813.26
552.691	828.76
553.144	838.26
553.596	839.56
554.049	864.86
554.502	894.26
554.955	913.76
555.407	907.66
555.86	901.66
556.313	905.56
556.765	889.16
557.218	883.06
557.67	883.86
558.123	878.16
558.576	871.06
559.028	877.76
559.48	878.36
559.933	866.46
560.385	841.96
560.838	812.96
561.29	793.36
561.742	791.76
562.195	772.36
562.647	773.66
563.099	779.36
563.551	776.36
564.004	779.96
564.456	774.86
564.908	764.96
565.36	750.46
565.812	730.06
566.264	724.76
566.716	719.86
567.168	715.16
567.62	721.46
568.072	699.56
568.524	694.56
568.976	696.16
569.428	680.96
569.88	686.76
570.332	693.36
570.784	681.56
571.235	692.46
571.687	707.86
572.139	711.86
572.59	713.26
573.042	720.46
573.494	714.96
573.945	702.46
574.397	697.76
574.849	690.16
575.3	701.26
575.752	689.66
576.203	690.06
576.655	696.76
577.106	672.86
577.557	670.76
578.009	666.16
578.46	674.46
578.912	662.66
579.363	666.16
579.814	668.66
580.265	667.96
580.717	671.46
581.168	674.26
581.619	693.86
582.07	681.86
582.521	680.66
582.972	684.86
583.423	694.86
583.875	676.56
584.326	694.36
584.777	723.76
585.227	762.46
585.678	805.86
586.129	847.06
586.58	887.16
587.031	932.06
587.482	996.06
587.933	1099.66
588.384	1003.36
588.834	857.36
589.285	782.16
589.736	786.66
590.186	780.16
590.637	767.46
591.088	752.56
591.538	743.86
591.989	747.26
592.439	737.26
592.89	731.06
593.34	706.56
593.791	711.56
594.241	704.46
594.692	707.16
595.142	702.56
595.593	706.46
596.043	696.96
596.493	717.76
596.943	709.36
597.394	734.26
597.844	722.66
598.294	743.86
598.744	766.26
599.195	798.76
599.645	837.96
600.095	863.36
600.545	933.56
600.995	975.86
601.445	1050.76
601.895	1103.66
602.345	1156.56
602.795	1129.26
603.245	1088.36
603.695	1029.46
604.145	967.06
604.594	917.36
605.044	866.56
605.494	809.66
605.944	764.56
606.393	753.46
606.843	746.06
607.293	740.06
607.743	738.26
608.192	739.76
608.642	759.26
609.091	757.96
609.541	777.56
609.99	766.46
610.44	775.66
610.889	728.66
611.339	704.86
611.788	690.36
612.238	697.46
612.687	709.76
613.136	718.06
613.586	727.76
614.035	720.06
614.484	736.56
614.933	725.26
615.383	725.96
615.832	724.96
616.281	712.46
616.73	686.46
617.179	662.16
617.628	654.26
618.077	645.36
618.526	624.06
618.975	629.86
619.424	625.76
619.873	620.36
620.322	622.36
620.771	616.26
621.22	612.86
621.669	605.36
622.118	589.16
622.567	585.16
623.015	577.16
623.464	588.56
623.913	563.56
624.361	556.86
624.81	552.26
625.259	548.26
625.707	566.56
626.156	563.96
626.604	574.46
627.053	564.26
627.501	570.26
627.95	568.96
628.398	581.16
628.847	579.86
629.295	571.36
629.744	583.56
630.192	572.86
630.64	569.26
631.089	563.16
631.537	566.26
631.985	558.16
632.433	571.96
632.881	561.96
633.33	582.76
633.778	574.66
634.226	549.86
634.674	562.46
635.122	560.96
635.57	578.66
636.018	593.66
636.466	577.06
636.914	564.66
637.362	577.06
637.81	578.46
638.258	584.66
638.705	592.26
639.153	621.76
639.601	621.86
640.049	650.26
640.497	676.06
640.944	705.16
641.392	644.06
641.84	622.66
642.287	590.76
642.735	568.36
643.182	572.16
643.63	560.66
644.078	571.16
644.525	579.66
644.973	584.46
645.42	594.46
645.867	617.36
646.315	642.56
646.762	665.36
647.21	694.66
647.657	722.96
648.104	745.96
648.551	767.86
648.999	823.16
649.446	901.96
649.893	992.66
650.34	1134.56
650.787	1343.96
651.234	1686.46
651.682	2178.46
652.129	2979.76
652.576	4225.56
653.023	6186.86
653.47	8363.16
653.917	10360.66
654.363	11866.26
654.81	13016.46
655.257	12371.56
655.704	8158.86
656.151	4875.56
656.598	3206.16
657.044	2299.06
657.491	1779.36
657.938	1443.36
658.385	1193.56
658.831	1053.36
659.278	934.66
659.724	847.86
660.171	770.96
660.618	710.86
661.064	683.96
661.511	667.46
661.957	660.56
662.404	642.36
662.85	654.46
663.296	629.46
663.743	569.56
664.189	544.06
664.635	538.36
665.082	540.46
665.528	531.46
665.974	528.96
666.42	522.26
666.867	499.96
667.313	490.56
667.759	470.56
668.205	466.56
668.651	467.56
669.097	460.66
669.543	467.86
669.989	459.76
670.435	448.76
670.881	450.06
671.327	459.96
671.773	485.66
672.219	496.06
672.665	561.36
673.11	599.96
673.556	652.26
674.002	685.26
674.448	659.36
674.893	557.36
675.339	487.26
675.785	445.46
676.23	425.66
676.676	392.56
677.122	393.86
677.567	383.06
678.013	374.26
678.458	370.16
678.904	370.56
679.349	354.06
679.794	368.66
680.24	359.76
680.685	352.06
681.131	354.86
681.576	358.96
682.021	363.26
682.466	352.06
682.912	357.86
683.357	361.46
683.802	393.16
684.247	422.16
684.692	472.26
685.137	513.76
685.583	546.86
686.028	570.96
686.473	531.56
686.918	462.06
687.363	423.86
687.807	407.36
688.252	374.76
688.697	356.16
689.142	343.26
689.587	339.06
690.032	337.46
690.477	352.76
690.921	359.56
691.366	391.86
691.811	412.76
692.255	441.26
692.7	474.76
693.145	524.96
693.589	739.06
694.034	1182.16
694.478	1586.66
694.923	1767.16
695.367	2288.06
695.812	1230.46
696.256	511.86
696.701	374.36
697.145	347.96
697.59	341.76
698.034	330.06
698.478	332.16
698.922	332.36
699.367	329.36
699.811	345.86
700.255	366.36
700.699	395.56
701.143	441.76
701.588	488.46
702.032	525.96
702.476	515.26
702.92	502.16
703.364	513.16
703.808	673.76
704.252	1093.96
704.696	1499.56
705.14	1708.16
705.584	2158.26
706.027	1088.86
706.471	536.76
706.915	400.26
707.359	363.46
707.803	322.06
708.246	312.46
708.69	320.06
709.134	326.46
709.577	319.86
710.021	317.76
710.465	313.46
710.908	303.96
711.352	307.26
711.795	325.46
712.239	364.86
712.682	402.46
713.126	429.96
713.569	466.56
714.012	367.26
714.456	315.56
714.899	295.56
715.342	281.66
715.786	269.96
716.229	266.26
716.672	259.56
717.115	258.56
717.558	257.16
718.002	256.56
718.445	268.66
718.888	291.96
719.331	296.26
719.774	314.96
720.217	309.86
720.66	291.86
721.103	273.96
721.546	256.16
721.989	260.86
722.432	238.96
722.874	243.46
723.317	240.36
723.76	245.76
724.203	264.96
724.645	329.66
725.088	465.06
725.531	583.76
725.974	649.86
726.416	560.06
726.859	313.46
727.301	247.66
727.744	243.86
728.187	238.26
728.629	242.86
729.071	253.36
729.514	263.86
729.956	282.36
730.399	289.66
730.841	294.46
731.283	279.96
731.726	273.76
732.168	264.56
732.61	271.96
733.053	295.66
733.495	327.56
733.937	367.66
734.379	412.16
734.821	446.36
735.263	565.16
735.705	883.16
736.148	1669.36
736.59	2687.56
737.032	3086.06
737.474	2515.66
737.916	839.26
738.357	440.56
738.799	336.56
739.241	301.96
739.683	295.76
740.125	294.26
740.567	311.06
741.008	321.96
741.45	328.66
741.892	334.06
742.334	369.56
742.775	367.66
743.217	349.76
743.658	277.46
744.1	263.16
744.542	273.96
744.983	326.76
745.425	361.46
745.866	347.66
746.307	288.46
746.749	289.26
747.19	342.06
747.632	483.06
748.073	957.56
748.514	1986.26
748.956	2932.46
749.397	3719.86
749.838	3072.56
750.279	3014.36
750.72	1532.06
751.162	557.86
751.603	330.96
752.044	252.36
752.485	222.96
752.926	215.36
753.367	207.06
753.808	200.86
754.249	193.66
754.69	191.66
755.131	185.56
755.572	187.96
756.013	176.06
756.453	191.26
756.894	188.56
757.335	194.96
757.776	205.96
758.216	200.86
758.657	203.66
759.098	205.16
759.538	231.46
759.979	275.26
760.42	398.16
760.86	758.76
761.301	1990.36
761.741	4679.46
762.182	6493.86
762.622	4582.06
763.063	1358.86
