Data from 20171114-ORNL-Ar_H_NY_Subt18_08-08-07-195.txt Node
Date: Tue Nov 14 08:08:07 EST 2017
User: Ender
Spectrometer: HR+D1039
Trigger mode: 0
Integration Time (sec): 2.730000E-2
Scans to average: 10
Electric dark correction enabled: true
Nonlinearity correction enabled: false
Boxcar width: 0
XAxis mode: Wavelengths
Number of Pixels in Spectrum: 2048
>>>>>Begin Spectral Data<<<<<
187.836	1.14
188.309	1.14
188.782	1.14
189.255	0.44
189.728	-1.26
190.201	3.84
190.674	1.84
191.147	4.84
191.619	-4.86
192.092	-0.46
192.565	2.84
193.038	-2.46
193.511	-1.46
193.984	-0.66
194.456	1.44
194.929	3.24
195.402	-6.06
195.874	-2.46
196.347	-1.16
196.82	-10.36
197.292	11.84
197.765	-3.76
198.237	-3.06
198.71	-0.06
199.182	-3.66
199.655	1.44
200.127	4.94
200.6	-3.96
201.072	-1.36
201.544	-0.76
202.017	-0.76
202.489	3.54
202.961	-6.16
203.433	-2.56
203.906	-7.96
204.378	-6.96
204.85	-1.56
205.322	-13.46
205.794	-5.16
206.266	-5.26
206.739	-7.66
207.211	-3.56
207.683	-8.36
208.155	-7.26
208.627	-10.46
209.099	-3.66
209.57	-10.36
210.042	-4.86
210.514	-2.16
210.986	-0.76
211.458	-8.06
211.93	-4.86
212.402	-1.06
212.873	-6.66
213.345	-9.76
213.817	-14.76
214.288	-1.06
214.76	-8.66
215.232	-0.96
215.703	-4.56
216.175	-0.16
216.646	-3.56
217.118	-8.86
217.589	-2.46
218.061	0.44
218.532	0.24
219.004	-4.26
219.475	-4.36
219.946	-0.56
220.418	-5.46
220.889	-0.16
221.36	-1.66
221.832	-0.46
222.303	-7.36
222.774	6.44
223.245	-5.16
223.717	-1.16
224.188	-5.16
224.659	-7.16
225.13	-5.96
225.601	-3.56
226.072	3.04
226.543	-0.66
227.014	3.74
227.485	-3.46
227.956	-4.56
228.427	0.84
228.898	-2.96
229.369	-0.26
229.839	-2.86
230.31	-2.96
230.781	2.44
231.252	-7.36
231.722	-8.56
232.193	2.24
232.664	-3.26
233.135	2.34
233.605	-1.86
234.076	-4.86
234.546	6.84
235.017	9.34
235.487	-0.96
235.958	-6.16
236.428	2.84
236.899	3.04
237.369	1.24
237.84	-3.86
238.31	8.14
238.78	1.34
239.251	0.84
239.721	-3.36
240.191	1.84
240.662	-5.56
241.132	4.44
241.602	-1.26
242.072	-2.76
242.542	2.04
243.013	2.04
243.483	-1.26
243.953	4.14
244.423	0.44
244.893	-6.86
245.363	2.64
245.833	1.94
246.303	-2.26
246.773	3.54
247.243	1.14
247.712	1.44
248.182	9.04
248.652	4.14
249.122	-3.96
249.592	7.34
250.061	17.24
250.531	31.54
251.001	12.54
251.471	19.14
251.94	12.54
252.41	8.14
252.879	-2.36
253.349	11.24
253.818	11.44
254.288	9.24
254.757	3.94
255.227	-0.46
255.696	3.14
256.166	4.64
256.635	4.04
257.105	3.44
257.574	4.04
258.043	7.84
258.513	9.34
258.982	12.74
259.451	5.64
259.92	15.04
260.389	11.04
260.859	15.64
261.328	8.94
261.797	15.24
262.266	7.14
262.735	7.74
263.204	7.94
263.673	0.14
264.142	5.64
264.611	-1.16
265.08	0.34
265.549	3.14
266.018	4.94
266.487	-1.46
266.955	0.84
267.424	4.14
267.893	9.84
268.362	1.34
268.83	3.84
269.299	14.44
269.768	2.74
270.236	3.94
270.705	-1.76
271.174	7.64
271.642	6.54
272.111	4.64
272.579	18.14
273.048	21.94
273.516	20.74
273.985	25.74
274.453	27.04
274.922	23.24
275.39	13.84
275.858	0.44
276.327	12.14
276.795	16.94
277.263	8.54
277.731	26.04
278.2	51.84
278.668	49.24
279.136	45.34
279.604	22.54
280.072	18.14
280.54	11.74
281.008	2.54
281.477	18.34
281.945	13.34
282.413	12.74
282.881	13.14
283.348	7.04
283.816	14.34
284.284	8.24
284.752	15.74
285.22	15.14
285.688	18.84
286.156	19.24
286.623	47.64
287.091	48.24
287.559	21.74
288.026	14.24
288.494	11.44
288.962	3.34
289.429	9.54
289.897	19.04
290.364	9.94
290.832	16.04
291.3	14.94
291.767	18.74
292.234	18.54
292.702	7.94
293.169	17.44
293.637	26.94
294.104	21.14
294.571	11.14
295.039	18.04
295.506	8.54
295.973	14.84
296.44	9.84
296.908	9.64
297.375	16.94
297.842	17.84
298.309	13.64
298.776	12.04
299.243	19.04
299.71	19.74
300.177	26.44
300.644	17.64
301.111	12.84
301.578	20.94
302.045	10.94
302.512	21.34
302.979	24.74
303.446	25.14
303.913	21.84
304.379	14.54
304.846	28.84
305.313	24.74
305.78	18.44
306.246	22.74
306.713	24.94
307.18	25.74
307.646	32.04
308.113	23.34
308.579	20.74
309.046	20.04
309.512	22.64
309.979	19.94
310.445	22.84
310.912	26.24
311.378	33.24
311.845	25.34
312.311	29.44
312.777	29.44
313.244	28.24
313.71	30.34
314.176	30.54
314.642	32.04
315.109	31.54
315.575	34.74
316.041	39.74
316.507	30.54
316.973	35.44
317.439	35.34
317.905	31.14
318.371	37.94
318.837	36.54
319.303	31.84
319.769	35.24
320.235	36.04
320.701	35.64
321.167	37.04
321.633	41.94
322.099	35.64
322.564	41.04
323.03	40.24
323.496	36.94
323.962	39.04
324.427	32.84
324.893	41.74
325.359	38.14
325.824	35.14
326.29	33.34
326.755	38.44
327.221	38.34
327.686	39.44
328.152	44.24
328.617	41.94
329.083	44.74
329.548	44.34
330.014	46.04
330.479	37.04
330.944	42.24
331.41	42.64
331.875	45.74
332.34	41.64
332.805	48.84
333.271	42.44
333.736	44.24
334.201	57.04
334.666	46.54
335.131	48.94
335.596	49.14
336.061	43.54
336.526	41.04
336.991	47.24
337.456	57.84
337.921	48.44
338.386	40.64
338.851	45.84
339.316	46.44
339.781	46.24
340.246	51.34
340.711	40.44
341.175	45.04
341.64	47.64
342.105	54.64
342.569	55.14
343.034	55.64
343.499	54.54
343.963	51.94
344.428	58.54
344.893	59.44
345.357	60.44
345.822	60.04
346.286	63.74
346.751	70.54
347.215	70.34
347.679	74.94
348.144	90.74
348.608	81.84
349.073	66.54
349.537	75.04
350.001	79.84
350.465	90.14
350.93	80.24
351.394	79.34
351.858	73.04
352.322	83.74
352.786	83.94
353.25	96.64
353.715	110.14
354.179	98.84
354.643	120.24
355.107	125.54
355.571	105.44
356.035	107.24
356.498	120.74
356.962	131.44
357.426	128.74
357.89	113.84
358.354	84.74
358.818	87.54
359.281	78.94
359.745	73.94
360.209	75.34
360.673	66.14
361.136	85.84
361.6	78.14
362.064	84.24
362.527	80.54
362.991	87.94
363.454	82.24
363.918	71.74
364.381	79.04
364.845	79.84
365.308	88.24
365.772	85.74
366.235	88.34
366.698	71.94
367.162	86.74
367.625	89.54
368.088	85.74
368.552	86.84
369.015	89.54
369.478	98.54
369.941	95.04
370.404	97.64
370.867	104.44
371.331	111.04
371.794	111.64
372.257	112.64
372.72	119.84
373.183	104.14
373.646	109.14
374.109	99.64
374.572	98.74
375.035	108.44
375.497	116.34
375.96	103.04
376.423	107.04
376.886	111.34
377.349	103.34
377.811	96.74
378.274	109.04
378.737	103.54
379.199	119.34
379.662	111.34
380.125	117.44
380.587	120.74
381.05	121.74
381.512	128.04
381.975	132.44
382.437	129.94
382.9	127.84
383.362	133.54
383.825	144.14
384.287	151.54
384.75	141.74
385.212	144.24
385.674	134.44
386.136	143.04
386.599	129.44
387.061	133.04
387.523	128.54
387.985	132.74
388.447	143.44
388.91	141.24
389.372	162.44
389.834	145.74
390.296	140.44
390.758	156.84
391.22	173.64
391.682	210.94
392.144	304.84
392.606	234.54
393.068	175.24
393.529	171.44
393.991	155.84
394.453	153.64
394.915	157.94
395.377	205.84
395.838	219.54
396.3	157.04
396.762	140.54
397.224	137.14
397.685	131.44
398.147	129.14
398.608	135.14
399.07	129.94
399.531	125.94
399.993	145.54
400.454	151.24
400.916	144.44
401.377	140.74
401.839	153.14
402.3	151.04
402.762	169.24
403.223	182.34
403.684	175.64
404.145	157.94
404.607	160.84
405.068	165.34
405.529	173.84
405.99	193.04
406.451	170.74
406.913	175.94
407.374	160.24
407.835	168.94
408.296	169.84
408.757	181.84
409.218	185.34
409.679	178.84
410.14	175.64
410.601	181.44
411.062	184.54
411.522	188.24
411.983	197.44
412.444	180.54
412.905	179.64
413.366	184.34
413.826	195.34
414.287	228.14
414.748	260.94
415.208	249.74
415.669	210.64
416.13	213.24
416.59	198.64
417.051	216.44
417.511	217.34
417.972	238.44
418.432	251.74
418.893	296.04
419.353	251.44
419.814	199.04
420.274	194.04
420.734	178.74
421.195	202.84
421.655	195.34
422.115	198.64
422.576	198.84
423.036	198.44
423.496	211.04
423.956	215.14
424.416	238.04
424.876	268.54
425.336	269.34
425.797	268.14
426.257	256.74
426.717	247.94
427.177	245.34
427.637	232.14
428.097	236.84
428.556	248.24
429.016	277.04
429.476	277.04
429.936	280.04
430.396	284.94
430.856	298.24
431.315	316.44
431.775	364.54
432.235	389.24
432.694	354.44
433.154	371.84
433.614	404.94
434.073	346.14
434.533	301.24
434.993	272.04
435.452	287.34
435.912	305.64
436.371	289.34
436.83	290.14
437.29	273.54
437.749	255.84
438.209	252.94
438.668	276.24
439.127	291.14
439.587	268.24
440.046	247.64
440.505	260.14
440.964	280.54
441.424	331.14
441.883	322.44
442.342	272.04
442.801	230.34
443.26	227.24
443.719	218.44
444.178	214.34
444.637	214.04
445.096	225.24
445.555	225.34
446.014	219.64
446.473	224.94
446.932	230.84
447.391	226.74
447.849	232.64
448.308	219.04
448.767	227.74
449.226	242.74
449.685	237.44
450.143	250.54
450.602	243.34
451.061	235.14
451.519	232.74
451.978	227.24
452.436	239.24
452.895	237.74
453.353	260.04
453.812	239.54
454.27	246.04
454.729	232.34
455.187	234.14
455.646	247.84
456.104	254.64
456.562	265.54
457.021	269.14
457.479	264.54
457.937	268.14
458.395	271.34
458.854	251.74
459.312	258.54
459.77	276.34
460.228	262.64
460.686	242.34
461.144	248.94
461.602	250.24
462.06	237.24
462.518	257.94
462.976	256.54
463.434	265.14
463.892	263.64
464.35	280.64
464.808	287.44
465.266	271.44
465.724	270.54
466.181	271.54
466.639	265.44
467.097	285.54
467.555	300.54
468.012	305.34
468.47	312.44
468.928	328.34
469.385	339.44
469.843	351.94
470.3	346.24
470.758	369.84
471.215	390.24
471.673	418.94
472.13	412.04
472.588	424.64
473.045	375.34
473.503	380.64
473.96	397.74
474.417	410.74
474.875	444.44
475.332	476.74
475.789	465.74
476.246	471.84
476.704	492.44
477.161	509.94
477.618	527.94
478.075	575.84
478.532	622.24
478.989	698.14
479.446	803.04
479.903	767.04
480.36	813.74
480.817	875.24
481.274	963.24
481.731	1071.84
482.188	1162.04
482.645	1297.14
483.102	1410.74
483.558	1549.54
484.015	1594.34
484.472	1577.54
484.929	1530.04
485.385	1482.54
485.842	1435.44
486.299	1375.84
486.755	1304.04
487.212	1105.54
487.668	934.14
488.125	845.54
488.582	772.74
489.038	742.94
489.494	716.54
489.951	681.44
490.407	667.74
490.864	644.04
491.32	645.54
491.776	631.04
492.233	653.44
492.689	611.24
493.145	599.84
493.602	603.44
494.058	620.74
494.514	617.44
494.97	633.74
495.426	640.24
495.882	608.94
496.338	610.84
496.794	617.74
497.251	614.24
497.707	622.24
498.163	622.34
498.618	635.54
499.074	642.34
499.53	667.34
499.986	665.24
500.442	653.64
500.898	628.24
501.354	624.34
501.809	636.24
502.265	644.94
502.721	672.04
503.177	678.84
503.632	662.24
504.088	671.44
504.543	715.94
504.999	716.84
505.455	653.94
505.91	632.84
506.366	629.14
506.821	618.64
507.277	620.04
507.732	625.74
508.187	615.84
508.643	629.64
509.098	632.24
509.553	662.44
510.009	661.54
510.464	665.74
510.919	687.44
511.375	696.04
511.83	704.94
512.285	716.74
512.74	754.54
513.195	775.14
513.65	759.34
514.105	756.44
514.56	769.04
515.015	788.74
515.47	807.44
515.925	790.74
516.38	786.84
516.835	779.64
517.29	776.34
517.745	766.24
518.2	757.54
518.655	743.74
519.109	738.44
519.564	735.54
520.019	720.64
520.474	722.44
520.928	722.34
521.383	719.74
521.838	698.74
522.292	700.94
522.747	705.54
523.201	704.24
523.656	694.24
524.11	692.74
524.565	687.64
525.019	686.74
525.474	698.14
525.928	703.44
526.382	687.84
526.837	703.44
527.291	699.44
527.745	691.54
528.2	695.54
528.654	687.14
529.108	698.14
529.562	686.14
530.016	692.74
530.47	683.34
530.925	695.84
531.379	698.34
531.833	702.94
532.287	699.34
532.741	699.04
533.195	696.94
533.649	703.54
534.103	709.64
534.556	706.94
535.01	707.44
535.464	693.94
535.918	714.54
536.372	717.84
536.826	705.44
537.279	707.84
537.733	694.64
538.187	704.74
538.64	703.34
539.094	719.54
539.548	728.94
540.001	718.84
540.455	721.54
540.908	731.34
541.362	748.34
541.815	737.44
542.269	758.74
542.722	750.54
543.175	766.34
543.629	765.94
544.082	774.84
544.536	782.34
544.989	786.54
545.442	796.74
545.895	783.34
546.349	794.64
546.802	791.84
547.255	793.34
547.708	796.14
548.161	814.14
548.614	815.34
549.067	819.34
549.52	815.54
549.973	802.44
550.426	801.44
550.879	788.24
551.332	798.64
551.785	799.34
552.238	806.44
552.691	821.44
553.144	841.04
553.596	844.74
554.049	858.74
554.502	882.24
554.955	905.94
555.407	904.44
555.86	891.24
556.313	885.74
556.765	879.04
557.218	874.84
557.67	879.54
558.123	883.04
558.576	867.74
559.028	862.24
559.48	874.04
559.933	864.44
560.385	838.84
560.838	804.74
561.29	786.44
561.742	781.94
562.195	766.64
562.647	763.24
563.099	773.84
563.551	775.14
564.004	779.74
564.456	770.94
564.908	763.64
565.36	746.14
565.812	739.14
566.264	719.54
566.716	726.54
567.168	713.24
567.62	725.24
568.072	703.74
568.524	698.54
568.976	694.84
569.428	679.64
569.88	677.34
570.332	671.84
570.784	686.14
571.235	672.04
571.687	685.24
572.139	704.74
572.59	709.34
573.042	702.04
573.494	699.64
573.945	708.34
574.397	684.54
574.849	683.34
575.3	690.14
575.752	685.94
576.203	677.64
576.655	686.84
577.106	674.94
577.557	668.84
578.009	668.24
578.46	660.84
578.912	671.34
579.363	665.04
579.814	674.04
580.265	665.04
580.717	667.24
581.168	662.74
581.619	683.94
582.07	678.44
582.521	674.44
582.972	672.74
583.423	683.94
583.875	690.34
584.326	699.74
584.777	751.54
585.227	825.34
585.678	933.94
586.129	1011.94
586.58	1086.34
587.031	1173.44
587.482	1340.94
587.933	1523.74
588.384	1314.64
588.834	985.14
589.285	810.94
589.736	785.04
590.186	779.64
590.637	770.74
591.088	745.64
591.538	737.44
591.989	730.44
592.439	727.74
592.89	720.14
593.34	705.74
593.791	712.14
594.241	709.54
594.692	709.44
595.142	704.44
595.593	700.24
596.043	703.64
596.493	713.14
596.943	724.84
597.394	713.94
597.844	726.04
598.294	732.74
598.744	757.24
599.195	779.34
599.645	818.54
600.095	858.64
600.545	915.04
600.995	962.54
601.445	1035.64
601.895	1076.84
602.345	1128.94
602.795	1102.04
603.245	1062.74
603.695	1004.94
604.145	959.34
604.594	905.34
605.044	844.34
605.494	793.94
605.944	758.14
606.393	740.04
606.843	721.74
607.293	737.74
607.743	728.94
608.192	743.94
608.642	759.74
609.091	765.94
609.541	785.74
609.99	771.84
610.44	774.04
610.889	731.14
611.339	700.54
611.788	702.34
612.238	700.24
612.687	722.54
613.136	728.54
613.586	745.04
614.035	748.24
614.484	764.74
614.933	756.94
615.383	756.74
615.832	740.54
616.281	728.44
616.73	682.24
617.179	662.44
617.628	653.14
618.077	647.74
618.526	623.14
618.975	613.34
619.424	622.64
619.873	618.04
620.322	619.94
620.771	608.04
621.22	611.24
621.669	598.24
622.118	594.84
622.567	580.24
623.015	581.54
623.464	573.14
623.913	563.14
624.361	546.44
624.81	554.84
625.259	558.94
625.707	554.74
626.156	557.64
626.604	565.84
627.053	560.94
627.501	560.64
627.95	570.14
628.398	582.84
628.847	564.84
629.295	564.74
629.744	575.54
630.192	576.14
630.64	574.74
631.089	581.44
631.537	584.34
631.985	596.74
632.433	612.44
632.881	610.94
633.33	661.14
633.778	654.24
634.226	576.54
634.674	575.24
635.122	580.64
635.57	601.44
636.018	631.54
636.466	580.04
636.914	553.64
637.362	565.54
637.81	580.34
638.258	588.64
638.705	585.24
639.153	616.04
639.601	623.24
640.049	640.74
640.497	664.84
640.944	690.34
641.392	641.84
641.84	615.24
642.287	585.14
642.735	573.14
643.182	572.24
643.63	574.34
644.078	588.74
644.525	601.54
644.973	600.74
645.42	607.84
645.867	616.24
646.315	645.44
646.762	672.14
647.21	695.54
647.657	718.64
648.104	757.44
648.551	777.94
648.999	837.24
649.446	928.54
649.893	1008.44
650.34	1181.34
650.787	1411.84
651.234	1763.94
651.682	2298.24
652.129	3174.34
652.576	4593.94
653.023	6744.64
653.47	9217.24
653.917	11424.44
654.363	13123.14
654.81	14401.44
655.257	13710.24
655.704	8957.14
656.151	5328.84
656.598	3427.54
657.044	2431.04
657.491	1871.84
657.938	1501.44
658.385	1259.64
658.831	1076.24
659.278	970.54
659.724	868.34
660.171	790.84
660.618	728.14
661.064	699.94
661.511	678.34
661.957	654.94
662.404	658.74
662.85	653.34
663.296	619.84
663.743	556.14
664.189	544.94
664.635	532.04
665.082	532.84
665.528	529.64
665.974	519.94
666.42	511.44
666.867	504.24
667.313	502.34
667.759	487.64
668.205	493.84
668.651	484.24
669.097	494.64
669.543	516.74
669.989	479.24
670.435	453.54
670.881	449.84
671.327	454.24
671.773	469.74
672.219	495.14
672.665	552.24
673.11	579.54
673.556	626.44
674.002	671.34
674.448	652.54
674.893	543.04
675.339	471.64
675.785	433.04
676.23	415.94
676.676	396.94
677.122	388.04
677.567	373.24
678.013	375.84
678.458	363.74
678.904	357.14
679.349	357.74
679.794	359.64
680.24	354.94
680.685	352.04
681.131	353.84
681.576	355.54
682.021	350.64
682.466	354.04
682.912	348.64
683.357	363.24
683.802	382.54
684.247	417.24
684.692	446.34
685.137	495.94
685.583	538.14
686.028	562.74
686.473	522.64
686.918	446.44
687.363	416.04
687.807	389.94
688.252	372.24
688.697	351.44
689.142	339.14
689.587	330.34
690.032	327.84
690.477	350.24
690.921	355.04
691.366	386.04
691.811	396.94
692.255	435.04
692.7	469.54
693.145	503.64
693.589	713.14
694.034	1156.84
694.478	1557.04
694.923	1722.04
695.367	2241.24
695.812	1186.94
696.256	504.44
696.701	367.04
697.145	345.44
697.59	336.74
698.034	317.34
698.478	339.14
698.922	332.24
699.367	327.14
699.811	346.74
700.255	358.64
700.699	389.34
701.143	433.24
701.588	486.64
702.032	511.54
702.476	518.54
702.92	491.14
703.364	494.44
703.808	658.94
704.252	1057.44
704.696	1464.04
705.14	1665.54
705.584	2105.64
706.027	1053.34
706.471	533.24
706.915	397.84
707.359	358.24
707.803	325.54
708.246	313.84
708.69	308.74
709.134	316.64
709.577	310.24
710.021	316.94
710.465	314.04
710.908	299.14
711.352	302.74
711.795	313.34
712.239	356.84
712.682	383.74
713.126	426.64
713.569	470.04
714.012	370.84
714.456	329.54
714.899	303.64
715.342	281.04
715.786	264.94
716.229	262.44
716.672	256.74
717.115	254.04
717.558	249.74
718.002	247.84
718.445	260.04
718.888	294.44
719.331	295.64
719.774	307.84
720.217	311.14
720.66	280.04
721.103	266.84
721.546	246.64
721.989	249.24
722.432	234.84
722.874	237.44
723.317	244.14
723.76	235.14
724.203	260.74
724.645	320.64
725.088	460.04
725.531	572.04
725.974	645.54
726.416	543.14
726.859	309.34
727.301	250.54
727.744	234.24
728.187	237.94
728.629	243.54
729.071	253.04
729.514	260.24
729.956	269.44
730.399	281.54
730.841	285.34
731.283	278.64
731.726	260.14
732.168	256.94
732.61	261.34
733.053	285.94
733.495	310.54
733.937	353.74
734.379	404.24
734.821	436.24
735.263	558.64
735.705	851.44
736.148	1620.04
736.59	2605.04
737.032	3017.34
737.474	2456.64
737.916	806.54
738.357	428.04
738.799	332.24
739.241	298.74
739.683	280.64
740.125	291.84
740.567	294.94
741.008	319.94
741.45	323.14
741.892	321.04
742.334	349.64
742.775	350.14
743.217	339.64
743.658	272.14
744.1	257.84
744.542	269.24
744.983	308.24
745.425	352.04
745.866	341.54
746.307	289.44
746.749	286.74
747.19	329.44
747.632	462.24
748.073	924.84
748.514	1914.64
748.956	2836.04
749.397	3580.04
749.838	2964.64
750.279	2921.84
750.72	1490.14
751.162	551.44
751.603	323.44
752.044	246.34
752.485	215.14
752.926	210.34
753.367	206.04
753.808	187.84
754.249	189.14
754.69	190.94
755.131	180.04
755.572	183.64
756.013	179.94
756.453	182.64
756.894	199.44
757.335	189.34
757.776	189.84
758.216	187.04
758.657	192.94
759.098	205.44
759.538	229.94
759.979	269.64
760.42	379.54
760.86	730.94
761.301	1893.84
761.741	4482.54
762.182	6308.54
762.622	4453.94
