Data from 20171114-ORNL-Ar_H_NY_Subt18_08-08-32-581.txt Node
Date: Tue Nov 14 08:08:32 EST 2017
User: Ender
Spectrometer: HR+D1039
Trigger mode: 0
Integration Time (sec): 2.730000E-2
Scans to average: 10
Electric dark correction enabled: true
Nonlinearity correction enabled: false
Boxcar width: 0
XAxis mode: Wavelengths
Number of Pixels in Spectrum: 2048
>>>>>Begin Spectral Data<<<<<
187.836	1.65
188.309	1.65
188.782	1.65
189.255	4.45
189.728	-7.15
190.201	5.65
190.674	0.75
191.147	-1.45
191.619	-13.05
192.092	-1.25
192.565	5.25
193.038	2.05
193.511	-3.35
193.984	0.95
194.456	0.35
194.929	-0.15
195.402	0.85
195.874	4.45
196.347	-3.25
196.82	-1.55
197.292	6.65
197.765	3.45
198.237	-7.65
198.71	3.95
199.182	-4.65
199.655	3.35
200.127	3.15
200.6	-3.25
201.072	1.55
201.544	-5.45
202.017	3.15
202.489	8.85
202.961	0.75
203.433	-4.15
203.906	-4.85
204.378	-4.85
204.85	-2.55
205.322	-7.25
205.794	5.65
206.266	-1.45
206.739	-4.75
207.211	2.75
207.683	-7.85
208.155	-4.65
208.627	-1.55
209.099	-1.25
209.57	-6.25
210.042	-2.55
210.514	-1.45
210.986	1.55
211.458	-4.25
211.93	0.05
212.402	1.85
212.873	-5.65
213.345	-4.75
213.817	-9.95
214.288	-2.25
214.76	-13.45
215.232	-4.65
215.703	-6.15
216.175	-4.85
216.646	-6.55
217.118	-0.45
217.589	-6.55
218.061	-0.15
218.532	-1.85
219.004	-1.35
219.475	0.85
219.946	-5.35
220.418	-6.35
220.889	3.55
221.36	-1.25
221.832	-2.15
222.303	-7.65
222.774	-1.35
223.245	-6.65
223.717	-7.85
224.188	-4.55
224.659	-5.65
225.13	-5.15
225.601	2.65
226.072	-1.25
226.543	1.65
227.014	3.95
227.485	-3.85
227.956	0.65
228.427	-2.95
228.898	1.25
229.369	5.25
229.839	-3.65
230.31	-7.65
230.781	2.75
231.252	-1.85
231.722	-7.85
232.193	-11.25
232.664	-2.85
233.135	1.95
233.605	-3.85
234.076	-8.15
234.546	4.05
235.017	5.95
235.487	-1.45
235.958	-1.55
236.428	-1.45
236.899	-0.65
237.369	2.65
237.84	3.15
238.31	5.55
238.78	-0.55
239.251	-6.45
239.721	-4.25
240.191	-1.05
240.662	-6.25
241.132	1.85
241.602	-5.65
242.072	4.65
242.542	7.35
243.013	-3.55
243.483	3.75
243.953	7.45
244.423	-3.75
244.893	-6.05
245.363	3.25
245.833	-6.15
246.303	-5.85
246.773	2.75
247.243	3.75
247.712	2.25
248.182	6.25
248.652	3.45
249.122	-9.85
249.592	2.65
250.061	3.65
250.531	18.15
251.001	-1.85
251.471	10.25
251.94	9.25
252.41	2.05
252.879	2.65
253.349	8.15
253.818	3.15
254.288	4.15
254.757	6.15
255.227	-3.45
255.696	-3.75
256.166	6.15
256.635	0.55
257.105	6.05
257.574	0.85
258.043	-0.45
258.513	1.35
258.982	5.55
259.451	0.05
259.92	8.75
260.389	6.45
260.859	14.15
261.328	8.65
261.797	7.45
262.266	2.35
262.735	2.95
263.204	2.65
263.673	1.15
264.142	10.25
264.611	-4.35
265.08	-0.15
265.549	3.25
266.018	5.55
266.487	0.85
266.955	0.65
267.424	-2.55
267.893	6.05
268.362	-3.75
268.83	2.45
269.299	12.25
269.768	1.65
270.236	4.65
270.705	6.25
271.174	7.75
271.642	7.95
272.111	6.25
272.579	7.25
273.048	4.05
273.516	5.45
273.985	7.25
274.453	9.95
274.922	10.25
275.39	12.85
275.858	-2.05
276.327	4.85
276.795	13.85
277.263	6.95
277.731	18.65
278.2	17.65
278.668	18.35
279.136	22.55
279.604	6.85
280.072	11.35
280.54	10.65
281.008	7.15
281.477	12.25
281.945	10.65
282.413	20.25
282.881	18.95
283.348	3.85
283.816	6.55
284.284	13.85
284.752	18.55
285.22	11.95
285.688	9.75
286.156	17.45
286.623	22.35
287.091	16.65
287.559	18.95
288.026	10.95
288.494	12.55
288.962	3.15
289.429	9.15
289.897	13.75
290.364	17.95
290.832	13.75
291.3	7.05
291.767	15.85
292.234	19.95
292.702	11.65
293.169	12.45
293.637	21.85
294.104	19.25
294.571	8.35
295.039	7.55
295.506	10.45
295.973	14.15
296.44	16.05
296.908	19.45
297.375	14.15
297.842	23.05
298.309	18.75
298.776	13.35
299.243	19.35
299.71	12.55
300.177	20.65
300.644	20.55
301.111	19.35
301.578	24.85
302.045	17.95
302.512	22.05
302.979	21.05
303.446	25.05
303.913	16.15
304.379	20.65
304.846	28.45
305.313	23.85
305.78	22.35
306.246	25.85
306.713	25.55
307.18	21.55
307.646	28.05
308.113	21.65
308.579	24.15
309.046	23.75
309.512	25.95
309.979	19.95
310.445	27.55
310.912	25.25
311.378	31.35
311.845	28.05
312.311	30.35
312.777	36.45
313.244	28.85
313.71	36.45
314.176	34.05
314.642	31.35
315.109	22.95
315.575	35.15
316.041	35.55
316.507	29.95
316.973	34.55
317.439	33.55
317.905	33.35
318.371	36.25
318.837	32.35
319.303	30.75
319.769	33.05
320.235	32.15
320.701	34.45
321.167	38.55
321.633	31.65
322.099	35.45
322.564	35.25
323.03	35.55
323.496	35.15
323.962	40.45
324.427	33.15
324.893	42.85
325.359	41.25
325.824	34.95
326.29	41.35
326.755	42.05
327.221	40.45
327.686	37.75
328.152	45.25
328.617	47.35
329.083	42.95
329.548	50.65
330.014	46.65
330.479	44.25
330.944	39.45
331.41	39.05
331.875	42.45
332.34	42.25
332.805	40.55
333.271	40.65
333.736	40.45
334.201	54.85
334.666	54.95
335.131	41.05
335.596	41.95
336.061	43.65
336.526	40.85
336.991	44.95
337.456	58.25
337.921	47.35
338.386	48.15
338.851	45.55
339.316	50.65
339.781	48.85
340.246	51.85
340.711	44.15
341.175	49.45
341.64	47.15
342.105	48.05
342.569	54.15
343.034	58.05
343.499	51.75
343.963	51.85
344.428	67.05
344.893	63.45
345.357	62.75
345.822	62.95
346.286	72.05
346.751	70.35
347.215	72.25
347.679	78.75
348.144	100.05
348.608	86.65
349.073	73.05
349.537	76.95
350.001	79.65
350.465	88.45
350.93	77.25
351.394	78.35
351.858	70.75
352.322	84.85
352.786	80.85
353.25	101.65
353.715	107.25
354.179	98.05
354.643	120.55
355.107	121.55
355.571	105.05
356.035	93.55
356.498	114.85
356.962	114.95
357.426	127.65
357.89	114.55
358.354	91.65
358.818	83.15
359.281	77.65
359.745	74.25
360.209	70.95
360.673	75.55
361.136	83.15
361.6	81.15
362.064	87.75
362.527	86.35
362.991	89.85
363.454	82.05
363.918	80.75
364.381	86.45
364.845	89.95
365.308	88.15
365.772	93.35
366.235	87.75
366.698	82.95
367.162	92.35
367.625	83.35
368.088	92.75
368.552	90.85
369.015	92.75
369.478	98.95
369.941	103.85
370.404	97.45
370.867	105.55
371.331	105.05
371.794	111.25
372.257	105.85
372.72	112.15
373.183	107.65
373.646	93.65
374.109	101.05
374.572	104.55
375.035	103.05
375.497	114.85
375.96	118.65
376.423	107.15
376.886	121.05
377.349	114.35
377.811	110.95
378.274	106.65
378.737	107.15
379.199	110.95
379.662	115.25
380.125	112.95
380.587	108.35
381.05	113.85
381.512	123.25
381.975	133.65
382.437	122.55
382.9	119.85
383.362	133.25
383.825	134.05
384.287	131.55
384.75	128.85
385.212	136.85
385.674	147.75
386.136	137.05
386.599	124.05
387.061	126.95
387.523	134.85
387.985	132.45
388.447	139.25
388.91	136.05
389.372	141.65
389.834	140.25
390.296	138.25
390.758	140.65
391.22	143.95
391.682	169.05
392.144	186.95
392.606	168.15
393.068	156.05
393.529	157.35
393.991	154.65
394.453	144.05
394.915	146.15
395.377	145.05
395.838	156.75
396.3	150.15
396.762	156.95
397.224	150.05
397.685	130.25
398.147	139.05
398.608	141.25
399.07	137.35
399.531	140.75
399.993	154.35
400.454	159.85
400.916	159.35
401.377	157.65
401.839	162.45
402.3	162.85
402.762	184.65
403.223	190.25
403.684	179.75
404.145	172.35
404.607	179.35
405.068	171.55
405.529	178.65
405.99	197.15
406.451	188.55
406.913	186.65
407.374	179.15
407.835	178.45
408.296	181.65
408.757	185.75
409.218	205.45
409.679	189.55
410.14	186.55
410.601	188.55
411.062	191.25
411.522	194.55
411.983	189.65
412.444	185.35
412.905	201.45
413.366	196.05
413.826	208.05
414.287	237.25
414.748	289.55
415.208	268.55
415.669	229.65
416.13	229.85
416.59	226.25
417.051	234.25
417.511	238.85
417.972	260.25
418.432	266.65
418.893	312.45
419.353	277.85
419.814	218.25
420.274	199.85
420.734	198.55
421.195	212.45
421.655	211.55
422.115	211.55
422.576	207.65
423.036	219.55
423.496	232.05
423.956	237.25
424.416	249.25
424.876	289.05
425.336	284.95
425.797	277.05
426.257	282.75
426.717	263.75
427.177	250.55
427.637	239.35
428.097	248.05
428.556	270.95
429.016	292.25
429.476	282.05
429.936	291.45
430.396	300.25
430.856	311.45
431.315	330.05
431.775	368.55
432.235	401.75
432.694	376.15
433.154	384.85
433.614	413.35
434.073	367.75
434.533	298.95
434.993	289.75
435.452	296.55
435.912	307.95
436.371	308.75
436.83	300.75
437.29	287.95
437.749	272.75
438.209	274.45
438.668	293.95
439.127	312.55
439.587	282.45
440.046	268.15
440.505	283.55
440.964	295.65
441.424	347.65
441.883	336.75
442.342	275.65
442.801	248.85
443.26	250.25
443.719	243.05
444.178	245.15
444.637	226.05
445.096	240.85
445.555	246.35
446.014	245.05
446.473	251.85
446.932	254.25
447.391	241.15
447.849	255.35
448.308	241.75
448.767	244.45
449.226	258.95
449.685	263.15
450.143	274.85
450.602	259.45
451.061	249.95
451.519	257.85
451.978	254.15
452.436	247.95
452.895	257.95
453.353	274.55
453.812	264.35
454.27	266.75
454.729	264.05
455.187	264.45
455.646	267.75
456.104	268.75
456.562	285.05
457.021	290.55
457.479	288.05
457.937	304.25
458.395	282.15
458.854	277.85
459.312	294.85
459.77	290.85
460.228	284.25
460.686	266.65
461.144	274.55
461.602	275.05
462.06	273.45
462.518	276.85
462.976	287.65
463.434	285.25
463.892	289.35
464.35	300.95
464.808	321.35
465.266	294.85
465.724	294.05
466.181	302.05
466.639	295.85
467.097	318.75
467.555	329.55
468.012	329.65
468.47	341.35
468.928	356.45
469.385	373.45
469.843	377.65
470.3	382.65
470.758	391.45
471.215	420.05
471.673	437.05
472.13	441.95
472.588	456.15
473.045	413.25
473.503	413.75
473.96	436.75
474.417	438.65
474.875	468.25
475.332	517.65
475.789	498.85
476.246	509.15
476.704	525.35
477.161	547.55
477.618	571.05
478.075	596.75
478.532	661.75
478.989	730.75
479.446	853.35
479.903	810.35
480.36	844.55
480.817	884.45
481.274	985.95
481.731	1085.85
482.188	1166.75
482.645	1295.15
483.102	1383.55
483.558	1526.25
484.015	1557.05
484.472	1536.35
484.929	1492.55
485.385	1446.65
485.842	1401.35
486.299	1343.65
486.755	1317.25
487.212	1116.35
487.668	968.25
488.125	884.15
488.582	817.15
489.038	781.35
489.494	745.95
489.951	723.35
490.407	705.95
490.864	688.85
491.32	689.65
491.776	684.95
492.233	699.65
492.689	659.95
493.145	656.55
493.602	637.95
494.058	653.45
494.514	658.05
494.97	689.65
495.426	692.55
495.882	661.75
496.338	643.25
496.794	653.95
497.251	650.05
497.707	674.05
498.163	676.55
498.618	683.55
499.074	684.45
499.53	713.65
499.986	713.95
500.442	693.35
500.898	672.25
501.354	658.15
501.809	667.15
502.265	669.75
502.721	687.45
503.177	697.45
503.632	691.95
504.088	702.85
504.543	725.35
504.999	739.05
505.455	701.75
505.91	684.85
506.366	684.15
506.821	680.55
507.277	677.05
507.732	678.05
508.187	682.55
508.643	686.65
509.098	689.95
509.553	707.65
510.009	703.85
510.464	718.35
510.919	738.55
511.375	741.95
511.83	757.85
512.285	779.75
512.74	813.75
513.195	838.75
513.65	819.65
514.105	818.55
514.56	822.15
515.015	833.05
515.47	861.75
515.925	828.05
516.38	840.85
516.835	847.05
517.29	831.45
517.745	825.25
518.2	815.55
518.655	796.85
519.109	800.75
519.564	791.15
520.019	783.15
520.474	773.15
520.928	764.45
521.383	758.95
521.838	756.85
522.292	756.85
522.747	757.85
523.201	750.15
523.656	747.55
524.11	746.15
524.565	744.35
525.019	734.55
525.474	739.65
525.928	760.15
526.382	748.95
526.837	743.35
527.291	749.45
527.745	738.75
528.2	741.15
528.654	741.45
529.108	737.95
529.562	752.95
530.016	734.85
530.47	739.05
530.925	732.25
531.379	739.15
531.833	751.25
532.287	745.75
532.741	753.95
533.195	751.05
533.649	757.15
534.103	760.25
534.556	746.05
535.01	754.25
535.464	751.15
535.918	757.55
536.372	764.05
536.826	757.45
537.279	746.85
537.733	762.65
538.187	767.35
538.64	765.65
539.094	772.55
539.548	781.45
540.001	779.75
540.455	775.85
540.908	788.85
541.362	791.65
541.815	792.95
542.269	810.95
542.722	806.45
543.175	827.05
543.629	823.15
544.082	842.15
544.536	838.25
544.989	840.05
545.442	848.65
545.895	850.85
546.349	855.15
546.802	848.65
547.255	863.85
547.708	866.95
548.161	878.05
548.614	877.75
549.067	897.95
549.52	874.95
549.973	871.25
550.426	866.45
550.879	855.25
551.332	856.45
551.785	860.45
552.238	869.15
552.691	879.65
553.144	888.25
553.596	909.75
554.049	926.15
554.502	947.05
554.955	966.85
555.407	973.65
555.86	956.55
556.313	950.55
556.765	928.75
557.218	936.15
557.67	932.85
558.123	935.15
558.576	933.45
559.028	936.15
559.48	951.85
559.933	935.05
560.385	906.95
560.838	873.35
561.29	848.55
561.742	833.15
562.195	824.45
562.647	814.75
563.099	844.75
563.551	837.75
564.004	834.45
564.456	833.35
564.908	816.35
565.36	786.35
565.812	771.95
566.264	773.95
566.716	772.25
567.168	757.75
567.62	750.15
568.072	740.25
568.524	755.15
568.976	735.95
569.428	725.45
569.88	725.65
570.332	730.15
570.784	729.85
571.235	742.85
571.687	747.75
572.139	759.75
572.59	769.25
573.042	768.95
573.494	760.15
573.945	755.45
574.397	737.05
574.849	740.05
575.3	738.45
575.752	716.95
576.203	728.85
576.655	727.75
577.106	719.65
577.557	720.45
578.009	726.45
578.46	721.45
578.912	713.35
579.363	712.05
579.814	713.05
580.265	705.35
580.717	712.05
581.168	718.95
581.619	724.05
582.07	743.95
582.521	728.75
582.972	714.65
583.423	716.45
583.875	729.25
584.326	734.75
584.777	750.25
585.227	787.75
585.678	803.45
586.129	836.75
586.58	872.55
587.031	905.15
587.482	951.45
587.933	1009.75
588.384	959.65
588.834	880.35
589.285	838.15
589.736	827.55
590.186	829.95
590.637	814.95
591.088	792.15
591.538	787.55
591.989	784.95
592.439	776.95
592.89	769.85
593.34	758.35
593.791	757.15
594.241	747.35
594.692	754.95
595.142	743.35
595.593	742.45
596.043	749.85
596.493	756.05
596.943	758.05
597.394	764.05
597.844	760.55
598.294	788.05
598.744	798.75
599.195	830.05
599.645	879.15
600.095	926.05
600.545	981.85
600.995	1035.95
601.445	1094.45
601.895	1151.45
602.345	1214.55
602.795	1194.45
603.245	1147.55
603.695	1087.05
604.145	1018.75
604.594	971.05
605.044	926.05
605.494	864.15
605.944	817.15
606.393	788.75
606.843	774.35
607.293	786.75
607.743	788.05
608.192	781.05
608.642	811.25
609.091	814.65
609.541	824.25
609.99	818.25
610.44	815.65
610.889	762.15
611.339	738.15
611.788	727.95
612.238	723.45
612.687	752.65
613.136	747.55
613.586	760.65
614.035	754.15
614.484	758.75
614.933	763.55
615.383	760.65
615.832	765.25
616.281	741.85
616.73	719.95
617.179	693.85
617.628	690.15
618.077	675.05
618.526	658.75
618.975	655.25
619.424	651.65
619.873	650.75
620.322	658.05
620.771	650.15
621.22	639.95
621.669	635.65
622.118	632.65
622.567	615.85
623.015	604.45
623.464	611.55
623.913	604.95
624.361	583.65
624.81	585.35
625.259	593.05
625.707	591.05
626.156	595.15
626.604	611.05
627.053	603.05
627.501	603.35
627.95	606.15
628.398	610.35
628.847	604.05
629.295	605.65
629.744	614.95
630.192	606.45
630.64	610.15
631.089	590.65
631.537	585.45
631.985	579.45
632.433	570.45
632.881	570.75
633.33	583.95
633.778	571.75
634.226	563.45
634.674	573.85
635.122	572.75
635.57	588.45
636.018	606.65
636.466	594.05
636.914	597.05
637.362	610.55
637.81	612.25
638.258	615.55
638.705	625.95
639.153	657.55
639.601	655.35
640.049	702.05
640.497	714.15
640.944	742.45
641.392	680.15
641.84	658.95
642.287	614.25
642.735	606.15
643.182	604.15
643.63	602.45
644.078	603.85
644.525	611.75
644.973	630.25
645.42	629.25
645.867	661.05
646.315	662.95
646.762	701.05
647.21	724.35
647.657	736.05
648.104	784.15
648.551	806.95
648.999	859.75
649.446	952.05
649.893	1040.65
650.34	1171.55
650.787	1411.65
651.234	1750.25
651.682	2261.25
652.129	3070.85
652.576	4366.85
653.023	6344.25
653.47	8569.75
653.917	10584.25
654.363	12127.45
654.81	13282.75
655.257	12616.25
655.704	8389.15
656.151	5044.55
656.598	3309.95
657.044	2362.95
657.491	1836.75
657.938	1490.15
658.385	1244.05
658.831	1109.65
659.278	978.15
659.724	860.95
660.171	811.35
660.618	744.75
661.064	727.15
661.511	703.45
661.957	688.05
662.404	672.95
662.85	684.75
663.296	668.05
663.743	591.85
664.189	567.65
664.635	562.25
665.082	557.65
665.528	558.15
665.974	544.15
666.42	540.05
666.867	540.45
667.313	514.45
667.759	496.35
668.205	487.65
668.651	483.45
669.097	481.55
669.543	476.45
669.989	475.25
670.435	473.75
670.881	478.95
671.327	481.25
671.773	507.35
672.219	533.75
672.665	584.95
673.11	624.65
673.556	676.55
674.002	715.25
674.448	700.25
674.893	583.35
675.339	515.25
675.785	476.35
676.23	460.45
676.676	424.75
677.122	417.65
677.567	400.55
678.013	401.35
678.458	386.75
678.904	386.35
679.349	369.55
679.794	382.75
680.24	380.05
680.685	379.85
681.131	369.25
681.576	377.75
682.021	384.95
682.466	377.35
682.912	375.05
683.357	379.95
683.802	404.05
684.247	441.95
684.692	490.35
685.137	529.95
685.583	590.95
686.028	607.25
686.473	561.35
686.918	484.25
687.363	450.55
687.807	426.25
688.252	399.95
688.697	376.55
689.142	360.95
689.587	357.05
690.032	351.85
690.477	374.25
690.921	377.25
691.366	410.95
691.811	437.55
692.255	463.95
692.7	488.75
693.145	559.05
693.589	779.75
694.034	1260.65
694.478	1673.35
694.923	1867.95
695.367	2404.35
695.812	1289.85
696.256	537.05
696.701	397.95
697.145	366.45
697.59	350.75
698.034	352.25
698.478	344.75
698.922	352.65
699.367	351.45
699.811	361.35
700.255	383.15
700.699	410.65
701.143	458.55
701.588	506.35
702.032	554.95
702.476	553.75
702.92	527.15
703.364	534.25
703.808	702.55
704.252	1149.65
704.696	1584.05
705.14	1803.35
705.584	2273.55
706.027	1154.85
706.471	562.75
706.915	429.95
707.359	378.35
707.803	346.95
708.246	334.95
708.69	331.85
709.134	336.85
709.577	329.75
710.021	333.95
710.465	328.15
710.908	325.85
711.352	322.55
711.795	342.65
712.239	381.15
712.682	422.55
713.126	449.65
713.569	494.25
714.012	386.75
714.456	322.85
714.899	315.25
715.342	297.65
715.786	280.55
716.229	276.35
716.672	278.95
717.115	276.55
717.558	270.95
718.002	272.15
718.445	280.15
718.888	309.65
719.331	315.75
719.774	331.05
720.217	331.55
720.66	302.55
721.103	283.15
721.546	276.65
721.989	263.35
722.432	247.95
722.874	257.45
723.317	255.65
723.76	248.35
724.203	279.75
724.645	352.35
725.088	490.35
725.531	623.45
725.974	687.75
726.416	587.05
726.859	341.55
727.301	265.25
727.744	254.45
728.187	252.25
728.629	259.25
729.071	269.75
729.514	281.45
729.956	295.15
730.399	304.65
730.841	316.65
731.283	291.15
731.726	294.45
732.168	280.95
732.61	294.05
733.053	305.35
733.495	344.25
733.937	383.25
734.379	427.65
734.821	471.15
735.263	601.05
735.705	946.45
736.148	1772.15
736.59	2825.15
737.032	3269.75
737.474	2671.15
737.916	885.95
738.357	469.65
738.799	351.25
739.241	322.05
739.683	304.15
740.125	319.55
740.567	324.15
741.008	342.35
741.45	339.15
741.892	345.65
742.334	378.95
742.775	393.85
743.217	372.55
743.658	299.85
744.1	280.05
744.542	287.95
744.983	349.65
745.425	377.35
745.866	376.85
746.307	303.15
746.749	305.65
747.19	352.65
747.632	508.25
748.073	988.05
748.514	2095.15
748.956	3115.55
749.397	3912.55
749.838	3245.85
750.279	3151.75
750.72	1614.55
751.162	597.25
751.603	350.45
752.044	276.55
752.485	242.35
752.926	230.75
753.367	221.25
753.808	210.05
754.249	211.45
754.69	198.75
755.131	200.35
755.572	191.45
756.013	194.45
756.453	199.65
756.894	204.75
757.335	217.75
757.776	213.75
758.216	214.85
758.657	211.55
759.098	217.95
759.538	248.75
759.979	296.85
760.42	409.75
760.86	795.25
761.301	2083.05
761.741	4929.45
762.182	6851.55
762.622	4856.35
763.063	1435.15
