Data from 20171114-ORNL-Ar_H_NY_Subt18_08-08-31-763.txt Node
Date: Tue Nov 14 08:08:31 EST 2017
User: Ender
Spectrometer: HR+D1039
Trigger mode: 0
Integration Time (sec): 2.730000E-2
Scans to average: 10
Electric dark correction enabled: true
Nonlinearity correction enabled: false
Boxcar width: 0
XAxis mode: Wavelengths
Number of Pixels in Spectrum: 2048
>>>>>Begin Spectral Data<<<<<
187.836	-4.3
188.309	-4.3
188.782	-4.3
189.255	5
189.728	-5
190.201	4
190.674	5.2
191.147	0.8
191.619	-10.3
192.092	-2.5
192.565	8.8
193.038	1.1
193.511	-2.8
193.984	2.3
194.456	-5
194.929	2.3
195.402	-0.1
195.874	0.5
196.347	0.4
196.82	-5.9
197.292	1.7
197.765	-4.6
198.237	-12.2
198.71	-0.4
199.182	-0.9
199.655	1.4
200.127	4
200.6	0.1
201.072	-0.4
201.544	-7.3
202.017	-8.3
202.489	0.5
202.961	-8
203.433	-4.6
203.906	-6.6
204.378	-8.7
204.85	-5.7
205.322	-5.8
205.794	4.4
206.266	-5.1
206.739	-10.8
207.211	1
207.683	-5.7
208.155	-12.2
208.627	-9
209.099	-5.9
209.57	-7.3
210.042	-6
210.514	-8.4
210.986	-4.5
211.458	-11.1
211.93	-5.6
212.402	0.1
212.873	-8.7
213.345	-10
213.817	-10.8
214.288	-9.2
214.76	-14
215.232	-6.1
215.703	-3.3
216.175	-5.3
216.646	-6.7
217.118	-2.4
217.589	-4.2
218.061	-4.5
218.532	-3.8
219.004	-3.1
219.475	-2.1
219.946	-3.9
220.418	-3.9
220.889	3
221.36	0.1
221.832	-5.2
222.303	-9.8
222.774	-3.6
223.245	-11.8
223.717	-9.2
224.188	-9
224.659	-11.3
225.13	-6.9
225.601	-6.5
226.072	-2.7
226.543	-5.5
227.014	0.8
227.485	-1.1
227.956	-9.9
228.427	-2.4
228.898	0.1
229.369	3.9
229.839	-6
230.31	-10.7
230.781	1.6
231.252	-3.2
231.722	-4.8
232.193	-6.6
232.664	-3.2
233.135	0.3
233.605	-2.5
234.076	-1.9
234.546	1.1
235.017	-3.6
235.487	0.6
235.958	-1.4
236.428	1.7
236.899	-1.6
237.369	-2.3
237.84	-5.9
238.31	-2
238.78	-5.7
239.251	-5.8
239.721	-6.6
240.191	-5.3
240.662	-4.8
241.132	-4.5
241.602	-3.1
242.072	-5.6
242.542	0.3
243.013	-2.9
243.483	2.3
243.953	0.2
244.423	-3.8
244.893	-5.3
245.363	-1.2
245.833	1.2
246.303	-4
246.773	-2.7
247.243	0.1
247.712	-1.9
248.182	0.3
248.652	1.6
249.122	-6.4
249.592	-3.5
250.061	6.6
250.531	9.1
251.001	0.2
251.471	7.2
251.94	5.4
252.41	0.9
252.879	-3.3
253.349	10
253.818	6.1
254.288	-0.1
254.757	2.1
255.227	-4.7
255.696	0.6
256.166	4.5
256.635	5.2
257.105	4.7
257.574	1.1
258.043	-4.8
258.513	-12.3
258.982	3.3
259.451	-2.5
259.92	-0.3
260.389	-0.2
260.859	9.6
261.328	2.1
261.797	1.7
262.266	-6.4
262.735	4.9
263.204	2.2
263.673	-1.5
264.142	-1.2
264.611	-3.6
265.08	-0.1
265.549	-4.3
266.018	-1.1
266.487	-3.8
266.955	-5
267.424	4.1
267.893	10.4
268.362	0.8
268.83	5.6
269.299	5.6
269.768	3.3
270.236	0.6
270.705	-4.2
271.174	-4
271.642	-0.9
272.111	1.7
272.579	-5.2
273.048	7
273.516	-1.8
273.985	7
274.453	4.8
274.922	7.3
275.39	3.5
275.858	-0.3
276.327	4.8
276.795	5.7
277.263	4.7
277.731	8.8
278.2	9.1
278.668	9.8
279.136	8.6
279.604	1.8
280.072	5.7
280.54	7.8
281.008	6.5
281.477	11.6
281.945	7.6
282.413	7.8
282.881	3.4
283.348	7.8
283.816	12.1
284.284	10.6
284.752	16.6
285.22	15.5
285.688	10.7
286.156	4.8
286.623	18.7
287.091	7.5
287.559	10.5
288.026	12.8
288.494	11.5
288.962	3.1
289.429	4
289.897	18.4
290.364	14.9
290.832	13.8
291.3	7.5
291.767	11.8
292.234	17.9
292.702	8.4
293.169	11.7
293.637	19.8
294.104	14
294.571	6.9
295.039	7.4
295.506	14.9
295.973	15.5
296.44	10.6
296.908	10
297.375	14.3
297.842	14.8
298.309	16.5
298.776	10.9
299.243	14.4
299.71	8
300.177	16.2
300.644	16.4
301.111	18.3
301.578	18.1
302.045	8.7
302.512	18.7
302.979	20.5
303.446	14
303.913	11.7
304.379	13.1
304.846	20.5
305.313	20.1
305.78	19.2
306.246	22.7
306.713	26.4
307.18	27.6
307.646	22.7
308.113	19.9
308.579	23.8
309.046	21.2
309.512	23.8
309.979	9.6
310.445	21.9
310.912	21.5
311.378	28.6
311.845	22.5
312.311	30
312.777	32.1
313.244	26.2
313.71	36.4
314.176	24.7
314.642	21
315.109	21.4
315.575	25.5
316.041	34.7
316.507	27.6
316.973	26.5
317.439	23.8
317.905	32.4
318.371	31
318.837	29.9
319.303	23.8
319.769	26.9
320.235	27.7
320.701	30
321.167	36.9
321.633	39.8
322.099	34.5
322.564	35.1
323.03	22.8
323.496	31.9
323.962	34.7
324.427	34.2
324.893	38.4
325.359	32.6
325.824	33
326.29	37.3
326.755	31.8
327.221	38.2
327.686	35.4
328.152	45
328.617	40.9
329.083	42.4
329.548	44.3
330.014	40.2
330.479	42.6
330.944	39.4
331.41	43.3
331.875	46.8
332.34	38.2
332.805	38.7
333.271	39.2
333.736	38
334.201	45.7
334.666	49.9
335.131	42.1
335.596	43.4
336.061	41.1
336.526	31.7
336.991	48.1
337.456	49.5
337.921	49.7
338.386	42.9
338.851	45.4
339.316	47.6
339.781	48.5
340.246	48.5
340.711	48.4
341.175	54.5
341.64	44.7
342.105	46.1
342.569	50.1
343.034	57.6
343.499	53.5
343.963	46.2
344.428	56.9
344.893	58.2
345.357	59.8
345.822	53.2
346.286	60.3
346.751	65.9
347.215	68.3
347.679	72.1
348.144	87.4
348.608	81.3
349.073	62.1
349.537	66.5
350.001	72.1
350.465	82.7
350.93	80.5
351.394	76.3
351.858	68.7
352.322	77.2
352.786	82.8
353.25	98.7
353.715	108.6
354.179	95
354.643	111.2
355.107	116.2
355.571	102
356.035	94.5
356.498	108.7
356.962	110.1
357.426	117.6
357.89	107.8
358.354	84.7
358.818	76.5
359.281	72.2
359.745	73.4
360.209	74
360.673	71.3
361.136	81.1
361.6	78
362.064	83.9
362.527	84.8
362.991	97.3
363.454	74.7
363.918	73.3
364.381	73.9
364.845	78.6
365.308	74.5
365.772	80
366.235	88.5
366.698	81.7
367.162	83.5
367.625	75
368.088	83.4
368.552	89.2
369.015	86.3
369.478	96.8
369.941	100.2
370.404	91.3
370.867	101.2
371.331	102.6
371.794	107.2
372.257	99.5
372.72	106.3
373.183	97.9
373.646	82.9
374.109	96.1
374.572	95.8
375.035	90.4
375.497	107
375.96	101.4
376.423	103
376.886	115
377.349	111.4
377.811	102.6
378.274	97.3
378.737	108.4
379.199	105.7
379.662	111.6
380.125	107.7
380.587	112
381.05	107.2
381.512	112.9
381.975	119.2
382.437	117.4
382.9	113.1
383.362	121.6
383.825	126.6
384.287	127.6
384.75	123.9
385.212	126.4
385.674	132.4
386.136	134.3
386.599	114.1
387.061	123.9
387.523	130.2
387.985	125.5
388.447	133
388.91	125.6
389.372	121.8
389.834	130.1
390.296	128
390.758	125.6
391.22	137.3
391.682	145.6
392.144	154.6
392.606	137.1
393.068	139.9
393.529	151.1
393.991	136.8
394.453	132.9
394.915	133.8
395.377	135.8
395.838	139.3
396.3	133
396.762	133.4
397.224	136.1
397.685	130.1
398.147	132.5
398.608	133.7
399.07	130.4
399.531	133.6
399.993	142.6
400.454	156
400.916	144.6
401.377	152.5
401.839	156.9
402.3	156.8
402.762	168.2
403.223	181.7
403.684	167.4
404.145	161.9
404.607	161.2
405.068	166.9
405.529	169.8
405.99	182.7
406.451	178.8
406.913	174.3
407.374	166.9
407.835	164.7
408.296	171.7
408.757	166.7
409.218	187.9
409.679	180.5
410.14	170.6
410.601	184.2
411.062	180.3
411.522	189.5
411.983	177.9
412.444	180
412.905	193.8
413.366	190.2
413.826	208
414.287	223.9
414.748	270.4
415.208	262.5
415.669	229.6
416.13	217.5
416.59	213.4
417.051	227.6
417.511	225.4
417.972	246.4
418.432	266.4
418.893	300.4
419.353	255.8
419.814	210.1
420.274	188.7
420.734	190.2
421.195	213.3
421.655	189.9
422.115	201.9
422.576	206.8
423.036	203.1
423.496	217.7
423.956	231.9
424.416	238.9
424.876	277.6
425.336	277.5
425.797	270.1
426.257	264.1
426.717	244
427.177	244.2
427.637	231.3
428.097	240.4
428.556	246.4
429.016	271.9
429.476	271
429.936	275.2
430.396	283.1
430.856	289.9
431.315	310
431.775	351.6
432.235	383.6
432.694	352.1
433.154	363.5
433.614	399.4
434.073	347
434.533	287.8
434.993	272.6
435.452	285.5
435.912	295.6
436.371	296.7
436.83	285.5
437.29	275.1
437.749	258.8
438.209	252
438.668	289.1
439.127	302.6
439.587	270.5
440.046	251.5
440.505	269
440.964	284.7
441.424	336.1
441.883	326.1
442.342	274.1
442.801	242.7
443.26	235.3
443.719	231.8
444.178	235.1
444.637	234.3
445.096	231.3
445.555	234.6
446.014	243.3
446.473	240.4
446.932	247.9
447.391	245.1
447.849	245.2
448.308	234.2
448.767	236.9
449.226	254.1
449.685	251.4
450.143	260.7
450.602	252.3
451.061	242.3
451.519	245.3
451.978	246.8
452.436	246.6
452.895	252
453.353	272.3
453.812	249.2
454.27	257.5
454.729	245.5
455.187	248.2
455.646	259.4
456.104	266
456.562	282.3
457.021	286.9
457.479	270
457.937	280.8
458.395	272.8
458.854	270.2
459.312	276.6
459.77	296.3
460.228	270.5
460.686	256.6
461.144	265.2
461.602	250.7
462.06	249.4
462.518	263.3
462.976	269.2
463.434	270.9
463.892	278.7
464.35	288.9
464.808	301.9
465.266	273.6
465.724	282.8
466.181	283.7
466.639	279.6
467.097	301.5
467.555	313.3
468.012	321
468.47	334.7
468.928	346.1
469.385	359.4
469.843	365.4
470.3	364.5
470.758	381.9
471.215	401.4
471.673	433.5
472.13	434
472.588	440.1
473.045	393.8
473.503	397.9
473.96	410.8
474.417	421.2
474.875	452.7
475.332	494.4
475.789	480.4
476.246	482.7
476.704	503.2
477.161	523.6
477.618	550.8
478.075	574.6
478.532	637.3
478.989	704.9
479.446	829.2
479.903	774.8
480.36	803.6
480.817	864.3
481.274	943.5
481.731	1035.9
482.188	1109.8
482.645	1218.7
483.102	1314.1
483.558	1432
484.015	1489.3
484.472	1453.6
484.929	1412.2
485.385	1370.7
485.842	1356.1
486.299	1291.5
486.755	1262.2
487.212	1076.8
487.668	923.2
488.125	858.9
488.582	779.7
489.038	759.9
489.494	722
489.951	700.5
490.407	682.1
490.864	661.4
491.32	666.8
491.776	661.2
492.233	667
492.689	635.4
493.145	628.5
493.602	622.2
494.058	636.5
494.514	627.2
494.97	657.5
495.426	674.3
495.882	644.1
496.338	635.2
496.794	645.4
497.251	629.8
497.707	641.9
498.163	656.1
498.618	657.4
499.074	663
499.53	690.7
499.986	697.4
500.442	672.9
500.898	650.1
501.354	639.9
501.809	646.1
502.265	651.4
502.721	659.6
503.177	656.8
503.632	657.8
504.088	673.6
504.543	693.2
504.999	714.3
505.455	681.5
505.91	653.2
506.366	660.6
506.821	657
507.277	646.6
507.732	660.7
508.187	662.2
508.643	667.1
509.098	666.4
509.553	688.4
510.009	694
510.464	700.8
510.919	720.9
511.375	722.1
511.83	729.2
512.285	748.3
512.74	791.5
513.195	799
513.65	795.1
514.105	793
514.56	796.3
515.015	807.1
515.47	820.3
515.925	803
516.38	798.1
516.835	819.1
517.29	808.5
517.745	802.2
518.2	785.1
518.655	768.5
519.109	772.6
519.564	769.6
520.019	752.4
520.474	748.8
520.928	755.3
521.383	749.5
521.838	740.1
522.292	740.9
522.747	734.4
523.201	735
523.656	726.1
524.11	715.6
524.565	718.2
525.019	719.7
525.474	730.9
525.928	718.9
526.382	716.4
526.837	727
527.291	736.8
527.745	724.7
528.2	729.9
528.654	722.1
529.108	707.9
529.562	727.9
530.016	716.1
530.47	717.9
530.925	709
531.379	713.1
531.833	731.4
532.287	743.6
532.741	737.8
533.195	733.2
533.649	734.3
534.103	746.5
534.556	729.7
535.01	732
535.464	736.5
535.918	748.6
536.372	737.3
536.826	741.7
537.279	732.7
537.733	737
538.187	735.6
538.64	733
539.094	747.9
539.548	754.7
540.001	751.8
540.455	748.3
540.908	756.8
541.362	775.4
541.815	779.1
542.269	788.4
542.722	795.2
543.175	793.2
543.629	801.6
544.082	809.6
544.536	810.8
544.989	810.6
545.442	825.4
545.895	810.9
546.349	827.5
546.802	833.2
547.255	840.3
547.708	828.6
548.161	842
548.614	856.7
549.067	864.6
549.52	839.9
549.973	845.8
550.426	837.6
550.879	819.1
551.332	839.3
551.785	845.1
552.238	840.9
552.691	850.7
553.144	870.9
553.596	891.4
554.049	897.5
554.502	914.4
554.955	943.3
555.407	950.1
555.86	931.4
556.313	923.5
556.765	911.5
557.218	924
557.67	915.5
558.123	906.5
558.576	903.5
559.028	916.3
559.48	923.8
559.933	912.3
560.385	877.2
560.838	845
561.29	825
561.742	819.5
562.195	808.6
562.647	808.6
563.099	811.6
563.551	808.7
564.004	809.3
564.456	803.1
564.908	797.2
565.36	781.1
565.812	760.7
566.264	755.1
566.716	742.7
567.168	733.9
567.62	737.5
568.072	724.7
568.524	716.8
568.976	717.3
569.428	695
569.88	698.8
570.332	706.3
570.784	720.1
571.235	714.9
571.687	724.5
572.139	726
572.59	738.4
573.042	730.8
573.494	734.2
573.945	733.2
574.397	711.4
574.849	723.2
575.3	724.9
575.752	711.4
576.203	699.7
576.655	712.4
577.106	698.5
577.557	689.7
578.009	707.5
578.46	697
578.912	688.9
579.363	695.7
579.814	701.2
580.265	687.5
580.717	698.1
581.168	700.5
581.619	711.2
582.07	710.4
582.521	701.9
582.972	699.6
583.423	711.7
583.875	688.9
584.326	714.1
584.777	728.6
585.227	741
585.678	761.4
586.129	778.8
586.58	804.5
587.031	823
587.482	848.9
587.933	897.7
588.384	868.1
588.834	826.3
589.285	793.8
589.736	803.7
590.186	790.7
590.637	787.7
591.088	771.9
591.538	758.9
591.989	769.2
592.439	753.9
592.89	742.2
593.34	736.2
593.791	728.9
594.241	719.8
594.692	726.4
595.142	724.6
595.593	729.4
596.043	737.6
596.493	729.1
596.943	733.7
597.394	752.1
597.844	759
598.294	764.1
598.744	789
599.195	814.3
599.645	859.8
600.095	896.3
600.545	958.5
600.995	1001.9
601.445	1054.4
601.895	1123.9
602.345	1167.7
602.795	1168
603.245	1120.5
603.695	1055.2
604.145	999.7
604.594	956
605.044	910.2
605.494	848.9
605.944	800
606.393	776.2
606.843	747.8
607.293	754
607.743	751.1
608.192	766
608.642	780.3
609.091	787.9
609.541	795.4
609.99	797.3
610.44	789.9
610.889	741.3
611.339	715.8
611.788	708.9
612.238	712.1
612.687	719.6
613.136	718
613.586	738.9
614.035	726.7
614.484	736.7
614.933	737.4
615.383	735
615.832	730.4
616.281	727.5
616.73	691.8
617.179	676.2
617.628	667.8
618.077	651.8
618.526	646.3
618.975	636.5
619.424	633.8
619.873	637.1
620.322	639.1
620.771	631.2
621.22	625.1
621.669	611.8
622.118	610.6
622.567	595.9
623.015	577.6
623.464	591.5
623.913	585.5
624.361	575.3
624.81	579.2
625.259	575
625.707	580
626.156	581.5
626.604	589.4
627.053	585.8
627.501	588.1
627.95	592
628.398	600.4
628.847	598.3
629.295	588.2
629.744	596.1
630.192	587.2
630.64	586.7
631.089	573.3
631.537	565.2
631.985	544.8
632.433	549.2
632.881	544.1
633.33	553.3
633.778	540.8
634.226	528.7
634.674	564.9
635.122	564
635.57	571.2
636.018	575.7
636.466	575
636.914	577.6
637.362	596.9
637.81	598.7
638.258	602.2
638.705	603.6
639.153	640.3
639.601	650.3
640.049	660.3
640.497	691.9
640.944	704.3
641.392	665.2
641.84	638.5
642.287	606.3
642.735	578.3
643.182	587.7
643.63	583
644.078	579
644.525	599.3
644.973	592.5
645.42	609.6
645.867	635.2
646.315	656.4
646.762	682.9
647.21	698.9
647.657	720.3
648.104	753
648.551	780.8
648.999	842.3
649.446	922.4
649.893	1007.7
650.34	1153.5
650.787	1352.7
651.234	1677.3
651.682	2164.9
652.129	2945.3
652.576	4160.7
653.023	6085.5
653.47	8190.4
653.917	10106.6
654.363	11589.3
654.81	12695.2
655.257	12022.9
655.704	7978.5
656.151	4819.9
656.598	3169.9
657.044	2279.6
657.491	1784.3
657.938	1441
658.385	1219
658.831	1063.8
659.278	952.4
659.724	857.5
660.171	794.6
660.618	729.9
661.064	698.5
661.511	678.7
661.957	662.2
662.404	658.6
662.85	661.2
663.296	644.1
663.743	574.1
664.189	556.5
664.635	551.5
665.082	546.5
665.528	545
665.974	530.5
666.42	522
666.867	519.5
667.313	505.6
667.759	494.8
668.205	465.2
668.651	467.1
669.097	472.8
669.543	464.8
669.989	464
670.435	461.6
670.881	460.2
671.327	472.6
671.773	492.8
672.219	521.2
672.665	567.7
673.11	601
673.556	661.4
674.002	692.5
674.448	683.3
674.893	586.4
675.339	497.9
675.785	462.2
676.23	448.1
676.676	406.4
677.122	405.6
677.567	395.6
678.013	396
678.458	381.8
678.904	381.6
679.349	373.6
679.794	372.1
680.24	361.8
680.685	363.7
681.131	364.9
681.576	364
682.021	372
682.466	369.3
682.912	368.1
683.357	375.5
683.802	409.8
684.247	439.4
684.692	482.2
685.137	527.6
685.583	555.6
686.028	582.6
686.473	539.5
686.918	470.2
687.363	442.5
687.807	417.6
688.252	388.4
688.697	374.8
689.142	351.8
689.587	341.4
690.032	346.7
690.477	361.9
690.921	375.9
691.366	401.4
691.811	422.9
692.255	452.3
692.7	486.5
693.145	540.3
693.589	749.1
694.034	1230
694.478	1640.7
694.923	1801.6
695.367	2353.5
695.812	1263
696.256	526.9
696.701	391.5
697.145	356
697.59	338.1
698.034	327.9
698.478	345.6
698.922	335.1
699.367	346.7
699.811	347.3
700.255	380.2
700.699	399.8
701.143	441.4
701.588	497.7
702.032	539.7
702.476	543.1
702.92	516.3
703.364	515.7
703.808	688.4
704.252	1119
704.696	1552.9
705.14	1752.7
705.584	2224.2
706.027	1114.8
706.471	554.4
706.915	415.2
707.359	368.7
707.803	339.2
708.246	327.2
708.69	322.6
709.134	334
709.577	330.9
710.021	334.6
710.465	322.4
710.908	316
711.352	313.8
711.795	329.1
712.239	371.6
712.682	401.1
713.126	431.9
713.569	473.1
714.012	380.4
714.456	327
714.899	306
715.342	292.5
715.786	273.1
716.229	274.5
716.672	277.8
717.115	261.4
717.558	263.8
718.002	263.8
718.445	281
718.888	298.7
719.331	310.1
719.774	323.2
720.217	320.8
720.66	295.8
721.103	281.5
721.546	268.3
721.989	258.6
722.432	243.2
722.874	252.7
723.317	244
723.76	244.5
724.203	268.3
724.645	337.2
725.088	477.4
725.531	593.5
725.974	666.9
726.416	577.2
726.859	325.3
727.301	264.9
727.744	243.5
728.187	245.1
728.629	248.7
729.071	257.3
729.514	268
729.956	276.1
730.399	291
730.841	303.3
731.283	288.5
731.726	275.9
732.168	278.7
732.61	277.4
733.053	305.2
733.495	338
733.937	377.1
734.379	425.2
734.821	471.6
735.263	590
735.705	909.5
736.148	1728.1
736.59	2763.8
737.032	3191.2
737.474	2596.3
737.916	863.9
738.357	458.8
738.799	352.4
739.241	317.8
739.683	295
740.125	301.1
740.567	313.8
741.008	331.1
741.45	328
741.892	343.4
742.334	371
742.775	379.1
743.217	368.6
743.658	290.3
744.1	273.2
744.542	279
744.983	333.5
745.425	372.1
745.866	373
746.307	298
746.749	297.9
747.19	339.3
747.632	489.8
748.073	976
748.514	2035.5
748.956	3028.9
749.397	3804.7
749.838	3146.7
750.279	3084.2
750.72	1575.8
751.162	583.7
751.603	344.3
752.044	270.4
752.485	233
752.926	221.6
753.367	215.1
753.808	204.5
754.249	203.5
754.69	201.8
755.131	191.7
755.572	188.4
756.013	191.4
756.453	181
756.894	193.9
757.335	203.7
757.776	207.9
758.216	209.5
758.657	208.5
759.098	220
759.538	234.8
759.979	283.4
760.42	411.1
760.86	781.2
761.301	2037.2
761.741	4769.6
762.182	6666.2
762.622	4731.5
763.063	1398.2
763.503	563.5
763.943	352.4
764.384	285.4
764.824	273.3
765.264	254.8
765.705	225.7
766.145	204.7
766.585	183.3
767.025	179.3
767.465	173.6
767.906	187.6
768.346	208.8
768.786	221
769.226	232.3
769.666	329.1
770.106	681
770.546	1702.4
770.986	2763.5
771.426	2454.2
771.866	844.6
772.306	346.2
772.745	213
773.185	173.8
773.625	165.7
774.065	157.7
774.505	177.5
774.944	217.3
775.384	371.1
775.824	618.5
776.263	580.9
776.703	284.1
777.142	163.4
777.582	148
778.021	130.8
778.461	133.8
778.9	132.1
779.34	131.7
779.779	119.3
780.219	110.9
780.658	114.3
781.097	111.3
781.537	117
781.976	110.8
782.415	107
782.855	110.1
783.294	111.6
783.733	108.5
784.172	111.1
784.611	102.1
785.05	106.2
785.489	111.7
785.928	120
786.367	122.2
786.806	123.6
787.245	130.8
787.684	135.9
788.123	159
788.562	138.9
789.001	127.6
789.44	134.5
789.879	120.5
790.317	124.2
790.756	132.4
791.195	135.2
791.634	161
792.072	214.8
792.511	403.8
792.95	1105.4
793.388	2251.8
793.827	1969.6
794.265	699.3
794.704	296.3
795.142	184.7
795.581	158.3
796.019	139
796.458	131.7
796.896	124.4
797.334	139.4
797.773	161.8
798.211	239.8
798.649	481.2
799.087	1096.5
799.526	1704.5
799.964	2145.7
800.402	2072.6
800.84	809.4
801.278	326
801.716	197.6
802.154	161.4
802.592	153.2
803.03	152.7
803.468	141.5
803.906	148.9
804.344	160.8
804.782	155.9
805.22	137.1
805.658	135.7
806.096	160.4
806.533	166
806.971	190.2
807.409	235.8
807.847	345.4
808.284	747.7
