Data from 20171114-ORNL-Ar_H_NY_Subt18_08-07-35-804.txt Node
Date: Tue Nov 14 08:07:35 EST 2017
User: Ender
Spectrometer: HR+D1039
Trigger mode: 0
Integration Time (sec): 2.730000E-2
Scans to average: 10
Electric dark correction enabled: true
Nonlinearity correction enabled: false
Boxcar width: 0
XAxis mode: Wavelengths
Number of Pixels in Spectrum: 2048
>>>>>Begin Spectral Data<<<<<
187.836	-1.58
188.309	-1.58
188.782	-1.58
189.255	-0.68
189.728	-0.28
190.201	0.92
190.674	-0.98
191.147	2.52
191.619	-10.68
192.092	-2.38
192.565	2.02
193.038	1.72
193.511	3.42
193.984	2.82
194.456	-0.18
194.929	6.02
195.402	-3.28
195.874	0.62
196.347	-2.28
196.82	-6.78
197.292	2.62
197.765	-4.08
198.237	-2.38
198.71	-1.58
199.182	-7.38
199.655	-0.08
200.127	2.22
200.6	-3.58
201.072	-3.58
201.544	-5.18
202.017	-3.78
202.489	0.32
202.961	-10.48
203.433	-3.48
203.906	-8.88
204.378	-7.08
204.85	-2.28
205.322	-15.48
205.794	-4.28
206.266	-8.08
206.739	-15.18
207.211	1.22
207.683	-5.18
208.155	-5.28
208.627	-6.88
209.099	-3.58
209.57	-9.78
210.042	-6.88
210.514	-5.28
210.986	2.82
211.458	-13.48
211.93	-6.88
212.402	-0.68
212.873	-10.08
213.345	-12.78
213.817	-7.48
214.288	-4.18
214.76	-9.88
215.232	-4.48
215.703	-3.78
216.175	-4.38
216.646	-1.78
217.118	-11.88
217.589	-5.08
218.061	1.52
218.532	-1.98
219.004	-3.68
219.475	-3.88
219.946	-2.28
220.418	-2.18
220.889	-1.48
221.36	-1.38
221.832	4.02
222.303	-5.38
222.774	-0.98
223.245	-8.88
223.717	-4.48
224.188	-5.18
224.659	-10.88
225.13	-4.18
225.601	-2.88
226.072	4.22
226.543	-6.28
227.014	0.72
227.485	-5.48
227.956	-5.68
228.427	-2.78
228.898	-4.68
229.369	5.52
229.839	1.52
230.31	-8.48
230.781	3.22
231.252	-2.38
231.722	-4.38
232.193	-3.58
232.664	-1.28
233.135	-0.58
233.605	2.62
234.076	-10.28
234.546	-1.58
235.017	2.92
235.487	-6.68
235.958	-6.48
236.428	-1.08
236.899	7.12
237.369	0.82
237.84	-0.98
238.31	5.92
238.78	4.22
239.251	-2.18
239.721	2.92
240.191	-2.18
240.662	-1.48
241.132	2.22
241.602	-0.08
242.072	6.72
242.542	0.82
243.013	-4.88
243.483	3.62
243.953	-0.78
244.423	-6.08
244.893	0.12
245.363	3.12
245.833	-1.58
246.303	-7.08
246.773	4.82
247.243	-1.28
247.712	-0.08
248.182	6.92
248.652	2.92
249.122	-6.38
249.592	8.52
250.061	17.42
250.531	25.42
251.001	12.02
251.471	13.42
251.94	13.52
252.41	-0.18
252.879	-4.48
253.349	7.62
253.818	5.82
254.288	-1.28
254.757	-4.18
255.227	-2.88
255.696	1.82
256.166	7.82
256.635	7.32
257.105	2.32
257.574	5.72
258.043	6.32
258.513	10.72
258.982	10.72
259.451	6.32
259.92	10.02
260.389	10.72
260.859	20.62
261.328	3.22
261.797	14.02
262.266	2.82
262.735	6.12
263.204	1.72
263.673	-0.88
264.142	4.72
264.611	-8.78
265.08	0.02
265.549	-4.08
266.018	2.32
266.487	-7.88
266.955	1.22
267.424	-2.38
267.893	4.42
268.362	1.52
268.83	2.32
269.299	7.72
269.768	2.42
270.236	2.82
270.705	0.42
271.174	10.62
271.642	3.62
272.111	11.52
272.579	8.02
273.048	17.42
273.516	22.02
273.985	19.92
274.453	21.12
274.922	13.42
275.39	5.22
275.858	-2.58
276.327	13.02
276.795	17.92
277.263	8.32
277.731	28.12
278.2	44.52
278.668	49.02
279.136	31.02
279.604	10.92
280.072	7.92
280.54	10.12
281.008	6.22
281.477	13.02
281.945	8.22
282.413	7.32
282.881	14.82
283.348	2.42
283.816	15.42
284.284	3.92
284.752	12.02
285.22	3.52
285.688	10.92
286.156	13.72
286.623	39.82
287.091	43.02
287.559	21.82
288.026	13.62
288.494	4.62
288.962	3.02
289.429	3.72
289.897	12.22
290.364	10.92
290.832	12.22
291.3	9.92
291.767	5.52
292.234	17.32
292.702	5.52
293.169	9.52
293.637	18.22
294.104	18.32
294.571	5.02
295.039	13.52
295.506	3.42
295.973	7.42
296.44	9.72
296.908	13.72
297.375	14.02
297.842	12.62
298.309	15.12
298.776	10.42
299.243	9.62
299.71	8.82
300.177	13.62
300.644	16.62
301.111	17.42
301.578	12.72
302.045	5.22
302.512	15.92
302.979	15.42
303.446	13.82
303.913	12.62
304.379	9.92
304.846	25.72
305.313	18.82
305.78	20.12
306.246	16.62
306.713	17.72
307.18	21.42
307.646	23.42
308.113	24.12
308.579	15.22
309.046	18.52
309.512	24.82
309.979	12.32
310.445	20.42
310.912	24.32
311.378	24.52
311.845	24.72
312.311	25.82
312.777	25.12
313.244	21.52
313.71	25.02
314.176	21.22
314.642	27.62
315.109	23.02
315.575	26.82
316.041	29.72
316.507	27.22
316.973	30.02
317.439	22.92
317.905	30.02
318.371	29.52
318.837	22.92
319.303	26.22
319.769	26.92
320.235	24.62
320.701	29.52
321.167	24.32
321.633	26.02
322.099	34.92
322.564	33.52
323.03	38.22
323.496	34.42
323.962	31.12
324.427	32.52
324.893	41.82
325.359	33.72
325.824	33.22
326.29	27.42
326.755	26.22
327.221	33.52
327.686	31.22
328.152	41.22
328.617	36.32
329.083	36.22
329.548	39.22
330.014	36.22
330.479	31.32
330.944	35.32
331.41	34.32
331.875	41.22
332.34	33.42
332.805	33.12
333.271	41.02
333.736	35.32
334.201	44.22
334.666	41.22
335.131	38.32
335.596	41.02
336.061	45.32
336.526	35.52
336.991	42.22
337.456	47.42
337.921	40.72
338.386	39.92
338.851	35.72
339.316	40.72
339.781	41.12
340.246	45.22
340.711	39.62
341.175	42.42
341.64	41.12
342.105	47.92
342.569	49.52
343.034	51.12
343.499	51.02
343.963	42.52
344.428	57.92
344.893	48.62
345.357	45.22
345.822	51.02
346.286	54.92
346.751	58.12
347.215	55.52
347.679	63.72
348.144	83.42
348.608	70.32
349.073	60.72
349.537	64.12
350.001	64.22
350.465	74.32
350.93	64.72
351.394	69.42
351.858	67.02
352.322	73.12
352.786	66.12
353.25	85.52
353.715	90.32
354.179	83.22
354.643	104.52
355.107	104.02
355.571	85.12
356.035	90.02
356.498	93.52
356.962	107.82
357.426	105.62
357.89	97.92
358.354	83.12
358.818	68.92
359.281	67.32
359.745	64.22
360.209	71.22
360.673	66.82
361.136	66.92
361.6	70.62
362.064	66.42
362.527	73.62
362.991	81.52
363.454	69.02
363.918	60.82
364.381	65.22
364.845	69.22
365.308	76.02
365.772	76.52
366.235	80.92
366.698	67.32
367.162	73.22
367.625	77.62
368.088	75.72
368.552	81.72
369.015	78.12
369.478	86.82
369.941	90.22
370.404	87.22
370.867	100.02
371.331	98.32
371.794	97.92
372.257	94.42
372.72	101.52
373.183	96.52
373.646	93.92
374.109	90.92
374.572	93.42
375.035	101.62
375.497	95.42
375.96	97.02
376.423	86.22
376.886	100.12
377.349	95.72
377.811	96.72
378.274	84.62
378.737	94.62
379.199	97.22
379.662	104.52
380.125	105.82
380.587	104.22
381.05	109.32
381.512	118.72
381.975	123.42
382.437	119.82
382.9	117.62
383.362	123.42
383.825	125.32
384.287	132.22
384.75	128.62
385.212	130.82
385.674	120.42
386.136	124.32
386.599	109.72
387.061	117.02
387.523	118.02
387.985	118.72
388.447	130.82
388.91	135.62
389.372	141.32
389.834	137.22
390.296	126.82
390.758	137.72
391.22	152.82
391.682	196.42
392.144	271.32
392.606	215.22
393.068	154.52
393.529	159.72
393.991	139.12
394.453	133.72
394.915	136.82
395.377	172.82
395.838	202.92
396.3	148.12
396.762	127.62
397.224	126.62
397.685	115.22
398.147	121.72
398.608	123.02
399.07	115.02
399.531	127.92
399.993	126.12
400.454	143.32
400.916	136.52
401.377	133.82
401.839	135.12
402.3	142.12
402.762	154.22
403.223	169.22
403.684	164.72
404.145	146.82
404.607	148.92
405.068	152.12
405.529	152.62
405.99	173.42
406.451	159.52
406.913	154.82
407.374	157.42
407.835	155.12
408.296	155.92
408.757	171.32
409.218	163.12
409.679	170.92
410.14	161.72
410.601	173.02
411.062	173.62
411.522	179.02
411.983	181.52
412.444	165.42
412.905	171.82
413.366	173.92
413.826	185.82
414.287	203.22
414.748	244.52
415.208	231.82
415.669	199.92
416.13	196.92
416.59	190.22
417.051	204.62
417.511	206.62
417.972	228.42
418.432	228.02
418.893	272.92
419.353	237.72
419.814	183.32
420.274	171.72
420.734	164.42
421.195	190.12
421.655	189.92
422.115	181.72
422.576	183.42
423.036	187.72
423.496	191.92
423.956	202.22
424.416	217.72
424.876	250.22
425.336	238.32
425.797	246.32
426.257	237.32
426.717	226.62
427.177	218.62
427.637	211.72
428.097	212.92
428.556	231.92
429.016	256.42
429.476	246.62
429.936	266.92
430.396	268.02
430.856	269.12
431.315	304.12
431.775	338.12
432.235	360.62
432.694	337.12
433.154	344.22
433.614	371.02
434.073	322.42
434.533	273.72
434.993	255.42
435.452	268.32
435.912	280.02
436.371	277.02
436.83	271.72
437.29	248.82
437.749	237.02
438.209	230.62
438.668	258.82
439.127	275.52
439.587	245.62
440.046	228.62
440.505	252.02
440.964	263.12
441.424	298.62
441.883	294.32
442.342	245.72
442.801	217.82
443.26	215.62
443.719	210.42
444.178	211.12
444.637	200.82
445.096	210.82
445.555	207.52
446.014	216.82
446.473	212.32
446.932	219.72
447.391	215.82
447.849	217.22
448.308	207.52
448.767	207.72
449.226	225.62
449.685	222.52
450.143	230.52
450.602	225.32
451.061	220.32
451.519	224.92
451.978	225.02
452.436	220.72
452.895	226.72
453.353	239.22
453.812	234.62
454.27	231.12
454.729	230.62
455.187	232.82
455.646	237.12
456.104	240.52
456.562	244.92
457.021	255.02
457.479	245.02
457.937	255.92
458.395	255.92
458.854	236.72
459.312	253.12
459.77	262.02
460.228	244.82
460.686	229.52
461.144	232.22
461.602	241.42
462.06	236.52
462.518	243.32
462.976	243.12
463.434	249.52
463.892	247.82
464.35	262.02
464.808	276.02
465.266	252.02
465.724	257.52
466.181	257.92
466.639	261.72
467.097	279.42
467.555	288.42
468.012	286.32
468.47	298.52
468.928	314.12
469.385	328.02
469.843	329.32
470.3	335.22
470.758	344.22
471.215	372.22
471.673	397.02
472.13	388.92
472.588	393.02
473.045	361.92
473.503	357.22
473.96	381.22
474.417	391.92
474.875	415.02
475.332	462.72
475.789	438.22
476.246	448.92
476.704	467.72
477.161	491.42
477.618	498.62
478.075	544.12
478.532	597.32
478.989	658.02
479.446	763.32
479.903	746.52
480.36	776.22
480.817	843.72
481.274	918.32
481.731	1031.92
482.188	1123.92
482.645	1253.02
483.102	1359.62
483.558	1481.72
484.015	1540.92
484.472	1518.02
484.929	1475.12
485.385	1433.02
485.842	1381.72
486.299	1315.32
486.755	1253.92
487.212	1052.12
487.668	896.82
488.125	824.72
488.582	754.52
489.038	716.62
489.494	679.92
489.951	666.62
490.407	650.32
490.864	628.22
491.32	625.92
491.776	639.22
492.233	623.72
492.689	598.92
493.145	583.22
493.602	579.82
494.058	597.22
494.514	598.92
494.97	610.92
495.426	631.02
495.882	606.12
496.338	579.82
496.794	601.62
497.251	599.22
497.707	613.82
498.163	613.02
498.618	621.42
499.074	620.32
499.53	641.22
499.986	657.42
500.442	630.02
500.898	614.02
501.354	608.22
501.809	624.32
502.265	626.62
502.721	642.52
503.177	652.42
503.632	641.92
504.088	650.32
504.543	681.62
504.999	695.52
505.455	639.72
505.91	616.82
506.366	607.22
506.821	606.82
507.277	607.22
507.732	606.52
508.187	604.32
508.643	615.02
509.098	613.72
509.553	639.22
510.009	639.02
510.464	654.02
510.919	670.82
511.375	680.22
511.83	690.22
512.285	704.52
512.74	741.92
513.195	760.12
513.65	751.72
514.105	748.02
514.56	748.32
515.015	770.02
515.47	782.82
515.925	773.22
516.38	768.32
516.835	769.22
517.29	760.62
517.745	752.12
518.2	744.12
518.655	725.32
519.109	718.32
519.564	714.52
520.019	704.22
520.474	699.52
520.928	709.12
521.383	693.52
521.838	692.72
522.292	691.92
522.747	692.62
523.201	681.32
523.656	674.92
524.11	676.92
524.565	672.22
525.019	675.02
525.474	685.72
525.928	687.42
526.382	674.52
526.837	678.72
527.291	679.52
527.745	684.12
528.2	678.72
528.654	675.52
529.108	661.62
529.562	668.72
530.016	676.42
530.47	674.22
530.925	670.12
531.379	673.82
531.833	681.72
532.287	683.42
532.741	685.02
533.195	678.22
533.649	704.82
534.103	702.52
534.556	694.42
535.01	698.72
535.464	694.92
535.918	700.62
536.372	699.52
536.826	697.62
537.279	689.62
537.733	698.62
538.187	693.12
538.64	686.22
539.094	707.62
539.548	708.42
540.001	698.42
540.455	706.02
540.908	704.62
541.362	713.72
541.815	723.62
542.269	733.42
542.722	741.62
543.175	752.62
543.629	745.22
544.082	780.92
544.536	769.02
544.989	767.02
545.442	777.12
545.895	778.52
546.349	773.92
546.802	764.42
547.255	777.72
547.708	794.42
548.161	798.12
548.614	796.62
549.067	811.42
549.52	796.42
549.973	789.02
550.426	795.02
550.879	777.82
551.332	779.92
551.785	781.72
552.238	791.82
552.691	800.92
553.144	814.62
553.596	827.12
554.049	852.92
554.502	873.82
554.955	902.22
555.407	886.42
555.86	875.82
556.313	875.92
556.765	858.62
557.218	866.62
557.67	859.82
558.123	851.22
558.576	857.52
559.028	841.62
559.48	861.02
559.933	849.62
560.385	807.22
560.838	795.62
561.29	754.92
561.742	767.82
562.195	751.72
562.647	753.62
563.099	760.12
563.551	752.72
564.004	772.52
564.456	746.62
564.908	744.52
565.36	728.82
565.812	718.72
566.264	706.02
566.716	715.62
567.168	710.22
567.62	724.72
568.072	690.32
568.524	679.22
568.976	681.72
569.428	660.82
569.88	657.32
570.332	658.62
570.784	671.12
571.235	672.02
571.687	685.32
572.139	688.52
572.59	687.52
573.042	688.82
573.494	693.32
573.945	687.82
574.397	669.42
574.849	681.02
575.3	682.22
575.752	678.62
576.203	660.82
576.655	673.12
577.106	664.62
577.557	651.32
578.009	651.12
578.46	654.32
578.912	653.02
579.363	650.42
579.814	645.82
580.265	652.52
580.717	655.02
581.168	655.12
581.619	661.12
582.07	666.12
582.521	665.22
582.972	664.92
583.423	657.42
583.875	679.32
584.326	686.92
584.777	741.32
585.227	809.52
585.678	888.22
586.129	973.82
586.58	1048.82
587.031	1136.52
587.482	1278.52
587.933	1451.82
588.384	1260.62
588.834	955.62
589.285	798.82
589.736	770.62
590.186	764.82
590.637	749.92
591.088	736.12
591.538	729.52
591.989	718.62
592.439	719.02
592.89	706.12
593.34	700.12
593.791	699.92
594.241	683.72
594.692	700.12
595.142	685.32
595.593	696.42
596.043	699.22
596.493	702.22
596.943	699.62
597.394	707.42
597.844	702.02
598.294	727.82
598.744	741.22
599.195	759.22
599.645	804.52
600.095	846.62
600.545	911.32
600.995	949.62
601.445	1011.42
601.895	1061.42
602.345	1116.92
602.795	1095.52
603.245	1053.32
603.695	993.82
604.145	941.52
604.594	891.22
605.044	834.22
605.494	779.22
605.944	750.92
606.393	727.22
606.843	710.02
607.293	730.62
607.743	722.22
608.192	732.72
608.642	747.32
609.091	760.72
609.541	761.22
609.99	762.92
610.44	747.32
610.889	718.52
611.339	690.82
611.788	682.42
612.238	692.02
612.687	714.52
613.136	712.02
613.586	731.92
614.035	719.72
614.484	740.22
614.933	747.12
615.383	745.82
615.832	729.42
616.281	717.32
616.73	679.02
617.179	664.62
617.628	633.42
618.077	628.02
618.526	613.62
618.975	605.52
619.424	607.62
619.873	614.02
620.322	624.12
620.771	607.32
621.22	586.42
621.669	587.82
622.118	585.02
622.567	562.52
623.015	558.72
623.464	565.62
623.913	554.92
624.361	545.32
624.81	546.12
625.259	549.72
625.707	551.92
626.156	550.12
626.604	558.42
627.053	554.32
627.501	547.12
627.95	568.22
628.398	565.42
628.847	560.92
629.295	558.42
629.744	564.82
630.192	561.32
630.64	576.12
631.089	567.92
631.537	571.02
631.985	581.32
632.433	587.12
632.881	601.12
633.33	649.42
633.778	635.52
634.226	555.52
634.674	566.52
635.122	577.62
635.57	590.22
636.018	621.42
636.466	569.42
636.914	551.42
637.362	562.72
637.81	575.62
638.258	574.62
638.705	572.82
639.153	597.22
639.601	614.72
640.049	641.52
640.497	657.62
640.944	691.12
641.392	632.52
641.84	601.02
642.287	576.62
642.735	556.02
643.182	562.52
643.63	568.72
644.078	566.92
644.525	577.82
644.973	592.82
645.42	585.92
645.867	616.62
646.315	626.12
646.762	652.02
647.21	681.32
647.657	708.92
648.104	739.02
648.551	775.62
648.999	838.12
649.446	907.32
649.893	1001.02
650.34	1158.32
650.787	1394.12
651.234	1720.62
651.682	2256.92
652.129	3085.22
652.576	4447.62
653.023	6599.82
653.47	8971.42
653.917	11172.82
654.363	12851.22
654.81	14160.02
655.257	13458.32
655.704	8805.02
656.151	5208.72
656.598	3381.92
657.044	2387.52
657.491	1828.82
657.938	1466.12
658.385	1237.92
658.831	1075.82
659.278	958.82
659.724	840.92
660.171	781.32
660.618	724.82
661.064	681.52
661.511	663.62
661.957	642.22
662.404	637.02
662.85	645.92
663.296	614.12
663.743	559.92
664.189	532.52
664.635	533.52
665.082	515.92
665.528	524.52
665.974	514.52
666.42	498.62
666.867	500.22
667.313	483.32
667.759	473.92
668.205	473.62
668.651	474.82
669.097	478.52
669.543	491.02
669.989	465.32
670.435	445.92
670.881	439.92
671.327	457.42
671.773	461.82
672.219	483.02
672.665	541.42
673.11	579.82
673.556	617.72
674.002	659.12
674.448	645.52
674.893	542.12
675.339	473.32
675.785	425.22
676.23	411.62
676.676	386.52
677.122	375.12
677.567	368.32
678.013	364.32
678.458	351.92
678.904	352.52
679.349	345.12
679.794	349.62
680.24	347.02
680.685	340.52
681.131	346.82
681.576	344.22
682.021	347.82
682.466	339.52
682.912	336.52
683.357	350.32
683.802	378.82
684.247	398.32
684.692	448.52
685.137	482.02
685.583	530.22
686.028	550.92
686.473	509.92
686.918	445.52
687.363	409.62
687.807	387.42
688.252	365.02
688.697	344.32
689.142	329.92
689.587	326.62
690.032	324.42
690.477	338.02
690.921	348.92
691.366	378.72
691.811	390.92
692.255	427.32
692.7	457.52
693.145	497.32
693.589	704.32
694.034	1121.22
694.478	1525.02
694.923	1708.72
695.367	2224.72
695.812	1173.32
696.256	493.62
696.701	369.82
697.145	336.82
697.59	326.42
698.034	318.92
698.478	329.42
698.922	323.12
699.367	325.62
699.811	334.02
700.255	356.22
700.699	383.42
701.143	417.32
701.588	469.22
702.032	516.82
702.476	508.22
702.92	478.92
703.364	489.82
703.808	636.12
704.252	1036.22
704.696	1458.72
705.14	1654.52
705.584	2091.82
706.027	1049.32
706.471	517.52
706.915	389.72
707.359	341.82
707.803	322.62
708.246	311.12
708.69	308.72
709.134	308.02
709.577	305.42
710.021	314.02
710.465	297.62
710.908	296.52
711.352	302.62
711.795	307.22
712.239	348.62
712.682	381.42
713.126	410.62
713.569	455.32
714.012	369.62
714.456	319.62
714.899	297.92
715.342	267.82
715.786	262.42
716.229	252.22
716.672	255.32
717.115	249.32
717.558	249.42
718.002	253.42
718.445	250.12
718.888	286.32
719.331	285.12
719.774	300.02
720.217	302.12
720.66	287.82
721.103	263.92
721.546	249.52
721.989	250.02
722.432	226.12
722.874	236.12
723.317	229.72
723.76	229.62
724.203	253.52
724.645	317.12
725.088	441.42
725.531	568.42
725.974	632.72
726.416	538.22
726.859	304.62
727.301	244.82
727.744	236.02
728.187	226.62
728.629	235.32
729.071	242.32
729.514	261.12
729.956	269.72
730.399	273.52
730.841	289.32
731.283	270.32
731.726	260.72
732.168	261.52
732.61	267.92
733.053	286.62
733.495	313.82
733.937	347.92
734.379	401.82
734.821	435.92
735.263	540.32
735.705	842.42
736.148	1594.22
736.59	2546.22
737.032	2987.82
737.474	2429.92
737.916	797.02
738.357	428.92
738.799	331.42
739.241	299.02
739.683	276.12
740.125	285.02
740.567	295.42
741.008	312.22
741.45	315.62
741.892	320.12
742.334	339.12
742.775	353.12
743.217	331.62
743.658	269.82
744.1	253.22
744.542	259.92
744.983	302.92
745.425	334.62
745.866	334.12
746.307	281.52
746.749	287.22
747.19	319.02
747.632	457.22
748.073	898.72
748.514	1872.32
748.956	2824.42
749.397	3529.72
749.838	2935.22
750.279	2895.62
750.72	1473.22
751.162	541.12
751.603	316.92
752.044	255.92
752.485	212.22
752.926	208.02
753.367	195.72
753.808	184.62
754.249	185.92
754.69	181.22
755.131	184.32
755.572	184.82
756.013	174.02
756.453	183.72
756.894	182.62
757.335	189.82
757.776	189.62
758.216	185.72
758.657	192.52
759.098	200.72
759.538	222.12
759.979	262.82
760.42	373.82
760.86	715.92
761.301	1856.42
761.741	4417.22
762.182	6277.32
762.622	4399.32
763.063	1301.22
