Data from 20171114-ORNL-Ar_H_NY_Subt18_08-07-28-159.txt Node
Date: Tue Nov 14 08:07:28 EST 2017
User: Ender
Spectrometer: HR+D1039
Trigger mode: 0
Integration Time (sec): 2.730000E-2
Scans to average: 10
Electric dark correction enabled: true
Nonlinearity correction enabled: false
Boxcar width: 0
XAxis mode: Wavelengths
Number of Pixels in Spectrum: 2048
>>>>>Begin Spectral Data<<<<<
187.836	-2.8
188.309	-2.8
188.782	-2.8
189.255	-3.5
189.728	1.7
190.201	2.3
190.674	0.2
191.147	1.3
191.619	-5.5
192.092	-2.1
192.565	6.5
193.038	1.7
193.511	0.7
193.984	0.5
194.456	-0.3
194.929	2.6
195.402	-4.6
195.874	1.3
196.347	-5.1
196.82	-8.9
197.292	0
197.765	-2.7
198.237	-7.2
198.71	0.1
199.182	-4.9
199.655	2.2
200.127	1
200.6	-4.9
201.072	-5.5
201.544	-7.6
202.017	-0.9
202.489	4
202.961	0
203.433	-5.1
203.906	-7.5
204.378	-6.9
204.85	-8
205.322	-9.8
205.794	-2.7
206.266	-0.9
206.739	-11.3
207.211	-0.8
207.683	-4.7
208.155	-6.7
208.627	-11.7
209.099	-1.8
209.57	-8
210.042	-4
210.514	-9.6
210.986	-2.5
211.458	-8.3
211.93	-1.6
212.402	-4.8
212.873	-7.5
213.345	-9.7
213.817	-12
214.288	-5.6
214.76	-8.6
215.232	-4.5
215.703	-7.4
216.175	-5.8
216.646	-0.9
217.118	-6
217.589	-1.5
218.061	1.2
218.532	-0.6
219.004	-0.7
219.475	-4.8
219.946	-4.2
220.418	-5.5
220.889	-2.5
221.36	-6.9
221.832	-6.3
222.303	-0.3
222.774	-3.2
223.245	-10.4
223.717	-5
224.188	2.5
224.659	-7.6
225.13	-5
225.601	-2.6
226.072	1.1
226.543	-1.2
227.014	0
227.485	-1.1
227.956	-3.3
228.427	-1.5
228.898	-2.9
229.369	3.3
229.839	-5.4
230.31	-5.7
230.781	2.6
231.252	-3.5
231.722	-1.9
232.193	-6.4
232.664	-3
233.135	0.2
233.605	1.9
234.076	-5.6
234.546	2.9
235.017	3.6
235.487	4.9
235.958	0.8
236.428	-5.1
236.899	5.7
237.369	0
237.84	1.1
238.31	6.5
238.78	10
239.251	0.3
239.721	2.3
240.191	1.4
240.662	-0.7
241.132	-5.4
241.602	-7.5
242.072	-0.9
242.542	-0.7
243.013	1
243.483	2.2
243.953	4
244.423	-2
244.893	-0.4
245.363	1.2
245.833	-4.4
246.303	-3.5
246.773	2
247.243	0.9
247.712	-5.1
248.182	1.2
248.652	9.6
249.122	-7.4
249.592	7.6
250.061	16.7
250.531	23.4
251.001	3.3
251.471	13.9
251.94	18.3
252.41	7.5
252.879	1
253.349	4.9
253.818	10
254.288	3
254.757	4.3
255.227	-3.4
255.696	2.9
256.166	4.1
256.635	2.2
257.105	2.9
257.574	-0.9
258.043	5.2
258.513	-0.3
258.982	6.7
259.451	1.4
259.92	4.6
260.389	2.6
260.859	12.3
261.328	1.3
261.797	13.8
262.266	9.8
262.735	3.2
263.204	6.1
263.673	-0.2
264.142	0.1
264.611	-9.4
265.08	-0.3
265.549	-2.2
266.018	-2.1
266.487	-5
266.955	-2.1
267.424	-2.2
267.893	4.9
268.362	2
268.83	2.2
269.299	6.1
269.768	2.6
270.236	-2.4
270.705	-5.4
271.174	2.3
271.642	-1.3
272.111	2.1
272.579	9.3
273.048	16.2
273.516	14.5
273.985	17.6
274.453	13.3
274.922	5.5
275.39	6.5
275.858	-0.8
276.327	-0.7
276.795	18.6
277.263	1.7
277.731	20.2
278.2	35.6
278.668	41.2
279.136	32.2
279.604	5.8
280.072	8.3
280.54	1.7
281.008	7.3
281.477	8.4
281.945	12.3
282.413	4.6
282.881	12.5
283.348	3.7
283.816	7.4
284.284	7.5
284.752	21.6
285.22	12.5
285.688	9.4
286.156	13.9
286.623	32.3
287.091	38.2
287.559	14.6
288.026	12.3
288.494	12.9
288.962	2.2
289.429	1.8
289.897	7.8
290.364	7.2
290.832	6.8
291.3	10.6
291.767	10.3
292.234	14.3
292.702	6.4
293.169	14.5
293.637	13.9
294.104	8.3
294.571	-1
295.039	7.7
295.506	4.6
295.973	6.7
296.44	4.4
296.908	7.6
297.375	12.6
297.842	11.5
298.309	7.5
298.776	12
299.243	2.6
299.71	8.3
300.177	17.9
300.644	16.4
301.111	9
301.578	18.7
302.045	7.7
302.512	12.9
302.979	21.3
303.446	13.3
303.913	7.9
304.379	6.7
304.846	17.8
305.313	18.9
305.78	15.8
306.246	21
306.713	20.8
307.18	15.1
307.646	17.5
308.113	17
308.579	14
309.046	17
309.512	17.9
309.979	10.3
310.445	20.7
310.912	16.3
311.378	25.9
311.845	18.8
312.311	26
312.777	26.5
313.244	21.1
313.71	34.9
314.176	19.4
314.642	18.9
315.109	23.2
315.575	24.7
316.041	21.6
316.507	23
316.973	26.8
317.439	22.6
317.905	29.2
318.371	31.5
318.837	18.5
319.303	19.8
319.769	19.6
320.235	26.4
320.701	23.6
321.167	29.3
321.633	19.9
322.099	27
322.564	31.9
323.03	27.3
323.496	20.9
323.962	24.7
324.427	24.9
324.893	32.6
325.359	26.6
325.824	29.7
326.29	22.1
326.755	26
327.221	27.5
327.686	32
328.152	29.8
328.617	26.9
329.083	35.5
329.548	37.8
330.014	34
330.479	23.9
330.944	30.7
331.41	33.5
331.875	33.7
332.34	32.7
332.805	27.3
333.271	35.1
333.736	27.2
334.201	40.8
334.666	39.5
335.131	44.1
335.596	40.6
336.061	37.2
336.526	37.6
336.991	35.5
337.456	39.9
337.921	35.6
338.386	36.1
338.851	38.6
339.316	38.6
339.781	34.8
340.246	39.1
340.711	36.7
341.175	37.7
341.64	35
342.105	35.7
342.569	43.8
343.034	42.1
343.499	45.2
343.963	40.3
344.428	48.4
344.893	47.4
345.357	46.5
345.822	48.3
346.286	51.9
346.751	57.9
347.215	48.8
347.679	52.6
348.144	72.4
348.608	61.3
349.073	48.3
349.537	64.5
350.001	61.7
350.465	69.9
350.93	64.4
351.394	62.5
351.858	55.9
352.322	66
352.786	62.9
353.25	78.4
353.715	81.3
354.179	72.6
354.643	96.3
355.107	90.6
355.571	85.5
356.035	79.5
356.498	89.4
356.962	89.5
357.426	106.5
357.89	80.3
358.354	68.8
358.818	63.7
359.281	61.6
359.745	58.1
360.209	60.5
360.673	59.8
361.136	61.1
361.6	68
362.064	71.5
362.527	61.2
362.991	70.3
363.454	65.6
363.918	62.3
364.381	63.8
364.845	63.9
365.308	71.6
365.772	72.4
366.235	69.7
366.698	68.4
367.162	68.5
367.625	71.4
368.088	67.7
368.552	69.4
369.015	66.9
369.478	81.8
369.941	82.7
370.404	79.4
370.867	81.2
371.331	85.2
371.794	91.9
372.257	86.6
372.72	92.6
373.183	91.8
373.646	81.3
374.109	84.9
374.572	87.6
375.035	85
375.497	89.5
375.96	85.6
376.423	79.6
376.886	93.2
377.349	91.4
377.811	82.9
378.274	82
378.737	87.1
379.199	89.4
379.662	92.1
380.125	99.6
380.587	97
381.05	103.9
381.512	106.5
381.975	115.9
382.437	104.6
382.9	108.3
383.362	109.3
383.825	120
384.287	124.4
384.75	110.2
385.212	113.2
385.674	118.8
386.136	113
386.599	105.7
387.061	113.3
387.523	107.1
387.985	110.6
388.447	125.1
388.91	120.9
389.372	129.9
389.834	129.2
390.296	127.6
390.758	127.1
391.22	136.3
391.682	176.7
392.144	244.9
392.606	194.5
393.068	143
393.529	142.6
393.991	130.8
394.453	125.5
394.915	130.2
395.377	161.6
395.838	176.6
396.3	129.6
396.762	123.4
397.224	117.8
397.685	117.5
398.147	109.5
398.608	116.7
399.07	108.9
399.531	115.5
399.993	127.3
400.454	139.7
400.916	125.1
401.377	120.6
401.839	137.4
402.3	135.9
402.762	143.2
403.223	159.1
403.684	148.8
404.145	146.9
404.607	144.8
405.068	148.3
405.529	150.2
405.99	161.8
406.451	146.8
406.913	153
407.374	140.2
407.835	146.6
408.296	150
408.757	149.3
409.218	166.2
409.679	162
410.14	160.1
410.601	153.3
411.062	163.1
411.522	172
411.983	162.8
412.444	155
412.905	159.6
413.366	160.4
413.826	171.5
414.287	194.5
414.748	227.5
415.208	218.2
415.669	188
416.13	185.8
416.59	182.4
417.051	186.7
417.511	196.3
417.972	207.4
418.432	220.9
418.893	255.9
419.353	225.1
419.814	178.7
420.274	165.1
420.734	157.6
421.195	178.8
421.655	174.7
422.115	171.3
422.576	175.7
423.036	176.5
423.496	184
423.956	189.9
424.416	206.3
424.876	238.7
425.336	231.8
425.797	238.4
426.257	232.3
426.717	217
427.177	203.4
427.637	203.5
428.097	217.7
428.556	222.7
429.016	242.9
429.476	240.5
429.936	245.7
430.396	247.1
430.856	266
431.315	284.7
431.775	308.1
432.235	334.1
432.694	314.9
433.154	321.8
433.614	355.6
434.073	301.8
434.533	253.7
434.993	243.3
435.452	249.7
435.912	257.7
436.371	257
436.83	249
437.29	239.2
437.749	222.7
438.209	225
438.668	244.3
439.127	253.9
439.587	238.3
440.046	228.8
440.505	235.7
440.964	244.5
441.424	289.3
441.883	281.2
442.342	233.8
442.801	199.2
443.26	199.9
443.719	200.8
444.178	193.7
444.637	188.1
445.096	198.2
445.555	200.5
446.014	201
446.473	207.1
446.932	209.7
447.391	206
447.849	211.4
448.308	202.8
448.767	202.8
449.226	224.3
449.685	213.1
450.143	228.2
450.602	211.8
451.061	207.4
451.519	217.3
451.978	220.5
452.436	212.9
452.895	214.5
453.353	229.7
453.812	225.4
454.27	224.6
454.729	215.8
455.187	222.7
455.646	222.7
456.104	224.2
456.562	236.5
457.021	245.9
457.479	235.9
457.937	247.2
458.395	239.3
458.854	227.7
459.312	234.4
459.77	253.8
460.228	230.8
460.686	223.6
461.144	228.5
461.602	226.4
462.06	223
462.518	230.6
462.976	241.4
463.434	231
463.892	233.8
464.35	256.2
464.808	266.8
465.266	245.2
465.724	242.1
466.181	249.2
466.639	248.1
467.097	270.1
467.555	274.2
468.012	277.9
468.47	289.7
468.928	307.6
469.385	315.3
469.843	325.4
470.3	318.9
470.758	328.9
471.215	355.5
471.673	372.4
472.13	368.7
472.588	390.4
473.045	354.6
473.503	349.4
473.96	364.1
474.417	368.3
474.875	399.1
475.332	437.5
475.789	434
476.246	433
476.704	450.2
477.161	472.7
477.618	486.2
478.075	524
478.532	566.6
478.989	628.5
479.446	747.3
479.903	710.8
480.36	751.2
480.817	803.7
481.274	903.2
481.731	985.8
482.188	1078.3
482.645	1192.1
483.102	1285.1
483.558	1421.9
484.015	1482.1
484.472	1450.2
484.929	1401.3
485.385	1357.7
485.842	1319
486.299	1249.3
486.755	1193.6
487.212	1010.4
487.668	856.6
488.125	782.9
488.582	725.8
489.038	697.3
489.494	656
489.951	632.1
490.407	621.4
490.864	598.6
491.32	590.1
491.776	588.7
492.233	604.9
492.689	579.8
493.145	555.6
493.602	556.7
494.058	568.7
494.514	565.1
494.97	583.5
495.426	595.2
495.882	574.2
496.338	571
496.794	580.1
497.251	576.7
497.707	594.6
498.163	586.6
498.618	594.4
499.074	592
499.53	625.1
499.986	631.2
500.442	603.8
500.898	587.9
501.354	585.7
501.809	595.1
502.265	602.8
502.721	618.4
503.177	627.6
503.632	614.2
504.088	623.5
504.543	651.6
504.999	659.4
505.455	616.4
505.91	586.9
506.366	588.7
506.821	578
507.277	589.1
507.732	587.8
508.187	579.1
508.643	588
509.098	594.3
509.553	613.5
510.009	626.5
510.464	629.2
510.919	644.8
511.375	649.7
511.83	672
512.285	675.2
512.74	721.9
513.195	736.8
513.65	723.6
514.105	727.5
514.56	729.1
515.015	739.8
515.47	754.3
515.925	738.1
516.38	741.9
516.835	750.2
517.29	738.9
517.745	736.9
518.2	719.8
518.655	707.4
519.109	703.3
519.564	695.1
520.019	693.6
520.474	681.1
520.928	678.2
521.383	677.1
521.838	671.5
522.292	658.4
522.747	670.1
523.201	664.4
523.656	653.4
524.11	645.7
524.565	653.6
525.019	654.2
525.474	658.7
525.928	664.9
526.382	659.3
526.837	652.8
527.291	659.9
527.745	647.3
528.2	661
528.654	650.5
529.108	655.5
529.562	645.3
530.016	645.4
530.47	658.2
530.925	651.7
531.379	659.1
531.833	662
532.287	660.6
532.741	659.9
533.195	668.6
533.649	669.2
534.103	675
534.556	662.9
535.01	670.7
535.464	666.2
535.918	675.2
536.372	679.5
536.826	676.9
537.279	662
537.733	669.1
538.187	670.6
538.64	672.3
539.094	683.8
539.548	685
540.001	684.7
540.455	682.1
540.908	691.6
541.362	686.9
541.815	707.6
542.269	709.3
542.722	716.1
543.175	732.1
543.629	733.7
544.082	742.6
544.536	743.4
544.989	743.2
545.442	755.6
545.895	746.2
546.349	754.8
546.802	753.9
547.255	759.7
547.708	754.6
548.161	766.8
548.614	779.9
549.067	778.2
549.52	774.1
549.973	766.2
550.426	756.8
550.879	753.3
551.332	748.7
551.785	765.3
552.238	768.2
552.691	781.2
553.144	787
553.596	806.4
554.049	824.2
554.502	849.4
554.955	851.2
555.407	856.3
555.86	854
556.313	851.5
556.765	834.1
557.218	841.1
557.67	843.2
558.123	827.1
558.576	826.5
559.028	830.3
559.48	836.6
559.933	833.8
560.385	793.5
560.838	771.7
561.29	743.5
561.742	750.7
562.195	740.5
562.647	730.3
563.099	729.8
563.551	729.6
564.004	744.6
564.456	739.1
564.908	727.6
565.36	711.9
565.812	702.9
566.264	696.6
566.716	695.7
567.168	685.5
567.62	689.1
568.072	668.6
568.524	671.4
568.976	661.2
569.428	643.1
569.88	645.9
570.332	647.5
570.784	642.1
571.235	634.7
571.687	660.5
572.139	657.9
572.59	672.7
573.042	680.5
573.494	675.3
573.945	669.9
574.397	653.5
574.849	650.3
575.3	660.3
575.752	648.9
576.203	648.4
576.655	652.7
577.106	639.4
577.557	632.4
578.009	642.6
578.46	642.8
578.912	624.9
579.363	629.4
579.814	634.5
580.265	630.6
580.717	638
581.168	643.4
581.619	645.4
582.07	654
582.521	636
582.972	638.7
583.423	642.8
583.875	652.2
584.326	667.7
584.777	693.9
585.227	761.7
585.678	845.2
586.129	912.9
586.58	978.8
587.031	1053.9
587.482	1174.4
587.933	1333
588.384	1169.9
588.834	904.6
589.285	757.4
589.736	745.7
590.186	742.5
590.637	734.3
591.088	715.1
591.538	703.3
591.989	692
592.439	687.5
592.89	693.8
593.34	684.1
593.791	670.2
594.241	668.9
594.692	675.2
595.142	668.1
595.593	658.7
596.043	673.4
596.493	681.8
596.943	683.6
597.394	692.2
597.844	678.1
598.294	694.9
598.744	713.9
599.195	742.2
599.645	786.8
600.095	816.9
600.545	879
600.995	935.1
601.445	993.3
601.895	1045.2
602.345	1083.2
602.795	1055.9
603.245	1015
603.695	968.3
604.145	908
604.594	869
605.044	811.3
605.494	763.1
605.944	713.3
606.393	710.9
606.843	688.8
607.293	697.1
607.743	703.6
608.192	705.9
608.642	724.4
609.091	731.2
609.541	733.9
609.99	729.4
610.44	728.8
610.889	682.2
611.339	681
611.788	657.1
612.238	667.6
612.687	682.3
613.136	688.5
613.586	694.4
614.035	700.5
614.484	719.4
614.933	710.5
615.383	717
615.832	713.2
616.281	690.5
616.73	655.9
617.179	636.7
617.628	618.9
618.077	608.1
618.526	605.3
618.975	597
619.424	594.4
619.873	582.1
620.322	589.8
620.771	587.4
621.22	568.5
621.669	561.4
622.118	551.9
622.567	557.9
623.015	548.8
623.464	543.2
623.913	526.2
624.361	526.4
624.81	520.5
625.259	525.3
625.707	536.8
626.156	525.4
626.604	542.6
627.053	540
627.501	547.5
627.95	550
628.398	553.2
628.847	544.8
629.295	550.6
629.744	542.7
630.192	546.4
630.64	537.4
631.089	537.3
631.537	550.5
631.985	547.5
632.433	552.9
632.881	564.4
633.33	596.6
633.778	584.3
634.226	539.6
634.674	545.8
635.122	545
635.57	563.6
636.018	586.2
636.466	554.5
636.914	527
637.362	542.7
637.81	543.5
638.258	551.5
638.705	551
639.153	583.3
639.601	591.8
640.049	621.4
640.497	652.6
640.944	660.5
641.392	613.5
641.84	582.4
642.287	559.2
642.735	550.7
643.182	540.6
643.63	551.2
644.078	546.8
644.525	563
644.973	560.7
645.42	572.1
645.867	588.7
646.315	611.5
646.762	626.5
647.21	652.6
647.657	685.2
648.104	717.5
648.551	728.7
648.999	787.7
649.446	881.8
649.893	957.8
650.34	1103.4
650.787	1326.2
651.234	1650.6
651.682	2157
652.129	2957.4
652.576	4259.9
653.023	6307
653.47	8636.6
653.917	10717.7
654.363	12382.2
654.81	13632.3
655.257	12966.8
655.704	8429.1
656.151	4986.8
656.598	3233
657.044	2276
657.491	1758.2
657.938	1415
658.385	1187.9
658.831	1010.9
659.278	922.4
659.724	807.9
660.171	747.9
660.618	693.8
661.064	651.3
661.511	637.3
661.957	625
662.404	623.6
662.85	620
663.296	594.4
663.743	534
664.189	509.2
664.635	509.5
665.082	507.1
665.528	498.4
665.974	497.5
666.42	482.2
666.867	477.8
667.313	465.6
667.759	458.9
668.205	452.3
668.651	466.4
669.097	460.3
669.543	461
669.989	453.3
670.435	427.9
670.881	430
671.327	434.5
671.773	449.8
672.219	469.3
672.665	527.6
673.11	563
673.556	606.8
674.002	650.6
674.448	624.6
674.893	526.6
675.339	451.7
675.785	421.3
676.23	404.4
676.676	376.9
677.122	369.3
677.567	355
678.013	344.7
678.458	342.6
678.904	347.6
679.349	332.4
679.794	345.3
680.24	337
680.685	335
681.131	331.5
681.576	333.8
682.021	338.8
682.466	330.9
682.912	332.2
683.357	340.6
683.802	362.9
684.247	389.1
684.692	436
685.137	475.8
685.583	522.3
686.028	538.5
686.473	499.4
686.918	432.5
687.363	397.1
687.807	377.6
688.252	352.3
688.697	344.2
689.142	320.3
689.587	318.5
690.032	312
690.477	317.9
690.921	328
691.366	366
691.811	388.1
692.255	413.7
692.7	447
693.145	480.1
693.589	687.1
694.034	1104.4
694.478	1493.1
694.923	1659.8
695.367	2167.9
695.812	1155
696.256	479.5
696.701	347.7
697.145	326.4
697.59	316.9
698.034	304.5
698.478	317.6
698.922	317.2
699.367	321.7
699.811	324.3
700.255	338.9
700.699	374.6
701.143	413.8
701.588	461
702.032	505.5
702.476	488.8
702.92	471.2
703.364	475.7
703.808	615.9
704.252	1006.9
704.696	1415.3
705.14	1610.7
705.584	2043.8
706.027	1019.1
706.471	492.6
706.915	380.1
707.359	337.2
707.803	308.3
708.246	297.1
708.69	299.7
709.134	306.8
709.577	300.6
710.021	308.2
710.465	292.4
710.908	289.4
711.352	289.1
711.795	302.4
712.239	341.4
712.682	370.7
713.126	399.4
713.569	447.5
714.012	353.4
714.456	312.6
714.899	283
715.342	262.6
715.786	248.2
716.229	244.5
716.672	243.4
717.115	237.4
717.558	248.4
718.002	244.9
718.445	254
718.888	279.2
719.331	281
719.774	282.5
720.217	293.5
720.66	272
721.103	260.1
721.546	246.2
721.989	239.6
722.432	231.9
722.874	223.1
723.317	219.8
723.76	225.3
724.203	252.5
724.645	301.3
725.088	428
725.531	553.2
725.974	625.8
726.416	530.1
726.859	293.4
727.301	235.1
727.744	235.6
728.187	226.2
728.629	232.7
729.071	235.2
729.514	249.3
729.956	259.2
730.399	271.1
730.841	279.5
731.283	264.4
731.726	254
732.168	257.4
732.61	250.7
733.053	272.3
733.495	297.8
733.937	344.3
734.379	383.1
734.821	420.3
735.263	530
735.705	808
736.148	1550.5
736.59	2502.6
737.032	2937.1
737.474	2388.9
737.916	771.3
738.357	415.4
738.799	314.6
739.241	285
739.683	275.8
740.125	276.4
740.567	284.7
741.008	302.7
741.45	297.1
741.892	309.8
742.334	336.4
742.775	348
743.217	314.1
743.658	255.2
744.1	246.4
744.542	255.7
744.983	292
745.425	326.3
745.866	331
746.307	276
746.749	273.6
747.19	314.9
747.632	446.7
748.073	874.8
748.514	1831.6
748.956	2758.6
749.397	3464.6
749.838	2870.7
750.279	2839.8
750.72	1445.2
751.162	526.5
751.603	316.4
752.044	245.3
752.485	211.1
752.926	202.5
753.367	190
753.808	189.9
754.249	180.2
754.69	181.3
755.131	176.6
755.572	172.8
756.013	176.5
756.453	177.1
756.894	178.7
757.335	185.2
757.776	188.9
758.216	188.9
758.657	197.4
759.098	195.9
759.538	216.4
759.979	255.2
760.42	359.9
760.86	693.2
761.301	1814.4
761.741	4354.8
762.182	6224.9
762.622	4346.3
763.063	1256.1
763.503	519.7
763.943	332.7
764.384	317.3
764.824	361.1
765.264	372.1
765.705	274.7
766.145	192.2
766.585	182.4
767.025	175.8
767.465	169.7
767.906	223.5
768.346	279
768.786	305.8
769.226	241.6
769.666	309
770.106	616.4
770.546	1530.7
770.986	2556.5
771.426	2269.3
771.866	758.3
772.306	321
772.745	199.9
773.185	167.5
773.625	165.2
774.065	157
774.505	183.3
774.944	290.8
775.384	629.2
775.824	1092.1
776.263	1062.5
776.703	462
777.142	203.2
777.582	148
778.021	133.4
778.461	133.1
778.9	136.2
779.34	127.2
779.779	108.1
780.219	109.8
780.658	105
781.097	103.5
781.537	108.6
781.976	104
782.415	102.2
782.855	99.1
783.294	103
783.733	100.7
784.172	102.6
784.611	106.4
785.05	104.2
785.489	104.1
785.928	109.8
786.367	111.8
786.806	116
787.245	125.1
787.684	136.8
788.123	147.3
788.562	134.8
789.001	123.8
789.44	120.1
789.879	112.7
790.317	107.8
790.756	123.2
791.195	128.5
791.634	139.3
792.072	197.7
792.511	359.3
792.95	1004.4
793.388	2074.2
793.827	1838.6
794.265	639.7
794.704	270.7
795.142	182.1
795.581	147
796.019	134.9
796.458	128.8
796.896	115.4
797.334	128.3
797.773	149.2
798.211	222.1
798.649	434.6
799.087	990.9
799.526	1549.1
799.964	1968.2
800.402	1939.6
800.84	725.9
801.278	296.3
801.716	183.8
802.154	150.4
802.592	134.4
803.03	137.3
803.468	134.3
803.906	139.4
804.344	145.2
804.782	134.6
805.22	127.2
805.658	120.3
806.096	147.4
806.533	152.8
806.971	168.6
807.409	208.7
807.847	305.4
808.284	665.6
808.722	1822
809.16	3176.6
