Data from 20171114-ORNL-Ar_H_NY_Subt18_08-06-33-564.txt Node
Date: Tue Nov 14 08:06:33 EST 2017
User: Ender
Spectrometer: HR+D1039
Trigger mode: 0
Integration Time (sec): 2.730000E-2
Scans to average: 10
Electric dark correction enabled: true
Nonlinearity correction enabled: false
Boxcar width: 0
XAxis mode: Wavelengths
Number of Pixels in Spectrum: 2048
>>>>>Begin Spectral Data<<<<<
187.836	-2.85
188.309	-2.85
188.782	-2.85
189.255	-0.55
189.728	-0.95
190.201	5.35
190.674	-0.15
191.147	0.05
191.619	-6.95
192.092	7.05
192.565	1.95
193.038	1.95
193.511	-5.15
193.984	-3.15
194.456	2.25
194.929	5.15
195.402	-1.85
195.874	-2.15
196.347	-3.65
196.82	-5.45
197.292	4.85
197.765	1.45
198.237	-11.75
198.71	0.75
199.182	-8.05
199.655	1.15
200.127	1.25
200.6	0.45
201.072	-1.65
201.544	-6.45
202.017	-2.55
202.489	4.85
202.961	-2.45
203.433	-1.85
203.906	-7.65
204.378	-10.75
204.85	-3.95
205.322	-7.55
205.794	-5.45
206.266	-0.55
206.739	-12.35
207.211	0.05
207.683	-7.75
208.155	-3.65
208.627	-9.45
209.099	-5.75
209.57	-8.25
210.042	-2.55
210.514	-0.95
210.986	-6.05
211.458	-12.85
211.93	-0.45
212.402	0.55
212.873	-5.05
213.345	-7.65
213.817	-10.05
214.288	-8.95
214.76	-9.55
215.232	-2.25
215.703	3.35
216.175	-7.05
216.646	-6.95
217.118	-8.95
217.589	-7.75
218.061	-3.85
218.532	-5.95
219.004	-4.95
219.475	-9.05
219.946	-1.45
220.418	-7.15
220.889	3.05
221.36	1.25
221.832	-3.45
222.303	-9.25
222.774	3.15
223.245	-9.25
223.717	-11.05
224.188	-4.85
224.659	-5.35
225.13	-8.85
225.601	-3.55
226.072	0.25
226.543	-6.15
227.014	-1.35
227.485	-3.15
227.956	-9.15
228.427	-2.55
228.898	-5.65
229.369	2.35
229.839	-6.15
230.31	-7.75
230.781	0.55
231.252	-2.05
231.722	-5.95
232.193	2.25
232.664	1.15
233.135	-3.85
233.605	3.65
234.076	-4.65
234.546	1.05
235.017	1.85
235.487	-1.75
235.958	0.95
236.428	-9.25
236.899	4.75
237.369	2.15
237.84	-0.65
238.31	3.75
238.78	-5.55
239.251	-1.25
239.721	4.35
240.191	5.05
240.662	-3.15
241.132	0.15
241.602	-0.45
242.072	-0.65
242.542	9.75
243.013	2.35
243.483	5.35
243.953	7.25
244.423	2.15
244.893	-1.15
245.363	5.15
245.833	5.05
246.303	-0.05
246.773	10.35
247.243	4.45
247.712	5.35
248.182	8.35
248.652	1.15
249.122	-3.45
249.592	9.25
250.061	20.15
250.531	36.05
251.001	16.95
251.471	19.35
251.94	16.75
252.41	2.15
252.879	3.95
253.349	17.25
253.818	10.35
254.288	5.15
254.757	10.15
255.227	3.05
255.696	3.35
256.166	4.05
256.635	8.45
257.105	3.85
257.574	6.25
258.043	11.75
258.513	7.85
258.982	17.95
259.451	2.05
259.92	9.35
260.389	8.25
260.859	18.15
261.328	12.05
261.797	20.05
262.266	10.45
262.735	11.75
263.204	-1.55
263.673	2.05
264.142	2.75
264.611	-2.55
265.08	3.95
265.549	2.95
266.018	0.95
266.487	-1.45
266.955	-4.95
267.424	-1.05
267.893	3.05
268.362	2.95
268.83	5.35
269.299	8.35
269.768	1.35
270.236	9.85
270.705	-1.55
271.174	6.35
271.642	11.65
272.111	9.75
272.579	13.85
273.048	15.85
273.516	27.05
273.985	27.75
274.453	20.05
274.922	19.55
275.39	12.95
275.858	12.75
276.327	7.25
276.795	16.35
277.263	8.35
277.731	31.15
278.2	52.05
278.668	62.45
279.136	44.85
279.604	20.65
280.072	16.35
280.54	9.85
281.008	10.45
281.477	6.35
281.945	12.35
282.413	13.25
282.881	15.45
283.348	6.45
283.816	11.85
284.284	13.45
284.752	23.45
285.22	9.35
285.688	9.75
286.156	22.25
286.623	38.95
287.091	53.15
287.559	31.55
288.026	17.05
288.494	18.75
288.962	10.05
289.429	7.95
289.897	12.45
290.364	16.45
290.832	16.15
291.3	10.85
291.767	21.05
292.234	17.05
292.702	16.35
293.169	22.15
293.637	21.85
294.104	17.65
294.571	14.05
295.039	14.65
295.506	13.45
295.973	18.15
296.44	13.65
296.908	19.05
297.375	20.15
297.842	21.95
298.309	19.05
298.776	13.95
299.243	21.85
299.71	12.75
300.177	18.75
300.644	22.35
301.111	19.35
301.578	27.65
302.045	18.15
302.512	16.65
302.979	28.35
303.446	18.45
303.913	15.55
304.379	23.55
304.846	26.75
305.313	26.25
305.78	18.45
306.246	25.15
306.713	25.85
307.18	25.05
307.646	29.35
308.113	31.05
308.579	24.45
309.046	31.85
309.512	28.55
309.979	15.85
310.445	30.45
310.912	28.35
311.378	32.45
311.845	31.75
312.311	27.55
312.777	34.55
313.244	31.25
313.71	42.65
314.176	28.35
314.642	28.95
315.109	30.75
315.575	35.25
316.041	36.65
316.507	34.85
316.973	37.75
317.439	32.65
317.905	34.25
318.371	37.25
318.837	27.15
319.303	35.55
319.769	28.45
320.235	30.85
320.701	35.15
321.167	35.05
321.633	33.25
322.099	42.35
322.564	47.85
323.03	40.95
323.496	39.25
323.962	44.65
324.427	35.75
324.893	45.05
325.359	34.95
325.824	41.25
326.29	33.85
326.755	43.05
327.221	40.15
327.686	42.65
328.152	42.15
328.617	40.05
329.083	48.95
329.548	53.95
330.014	46.25
330.479	43.15
330.944	48.75
331.41	41.85
331.875	45.25
332.34	47.45
332.805	41.45
333.271	50.95
333.736	40.65
334.201	49.45
334.666	49.55
335.131	57.85
335.596	49.95
336.061	48.85
336.526	42.05
336.991	50.45
337.456	54.25
337.921	45.15
338.386	42.65
338.851	49.75
339.316	47.55
339.781	48.85
340.246	48.85
340.711	48.65
341.175	47.75
341.64	48.05
342.105	50.35
342.569	56.55
343.034	58.85
343.499	56.55
343.963	53.75
344.428	69.45
344.893	63.45
345.357	64.85
345.822	67.65
346.286	67.65
346.751	73.35
347.215	71.85
347.679	76.75
348.144	96.85
348.608	83.55
349.073	64.65
349.537	72.45
350.001	79.55
350.465	88.05
350.93	84.65
351.394	83.95
351.858	74.85
352.322	88.45
352.786	82.35
353.25	100.45
353.715	111.45
354.179	98.35
354.643	123.45
355.107	132.25
355.571	113.75
356.035	111.35
356.498	123.95
356.962	130.85
357.426	135.75
357.89	116.35
358.354	91.95
358.818	83.15
359.281	82.95
359.745	76.45
360.209	76.95
360.673	77.75
361.136	78.25
361.6	78.65
362.064	85.05
362.527	85.85
362.991	88.55
363.454	85.15
363.918	79.15
364.381	78.75
364.845	85.65
365.308	89.45
365.772	90.45
366.235	87.55
366.698	86.55
367.162	89.05
367.625	83.85
368.088	90.95
368.552	85.45
369.015	87.65
369.478	101.75
369.941	98.15
370.404	95.85
370.867	104.25
371.331	110.25
371.794	122.35
372.257	113.95
372.72	123.55
373.183	107.75
373.646	104.15
374.109	104.55
374.572	114.35
375.035	113.95
375.497	109.95
375.96	108.05
376.423	107.95
376.886	119.65
377.349	116.35
377.811	106.55
378.274	113.65
378.737	109.75
379.199	116.85
379.662	118.35
380.125	119.65
380.587	116.85
381.05	130.45
381.512	126.45
381.975	137.55
382.437	127.95
382.9	129.55
383.362	129.75
383.825	149.75
384.287	149.85
384.75	143.45
385.212	144.85
385.674	141.25
386.136	143.15
386.599	124.65
387.061	130.75
387.523	125.35
387.985	143.05
388.447	152.75
388.91	144.95
389.372	161.85
389.834	156.25
390.296	150.55
390.758	159.85
391.22	176.15
391.682	222.35
392.144	316.95
392.606	240.85
393.068	170.55
393.529	170.65
393.991	158.55
394.453	152.55
394.915	169.05
395.377	201.45
395.838	222.65
396.3	161.15
396.762	150.45
397.224	138.85
397.685	137.85
398.147	139.35
398.608	132.75
399.07	128.55
399.531	138.95
399.993	139.95
400.454	155.45
400.916	144.55
401.377	144.85
401.839	157.75
402.3	150.35
402.762	169.05
403.223	186.35
403.684	181.75
404.145	166.75
404.607	166.95
405.068	167.75
405.529	176.45
405.99	188.65
406.451	176.55
406.913	176.45
407.374	165.25
407.835	169.25
408.296	174.45
408.757	175.15
409.218	193.55
409.679	184.95
410.14	190.95
410.601	183.05
411.062	189.95
411.522	192.65
411.983	200.55
412.444	183.95
412.905	183.25
413.366	186.65
413.826	192.55
414.287	225.35
414.748	265.05
415.208	253.95
415.669	220.35
416.13	209.75
416.59	207.95
417.051	216.85
417.511	221.05
417.972	244.25
418.432	253.05
418.893	298.85
419.353	255.85
419.814	200.95
420.274	186.05
420.734	188.05
421.195	205.55
421.655	207.25
422.115	201.95
422.576	199.65
423.036	199.15
423.496	209.25
423.956	217.65
424.416	240.85
424.876	271.95
425.336	270.25
425.797	270.35
426.257	264.05
426.717	253.65
427.177	239.05
427.637	229.15
428.097	242.15
428.556	253.75
429.016	281.35
429.476	273.85
429.936	279.85
430.396	288.25
430.856	300.25
431.315	326.45
431.775	363.15
432.235	389.35
432.694	363.75
433.154	373.25
433.614	403.25
434.073	354.05
434.533	296.55
434.993	277.45
435.452	289.15
435.912	306.65
436.371	288.85
436.83	290.65
437.29	280.25
437.749	253.55
438.209	253.65
438.668	277.65
439.127	295.95
439.587	274.35
440.046	249.75
440.505	265.65
440.964	289.15
441.424	332.35
441.883	323.65
442.342	267.65
442.801	231.95
443.26	225.15
443.719	227.25
444.178	226.15
444.637	212.55
445.096	223.15
445.555	227.15
446.014	229.35
446.473	233.75
446.932	239.15
447.391	231.25
447.849	228.55
448.308	222.25
448.767	229.05
449.226	240.45
449.685	239.65
450.143	254.75
450.602	245.95
451.061	232.85
451.519	239.55
451.978	237.85
452.436	238.35
452.895	247.05
453.353	258.35
453.812	251.15
454.27	247.35
454.729	242.55
455.187	251.85
455.646	254.35
456.104	253.55
456.562	263.25
457.021	280.35
457.479	269.45
457.937	276.55
458.395	268.05
458.854	254.75
459.312	269.15
459.77	281.95
460.228	258.15
460.686	247.95
461.144	250.45
461.602	247.65
462.06	247.65
462.518	267.95
462.976	261.95
463.434	263.55
463.892	263.55
464.35	285.55
464.808	283.55
465.266	275.95
465.724	270.65
466.181	279.15
466.639	280.55
467.097	292.55
467.555	304.85
468.012	309.85
468.47	313.75
468.928	339.85
469.385	354.35
469.843	354.15
470.3	355.25
470.758	368.25
471.215	392.95
471.673	416.75
472.13	412.25
472.588	423.65
473.045	376.45
473.503	388.65
473.96	410.35
474.417	404.55
474.875	440.65
475.332	490.15
475.789	475.75
476.246	484.95
476.704	498.95
477.161	516.95
477.618	536.25
478.075	581.15
478.532	634.75
478.989	714.25
479.446	840.95
479.903	789.15
480.36	823.65
480.817	889.75
481.274	998.85
481.731	1099.45
482.188	1199.45
482.645	1331.95
483.102	1442.55
483.558	1587.05
484.015	1643.95
484.472	1612.85
484.929	1577.85
485.385	1502.35
485.842	1476.75
486.299	1412.25
486.755	1333.05
487.212	1122.15
487.668	960.65
488.125	868.95
488.582	797.85
489.038	760.45
489.494	727.65
489.951	698.95
490.407	681.15
490.864	661.85
491.32	657.45
491.776	649.85
492.233	662.05
492.689	623.15
493.145	617.65
493.602	614.55
494.058	620.85
494.514	628.55
494.97	642.95
495.426	666.65
495.882	628.75
496.338	623.35
496.794	649.25
497.251	626.55
497.707	650.85
498.163	645.05
498.618	660.35
499.074	660.85
499.53	688.05
499.986	688.55
500.442	668.45
500.898	645.55
501.354	628.95
501.809	654.65
502.265	659.35
502.721	675.05
503.177	690.55
503.632	686.55
504.088	697.05
504.543	734.15
504.999	726.75
505.455	674.95
505.91	644.95
506.366	642.95
506.821	632.75
507.277	634.05
507.732	637.35
508.187	639.95
508.643	646.35
509.098	638.95
509.553	660.75
510.009	668.15
510.464	674.15
510.919	701.95
511.375	714.75
511.83	719.65
512.285	740.05
512.74	773.45
513.195	788.95
513.65	787.55
514.105	771.95
514.56	783.25
515.015	797.25
515.47	820.55
515.925	812.95
516.38	801.45
516.835	803.55
517.29	795.95
517.745	795.75
518.2	767.25
518.655	754.15
519.109	757.35
519.564	752.15
520.019	745.05
520.474	740.25
520.928	740.45
521.383	729.85
521.838	731.85
522.292	719.85
522.747	724.75
523.201	718.25
523.656	713.35
524.11	707.25
524.565	706.55
525.019	706.45
525.474	710.45
525.928	709.25
526.382	710.25
526.837	715.55
527.291	713.15
527.745	718.45
528.2	715.75
528.654	702.75
529.108	705.25
529.562	696.55
530.016	708.45
530.47	701.15
530.925	704.25
531.379	706.65
531.833	717.55
532.287	708.85
532.741	704.15
533.195	717.55
533.649	729.05
534.103	738.45
534.556	722.95
535.01	725.05
535.464	724.05
535.918	732.75
536.372	729.25
536.826	728.95
537.279	719.35
537.733	720.05
538.187	730.95
538.64	731.05
539.094	731.75
539.548	744.65
540.001	722.65
540.455	733.05
540.908	740.45
541.362	749.35
541.815	759.95
542.269	771.35
542.722	771.05
543.175	784.85
543.629	777.45
544.082	805.95
544.536	794.15
544.989	806.05
545.442	795.75
545.895	804.95
546.349	809.55
546.802	809.45
547.255	810.35
547.708	815.25
548.161	827.05
548.614	831.85
549.067	854.95
549.52	833.55
549.973	821.85
550.426	819.05
550.879	806.65
551.332	810.75
551.785	823.15
552.238	821.45
552.691	837.05
553.144	842.35
553.596	856.85
554.049	882.35
554.502	909.55
554.955	925.85
555.407	929.35
555.86	909.75
556.313	910.55
556.765	886.45
557.218	895.15
557.67	895.15
558.123	906.65
558.576	883.25
559.028	892.25
559.48	892.35
559.933	883.55
560.385	848.65
560.838	820.55
561.29	796.95
561.742	791.45
562.195	778.35
562.647	779.85
563.099	782.35
563.551	786.95
564.004	792.65
564.456	780.15
564.908	772.55
565.36	761.65
565.812	747.25
566.264	734.35
566.716	743.45
567.168	731.95
567.62	738.15
568.072	713.25
568.524	703.25
568.976	695.65
569.428	681.95
569.88	690.85
570.332	694.75
570.784	693.05
571.235	698.35
571.687	704.15
572.139	706.05
572.59	724.05
573.042	721.95
573.494	727.55
573.945	712.25
574.397	694.65
574.849	695.35
575.3	701.15
575.752	699.65
576.203	694.95
576.655	689.75
577.106	685.05
577.557	676.85
578.009	676.45
578.46	680.15
578.912	671.15
579.363	674.65
579.814	681.15
580.265	675.65
580.717	679.95
581.168	680.45
581.619	683.75
582.07	690.95
582.521	683.15
582.972	674.25
583.423	677.65
583.875	680.95
584.326	711.55
584.777	772.85
585.227	840.65
585.678	943.95
586.129	1035.95
586.58	1110.85
587.031	1198.55
587.482	1373.85
587.933	1562.25
588.384	1342.95
588.834	991.95
589.285	823.35
589.736	791.25
590.186	789.55
590.637	779.35
591.088	758.95
591.538	746.95
591.989	740.75
592.439	736.75
592.89	734.95
593.34	708.65
593.791	712.05
594.241	721.05
594.692	718.25
595.142	720.25
595.593	712.55
596.043	716.25
596.493	719.25
596.943	725.55
597.394	735.55
597.844	727.35
598.294	740.25
598.744	768.75
599.195	786.65
599.645	824.85
600.095	874.85
600.545	926.15
600.995	978.55
601.445	1030.55
601.895	1103.45
602.345	1144.75
602.795	1122.45
603.245	1083.95
603.695	1023.15
604.145	968.25
604.594	924.35
605.044	862.65
605.494	807.85
605.944	758.05
606.393	743.25
606.843	733.25
607.293	746.05
607.743	743.35
608.192	755.55
608.642	766.95
609.091	770.45
609.541	778.45
609.99	776.45
610.44	774.65
610.889	726.25
611.339	720.15
611.788	687.25
612.238	715.05
612.687	729.05
613.136	727.65
613.586	747.05
614.035	749.85
614.484	777.95
614.933	777.15
615.383	759.15
615.832	748.55
616.281	730.25
616.73	687.95
617.179	675.25
617.628	662.15
618.077	648.65
618.526	628.35
618.975	628.35
619.424	624.65
619.873	620.95
620.322	622.85
620.771	615.65
621.22	610.25
621.669	599.85
622.118	600.55
622.567	587.35
623.015	587.15
623.464	578.15
623.913	570.75
624.361	561.55
624.81	557.15
625.259	570.25
625.707	560.25
626.156	558.25
626.604	571.45
627.053	568.45
627.501	561.45
627.95	571.05
628.398	584.55
628.847	571.05
629.295	575.75
629.744	582.45
630.192	568.45
630.64	572.05
631.089	573.45
631.537	573.25
631.985	599.55
632.433	612.35
632.881	618.55
633.33	664.75
633.778	656.35
634.226	579.85
634.674	578.25
635.122	591.85
635.57	598.95
636.018	640.15
636.466	587.85
636.914	560.75
637.362	573.65
637.81	576.25
638.258	588.15
638.705	592.35
639.153	623.55
639.601	622.25
640.049	654.55
640.497	686.55
640.944	698.85
641.392	651.05
641.84	615.25
642.287	595.35
642.735	584.85
643.182	580.25
643.63	579.55
644.078	580.55
644.525	597.65
644.973	606.95
645.42	608.95
645.867	625.75
646.315	651.25
646.762	670.35
647.21	711.25
647.657	723.65
648.104	761.55
648.551	780.95
648.999	851.85
649.446	926.45
649.893	1013.75
650.34	1177.45
650.787	1406.85
651.234	1756.95
651.682	2299.35
652.129	3156.05
652.576	4557.15
653.023	6753.25
653.47	9231.55
653.917	11532.25
654.363	13283.25
654.81	14641.65
655.257	13992.55
655.704	9120.55
656.151	5385.25
656.598	3488.75
657.044	2473.85
657.491	1881.95
657.938	1507.95
658.385	1253.55
658.831	1095.05
659.278	971.55
659.724	867.45
660.171	799.25
660.618	734.05
661.064	698.15
661.511	682.65
661.957	659.45
662.404	650.85
662.85	666.45
663.296	630.15
663.743	569.25
664.189	534.85
664.635	532.35
665.082	530.45
665.528	532.15
665.974	519.55
666.42	517.65
666.867	505.45
667.313	495.25
667.759	477.75
668.205	488.75
668.651	491.05
669.097	493.25
669.543	515.85
669.989	475.85
670.435	445.75
670.881	455.95
671.327	458.35
671.773	467.55
672.219	489.65
672.665	547.15
673.11	586.75
673.556	633.75
674.002	667.65
674.448	656.55
674.893	548.35
675.339	480.25
675.785	436.65
676.23	423.65
676.676	397.05
677.122	386.95
677.567	377.15
678.013	364.85
678.458	366.25
678.904	365.95
679.349	351.25
679.794	360.45
680.24	350.25
680.685	342.75
681.131	354.25
681.576	351.15
682.021	350.85
682.466	354.05
682.912	342.35
683.357	353.85
683.802	383.65
684.247	405.95
684.692	455.75
685.137	503.45
685.583	534.85
686.028	554.25
686.473	514.55
686.918	442.45
687.363	416.95
687.807	399.05
688.252	369.65
688.697	357.05
689.142	340.65
689.587	331.75
690.032	331.55
690.477	347.15
690.921	351.05
691.366	383.85
691.811	403.45
692.255	432.15
692.7	460.25
693.145	507.55
693.589	694.35
694.034	1128.65
694.478	1532.45
694.923	1738.45
695.367	2272.85
695.812	1197.05
696.256	504.25
696.701	367.65
697.145	347.85
697.59	337.25
698.034	327.25
698.478	329.05
698.922	325.05
699.367	335.25
699.811	344.55
700.255	355.85
700.699	390.15
701.143	420.85
701.588	484.65
702.032	517.35
702.476	509.85
702.92	495.35
703.364	490.55
703.808	632.45
704.252	1038.15
704.696	1453.95
705.14	1665.05
705.584	2126.65
706.027	1065.45
706.471	518.95
706.915	402.85
707.359	344.15
707.803	325.55
708.246	308.05
708.69	312.35
709.134	314.85
709.577	314.05
710.021	315.25
710.465	307.75
710.908	305.85
711.352	304.15
711.795	315.25
712.239	352.55
712.682	390.55
713.126	421.85
713.569	460.95
714.012	370.05
714.456	323.45
714.899	308.45
715.342	282.15
715.786	259.65
716.229	260.65
716.672	249.05
717.115	245.25
717.558	251.35
718.002	256.75
718.445	263.15
718.888	287.45
719.331	299.55
719.774	313.15
720.217	307.25
720.66	284.65
721.103	271.25
721.546	254.75
721.989	251.55
722.432	236.85
722.874	237.35
723.317	231.05
723.76	229.05
724.203	261.45
724.645	316.95
725.088	439.45
725.531	564.85
725.974	644.35
726.416	550.25
726.859	306.05
727.301	248.35
727.744	241.25
728.187	234.45
728.629	233.15
729.071	243.45
729.514	259.05
729.956	274.75
730.399	282.05
730.841	285.95
731.283	276.85
731.726	264.55
732.168	263.25
732.61	270.75
733.053	288.75
733.495	315.35
733.937	346.75
734.379	397.05
734.821	437.35
735.263	545.25
735.705	830.05
736.148	1566.65
736.59	2563.15
737.032	3048.85
737.474	2468.75
737.916	804.05
738.357	426.05
738.799	332.35
739.241	303.05
739.683	280.65
740.125	285.55
740.567	293.55
741.008	308.55
741.45	318.75
741.892	318.15
742.334	349.85
742.775	362.05
743.217	341.05
743.658	263.55
744.1	256.65
744.542	261.75
744.983	303.65
745.425	341.95
745.866	347.25
746.307	282.95
746.749	282.25
747.19	325.85
747.632	453.85
748.073	879.35
748.514	1840.75
748.956	2837.65
749.397	3557.55
749.838	2945.75
750.279	2950.05
750.72	1484.25
751.162	544.55
751.603	314.35
752.044	253.65
752.485	214.45
752.926	217.85
753.367	203.75
753.808	197.55
754.249	192.15
754.69	188.45
755.131	179.25
755.572	180.15
756.013	180.45
756.453	187.85
756.894	187.45
757.335	183.45
757.776	198.55
758.216	190.65
758.657	202.15
759.098	203.65
759.538	223.45
759.979	264.95
760.42	372.85
760.86	693.15
761.301	1819.95
761.741	4408.35
762.182	6416.95
