Data from 20171114-ORNL-Ar_H_NY_Subt18_08-07-43-719.txt Node
Date: Tue Nov 14 08:07:43 EST 2017
User: Ender
Spectrometer: HR+D1039
Trigger mode: 0
Integration Time (sec): 2.730000E-2
Scans to average: 10
Electric dark correction enabled: true
Nonlinearity correction enabled: false
Boxcar width: 0
XAxis mode: Wavelengths
Number of Pixels in Spectrum: 2048
>>>>>Begin Spectral Data<<<<<
187.836	-0.3
188.309	-0.3
188.782	-0.3
189.255	2.7
189.728	-2.8
190.201	1.6
190.674	4.4
191.147	-2.4
191.619	-11.3
192.092	0.2
192.565	9.2
193.038	-0.2
193.511	1.8
193.984	1.2
194.456	-2.6
194.929	2.9
195.402	-4.2
195.874	-0.2
196.347	0.4
196.82	-1.6
197.292	4.6
197.765	-2.9
198.237	-2.8
198.71	0.9
199.182	-2.6
199.655	2.7
200.127	4.5
200.6	1
201.072	1.9
201.544	-5.6
202.017	-0.7
202.489	10.4
202.961	0.5
203.433	2.1
203.906	-8.1
204.378	-6.5
204.85	-2.5
205.322	-4.2
205.794	1.6
206.266	-4.1
206.739	-5.8
207.211	0.8
207.683	-5.5
208.155	-5.2
208.627	-5.4
209.099	-4.3
209.57	-9.6
210.042	-8.2
210.514	-0.3
210.986	-3.1
211.458	-8.8
211.93	-4
212.402	-4.6
212.873	-6.3
213.345	-5.2
213.817	-7.9
214.288	-7
214.76	-13.4
215.232	-3.4
215.703	1.7
216.175	-5.5
216.646	-1.2
217.118	-9.1
217.589	-6.5
218.061	1
218.532	1.6
219.004	0.7
219.475	-0.2
219.946	-4.3
220.418	-5.5
220.889	0.5
221.36	1.8
221.832	-4.5
222.303	-8.7
222.774	-0.9
223.245	-12
223.717	-9.3
224.188	-12.8
224.659	-9.2
225.13	-3
225.601	2.5
226.072	1.4
226.543	0.3
227.014	-1.9
227.485	-1.6
227.956	-4.9
228.427	-4.5
228.898	1.5
229.369	2.4
229.839	-3.8
230.31	-7.7
230.781	4.3
231.252	-2.8
231.722	-4.3
232.193	-7.2
232.664	-2.2
233.135	-0.7
233.605	-7.5
234.076	-6.3
234.546	-3.6
235.017	6.2
235.487	-2.1
235.958	1
236.428	-1.7
236.899	5.3
237.369	6
237.84	-3.8
238.31	1.7
238.78	-1.4
239.251	-2.3
239.721	-0.4
240.191	-0.2
240.662	-3.2
241.132	-1.2
241.602	-3.1
242.072	0.8
242.542	2.9
243.013	-3.4
243.483	-0.8
243.953	-0.7
244.423	2
244.893	-5.3
245.363	0.5
245.833	-0.2
246.303	0.2
246.773	3.6
247.243	1.9
247.712	0.6
248.182	6.9
248.652	5
249.122	-6.9
249.592	10.4
250.061	19.2
250.531	30.4
251.001	8.3
251.471	18.7
251.94	16.8
252.41	3.8
252.879	3.6
253.349	8.6
253.818	2.5
254.288	4.2
254.757	0.7
255.227	1.2
255.696	4.9
256.166	4.3
256.635	-0.3
257.105	6.1
257.574	4.8
258.043	9.8
258.513	7.9
258.982	14.9
259.451	4.2
259.92	12.3
260.389	2.8
260.859	20.6
261.328	12.2
261.797	18
262.266	8.8
262.735	7.6
263.204	4.6
263.673	1.7
264.142	4.1
264.611	1.4
265.08	1.2
265.549	-0.9
266.018	4.7
266.487	-0.2
266.955	-2.2
267.424	-2.4
267.893	3
268.362	6.2
268.83	2.6
269.299	11.3
269.768	6.9
270.236	3.2
270.705	2.5
271.174	9.3
271.642	11.1
272.111	5.9
272.579	13.6
273.048	18.9
273.516	31.3
273.985	23.7
274.453	22.8
274.922	18.3
275.39	6.6
275.858	4.5
276.327	8.1
276.795	15
277.263	10.4
277.731	30.9
278.2	49.4
278.668	50.5
279.136	48.4
279.604	15.3
280.072	12.9
280.54	11.4
281.008	13.4
281.477	10
281.945	10.8
282.413	20.8
282.881	17.1
283.348	5
283.816	15
284.284	8.6
284.752	19.5
285.22	11.2
285.688	12.5
286.156	17.5
286.623	41.3
287.091	45.9
287.559	24.2
288.026	13.1
288.494	16.7
288.962	-1.6
289.429	9.5
289.897	14.2
290.364	19.1
290.832	10.2
291.3	12.1
291.767	18.5
292.234	19.2
292.702	13.2
293.169	17.8
293.637	20.3
294.104	22.3
294.571	7.8
295.039	9.4
295.506	7.2
295.973	17.3
296.44	10.6
296.908	17.4
297.375	11
297.842	20.3
298.309	11.5
298.776	12.6
299.243	18.4
299.71	10.7
300.177	16
300.644	16.5
301.111	21.7
301.578	16.2
302.045	19.3
302.512	22.4
302.979	23.3
303.446	14.8
303.913	16
304.379	17.6
304.846	30.1
305.313	21.8
305.78	18.7
306.246	19.7
306.713	28.1
307.18	27
307.646	25.9
308.113	22.2
308.579	24.2
309.046	20.6
309.512	20.9
309.979	19.7
310.445	27.4
310.912	22.8
311.378	28.6
311.845	30.2
312.311	26.3
312.777	30.1
313.244	23.6
313.71	33.6
314.176	22.7
314.642	27.8
315.109	32
315.575	32.9
316.041	38.3
316.507	33.4
316.973	40.4
317.439	26
317.905	35
318.371	31.7
318.837	28
319.303	24.2
319.769	30.1
320.235	29.8
320.701	35.1
321.167	33.5
321.633	31.2
322.099	41.8
322.564	42.2
323.03	37.2
323.496	37.8
323.962	40.1
324.427	35.3
324.893	42.4
325.359	37.5
325.824	31
326.29	31.2
326.755	24.4
327.221	36.3
327.686	38
328.152	38.3
328.617	32.8
329.083	39.2
329.548	49.3
330.014	39.3
330.479	35.9
330.944	37.7
331.41	42.3
331.875	41.5
332.34	34.4
332.805	37.8
333.271	50.2
333.736	43.3
334.201	49
334.666	51.4
335.131	49.4
335.596	44.5
336.061	45.9
336.526	34.2
336.991	42.9
337.456	44.8
337.921	45.9
338.386	41.2
338.851	45.5
339.316	38.5
339.781	36.5
340.246	44.5
340.711	45.1
341.175	47.6
341.64	43
342.105	49.7
342.569	50.1
343.034	47.7
343.499	42.9
343.963	48.8
344.428	63.5
344.893	57.3
345.357	53
345.822	57.8
346.286	57.5
346.751	69.2
347.215	58
347.679	71.4
348.144	86.7
348.608	71.3
349.073	65.2
349.537	72.6
350.001	72.7
350.465	78.7
350.93	73.5
351.394	76.5
351.858	59.7
352.322	81.5
352.786	81.8
353.25	90.8
353.715	102.3
354.179	94.2
354.643	111
355.107	113.7
355.571	100
356.035	101.9
356.498	107.4
356.962	114.8
357.426	127
357.89	102.1
358.354	83
358.818	79.3
359.281	70.5
359.745	68.9
360.209	71.1
360.673	69.3
361.136	70.7
361.6	72.7
362.064	76.7
362.527	75.6
362.991	79.2
363.454	71.9
363.918	75.5
364.381	73.4
364.845	76.9
365.308	82.3
365.772	80.9
366.235	85.6
366.698	79.1
367.162	81.9
367.625	76.9
368.088	84.6
368.552	78.8
369.015	85.1
369.478	97
369.941	99.2
370.404	87.6
370.867	99.4
371.331	99.7
371.794	107.4
372.257	98.3
372.72	105.4
373.183	103
373.646	87.5
374.109	104.3
374.572	105.5
375.035	105.4
375.497	98.5
375.96	100.8
376.423	96.6
376.886	107.2
377.349	108.9
377.811	93.7
378.274	98.7
378.737	107.1
379.199	108.3
379.662	102.5
380.125	115.4
380.587	112.6
381.05	108.5
381.512	127.4
381.975	130.6
382.437	125.3
382.9	118.3
383.362	119.7
383.825	133.1
384.287	141.4
384.75	138.6
385.212	134.8
385.674	140.6
386.136	132.3
386.599	119
387.061	121.8
387.523	128
387.985	137.9
388.447	140.3
388.91	135.7
389.372	144.6
389.834	147.6
390.296	138.8
390.758	144.3
391.22	162
391.682	199.9
392.144	284.4
392.606	220.6
393.068	167.4
393.529	163
393.991	149.8
394.453	139.9
394.915	152.7
395.377	184.7
395.838	216.2
396.3	150.1
396.762	135.2
397.224	131.6
397.685	128.1
398.147	128.8
398.608	121.9
399.07	118.7
399.531	129.6
399.993	135.7
400.454	142.8
400.916	138.7
401.377	137.1
401.839	142.6
402.3	145.4
402.762	157.5
403.223	176
403.684	167.3
404.145	155
404.607	154.8
405.068	163.6
405.529	164.6
405.99	182.2
406.451	166.8
406.913	160.8
407.374	159.6
407.835	150.9
408.296	161
408.757	169.4
409.218	178.6
409.679	175
410.14	174.8
410.601	170.6
411.062	174.1
411.522	184.3
411.983	180.9
412.444	172.6
412.905	167.7
413.366	176.9
413.826	186.7
414.287	214
414.748	252.9
415.208	242.5
415.669	212.3
416.13	198.3
416.59	189.4
417.051	202.3
417.511	208.9
417.972	230.1
418.432	237.2
418.893	274.6
419.353	239.8
419.814	189.9
420.274	178.6
420.734	170.1
421.195	187
421.655	198.1
422.115	192.6
422.576	183.4
423.036	185.7
423.496	197.5
423.956	210
424.416	217.2
424.876	262.1
425.336	250.4
425.797	254.9
426.257	242.2
426.717	242.9
427.177	230.7
427.637	217
428.097	231.7
428.556	234.4
429.016	259
429.476	256
429.936	272.3
430.396	271.6
430.856	272.9
431.315	306.2
431.775	341.3
432.235	371.1
432.694	338.4
433.154	355.3
433.614	384
434.073	334.4
434.533	277
434.993	260.7
435.452	272.2
435.912	289.4
436.371	276
436.83	276.8
437.29	253.7
437.749	246.9
438.209	239.7
438.668	271.3
439.127	285.4
439.587	258
440.046	245
440.505	252.3
440.964	266.2
441.424	310
441.883	306.4
442.342	250.1
442.801	216.5
443.26	212.8
443.719	216.5
444.178	209.3
444.637	198
445.096	219.8
445.555	213.7
446.014	216.4
446.473	223.7
446.932	229.4
447.391	221
447.849	217.9
448.308	209.9
448.767	215.6
449.226	232
449.685	230.8
450.143	242.7
450.602	227.4
451.061	218.2
451.519	228.2
451.978	232.8
452.436	222.3
452.895	236.4
453.353	252
453.812	237.4
454.27	238.8
454.729	233.5
455.187	233.2
455.646	241.6
456.104	241.9
456.562	257.3
457.021	261.7
457.479	247.5
457.937	266.5
458.395	252.1
458.854	244.6
459.312	249.5
459.77	262.4
460.228	251.1
460.686	239.6
461.144	243.4
461.602	236.9
462.06	235.3
462.518	248.4
462.976	248.2
463.434	254.1
463.892	252.7
464.35	275.4
464.808	285.2
465.266	259.2
465.724	265
466.181	264.8
466.639	258.1
467.097	285
467.555	298
468.012	291
468.47	310
468.928	322.9
469.385	332.3
469.843	337.9
470.3	344.3
470.758	356
471.215	377.7
471.673	397.6
472.13	401.2
472.588	404.8
473.045	371.2
473.503	371.5
473.96	376.9
474.417	395
474.875	425.3
475.332	462.7
475.789	451.4
476.246	461.3
476.704	473.1
477.161	499.2
477.618	506.5
478.075	545.1
478.532	599.7
478.989	684.1
479.446	786.3
479.903	759.1
480.36	795.5
480.817	843.4
481.274	949.6
481.731	1055.8
482.188	1150
482.645	1264.5
483.102	1359.4
483.558	1494.8
484.015	1563.5
484.472	1538.9
484.929	1474.7
485.385	1428.3
485.842	1398.1
486.299	1323.5
486.755	1275.5
487.212	1067.3
487.668	904
488.125	828.3
488.582	764.2
489.038	725.3
489.494	696.5
489.951	669.6
490.407	665.1
490.864	638.3
491.32	625.1
491.776	628.3
492.233	639.4
492.689	601.2
493.145	589.5
493.602	584.7
494.058	594.2
494.514	606.3
494.97	627.3
495.426	636.7
495.882	614.3
496.338	603.1
496.794	622.8
497.251	597.3
497.707	619.4
498.163	623.8
498.618	632.9
499.074	628.4
499.53	660.8
499.986	665.4
500.442	648.6
500.898	626.1
501.354	607.9
501.809	624.5
502.265	625.4
502.721	641.6
503.177	653.1
503.632	654.9
504.088	663.3
504.543	693.8
504.999	696
505.455	641.4
505.91	623.2
506.366	627.3
506.821	611.7
507.277	610.3
507.732	618.8
508.187	616.3
508.643	624.2
509.098	622.5
509.553	641
510.009	660.3
510.464	663
510.919	681.2
511.375	692
511.83	691.9
512.285	716.4
512.74	746.8
513.195	762.7
513.65	756.7
514.105	755.7
514.56	759.2
515.015	773
515.47	794.6
515.925	780.6
516.38	780.8
516.835	773
517.29	768.9
517.745	761.9
518.2	755.1
518.655	741.5
519.109	728.3
519.564	717.8
520.019	709.8
520.474	720
520.928	723.8
521.383	712.6
521.838	690
522.292	705.9
522.747	695.7
523.201	694.3
523.656	686.7
524.11	691.4
524.565	691.3
525.019	688
525.474	685.4
525.928	685.3
526.382	693.1
526.837	697.3
527.291	691.2
527.745	686.4
528.2	688.9
528.654	681.3
529.108	680.9
529.562	686.2
530.016	678.7
530.47	676.1
530.925	688.2
531.379	691.2
531.833	690
532.287	697.6
532.741	689.3
533.195	690.2
533.649	704.6
534.103	711.3
534.556	697
535.01	702.9
535.464	707.1
535.918	704.6
536.372	705.4
536.826	709.7
537.279	696.1
537.733	695.1
538.187	711.6
538.64	698.2
539.094	712.9
539.548	719.2
540.001	710.5
540.455	713.4
540.908	724.3
541.362	728.8
541.815	737.1
542.269	750.1
542.722	755.3
543.175	757.5
543.629	764
544.082	779.2
544.536	776.7
544.989	764.9
545.442	765.3
545.895	782.1
546.349	776.4
546.802	779.3
547.255	801.4
547.708	800
548.161	808.8
548.614	804.9
549.067	820.7
549.52	814.4
549.973	803.9
550.426	807.7
550.879	784.4
551.332	785.2
551.785	799
552.238	794
552.691	809.4
553.144	825.1
553.596	837
554.049	852.8
554.502	880.4
554.955	899.1
555.407	896.9
555.86	880.6
556.313	882.9
556.765	868.2
557.218	873
557.67	877.8
558.123	873.3
558.576	877.5
559.028	866.6
559.48	863.4
559.933	862.8
560.385	833
560.838	792.4
561.29	772.8
561.742	775.9
562.195	757.9
562.647	756.4
563.099	784.5
563.551	770.3
564.004	774.4
564.456	764.5
564.908	757.9
565.36	734.5
565.812	727
566.264	723.3
566.716	723.7
567.168	712
567.62	713.3
568.072	694.2
568.524	686
568.976	689.9
569.428	672
569.88	671.8
570.332	680.3
570.784	670.9
571.235	679
571.687	696.4
572.139	705.5
572.59	707.6
573.042	713.5
573.494	708.7
573.945	694.4
574.397	684.2
574.849	686.9
575.3	684.3
575.752	683
576.203	662.5
576.655	674.3
577.106	682
577.557	660.8
578.009	668.5
578.46	660.8
578.912	663.4
579.363	660.6
579.814	661.4
580.265	661
580.717	666.2
581.168	658.1
581.619	682.8
582.07	683.7
582.521	667.6
582.972	668.8
583.423	674.6
583.875	672
584.326	705.8
584.777	752
585.227	818.5
585.678	917
586.129	986.5
586.58	1069.6
587.031	1136.2
587.482	1293.8
587.933	1458.7
588.384	1269.2
588.834	963.9
589.285	799.2
589.736	776
590.186	769.7
590.637	773.7
591.088	743.9
591.538	731.5
591.989	725.4
592.439	720.9
592.89	715.7
593.34	708.8
593.791	712.3
594.241	698.9
594.692	705.4
595.142	697.2
595.593	698.4
596.043	709.2
596.493	717.9
596.943	716.4
597.394	714.6
597.844	706.5
598.294	724
598.744	742.6
599.195	767.9
599.645	816
600.095	855.4
600.545	918.4
600.995	963.5
601.445	1022.5
601.895	1084.4
602.345	1132
602.795	1103.2
603.245	1064.5
603.695	1002.1
604.145	944.5
604.594	905.9
605.044	851.1
605.494	793.9
605.944	752.5
606.393	734.9
606.843	728.8
607.293	728.6
607.743	736.5
608.192	744.9
608.642	760.2
609.091	762.4
609.541	775.4
609.99	762
610.44	762
610.889	721.3
611.339	698.9
611.788	684.5
612.238	689.5
612.687	719.4
613.136	722
613.586	733
614.035	735.1
614.484	754.5
614.933	758.4
615.383	749.6
615.832	732.3
616.281	732.3
616.73	680.7
617.179	667
617.628	648.8
618.077	637.6
618.526	626
618.975	621.7
619.424	625.5
619.873	609.2
620.322	615.6
620.771	610.2
621.22	614.5
621.669	596.1
622.118	582.1
622.567	576.3
623.015	581.5
623.464	567.1
623.913	562.2
624.361	553.5
624.81	546.3
625.259	553.3
625.707	554.8
626.156	548.6
626.604	572.7
627.053	559
627.501	556.7
627.95	564.1
628.398	586
628.847	569.5
629.295	563.7
629.744	572
630.192	567.2
630.64	566.5
631.089	571.1
631.537	583.6
631.985	586
632.433	605.1
632.881	612.8
633.33	664
633.778	644.4
634.226	568.4
634.674	578.2
635.122	580.6
635.57	598.9
636.018	627.6
636.466	585.2
636.914	554.1
637.362	573.6
637.81	581.6
638.258	578.3
638.705	585.9
639.153	609
639.601	614.9
640.049	646.1
640.497	676.2
640.944	700.2
641.392	637.3
641.84	613
642.287	583.7
642.735	564
643.182	570.6
643.63	576.6
644.078	574.2
644.525	594.4
644.973	597.8
645.42	597.5
645.867	618.5
646.315	634.1
646.762	671.3
647.21	691.9
647.657	717.3
648.104	745.8
648.551	773.8
648.999	835.7
649.446	914.7
649.893	1008.7
650.34	1171.7
650.787	1396.8
651.234	1747.3
651.682	2262.8
652.129	3117.5
652.576	4506.9
653.023	6635.9
653.47	9079.8
653.917	11265.9
654.363	12931.9
654.81	14221
655.257	13541
655.704	8848.8
656.151	5231.6
656.598	3383.5
657.044	2399.6
657.491	1851.7
657.938	1490.9
658.385	1236.3
658.831	1077.9
659.278	960.3
659.724	848.6
660.171	784.3
660.618	725.4
661.064	692
661.511	666.1
661.957	654.7
662.404	640.6
662.85	648.9
663.296	629.7
663.743	562.8
664.189	538.4
664.635	538
665.082	527.7
665.528	529.9
665.974	518.3
666.42	505
666.867	511
667.313	493.4
667.759	480.3
668.205	477.1
668.651	489.3
669.097	476.7
669.543	496.2
669.989	469.7
670.435	455.9
670.881	443.7
671.327	451.6
671.773	474.7
672.219	489.7
672.665	543.6
673.11	587.5
673.556	632.8
674.002	667.6
674.448	648
674.893	544.3
675.339	477.2
675.785	442.9
676.23	425
676.676	394.9
677.122	375.3
677.567	362.7
678.013	370.9
678.458	353.8
678.904	364.3
679.349	346.5
679.794	345.9
680.24	352.7
680.685	346.8
681.131	349
681.576	350.3
682.021	362.4
682.466	346.6
682.912	346.3
683.357	354.6
683.802	376.7
684.247	410.6
684.692	456.6
685.137	495.8
685.583	530.6
686.028	558.2
686.473	520.4
686.918	449.2
687.363	417.1
687.807	393.1
688.252	364.1
688.697	356.5
689.142	335.2
689.587	333.5
690.032	331.8
690.477	338.5
690.921	352.3
691.366	378
691.811	405.4
692.255	424.6
692.7	459
693.145	499
693.589	718.4
694.034	1147.2
694.478	1547.7
694.923	1726.5
695.367	2244.3
695.812	1178.4
696.256	500.6
696.701	371.2
697.145	340.9
697.59	327.9
698.034	323.7
698.478	331.9
698.922	328.3
699.367	320.9
699.811	334.8
700.255	350.5
700.699	388.2
701.143	434.6
701.588	478.8
702.032	515.8
702.476	514.1
702.92	477.1
703.364	499.5
703.808	647.3
704.252	1057.7
704.696	1457.4
705.14	1659.7
705.584	2133.9
706.027	1064.8
706.471	524.3
706.915	402.5
707.359	349.4
707.803	316.3
708.246	307.3
708.69	316.9
709.134	311.8
709.577	313.2
710.021	325.7
710.465	310.1
710.908	297.4
711.352	296.2
711.795	313.6
712.239	354.2
712.682	382
713.126	419.6
713.569	463.3
714.012	366.6
714.456	314.5
714.899	295.6
715.342	279.3
715.786	267.8
716.229	258.9
716.672	254.5
717.115	251.7
717.558	258.2
718.002	251
718.445	261.9
718.888	293
719.331	301.3
719.774	311.9
720.217	302.8
720.66	281.7
721.103	268.3
721.546	262.8
721.989	247.6
722.432	239.4
722.874	243
723.317	231.9
723.76	229.6
724.203	259
724.645	324.4
725.088	447.4
725.531	564.3
725.974	641.9
726.416	548
726.859	306.2
727.301	256.1
727.744	242.2
728.187	237.1
728.629	243.9
729.071	238.9
729.514	257.6
729.956	277.9
730.399	281.1
730.841	295.4
731.283	273.9
731.726	263.4
732.168	256
732.61	266.9
733.053	287.5
733.495	322.4
733.937	352.8
734.379	399.7
734.821	444.6
735.263	549.7
735.705	844.9
736.148	1604.6
736.59	2595.9
737.032	3011.4
737.474	2449
737.916	798.6
738.357	425.7
738.799	333.1
739.241	296.4
739.683	282.3
740.125	292.6
740.567	303.6
741.008	305.4
741.45	313.8
741.892	315.6
742.334	339.9
742.775	354.4
743.217	329
743.658	267.4
744.1	253.6
744.542	262.3
744.983	313.5
745.425	344
745.866	343.5
746.307	295.5
746.749	291.9
747.19	329.8
747.632	460.6
748.073	906.1
748.514	1895.1
748.956	2861.2
749.397	3575.1
749.838	2969.2
750.279	2940.1
750.72	1486.6
751.162	551.7
751.603	316.8
752.044	256.8
752.485	221.9
752.926	212.8
753.367	204.9
753.808	190
754.249	187.9
754.69	187.5
755.131	180.8
755.572	180.6
756.013	186.6
756.453	188.3
756.894	193.2
757.335	191.1
757.776	198.9
758.216	202.4
758.657	203.2
759.098	204.5
759.538	225.3
759.979	263.1
760.42	384.8
760.86	736.7
761.301	1878.6
761.741	4481
762.182	6346.2
762.622	4456.8
763.063	1307.3
763.503	541
763.943	348.1
764.384	339.2
764.824	397.3
765.264	432.3
765.705	304.5
766.145	213.8
766.585	192
767.025	180.1
767.465	186.7
767.906	237.1
768.346	313.6
768.786	329.1
769.226	257.3
769.666	319.8
770.106	633.7
770.546	1582.9
770.986	2624
771.426	2320
771.866	785.6
772.306	331.4
772.745	213.6
773.185	171.5
773.625	168
774.065	171.1
774.505	202.5
774.944	310.4
775.384	672.7
775.824	1201.3
776.263	1157.4
776.703	489.7
777.142	218.2
777.582	158.6
778.021	140.9
778.461	138.9
778.9	142.5
779.34	133.4
779.779	117.7
780.219	113.5
780.658	110.2
781.097	113.3
781.537	113.9
781.976	113.4
782.415	103.7
782.855	99.1
783.294	103.6
783.733	112.9
784.172	115.9
784.611	102.6
785.05	113.6
785.489	109.5
785.928	119.8
786.367	120.7
786.806	125.5
787.245	132
787.684	134.6
788.123	148.1
788.562	136.3
789.001	124.6
789.44	124.1
789.879	120.8
790.317	121.6
790.756	126.6
791.195	130.6
791.634	150.7
792.072	201.2
792.511	377.2
792.95	1032.1
793.388	2130.8
793.827	1920.4
794.265	670.7
794.704	284.5
795.142	182.3
795.581	147.4
796.019	139.2
796.458	127.9
796.896	125.7
797.334	130.6
797.773	161.9
798.211	219.3
798.649	450.7
799.087	1032.4
799.526	1602.1
799.964	2021.2
800.402	1989.3
800.84	761.4
801.278	306
801.716	185
802.154	152.5
802.592	149.5
803.03	142.1
803.468	145.2
803.906	143.7
804.344	151.9
804.782	140.8
805.22	133.4
805.658	124.2
806.096	150.4
806.533	159
806.971	174
807.409	217
807.847	321.8
808.284	683.1
