Data from 20171114-ORNL-Ar_H_NY_Subt18_08-06-56-221.txt Node
Date: Tue Nov 14 08:06:56 EST 2017
User: Ender
Spectrometer: HR+D1039
Trigger mode: 0
Integration Time (sec): 2.730000E-2
Scans to average: 10
Electric dark correction enabled: true
Nonlinearity correction enabled: false
Boxcar width: 0
XAxis mode: Wavelengths
Number of Pixels in Spectrum: 2048
>>>>>Begin Spectral Data<<<<<
187.836	-9.47
188.309	-9.47
188.782	-9.47
189.255	3.63
189.728	-2.17
190.201	9.83
190.674	-3.17
191.147	1.83
191.619	-12.27
192.092	-0.47
192.565	5.23
193.038	4.43
193.511	-0.57
193.984	3.73
194.456	-2.87
194.929	-2.27
195.402	5.03
195.874	-0.47
196.347	0.63
196.82	-3.87
197.292	6.83
197.765	2.33
198.237	-11.57
198.71	0.33
199.182	1.13
199.655	5.13
200.127	1.13
200.6	-1.87
201.072	-3.17
201.544	-1.67
202.017	-3.37
202.489	-1.07
202.961	1.33
203.433	-10.87
203.906	-4.67
204.378	-14.27
204.85	-4.77
205.322	-7.27
205.794	0.53
206.266	-7.07
206.739	-4.27
207.211	5.63
207.683	-5.17
208.155	-1.47
208.627	-6.97
209.099	-2.27
209.57	-5.57
210.042	-3.77
210.514	-6.47
210.986	-1.77
211.458	-9.97
211.93	1.03
212.402	9.13
212.873	-8.57
213.345	-4.87
213.817	-11.47
214.288	-2.47
214.76	-11.07
215.232	-6.27
215.703	-1.87
216.175	-5.77
216.646	-1.17
217.118	-9.37
217.589	-2.27
218.061	-6.87
218.532	-3.27
219.004	4.63
219.475	-6.37
219.946	-1.17
220.418	0.13
220.889	3.23
221.36	0.33
221.832	-1.97
222.303	-4.87
222.774	-0.77
223.245	-5.67
223.717	-4.77
224.188	1.33
224.659	-7.07
225.13	-3.07
225.601	-5.77
226.072	-0.57
226.543	3.43
227.014	-0.57
227.485	2.93
227.956	-2.47
228.427	-5.07
228.898	-1.87
229.369	3.53
229.839	-8.07
230.31	-9.17
230.781	1.03
231.252	1.53
231.722	-8.47
232.193	-1.97
232.664	-3.27
233.135	-2.87
233.605	0.13
234.076	-8.17
234.546	-1.77
235.017	-1.17
235.487	0.63
235.958	-6.17
236.428	-3.47
236.899	-1.07
237.369	-1.37
237.84	-3.07
238.31	-0.47
238.78	-1.17
239.251	-6.47
239.721	-3.67
240.191	-5.67
240.662	-0.97
241.132	-5.67
241.602	-3.37
242.072	4.23
242.542	6.73
243.013	-2.67
243.483	1.93
243.953	2.23
244.423	-0.77
244.893	-4.87
245.363	0.63
245.833	-0.07
246.303	-5.17
246.773	1.73
247.243	5.43
247.712	-1.17
248.182	7.53
248.652	7.03
249.122	-7.07
249.592	-5.07
250.061	-0.47
250.531	8.63
251.001	-2.07
251.471	9.63
251.94	5.13
252.41	0.33
252.879	-5.37
253.349	7.63
253.818	3.03
254.288	-1.57
254.757	5.03
255.227	-7.67
255.696	-1.27
256.166	7.93
256.635	4.43
257.105	4.13
257.574	-5.17
258.043	-1.37
258.513	-4.07
258.982	-0.27
259.451	-0.87
259.92	3.13
260.389	1.03
260.859	4.73
261.328	1.63
261.797	3.43
262.266	1.33
262.735	11.43
263.204	9.83
263.673	-0.87
264.142	1.03
264.611	-4.17
265.08	3.13
265.549	-2.07
266.018	11.13
266.487	-2.87
266.955	-7.07
267.424	-4.27
267.893	0.73
268.362	7.13
268.83	-0.67
269.299	2.93
269.768	1.03
270.236	4.63
270.705	-3.97
271.174	7.63
271.642	-3.77
272.111	8.03
272.579	5.73
273.048	2.43
273.516	4.63
273.985	4.73
274.453	10.13
274.922	10.23
275.39	6.83
275.858	-3.47
276.327	12.93
276.795	19.03
277.263	3.73
277.731	9.63
278.2	4.23
278.668	10.03
279.136	13.43
279.604	3.53
280.072	11.13
280.54	6.43
281.008	10.93
281.477	10.93
281.945	12.63
282.413	9.83
282.881	16.33
283.348	5.13
283.816	14.33
284.284	6.63
284.752	13.03
285.22	9.83
285.688	4.53
286.156	11.63
286.623	9.83
287.091	7.03
287.559	8.03
288.026	12.73
288.494	5.63
288.962	3.13
289.429	10.43
289.897	14.63
290.364	13.63
290.832	11.93
291.3	8.63
291.767	9.63
292.234	10.43
292.702	9.33
293.169	14.13
293.637	18.83
294.104	11.63
294.571	8.73
295.039	9.53
295.506	10.53
295.973	13.53
296.44	14.53
296.908	15.93
297.375	11.03
297.842	16.33
298.309	13.23
298.776	14.63
299.243	16.13
299.71	10.53
300.177	18.63
300.644	17.43
301.111	8.53
301.578	21.63
302.045	15.83
302.512	18.63
302.979	27.13
303.446	21.03
303.913	17.83
304.379	17.03
304.846	21.63
305.313	14.83
305.78	17.53
306.246	23.63
306.713	17.53
307.18	20.63
307.646	15.23
308.113	30.13
308.579	22.03
309.046	21.83
309.512	20.13
309.979	16.83
310.445	31.13
310.912	31.53
311.378	29.13
311.845	21.93
312.311	31.73
312.777	30.93
313.244	27.53
313.71	31.63
314.176	26.53
314.642	20.23
315.109	18.73
315.575	31.23
316.041	30.13
316.507	31.03
316.973	31.43
317.439	27.43
317.905	30.53
318.371	28.43
318.837	28.83
319.303	25.83
319.769	29.73
320.235	24.13
320.701	28.53
321.167	33.23
321.633	29.03
322.099	33.43
322.564	28.03
323.03	36.13
323.496	27.13
323.962	28.53
324.427	31.33
324.893	45.13
325.359	35.53
325.824	30.03
326.29	32.63
326.755	39.83
327.221	31.93
327.686	32.53
328.152	45.53
328.617	38.23
329.083	44.73
329.548	44.33
330.014	47.83
330.479	35.63
330.944	39.23
331.41	37.53
331.875	42.23
332.34	33.73
332.805	32.43
333.271	39.23
333.736	30.33
334.201	46.83
334.666	36.73
335.131	51.93
335.596	47.33
336.061	39.33
336.526	34.43
336.991	45.73
337.456	51.13
337.921	48.13
338.386	37.33
338.851	39.13
339.316	41.33
339.781	44.73
340.246	44.93
340.711	42.93
341.175	40.73
341.64	39.33
342.105	47.03
342.569	48.53
343.034	53.63
343.499	46.23
343.963	47.63
344.428	58.23
344.893	47.53
345.357	55.73
345.822	56.23
346.286	58.63
346.751	71.33
347.215	59.63
347.679	64.73
348.144	81.53
348.608	74.93
349.073	62.43
349.537	69.83
350.001	66.23
350.465	82.63
350.93	72.03
351.394	72.23
351.858	68.23
352.322	82.03
352.786	75.63
353.25	83.63
353.715	97.03
354.179	89.23
354.643	105.23
355.107	110.23
355.571	91.03
356.035	85.63
356.498	99.13
356.962	103.73
357.426	113.43
357.89	98.63
358.354	85.13
358.818	77.93
359.281	75.63
359.745	69.53
360.209	75.43
360.673	64.53
361.136	71.33
361.6	79.23
362.064	77.43
362.527	77.33
362.991	91.33
363.454	77.73
363.918	77.53
364.381	73.23
364.845	73.73
365.308	85.33
365.772	78.33
366.235	77.53
366.698	73.43
367.162	74.13
367.625	83.93
368.088	86.23
368.552	86.03
369.015	74.83
369.478	85.63
369.941	87.13
370.404	89.53
370.867	85.43
371.331	90.43
371.794	97.93
372.257	90.73
372.72	100.33
373.183	96.43
373.646	82.13
374.109	93.83
374.572	92.93
375.035	94.83
375.497	92.93
375.96	101.93
376.423	101.63
376.886	109.43
377.349	104.93
377.811	97.63
378.274	97.03
378.737	100.33
379.199	106.33
379.662	108.73
380.125	108.13
380.587	97.33
381.05	105.33
381.512	110.23
381.975	121.43
382.437	113.93
382.9	111.03
383.362	123.93
383.825	125.43
384.287	124.93
384.75	118.53
385.212	120.03
385.674	124.33
386.136	128.53
386.599	116.23
387.061	123.03
387.523	112.53
387.985	115.43
388.447	130.53
388.91	119.63
389.372	132.03
389.834	123.23
390.296	122.73
390.758	127.43
391.22	133.53
391.682	141.83
392.144	149.03
392.606	141.03
393.068	136.23
393.529	148.43
393.991	142.43
394.453	130.23
394.915	127.23
395.377	130.03
395.838	134.33
396.3	136.73
396.762	136.73
397.224	133.23
397.685	130.43
398.147	129.03
398.608	132.03
399.07	123.53
399.531	131.13
399.993	138.03
400.454	150.93
400.916	148.13
401.377	143.63
401.839	153.43
402.3	142.93
402.762	167.13
403.223	180.53
403.684	169.03
404.145	157.13
404.607	167.43
405.068	171.13
405.529	168.53
405.99	183.23
406.451	176.93
406.913	176.03
407.374	166.73
407.835	161.53
408.296	168.23
408.757	173.73
409.218	183.63
409.679	176.63
410.14	175.03
410.601	177.03
411.062	184.93
411.522	173.93
411.983	173.93
412.444	173.63
412.905	185.83
413.366	185.73
413.826	200.73
414.287	223.33
414.748	265.43
415.208	255.83
415.669	216.93
416.13	214.93
416.59	204.83
417.051	217.33
417.511	228.03
417.972	242.63
418.432	257.63
418.893	300.53
419.353	262.13
419.814	211.73
420.274	196.53
420.734	189.63
421.195	199.03
421.655	198.53
422.115	197.13
422.576	200.03
423.036	208.23
423.496	214.13
423.956	220.73
424.416	236.83
424.876	276.63
425.336	269.43
425.797	266.93
426.257	257.53
426.717	246.03
427.177	238.53
427.637	232.43
428.097	232.73
428.556	252.73
429.016	268.23
429.476	258.73
429.936	275.33
430.396	280.73
430.856	295.23
431.315	310.33
431.775	344.53
432.235	385.23
432.694	357.33
433.154	358.93
433.614	383.83
434.073	333.23
434.533	297.53
434.993	264.73
435.452	282.53
435.912	297.03
436.371	300.23
436.83	284.73
437.29	270.53
437.749	249.63
438.209	253.43
438.668	275.23
439.127	298.43
439.587	275.03
440.046	257.13
440.505	267.33
440.964	289.63
441.424	323.43
441.883	316.63
442.342	265.23
442.801	237.93
443.26	230.43
443.719	230.53
444.178	229.43
444.637	224.93
445.096	230.93
445.555	232.93
446.014	239.43
446.473	238.93
446.932	245.03
447.391	243.33
447.849	244.13
448.308	234.63
448.767	236.73
449.226	245.43
449.685	255.43
450.143	262.43
450.602	253.03
451.061	243.63
451.519	246.93
451.978	252.03
452.436	243.33
452.895	247.13
453.353	261.93
453.812	263.93
454.27	255.53
454.729	255.33
455.187	247.93
455.646	256.03
456.104	260.73
456.562	269.23
457.021	280.93
457.479	273.03
457.937	280.13
458.395	279.73
458.854	265.73
459.312	269.53
459.77	279.43
460.228	278.93
460.686	253.23
461.144	262.73
461.602	263.13
462.06	258.93
462.518	271.53
462.976	277.33
463.434	279.93
463.892	277.53
464.35	294.13
464.808	306.83
465.266	277.03
465.724	286.23
466.181	284.03
466.639	291.23
467.097	306.43
467.555	321.33
468.012	323.43
468.47	329.83
468.928	347.43
469.385	366.53
469.843	364.43
470.3	369.03
470.758	388.23
471.215	395.33
471.673	425.73
472.13	422.63
472.588	433.63
473.045	398.93
473.503	409.83
473.96	419.33
474.417	428.23
474.875	457.83
475.332	495.33
475.789	479.73
476.246	489.73
476.704	514.73
477.161	532.33
477.618	549.53
478.075	581.83
478.532	632.83
478.989	709.93
479.446	808.73
479.903	781.23
480.36	809.63
480.817	860.13
481.274	954.93
481.731	1050.23
482.188	1127.53
482.645	1241.93
483.102	1351.33
483.558	1460.83
484.015	1496.83
484.472	1479.53
484.929	1439.93
485.385	1390.33
485.842	1387.23
486.299	1323.73
486.755	1273.33
487.212	1093.93
487.668	930.23
488.125	856.93
488.582	795.43
489.038	760.23
489.494	740.23
489.951	707.43
490.407	685.73
490.864	669.03
491.32	670.93
491.776	668.73
492.233	683.43
492.689	645.03
493.145	640.73
493.602	633.13
494.058	646.93
494.514	649.63
494.97	669.43
495.426	684.93
495.882	659.83
496.338	647.33
496.794	659.63
497.251	637.73
497.707	659.43
498.163	668.73
498.618	681.93
499.074	673.43
499.53	712.23
499.986	709.63
500.442	680.03
500.898	664.43
501.354	651.73
501.809	657.43
502.265	649.33
502.721	670.93
503.177	672.33
503.632	677.23
504.088	679.43
504.543	700.33
504.999	723.43
505.455	700.03
505.91	675.83
506.366	677.93
506.821	675.03
507.277	664.33
507.732	680.63
508.187	676.63
508.643	682.53
509.098	679.43
509.553	701.23
510.009	711.83
510.464	718.53
510.919	726.63
511.375	727.03
511.83	754.43
512.285	767.33
512.74	809.93
513.195	835.33
513.65	809.03
514.105	811.23
514.56	815.13
515.015	831.13
515.47	849.73
515.925	831.33
516.38	833.63
516.835	842.03
517.29	821.83
517.745	822.43
518.2	810.33
518.655	800.33
519.109	790.53
519.564	789.73
520.019	783.83
520.474	770.93
520.928	772.43
521.383	766.23
521.838	757.13
522.292	765.53
522.747	755.33
523.201	744.23
523.656	742.13
524.11	739.63
524.565	732.23
525.019	739.23
525.474	737.73
525.928	743.63
526.382	736.33
526.837	738.33
527.291	745.03
527.745	739.93
528.2	749.83
528.654	737.63
529.108	730.53
529.562	737.53
530.016	731.83
530.47	719.33
530.925	727.53
531.379	727.53
531.833	744.13
532.287	745.03
532.741	741.33
533.195	742.73
533.649	742.73
534.103	765.83
534.556	746.03
535.01	745.73
535.464	741.33
535.918	751.93
536.372	764.03
536.826	758.43
537.279	755.03
537.733	753.13
538.187	758.33
538.64	760.43
539.094	765.33
539.548	773.53
540.001	766.33
540.455	765.33
540.908	781.23
541.362	784.23
541.815	783.63
542.269	806.93
542.722	808.93
543.175	820.03
543.629	823.03
544.082	834.73
544.536	841.83
544.989	831.53
545.442	842.93
545.895	856.63
546.349	846.53
546.802	842.13
547.255	840.33
547.708	862.53
548.161	870.43
548.614	872.93
549.067	873.23
549.52	867.43
549.973	872.63
550.426	863.93
550.879	851.43
551.332	861.83
551.785	853.03
552.238	870.03
552.691	876.33
553.144	893.63
553.596	897.73
554.049	919.73
554.502	951.13
554.955	963.53
555.407	971.63
555.86	963.83
556.313	948.93
556.765	947.63
557.218	940.73
557.67	938.83
558.123	930.33
558.576	930.03
559.028	929.73
559.48	953.93
559.933	927.83
560.385	900.23
560.838	859.13
561.29	836.83
561.742	843.73
562.195	818.33
562.647	822.13
563.099	824.83
563.551	830.23
564.004	834.53
564.456	812.43
564.908	810.53
565.36	793.13
565.812	773.83
566.264	759.03
566.716	756.23
567.168	752.53
567.62	752.23
568.072	735.03
568.524	732.43
568.976	729.03
569.428	713.33
569.88	707.73
570.332	730.83
570.784	727.93
571.235	728.93
571.687	746.13
572.139	749.53
572.59	760.13
573.042	756.53
573.494	754.13
573.945	753.63
574.397	733.93
574.849	742.33
575.3	734.93
575.752	735.03
576.203	723.03
576.655	737.03
577.106	710.73
577.557	711.03
578.009	716.63
578.46	716.33
578.912	701.73
579.363	709.93
579.814	711.93
580.265	703.03
580.717	711.43
581.168	716.53
581.619	720.23
582.07	718.03
582.521	708.33
582.972	714.03
583.423	720.43
583.875	714.63
584.326	721.73
584.777	739.13
585.227	743.83
585.678	772.13
586.129	790.23
586.58	812.93
587.031	824.53
587.482	858.73
587.933	886.13
588.384	858.83
588.834	823.43
589.285	812.83
589.736	820.73
590.186	817.13
590.637	806.13
591.088	792.13
591.538	773.93
591.989	762.43
592.439	771.33
592.89	749.13
593.34	749.53
593.791	751.43
594.241	737.23
594.692	738.03
595.142	732.73
595.593	729.33
596.043	742.93
596.493	750.03
596.943	748.53
597.394	762.93
597.844	763.13
598.294	785.83
598.744	796.93
599.195	827.53
599.645	862.93
600.095	918.63
600.545	967.93
600.995	1018.93
601.445	1090.83
601.895	1148.63
602.345	1208.53
602.795	1179.23
603.245	1134.13
603.695	1070.73
604.145	1009.73
604.594	969.93
605.044	919.53
605.494	845.33
605.944	797.53
606.393	793.53
606.843	758.33
607.293	769.43
607.743	769.43
608.192	784.83
608.642	790.33
609.091	798.63
609.541	810.63
609.99	797.23
610.44	798.63
610.889	754.33
611.339	729.43
611.788	718.73
612.238	732.73
612.687	737.53
613.136	727.53
613.586	747.43
614.035	734.93
614.484	742.33
614.933	744.43
615.383	740.33
615.832	741.83
616.281	737.93
616.73	700.43
617.179	694.73
617.628	681.23
618.077	655.93
618.526	658.73
618.975	650.13
619.424	642.53
619.873	652.63
620.322	648.03
620.771	639.23
621.22	637.03
621.669	618.63
622.118	622.83
622.567	599.93
623.015	596.33
623.464	594.93
623.913	588.53
624.361	580.13
624.81	577.83
625.259	580.83
625.707	578.43
626.156	582.43
626.604	592.23
627.053	593.53
627.501	592.43
627.95	595.73
628.398	610.53
628.847	603.03
629.295	599.63
629.744	608.53
630.192	602.33
630.64	590.33
631.089	572.63
631.537	565.23
631.985	553.63
632.433	561.13
632.881	549.33
633.33	559.73
633.778	551.03
634.226	551.83
634.674	559.53
635.122	567.13
635.57	578.63
636.018	590.43
636.466	578.23
636.914	586.83
637.362	598.13
637.81	606.83
638.258	613.63
638.705	612.03
639.153	646.73
639.601	650.93
640.049	670.33
640.497	710.23
640.944	727.43
641.392	676.83
641.84	641.63
642.287	609.13
642.735	591.13
643.182	595.03
643.63	580.73
644.078	584.33
644.525	605.03
644.973	605.73
645.42	619.83
645.867	653.23
646.315	652.53
646.762	676.93
647.21	714.83
647.657	728.93
648.104	771.93
648.551	778.03
648.999	843.03
649.446	915.73
649.893	999.83
650.34	1141.43
650.787	1367.83
651.234	1680.53
651.682	2142.83
652.129	2929.63
652.576	4130.13
653.023	6038.93
653.47	8185.23
653.917	10161.33
654.363	11735.83
654.81	12880.23
655.257	12224.63
655.704	8115.93
656.151	4904.03
656.598	3204.43
657.044	2310.43
657.491	1800.83
657.938	1453.83
658.385	1228.03
658.831	1068.43
659.278	961.63
659.724	852.63
660.171	789.93
660.618	740.03
661.064	694.63
661.511	678.73
661.957	668.53
662.404	658.43
662.85	671.43
663.296	634.83
663.743	579.63
664.189	562.43
664.635	555.33
665.082	543.83
665.528	556.13
665.974	539.53
666.42	531.13
666.867	525.53
667.313	509.93
667.759	480.73
668.205	470.13
668.651	470.73
669.097	469.83
669.543	454.83
669.989	466.03
670.435	467.93
670.881	465.73
671.327	476.73
671.773	486.43
672.219	505.53
672.665	567.83
673.11	615.43
673.556	661.43
674.002	697.53
674.448	686.43
674.893	574.13
675.339	504.43
675.785	462.43
676.23	440.23
676.676	414.03
677.122	410.03
677.567	392.63
678.013	386.63
678.458	381.23
678.904	378.03
679.349	369.03
679.794	371.53
680.24	364.73
680.685	369.13
681.131	367.53
681.576	370.13
682.021	371.83
682.466	363.83
682.912	359.03
683.357	376.33
683.802	405.63
684.247	428.83
684.692	470.73
685.137	518.93
685.583	571.63
686.028	594.03
686.473	547.53
686.918	475.83
687.363	436.93
687.807	409.13
688.252	383.63
688.697	380.93
689.142	359.33
689.587	354.23
690.032	344.93
690.477	366.43
690.921	364.53
691.366	408.53
691.811	421.83
692.255	455.33
692.7	482.23
693.145	541.13
693.589	742.23
694.034	1198.93
694.478	1636.13
694.923	1823.33
695.367	2383.23
695.812	1253.43
696.256	527.53
696.701	390.33
697.145	362.03
697.59	343.53
698.034	338.33
698.478	345.93
698.922	337.73
699.367	330.63
699.811	353.43
700.255	372.03
700.699	399.23
701.143	444.43
701.588	490.33
702.032	531.33
702.476	545.13
702.92	523.63
703.364	517.13
703.808	679.83
704.252	1088.03
704.696	1532.73
705.14	1767.53
705.584	2246.13
706.027	1121.33
706.471	550.63
706.915	420.43
707.359	366.63
707.803	345.83
708.246	324.73
708.69	329.83
709.134	337.33
709.577	329.13
710.021	326.33
710.465	319.83
710.908	313.23
711.352	311.23
711.795	332.03
712.239	369.63
712.682	400.23
713.126	429.73
713.569	475.93
714.012	373.83
714.456	313.23
714.899	313.33
715.342	281.23
715.786	270.03
716.229	278.03
716.672	263.73
717.115	265.63
717.558	261.33
718.002	260.93
718.445	279.73
718.888	302.53
719.331	310.73
719.774	323.63
720.217	325.03
720.66	301.43
721.103	281.83
721.546	268.63
721.989	261.23
722.432	241.93
722.874	243.33
723.317	240.83
723.76	248.33
724.203	268.23
724.645	326.93
725.088	472.73
725.531	601.93
725.974	683.83
726.416	589.43
726.859	330.83
727.301	264.43
727.744	256.33
728.187	246.83
728.629	255.63
729.071	257.73
729.514	280.23
729.956	288.03
730.399	300.03
730.841	307.63
731.283	286.83
731.726	283.63
732.168	279.23
732.61	278.93
733.053	299.53
733.495	325.63
733.937	372.73
734.379	420.03
734.821	463.03
735.263	584.33
735.705	889.23
736.148	1698.23
736.59	2753.43
737.032	3269.33
737.474	2645.33
737.916	862.53
738.357	457.73
738.799	350.23
739.241	315.13
739.683	303.43
740.125	312.53
740.567	316.63
741.008	334.13
741.45	333.33
741.892	331.23
742.334	368.43
742.775	392.43
743.217	364.13
743.658	290.73
744.1	268.83
744.542	287.13
744.983	340.63
745.425	369.23
745.866	367.43
746.307	297.13
746.749	290.73
747.19	336.93
747.632	485.23
748.073	947.93
748.514	1984.13
748.956	3058.03
749.397	3814.33
749.838	3154.53
750.279	3148.13
750.72	1599.03
751.162	577.63
751.603	338.13
752.044	268.43
752.485	228.33
752.926	223.43
753.367	208.33
753.808	209.43
754.249	196.43
754.69	196.33
755.131	193.93
755.572	199.63
756.013	185.43
756.453	187.43
756.894	198.63
757.335	206.93
757.776	207.03
758.216	203.63
758.657	210.53
759.098	208.63
759.538	237.63
759.979	283.83
760.42	399.33
760.86	756.43
761.301	1958.23
761.741	4715.63
762.182	6798.43
762.622	4812.83
763.063	1389.23
