Data from 20171114-ORNL-Ar_H_NY_Subt18_08-05-42-517.txt Node
Date: Tue Nov 14 08:05:42 EST 2017
User: Ender
Spectrometer: HR+D1039
Trigger mode: 0
Integration Time (sec): 2.730000E-2
Scans to average: 10
Electric dark correction enabled: true
Nonlinearity correction enabled: false
Boxcar width: 0
XAxis mode: Wavelengths
Number of Pixels in Spectrum: 2048
>>>>>Begin Spectral Data<<<<<
187.836	-5.95
188.309	-5.95
188.782	-5.95
189.255	-1.95
189.728	-0.85
190.201	5.05
190.674	-2.85
191.147	2.75
191.619	-2.05
192.092	0.95
192.565	2.85
193.038	2.65
193.511	2.05
193.984	-1.45
194.456	-1.35
194.929	-1.05
195.402	-4.45
195.874	5.65
196.347	-0.35
196.82	-7.55
197.292	4.75
197.765	2.05
198.237	-3.65
198.71	5.05
199.182	2.45
199.655	0.35
200.127	0.75
200.6	4.05
201.072	-0.65
201.544	-2.25
202.017	-4.75
202.489	8.85
202.961	-1.25
203.433	-1.55
203.906	-1.95
204.378	-1.85
204.85	-2.55
205.322	-5.05
205.794	-2.95
206.266	-2.95
206.739	-6.65
207.211	6.15
207.683	-6.35
208.155	-4.15
208.627	-6.45
209.099	1.45
209.57	-6.65
210.042	-7.05
210.514	-3.35
210.986	-3.95
211.458	-7.75
211.93	-1.75
212.402	3.65
212.873	2.55
213.345	-8.75
213.817	-8.65
214.288	-5.15
214.76	-9.75
215.232	-2.85
215.703	-1.35
216.175	-4.15
216.646	-3.25
217.118	-2.95
217.589	-1.95
218.061	-2.65
218.532	-7.45
219.004	-2.95
219.475	-5.25
219.946	-5.35
220.418	-5.65
220.889	2.85
221.36	-3.05
221.832	-1.25
222.303	-6.75
222.774	-2.55
223.245	-5.05
223.717	-7.25
224.188	-3.65
224.659	-1.35
225.13	-5.35
225.601	-3.55
226.072	4.25
226.543	-0.45
227.014	0.05
227.485	-0.75
227.956	-0.55
228.427	0.45
228.898	1.75
229.369	7.55
229.839	-1.65
230.31	-3.85
230.781	8.55
231.252	-3.35
231.722	-5.45
232.193	-2.55
232.664	4.85
233.135	-0.15
233.605	1.35
234.076	-4.25
234.546	0.25
235.017	0.75
235.487	1.75
235.958	-1.35
236.428	-2.75
236.899	6.75
237.369	3.95
237.84	0.05
238.31	8.05
238.78	3.45
239.251	-4.45
239.721	3.75
240.191	-0.95
240.662	-1.85
241.132	4.75
241.602	-3.05
242.072	3.75
242.542	3.15
243.013	1.35
243.483	7.85
243.953	8.55
244.423	5.25
244.893	1.75
245.363	4.55
245.833	5.85
246.303	0.25
246.773	7.95
247.243	4.95
247.712	2.05
248.182	12.35
248.652	10.35
249.122	2.95
249.592	15.55
250.061	22.05
250.531	37.55
251.001	18.95
251.471	19.65
251.94	20.45
252.41	7.65
252.879	1.45
253.349	19.45
253.818	12.75
254.288	4.05
254.757	5.05
255.227	6.05
255.696	4.25
256.166	4.35
256.635	5.05
257.105	10.85
257.574	2.05
258.043	15.85
258.513	11.05
258.982	14.45
259.451	6.95
259.92	21.45
260.389	14.95
260.859	25.15
261.328	9.25
261.797	23.05
262.266	6.25
262.735	4.55
263.204	8.15
263.673	-1.55
264.142	13.25
264.611	-0.25
265.08	3.25
265.549	-0.55
266.018	6.05
266.487	0.05
266.955	-1.25
267.424	-0.55
267.893	5.05
268.362	5.35
268.83	11.25
269.299	20.75
269.768	9.75
270.236	9.55
270.705	3.65
271.174	5.85
271.642	14.45
272.111	11.75
272.579	19.45
273.048	22.85
273.516	31.95
273.985	26.25
274.453	27.75
274.922	28.25
275.39	12.35
275.858	6.25
276.327	10.35
276.795	17.75
277.263	12.65
277.731	34.95
278.2	53.75
278.668	59.55
279.136	51.25
279.604	24.05
280.072	16.85
280.54	16.15
281.008	10.25
281.477	19.25
281.945	13.55
282.413	13.95
282.881	19.45
283.348	14.25
283.816	15.35
284.284	15.45
284.752	21.65
285.22	10.55
285.688	26.85
286.156	30.85
286.623	49.45
287.091	53.35
287.559	36.75
288.026	22.05
288.494	18.85
288.962	7.15
289.429	12.85
289.897	18.45
290.364	10.05
290.832	17.55
291.3	17.75
291.767	20.95
292.234	21.25
292.702	18.75
293.169	19.05
293.637	24.85
294.104	21.15
294.571	15.15
295.039	20.75
295.506	11.65
295.973	20.95
296.44	20.15
296.908	20.45
297.375	31.55
297.842	27.75
298.309	17.75
298.776	20.45
299.243	27.75
299.71	16.35
300.177	27.35
300.644	23.65
301.111	27.05
301.578	21.85
302.045	16.45
302.512	24.85
302.979	24.85
303.446	25.75
303.913	21.25
304.379	22.45
304.846	35.05
305.313	26.55
305.78	22.95
306.246	26.35
306.713	29.55
307.18	30.85
307.646	32.55
308.113	32.75
308.579	25.85
309.046	26.85
309.512	31.95
309.979	25.75
310.445	32.55
310.912	31.95
311.378	43.05
311.845	30.65
312.311	29.05
312.777	33.25
313.244	34.35
313.71	38.85
314.176	31.05
314.642	32.05
315.109	38.55
315.575	39.75
316.041	43.85
316.507	34.45
316.973	37.25
317.439	36.35
317.905	37.85
318.371	39.75
318.837	33.95
319.303	36.75
319.769	44.85
320.235	40.25
320.701	42.15
321.167	32.15
321.633	44.25
322.099	44.85
322.564	45.35
323.03	38.15
323.496	43.55
323.962	49.25
324.427	39.95
324.893	45.55
325.359	41.15
325.824	41.65
326.29	43.75
326.755	45.25
327.221	48.55
327.686	45.45
328.152	50.65
328.617	44.75
329.083	50.45
329.548	53.95
330.014	49.25
330.479	41.95
330.944	47.55
331.41	46.25
331.875	46.95
332.34	48.35
332.805	49.55
333.271	47.65
333.736	45.65
334.201	55.55
334.666	51.35
335.131	55.65
335.596	60.75
336.061	55.75
336.526	45.65
336.991	53.25
337.456	58.65
337.921	51.65
338.386	47.45
338.851	48.35
339.316	50.55
339.781	49.45
340.246	59.85
340.711	46.45
341.175	57.35
341.64	53.35
342.105	55.75
342.569	58.65
343.034	57.65
343.499	57.95
343.963	54.65
344.428	65.05
344.893	63.15
345.357	62.05
345.822	67.55
346.286	76.35
346.751	78.05
347.215	77.35
347.679	75.05
348.144	107.05
348.608	87.35
349.073	73.95
349.537	77.75
350.001	86.05
350.465	87.45
350.93	87.55
351.394	87.05
351.858	77.45
352.322	90.25
352.786	92.05
353.25	111.45
353.715	114.05
354.179	102.95
354.643	122.15
355.107	125.75
355.571	107.35
356.035	109.65
356.498	124.45
356.962	126.95
357.426	130.45
357.89	121.35
358.354	94.95
358.818	85.95
359.281	86.95
359.745	76.15
360.209	78.85
360.673	80.45
361.136	80.85
361.6	81.95
362.064	85.35
362.527	88.85
362.991	96.25
363.454	80.25
363.918	78.25
364.381	77.15
364.845	79.15
365.308	88.35
365.772	93.85
366.235	88.65
366.698	84.65
367.162	87.05
367.625	87.65
368.088	89.45
368.552	91.05
369.015	89.25
369.478	101.25
369.941	103.05
370.404	96.15
370.867	103.85
371.331	109.85
371.794	117.65
372.257	106.75
372.72	120.15
373.183	113.75
373.646	110.25
374.109	108.65
374.572	112.45
375.035	108.45
375.497	109.45
375.96	106.25
376.423	99.35
376.886	119.95
377.349	107.45
377.811	108.35
378.274	111.55
378.737	111.05
379.199	121.35
379.662	113.55
380.125	123.85
380.587	111.25
381.05	123.55
381.512	127.15
381.975	138.65
382.437	128.95
382.9	130.75
383.362	127.85
383.825	140.85
384.287	145.85
384.75	136.65
385.212	139.75
385.674	137.35
386.136	135.75
386.599	130.85
387.061	131.05
387.523	131.45
387.985	134.05
388.447	144.55
388.91	139.45
389.372	150.75
389.834	151.75
390.296	144.95
390.758	149.35
391.22	171.35
391.682	204.35
392.144	289.85
392.606	229.45
393.068	170.65
393.529	167.95
393.991	151.15
394.453	149.75
394.915	164.65
395.377	183.55
395.838	216.05
396.3	153.25
396.762	140.45
397.224	135.25
397.685	126.75
398.147	124.75
398.608	130.35
399.07	136.45
399.531	133.65
399.993	142.35
400.454	154.85
400.916	141.95
401.377	142.55
401.839	150.85
402.3	151.95
402.762	162.25
403.223	182.85
403.684	175.55
404.145	163.25
404.607	155.65
405.068	161.65
405.529	170.15
405.99	189.05
406.451	179.35
406.913	176.45
407.374	159.65
407.835	160.85
408.296	171.35
408.757	171.35
409.218	188.75
409.679	177.75
410.14	176.65
410.601	181.35
411.062	186.65
411.522	189.55
411.983	185.55
412.444	172.25
412.905	173.25
413.366	178.65
413.826	195.15
414.287	207.85
414.748	262.25
415.208	255.85
415.669	214.55
416.13	203.35
416.59	194.15
417.051	216.55
417.511	215.75
417.972	234.95
418.432	247.95
418.893	282.15
419.353	250.15
419.814	195.95
420.274	183.75
420.734	182.55
421.195	204.95
421.655	196.25
422.115	192.85
422.576	194.85
423.036	199.75
423.496	210.35
423.956	212.35
424.416	230.55
424.876	264.95
425.336	262.95
425.797	267.45
426.257	255.45
426.717	238.45
427.177	237.25
427.637	227.15
428.097	240.05
428.556	240.75
429.016	275.75
429.476	262.55
429.936	276.25
430.396	277.95
430.856	292.35
431.315	330.05
431.775	336.05
432.235	387.55
432.694	366.35
433.154	363.85
433.614	387.15
434.073	336.65
434.533	283.75
434.993	272.95
435.452	279.75
435.912	292.45
436.371	290.55
436.83	285.95
437.29	269.55
437.749	248.05
438.209	251.75
438.668	276.25
439.127	297.85
439.587	271.45
440.046	252.05
440.505	261.95
440.964	281.35
441.424	330.55
441.883	312.65
442.342	258.15
442.801	223.45
443.26	216.05
443.719	220.55
444.178	220.55
444.637	213.95
445.096	228.05
445.555	225.45
446.014	227.65
446.473	223.75
446.932	230.95
447.391	223.05
447.849	220.95
448.308	218.15
448.767	216.05
449.226	236.35
449.685	236.55
450.143	253.65
450.602	242.25
451.061	226.45
451.519	236.05
451.978	238.05
452.436	243.95
452.895	243.25
453.353	253.75
453.812	244.05
454.27	238.65
454.729	247.15
455.187	236.15
455.646	248.05
456.104	247.75
456.562	264.15
457.021	270.15
457.479	257.85
457.937	266.55
458.395	269.05
458.854	243.35
459.312	258.45
459.77	279.45
460.228	253.85
460.686	247.35
461.144	254.25
461.602	243.35
462.06	244.45
462.518	260.05
462.976	259.35
463.434	262.75
463.892	267.35
464.35	272.95
464.808	298.35
465.266	267.95
465.724	268.45
466.181	273.35
466.639	276.45
467.097	291.55
467.555	306.45
468.012	311.05
468.47	321.45
468.928	328.85
469.385	340.85
469.843	360.45
470.3	347.15
470.758	365.55
471.215	387.25
471.673	412.65
472.13	407.55
472.588	412.55
473.045	375.55
473.503	374.45
473.96	388.55
474.417	408.15
474.875	438.55
475.332	473.65
475.789	461.85
476.246	475.55
476.704	489.75
477.161	507.25
477.618	534.95
478.075	561.95
478.532	617.75
478.989	704.25
479.446	817.75
479.903	769.85
480.36	811.25
480.817	871.75
481.274	973.85
481.731	1087.45
482.188	1175.05
482.645	1310.75
483.102	1413.85
483.558	1558.05
484.015	1607.45
484.472	1579.75
484.929	1536.85
485.385	1474.35
485.842	1434.95
486.299	1381.25
486.755	1310.95
487.212	1099.25
487.668	925.95
488.125	856.85
488.582	789.95
489.038	751.45
489.494	716.35
489.951	693.15
490.407	678.65
490.864	647.65
491.32	650.85
491.776	638.45
492.233	642.75
492.689	620.25
493.145	613.15
493.602	602.05
494.058	610.25
494.514	621.15
494.97	644.35
495.426	661.45
495.882	620.25
496.338	613.45
496.794	630.25
497.251	619.65
497.707	648.65
498.163	644.85
498.618	654.35
499.074	656.75
499.53	689.35
499.986	682.85
500.442	659.85
500.898	642.75
501.354	630.45
501.809	633.85
502.265	649.55
502.721	647.45
503.177	666.85
503.632	666.05
504.088	680.75
504.543	708.45
504.999	707.25
505.455	663.65
505.91	634.45
506.366	641.55
506.821	626.75
507.277	624.65
507.732	626.65
508.187	625.75
508.643	633.15
509.098	639.05
509.553	656.65
510.009	673.85
510.464	666.75
510.919	691.45
511.375	705.95
511.83	716.05
512.285	732.55
512.74	767.35
513.195	787.35
513.65	777.25
514.105	772.35
514.56	780.05
515.015	807.95
515.47	812.55
515.925	796.95
516.38	791.85
516.835	792.05
517.29	786.55
517.745	779.65
518.2	760.95
518.655	750.05
519.109	752.65
519.564	751.25
520.019	738.05
520.474	733.85
520.928	727.15
521.383	724.35
521.838	714.15
522.292	713.95
522.747	718.35
523.201	707.45
523.656	688.45
524.11	692.35
524.565	688.45
525.019	693.65
525.474	700.65
525.928	698.65
526.382	697.45
526.837	701.05
527.291	706.75
527.745	707.35
528.2	697.65
528.654	693.35
529.108	689.35
529.562	691.15
530.016	693.85
530.47	686.75
530.925	694.85
531.379	705.35
531.833	712.35
532.287	707.95
532.741	703.75
533.195	715.85
533.649	717.95
534.103	728.05
534.556	719.15
535.01	713.85
535.464	715.35
535.918	722.05
536.372	723.45
536.826	722.95
537.279	717.45
537.733	723.05
538.187	723.05
538.64	721.75
539.094	719.25
539.548	729.45
540.001	733.75
540.455	732.05
540.908	741.65
541.362	734.15
541.815	747.35
542.269	758.35
542.722	760.25
543.175	768.75
543.629	768.35
544.082	790.15
544.536	799.05
544.989	787.35
545.442	789.15
545.895	793.75
546.349	789.45
546.802	788.95
547.255	789.35
547.708	805.95
548.161	813.15
548.614	826.55
549.067	836.95
549.52	820.35
549.973	811.95
550.426	799.65
550.879	795.65
551.332	794.05
551.785	806.25
552.238	806.05
552.691	822.75
553.144	837.45
553.596	850.35
554.049	867.55
554.502	898.65
554.955	920.05
555.407	916.25
555.86	907.55
556.313	899.85
556.765	884.15
557.218	879.15
557.67	894.75
558.123	883.95
558.576	886.45
559.028	876.55
559.48	883.75
559.933	866.45
560.385	832.45
560.838	798.75
561.29	787.05
561.742	775.25
562.195	766.45
562.647	771.65
563.099	770.35
563.551	772.25
564.004	777.25
564.456	782.05
564.908	766.05
565.36	742.65
565.812	729.25
566.264	728.05
566.716	713.65
567.168	720.85
567.62	715.35
568.072	705.75
568.524	696.75
568.976	694.05
569.428	673.55
569.88	669.25
570.332	689.15
570.784	688.85
571.235	677.45
571.687	699.75
572.139	699.05
572.59	709.95
573.042	710.95
573.494	703.35
573.945	702.65
574.397	691.95
574.849	688.35
575.3	697.15
575.752	685.85
576.203	676.55
576.655	685.45
577.106	670.85
577.557	666.45
578.009	666.05
578.46	662.95
578.912	671.55
579.363	667.65
579.814	663.15
580.265	660.75
580.717	661.75
581.168	665.35
581.619	683.75
582.07	672.55
582.521	668.85
582.972	680.25
583.423	674.95
583.875	669.35
584.326	699.25
584.777	736.85
585.227	808.15
585.678	899.85
586.129	988.45
586.58	1049.75
587.031	1129.45
587.482	1277.65
587.933	1437.35
588.384	1254.95
588.834	955.75
589.285	800.35
589.736	766.55
590.186	755.65
590.637	762.15
591.088	742.75
591.538	733.85
591.989	726.95
592.439	723.35
592.89	725.85
593.34	716.35
593.791	701.75
594.241	700.35
594.692	699.95
595.142	702.45
595.593	695.05
596.043	699.95
596.493	715.45
596.943	709.35
597.394	713.85
597.844	710.45
598.294	721.15
598.744	743.15
599.195	763.45
599.645	808.85
600.095	847.85
600.545	902.25
600.995	957.25
601.445	1005.85
601.895	1062.35
602.345	1116.95
602.795	1117.45
603.245	1046.95
603.695	992.65
604.145	944.35
604.594	896.85
605.044	854.55
605.494	784.05
605.944	744.25
606.393	741.95
606.843	714.25
607.293	728.25
607.743	721.75
608.192	738.25
608.642	753.05
609.091	759.75
609.541	764.35
609.99	756.45
610.44	755.75
610.889	709.95
611.339	688.15
611.788	678.05
612.238	697.35
612.687	706.05
613.136	709.65
613.586	722.95
614.035	729.85
614.484	743.55
614.933	741.15
615.383	733.75
615.832	713.25
616.281	708.55
616.73	674.95
617.179	655.55
617.628	636.75
618.077	620.15
618.526	598.65
618.975	611.85
619.424	598.45
619.873	597.65
620.322	614.95
620.771	601.15
621.22	597.95
621.669	579.25
622.118	577.05
622.567	569.65
623.015	556.55
623.464	558.75
623.913	556.65
624.361	542.75
624.81	542.85
625.259	544.55
625.707	545.85
626.156	548.25
626.604	558.25
627.053	557.05
627.501	549.45
627.95	554.05
628.398	563.65
628.847	553.45
629.295	551.05
629.744	566.45
630.192	562.55
630.64	556.15
631.089	546.55
631.537	565.15
631.985	568.95
632.433	592.15
632.881	589.55
633.33	641.75
633.778	623.05
634.226	560.35
634.674	560.55
635.122	566.55
635.57	582.55
636.018	607.05
636.466	570.95
636.914	546.85
637.362	559.75
637.81	562.85
638.258	567.75
638.705	563.05
639.153	593.05
639.601	603.25
640.049	627.95
640.497	657.15
640.944	676.15
641.392	631.35
641.84	596.95
642.287	573.35
642.735	555.15
643.182	558.65
643.63	561.45
644.078	561.95
644.525	577.15
644.973	575.75
645.42	589.15
645.867	611.85
646.315	624.65
646.762	650.15
647.21	676.55
647.657	697.35
648.104	730.15
648.551	747.75
648.999	823.15
649.446	887.45
649.893	989.05
650.34	1134.35
650.787	1345.75
651.234	1666.35
651.682	2177.75
652.129	2995.25
652.576	4259.05
653.023	6311.85
653.47	8672.25
653.917	10882.35
654.363	12602.05
654.81	14003.05
655.257	13342.35
655.704	8761.95
656.151	5161.15
656.598	3333.15
657.044	2374.45
657.491	1820.15
657.938	1474.75
658.385	1215.75
658.831	1060.65
659.278	949.35
659.724	825.15
660.171	783.35
660.618	709.25
661.064	669.85
661.511	648.75
661.957	642.55
662.404	626.55
662.85	625.85
663.296	605.55
663.743	547.05
664.189	528.65
664.635	517.45
665.082	513.75
665.528	512.65
665.974	509.25
666.42	495.95
666.867	496.75
667.313	480.75
667.759	470.85
668.205	462.85
668.651	470.75
669.097	470.85
669.543	486.45
669.989	454.45
670.435	434.95
670.881	437.05
671.327	437.95
671.773	448.15
672.219	482.25
672.665	525.95
673.11	562.15
673.556	606.55
674.002	649.85
674.448	630.55
674.893	529.75
675.339	464.95
675.785	420.55
676.23	400.25
676.676	380.75
677.122	367.05
677.567	362.55
678.013	353.75
678.458	350.75
678.904	349.45
679.349	331.65
679.794	341.75
680.24	342.55
680.685	325.25
681.131	333.15
681.576	333.05
682.021	335.95
682.466	332.15
682.912	328.45
683.357	341.85
683.802	370.45
684.247	398.45
684.692	444.35
685.137	481.65
685.583	520.35
686.028	544.55
686.473	497.15
686.918	433.35
687.363	406.65
687.807	374.95
688.252	356.55
688.697	341.35
689.142	324.25
689.587	318.65
690.032	314.75
690.477	337.75
690.921	337.55
691.366	366.25
691.811	390.15
692.255	421.45
692.7	446.55
693.145	485.45
693.589	652.35
694.034	1063.75
694.478	1459.35
694.923	1674.25
695.367	2180.05
695.812	1146.85
696.256	472.45
696.701	357.65
697.145	332.45
697.59	315.85
698.034	303.35
698.478	316.55
698.922	318.15
699.367	311.25
699.811	326.75
700.255	348.45
700.699	371.75
701.143	410.95
701.588	456.55
702.032	496.35
702.476	491.25
702.92	472.35
703.364	476.85
703.808	602.55
704.252	974.95
704.696	1372.65
705.14	1611.05
705.584	2058.55
706.027	1024.25
706.471	503.65
706.915	381.95
707.359	347.95
707.803	304.25
708.246	302.55
708.69	301.45
709.134	301.25
709.577	302.75
710.021	305.75
710.465	300.55
710.908	297.85
711.352	288.65
711.795	300.45
712.239	338.15
712.682	365.85
713.126	400.15
713.569	442.05
714.012	358.25
714.456	306.45
714.899	292.95
715.342	275.75
715.786	253.35
716.229	249.55
716.672	239.45
717.115	240.35
717.558	239.95
718.002	243.35
718.445	248.55
718.888	272.75
719.331	269.75
719.774	292.35
720.217	296.35
720.66	279.15
721.103	252.85
721.546	242.95
721.989	240.85
722.432	214.15
722.874	225.75
723.317	217.55
723.76	225.65
724.203	245.35
724.645	305.95
725.088	420.95
725.531	541.05
725.974	612.45
726.416	527.55
726.859	295.25
727.301	241.35
727.744	226.45
728.187	221.25
728.629	227.95
729.071	241.95
729.514	252.35
729.956	258.45
730.399	272.05
730.841	287.85
731.283	263.65
731.726	246.85
732.168	249.55
732.61	258.75
733.053	285.65
733.495	297.75
733.937	335.55
734.379	383.85
734.821	417.35
735.263	513.55
735.705	782.85
736.148	1479.05
736.59	2429.45
737.032	2941.95
737.474	2394.85
737.916	775.45
738.357	408.15
738.799	304.15
739.241	286.55
739.683	272.05
740.125	279.75
740.567	286.85
741.008	307.55
741.45	300.95
741.892	305.85
742.334	334.75
742.775	349.95
743.217	323.15
743.658	266.75
744.1	245.45
744.542	248.75
744.983	296.25
745.425	337.05
745.866	332.85
746.307	273.35
746.749	265.55
747.19	308.35
747.632	423.25
748.073	821.35
748.514	1742.15
748.956	2707.95
749.397	3393.25
749.838	2818.35
750.279	2844.35
750.72	1441.15
751.162	517.35
751.603	313.55
752.044	237.25
752.485	199.95
752.926	202.65
753.367	192.35
753.808	182.15
754.249	185.25
754.69	179.55
755.131	175.55
755.572	175.95
756.013	172.05
756.453	171.95
756.894	178.45
757.335	179.45
757.776	192.25
758.216	186.35
758.657	188.05
759.098	190.55
759.538	209.85
759.979	254.55
760.42	353.75
760.86	660.45
761.301	1686.85
761.741	4158.85
762.182	6176.45
