Data from 20171114-ORNL-Ar_H_NY_Subt18_08-08-14-292.txt Node
Date: Tue Nov 14 08:08:14 EST 2017
User: Ender
Spectrometer: HR+D1039
Trigger mode: 0
Integration Time (sec): 2.730000E-2
Scans to average: 10
Electric dark correction enabled: true
Nonlinearity correction enabled: false
Boxcar width: 0
XAxis mode: Wavelengths
Number of Pixels in Spectrum: 2048
>>>>>Begin Spectral Data<<<<<
187.836	-2.16
188.309	-2.16
188.782	-2.16
189.255	3.14
189.728	-2.66
190.201	5.24
190.674	2.44
191.147	-1.36
191.619	-6.16
192.092	-1.36
192.565	7.64
193.038	-3.46
193.511	-2.26
193.984	-5.86
194.456	-0.76
194.929	0.44
195.402	2.84
195.874	4.34
196.347	1.54
196.82	-7.26
197.292	7.54
197.765	0.74
198.237	-6.86
198.71	3.04
199.182	-5.16
199.655	5.54
200.127	-1.06
200.6	-5.46
201.072	-1.56
201.544	-4.66
202.017	-6.26
202.489	4.64
202.961	-10.06
203.433	-3.46
203.906	-1.46
204.378	-4.76
204.85	-2.26
205.322	-9.76
205.794	-0.56
206.266	-0.16
206.739	-10.16
207.211	6.64
207.683	-4.26
208.155	0.04
208.627	-5.86
209.099	-0.56
209.57	-6.06
210.042	-11.66
210.514	-11.06
210.986	1.54
211.458	-8.46
211.93	-2.06
212.402	1.24
212.873	-3.16
213.345	-10.86
213.817	-12.96
214.288	-8.16
214.76	-5.16
215.232	1.24
215.703	4.84
216.175	-1.16
216.646	-1.96
217.118	-11.26
217.589	-1.56
218.061	-5.66
218.532	-8.06
219.004	-1.96
219.475	-3.76
219.946	3.04
220.418	-10.26
220.889	2.14
221.36	0.94
221.832	-3.86
222.303	-7.86
222.774	1.54
223.245	-5.06
223.717	-6.36
224.188	-6.96
224.659	-7.06
225.13	-8.46
225.601	-5.86
226.072	2.44
226.543	-0.36
227.014	-1.56
227.485	-2.76
227.956	-9.76
228.427	-1.66
228.898	-0.36
229.369	10.74
229.839	-8.36
230.31	-9.36
230.781	-1.66
231.252	-5.76
231.722	-6.86
232.193	0.64
232.664	-0.66
233.135	-1.56
233.605	4.64
234.076	-13.56
234.546	1.24
235.017	-3.56
235.487	1.74
235.958	2.84
236.428	-2.16
236.899	2.04
237.369	5.24
237.84	2.44
238.31	7.44
238.78	4.04
239.251	0.34
239.721	4.14
240.191	-0.96
240.662	3.44
241.132	1.34
241.602	-4.76
242.072	2.04
242.542	8.94
243.013	4.34
243.483	6.34
243.953	0.24
244.423	1.54
244.893	-5.46
245.363	2.54
245.833	-0.06
246.303	-1.16
246.773	6.34
247.243	2.44
247.712	2.84
248.182	6.34
248.652	4.34
249.122	-5.46
249.592	11.74
250.061	12.84
250.531	29.54
251.001	18.04
251.471	23.24
251.94	19.94
252.41	5.54
252.879	-0.66
253.349	6.04
253.818	6.44
254.288	6.04
254.757	8.84
255.227	-1.16
255.696	2.54
256.166	3.34
256.635	3.04
257.105	3.84
257.574	4.64
258.043	4.44
258.513	9.04
258.982	9.64
259.451	5.44
259.92	7.04
260.389	9.74
260.859	15.34
261.328	9.94
261.797	20.54
262.266	2.04
262.735	6.84
263.204	6.04
263.673	-5.56
264.142	3.44
264.611	-5.46
265.08	1.74
265.549	-1.16
266.018	4.84
266.487	-0.36
266.955	-1.46
267.424	-2.06
267.893	6.14
268.362	2.54
268.83	3.84
269.299	13.84
269.768	9.24
270.236	7.44
270.705	3.24
271.174	5.94
271.642	7.54
272.111	10.04
272.579	21.44
273.048	22.74
273.516	27.54
273.985	26.74
274.453	23.14
274.922	18.34
275.39	13.84
275.858	13.84
276.327	11.14
276.795	24.04
277.263	9.84
277.731	28.44
278.2	54.64
278.668	53.14
279.136	48.74
279.604	19.64
280.072	9.04
280.54	13.64
281.008	12.84
281.477	16.24
281.945	7.94
282.413	14.94
282.881	14.44
283.348	16.54
283.816	16.14
284.284	14.44
284.752	13.64
285.22	15.04
285.688	17.24
286.156	19.44
286.623	51.44
287.091	49.14
287.559	30.34
288.026	11.94
288.494	19.24
288.962	0.74
289.429	12.74
289.897	18.24
290.364	13.04
290.832	16.74
291.3	20.34
291.767	15.54
292.234	18.64
292.702	13.34
293.169	18.04
293.637	22.64
294.104	25.14
294.571	9.54
295.039	9.74
295.506	12.34
295.973	18.44
296.44	15.04
296.908	21.04
297.375	17.04
297.842	19.54
298.309	20.84
298.776	14.24
299.243	16.14
299.71	18.74
300.177	20.64
300.644	24.84
301.111	23.24
301.578	25.24
302.045	16.04
302.512	21.34
302.979	25.64
303.446	15.84
303.913	11.44
304.379	18.94
304.846	23.44
305.313	28.34
305.78	20.44
306.246	19.44
306.713	15.44
307.18	29.14
307.646	24.74
308.113	33.24
308.579	25.14
309.046	29.84
309.512	30.04
309.979	11.64
310.445	29.54
310.912	32.74
311.378	40.84
311.845	30.84
312.311	27.24
312.777	26.74
313.244	32.94
313.71	36.94
314.176	29.84
314.642	37.74
315.109	31.94
315.575	31.54
316.041	41.74
316.507	37.94
316.973	38.74
317.439	24.24
317.905	39.64
318.371	38.64
318.837	36.84
319.303	30.84
319.769	30.54
320.235	35.14
320.701	32.54
321.167	37.24
321.633	35.14
322.099	41.14
322.564	51.44
323.03	35.24
323.496	34.24
323.962	42.44
324.427	35.24
324.893	45.04
325.359	31.04
325.824	27.04
326.29	40.34
326.755	44.04
327.221	44.74
327.686	37.24
328.152	43.14
328.617	42.84
329.083	48.74
329.548	50.54
330.014	48.54
330.479	36.44
330.944	37.14
331.41	38.84
331.875	43.04
332.34	41.74
332.805	45.44
333.271	46.44
333.736	43.24
334.201	50.74
334.666	51.54
335.131	52.54
335.596	52.24
336.061	52.04
336.526	41.64
336.991	46.64
337.456	52.34
337.921	47.34
338.386	41.94
338.851	46.74
339.316	50.54
339.781	51.34
340.246	51.54
340.711	50.74
341.175	51.04
341.64	42.64
342.105	53.24
342.569	52.24
343.034	59.44
343.499	53.54
343.963	54.54
344.428	61.54
344.893	57.94
345.357	61.44
345.822	55.04
346.286	68.34
346.751	72.54
347.215	72.04
347.679	76.14
348.144	102.34
348.608	83.84
349.073	68.04
349.537	77.54
350.001	79.84
350.465	86.24
350.93	80.94
351.394	83.54
351.858	72.24
352.322	80.64
352.786	80.14
353.25	104.54
353.715	113.84
354.179	108.34
354.643	120.44
355.107	128.34
355.571	109.14
356.035	105.04
356.498	117.44
356.962	127.34
357.426	135.84
357.89	114.84
358.354	84.44
358.818	78.44
359.281	75.44
359.745	75.64
360.209	70.84
360.673	73.74
361.136	79.14
361.6	84.44
362.064	85.84
362.527	82.44
362.991	90.54
363.454	82.84
363.918	82.04
364.381	75.34
364.845	83.74
365.308	81.54
365.772	85.34
366.235	90.14
366.698	86.34
367.162	89.44
367.625	91.94
368.088	89.54
368.552	82.64
369.015	82.44
369.478	97.74
369.941	99.14
370.404	95.64
370.867	107.84
371.331	113.44
371.794	118.14
372.257	112.94
372.72	115.24
373.183	117.54
373.646	102.14
374.109	104.14
374.572	111.84
375.035	107.14
375.497	114.14
375.96	106.64
376.423	110.04
376.886	113.44
377.349	118.54
377.811	103.14
378.274	106.44
378.737	110.74
379.199	111.64
379.662	121.34
380.125	118.04
380.587	120.04
381.05	123.24
381.512	133.24
381.975	137.24
382.437	133.04
382.9	125.34
383.362	136.24
383.825	146.84
384.287	150.34
384.75	146.84
385.212	141.84
385.674	137.24
386.136	127.04
386.599	124.64
387.061	125.74
387.523	135.44
387.985	138.24
388.447	151.44
388.91	150.54
389.372	169.14
389.834	164.84
390.296	156.14
390.758	156.84
391.22	166.84
391.682	218.94
392.144	312.44
392.606	232.64
393.068	173.94
393.529	174.84
393.991	164.24
394.453	150.24
394.915	157.74
395.377	195.34
395.838	226.24
396.3	162.54
396.762	148.44
397.224	135.24
397.685	131.34
398.147	134.84
398.608	129.04
399.07	134.74
399.531	140.94
399.993	147.34
400.454	145.94
400.916	149.94
401.377	148.04
401.839	153.64
402.3	154.94
402.762	164.14
403.223	180.64
403.684	173.84
404.145	171.64
404.607	159.34
405.068	169.54
405.529	173.24
405.99	192.84
406.451	188.54
406.913	175.24
407.374	166.24
407.835	164.84
408.296	173.44
408.757	181.44
409.218	181.54
409.679	189.44
410.14	180.64
410.601	181.34
411.062	195.14
411.522	198.04
411.983	194.44
412.444	180.44
412.905	191.44
413.366	185.14
413.826	199.54
414.287	219.94
414.748	264.44
415.208	246.54
415.669	214.64
416.13	203.84
416.59	208.64
417.051	209.74
417.511	216.04
417.972	240.74
418.432	245.14
418.893	285.94
419.353	247.94
419.814	204.14
420.274	190.34
420.734	190.04
421.195	204.04
421.655	202.24
422.115	202.04
422.576	195.04
423.036	204.04
423.496	211.74
423.956	215.54
424.416	233.44
424.876	271.34
425.336	271.94
425.797	261.24
426.257	259.24
426.717	250.14
427.177	234.84
427.637	223.94
428.097	240.64
428.556	245.94
429.016	279.14
429.476	268.84
429.936	279.84
430.396	281.94
430.856	296.34
431.315	324.64
431.775	361.14
432.235	397.84
432.694	359.94
433.154	374.54
433.614	404.44
434.073	353.14
434.533	291.84
434.993	285.44
435.452	280.54
435.912	299.04
436.371	291.04
436.83	284.34
437.29	280.54
437.749	247.84
438.209	253.34
438.668	278.04
439.127	292.14
439.587	268.74
440.046	249.54
440.505	266.24
440.964	277.64
441.424	334.04
441.883	318.14
442.342	264.24
442.801	236.14
443.26	226.94
443.719	230.04
444.178	224.84
444.637	216.14
445.096	219.94
445.555	225.74
446.014	225.84
446.473	231.34
446.932	243.54
447.391	228.74
447.849	229.84
448.308	223.54
448.767	225.14
449.226	235.64
449.685	242.74
450.143	252.64
450.602	241.54
451.061	233.44
451.519	237.54
451.978	236.04
452.436	241.44
452.895	244.54
453.353	258.44
453.812	245.64
454.27	245.44
454.729	235.94
455.187	241.64
455.646	247.64
456.104	249.34
456.562	261.94
457.021	274.04
457.479	266.34
457.937	276.34
458.395	259.74
458.854	249.14
459.312	267.84
459.77	285.44
460.228	262.94
460.686	246.54
461.144	255.04
461.602	248.74
462.06	247.14
462.518	250.64
462.976	255.54
463.434	269.94
463.892	274.04
464.35	281.84
464.808	295.14
465.266	268.54
465.724	273.64
466.181	276.54
466.639	268.44
467.097	289.14
467.555	299.14
468.012	303.14
468.47	323.44
468.928	331.54
469.385	342.04
469.843	357.64
470.3	358.44
470.758	360.64
471.215	388.14
471.673	412.34
472.13	419.34
472.588	423.94
473.045	382.64
473.503	378.54
473.96	396.14
474.417	409.74
474.875	435.94
475.332	484.44
475.789	464.74
476.246	476.64
476.704	490.14
477.161	514.04
477.618	531.34
478.075	574.44
478.532	626.34
478.989	705.24
479.446	830.34
479.903	780.14
480.36	817.94
480.817	880.44
481.274	982.04
481.731	1086.04
482.188	1185.04
482.645	1315.34
483.102	1427.44
483.558	1555.04
484.015	1608.54
484.472	1578.64
484.929	1524.84
485.385	1482.04
485.842	1440.54
486.299	1375.44
486.755	1310.74
487.212	1116.24
487.668	941.84
488.125	859.24
488.582	776.84
489.038	740.34
489.494	711.44
489.951	687.54
490.407	672.74
490.864	655.14
491.32	653.64
491.776	651.94
492.233	657.04
492.689	622.74
493.145	608.64
493.602	613.24
494.058	610.74
494.514	627.44
494.97	642.14
495.426	643.84
495.882	629.84
496.338	611.34
496.794	631.64
497.251	621.74
497.707	642.04
498.163	639.54
498.618	641.34
499.074	652.74
499.53	684.54
499.986	683.24
500.442	647.14
500.898	635.54
501.354	631.04
501.809	641.94
502.265	649.84
502.721	664.34
503.177	675.14
503.632	665.24
504.088	684.44
504.543	719.24
504.999	718.94
505.455	655.04
505.91	637.04
506.366	642.04
506.821	628.34
507.277	624.64
507.732	625.64
508.187	626.34
508.643	641.14
509.098	645.24
509.553	655.34
510.009	662.94
510.464	678.94
510.919	693.74
511.375	699.64
511.83	712.04
512.285	726.34
512.74	761.64
513.195	801.44
513.65	776.14
514.105	764.94
514.56	784.04
515.015	797.84
515.47	811.64
515.925	784.74
516.38	796.44
516.835	798.64
517.29	788.94
517.745	786.84
518.2	766.74
518.655	750.34
519.109	740.64
519.564	747.94
520.019	738.94
520.474	733.04
520.928	723.34
521.383	720.34
521.838	714.94
522.292	715.24
522.747	710.94
523.201	701.64
523.656	698.54
524.11	693.94
524.565	694.34
525.019	691.84
525.474	701.94
525.928	712.94
526.382	701.64
526.837	696.34
527.291	700.04
527.745	691.14
528.2	698.44
528.654	695.04
529.108	691.84
529.562	692.94
530.016	696.64
530.47	696.04
530.925	698.44
531.379	708.94
531.833	703.84
532.287	708.94
532.741	710.04
533.195	707.34
533.649	714.74
534.103	702.64
534.556	711.14
535.01	708.04
535.464	711.54
535.918	725.44
536.372	722.94
536.826	712.74
537.279	700.54
537.733	718.04
538.187	717.54
538.64	710.54
539.094	722.54
539.548	728.74
540.001	733.74
540.455	730.24
540.908	738.94
541.362	742.44
541.815	754.54
542.269	756.04
542.722	772.34
543.175	770.44
543.629	767.04
544.082	784.74
544.536	801.64
544.989	794.84
545.442	799.04
545.895	795.64
546.349	797.34
546.802	799.64
547.255	804.54
547.708	800.14
548.161	818.34
548.614	826.04
549.067	837.84
549.52	820.04
549.973	817.34
550.426	806.94
550.879	803.14
551.332	808.14
551.785	811.94
552.238	811.94
552.691	813.54
553.144	837.44
553.596	857.84
554.049	870.74
554.502	905.24
554.955	909.84
555.407	907.04
555.86	905.44
556.313	902.64
556.765	883.64
557.218	889.94
557.67	898.84
558.123	889.14
558.576	883.74
559.028	886.94
559.48	881.94
559.933	883.74
560.385	836.84
560.838	808.74
561.29	783.14
561.742	780.24
562.195	765.94
562.647	766.64
563.099	787.54
563.551	772.04
564.004	790.54
564.456	777.14
564.908	774.24
565.36	753.74
565.812	736.84
566.264	726.04
566.716	735.34
567.168	726.04
567.62	731.14
568.072	715.74
568.524	694.14
568.976	692.14
569.428	689.94
569.88	676.04
570.332	686.74
570.784	695.24
571.235	690.64
571.687	712.04
572.139	710.64
572.59	726.14
573.042	709.94
573.494	716.04
573.945	704.54
574.397	700.44
574.849	695.94
575.3	697.54
575.752	678.84
576.203	677.64
576.655	688.64
577.106	681.14
577.557	675.94
578.009	674.04
578.46	676.54
578.912	665.24
579.363	665.14
579.814	674.44
580.265	667.54
580.717	674.04
581.168	675.44
581.619	689.64
582.07	693.74
582.521	682.44
582.972	678.94
583.423	693.34
583.875	689.24
584.326	722.34
584.777	746.94
585.227	843.04
585.678	942.64
586.129	1048.14
586.58	1119.14
587.031	1198.74
587.482	1357.74
587.933	1561.34
588.384	1356.54
588.834	1005.94
589.285	826.64
589.736	797.24
590.186	798.24
590.637	771.14
591.088	759.94
591.538	742.94
591.989	744.14
592.439	727.64
592.89	718.24
593.34	719.24
593.791	724.44
594.241	714.24
594.692	717.34
595.142	714.44
595.593	709.14
596.043	715.34
596.493	731.14
596.943	720.14
597.394	734.24
597.844	727.04
598.294	741.74
598.744	760.34
599.195	781.24
599.645	824.14
600.095	870.24
600.545	930.24
600.995	983.04
601.445	1038.54
601.895	1083.04
602.345	1140.54
602.795	1117.44
603.245	1073.64
603.695	1017.34
604.145	964.04
604.594	913.94
605.044	872.74
605.494	811.34
605.944	752.44
606.393	752.74
606.843	737.64
607.293	747.14
607.743	743.84
608.192	763.44
608.642	775.64
609.091	775.64
609.541	773.14
609.99	781.34
610.44	783.24
610.889	732.64
611.339	720.14
611.788	696.34
612.238	705.64
612.687	735.84
613.136	727.54
613.586	763.74
614.035	756.84
614.484	770.74
614.933	780.64
615.383	768.44
615.832	755.94
616.281	733.44
616.73	698.54
617.179	677.64
617.628	656.74
618.077	636.44
618.526	620.14
618.975	633.74
619.424	622.54
619.873	624.04
620.322	625.74
620.771	622.54
621.22	610.14
621.669	606.54
622.118	594.44
622.567	583.24
623.015	575.64
623.464	575.24
623.913	566.54
624.361	568.24
624.81	560.84
625.259	566.54
625.707	565.24
626.156	567.34
626.604	580.24
627.053	579.84
627.501	573.24
627.95	579.04
628.398	589.24
628.847	580.14
629.295	576.54
629.744	584.94
630.192	572.44
630.64	580.24
631.089	575.84
631.537	601.74
631.985	604.34
632.433	615.34
632.881	626.34
633.33	682.54
633.778	661.04
634.226	578.04
634.674	582.64
635.122	584.64
635.57	610.94
636.018	647.54
636.466	585.14
636.914	570.14
637.362	579.84
637.81	582.84
638.258	590.64
638.705	589.54
639.153	620.74
639.601	634.64
640.049	655.74
640.497	683.24
640.944	712.24
641.392	649.54
641.84	629.24
642.287	593.34
642.735	574.04
643.182	574.34
643.63	583.84
644.078	583.14
644.525	608.24
644.973	613.74
645.42	606.64
645.867	627.94
646.315	648.54
646.762	674.04
647.21	703.74
647.657	722.04
648.104	766.54
648.551	789.64
648.999	865.54
649.446	939.54
649.893	1026.54
650.34	1190.04
650.787	1438.14
651.234	1784.24
651.682	2334.64
652.129	3238.14
652.576	4644.84
653.023	6839.94
653.47	9347.34
653.917	11603.84
654.363	13268.84
654.81	14588.04
655.257	13878.94
655.704	9075.04
656.151	5350.34
656.598	3498.54
657.044	2457.44
657.491	1899.14
657.938	1519.34
658.385	1264.94
658.831	1107.44
659.278	971.14
659.724	871.84
660.171	802.24
660.618	739.64
661.064	699.44
661.511	682.64
661.957	676.54
662.404	662.54
662.85	658.34
663.296	638.24
663.743	572.14
664.189	545.74
664.635	539.84
665.082	538.24
665.528	532.24
665.974	527.54
666.42	515.24
666.867	525.44
667.313	497.54
667.759	492.34
668.205	498.94
668.651	500.84
669.097	496.84
669.543	511.94
669.989	480.74
670.435	455.74
670.881	453.64
671.327	455.24
671.773	482.54
672.219	502.64
672.665	559.24
673.11	606.34
673.556	642.54
674.002	680.04
674.448	658.14
674.893	560.54
675.339	478.24
675.785	446.14
676.23	432.44
676.676	394.04
677.122	388.24
677.567	374.04
678.013	377.94
678.458	365.24
678.904	368.54
679.349	354.24
679.794	359.14
680.24	360.44
680.685	353.44
681.131	354.14
681.576	354.04
682.021	360.64
682.466	354.44
682.912	355.64
683.357	362.34
683.802	394.14
684.247	416.14
684.692	457.84
685.137	498.34
685.583	543.54
686.028	566.54
686.473	518.74
686.918	456.84
687.363	426.14
687.807	398.84
688.252	368.54
688.697	363.34
689.142	348.04
689.587	328.24
690.032	336.14
690.477	353.44
690.921	364.54
691.366	392.74
691.811	410.54
692.255	436.14
692.7	469.94
693.145	516.84
693.589	723.04
694.034	1174.14
694.478	1571.24
694.923	1745.74
695.367	2274.24
695.812	1207.84
696.256	503.84
696.701	374.94
697.145	346.74
697.59	333.34
698.034	325.74
698.478	334.04
698.922	337.64
699.367	326.74
699.811	350.64
700.255	366.64
700.699	398.54
701.143	437.84
701.588	488.24
702.032	529.34
702.476	523.84
702.92	503.34
703.364	496.54
703.808	663.74
704.252	1076.54
704.696	1487.34
705.14	1687.84
705.584	2137.84
706.027	1074.74
706.471	523.34
706.915	402.84
707.359	353.34
707.803	319.44
708.246	316.24
708.69	318.34
709.134	319.54
709.577	319.74
710.021	322.64
710.465	305.74
710.908	298.74
711.352	303.54
711.795	321.14
712.239	352.04
712.682	396.74
713.126	424.34
713.569	472.94
714.012	375.54
714.456	332.04
714.899	302.84
715.342	281.34
715.786	271.44
716.229	267.64
716.672	262.14
717.115	264.04
717.558	263.94
718.002	256.44
718.445	272.54
718.888	295.54
719.331	297.14
719.774	312.34
720.217	309.84
720.66	286.34
721.103	267.84
721.546	262.24
721.989	261.14
722.432	238.74
722.874	250.24
723.317	235.94
723.76	248.04
724.203	261.44
724.645	334.14
725.088	463.54
725.531	585.14
725.974	642.74
726.416	555.34
726.859	306.44
727.301	250.94
727.744	242.54
728.187	238.34
728.629	240.64
729.071	252.84
729.514	272.34
729.956	271.74
730.399	284.54
730.841	291.54
731.283	276.34
731.726	272.74
732.168	266.54
732.61	278.04
733.053	288.54
733.495	316.64
733.937	350.74
734.379	406.44
734.821	451.34
735.263	564.84
735.705	875.74
736.148	1646.74
736.59	2620.94
737.032	3048.84
737.474	2483.44
737.916	817.94
738.357	441.54
738.799	330.94
739.241	311.64
739.683	291.34
740.125	298.54
740.567	307.24
741.008	313.04
741.45	321.54
741.892	325.24
742.334	349.44
742.775	364.04
743.217	338.24
743.658	270.34
744.1	262.64
744.542	269.64
744.983	323.64
745.425	340.34
745.866	340.14
746.307	289.94
746.749	283.94
747.19	324.24
747.632	472.14
748.073	927.24
748.514	1934.34
748.956	2894.34
749.397	3636.24
749.838	3014.14
750.279	2945.24
750.72	1502.04
751.162	559.24
751.603	318.24
752.044	262.34
752.485	226.44
752.926	212.14
753.367	214.74
753.808	198.84
754.249	196.54
754.69	184.94
755.131	180.84
755.572	192.24
756.013	185.54
756.453	183.54
756.894	196.94
757.335	194.84
757.776	196.64
758.216	209.04
758.657	205.24
759.098	206.24
759.538	227.54
759.979	278.14
760.42	389.74
760.86	736.54
761.301	1926.74
761.741	4565.34
762.182	6401.84
