Data from 20171114-ORNL-Ar_H_NY_Subt18_08-06-40-934.txt Node
Date: Tue Nov 14 08:06:40 EST 2017
User: Ender
Spectrometer: HR+D1039
Trigger mode: 0
Integration Time (sec): 2.730000E-2
Scans to average: 10
Electric dark correction enabled: true
Nonlinearity correction enabled: false
Boxcar width: 0
XAxis mode: Wavelengths
Number of Pixels in Spectrum: 2048
>>>>>Begin Spectral Data<<<<<
187.836	-5.5
188.309	-5.5
188.782	-5.5
189.255	-0.6
189.728	2.6
190.201	5.6
190.674	2.9
191.147	2.5
191.619	-3.7
192.092	1.3
192.565	0.8
193.038	-1.2
193.511	-0.7
193.984	3.6
194.456	-1.8
194.929	-3.9
195.402	-0.3
195.874	-1.6
196.347	-2.7
196.82	-2.2
197.292	3.2
197.765	-5.2
198.237	-4.6
198.71	7.4
199.182	-1.8
199.655	3.6
200.127	4.5
200.6	-3.4
201.072	-2.4
201.544	-4.9
202.017	-4.9
202.489	3.1
202.961	-4.7
203.433	-4.1
203.906	-0.1
204.378	-7.6
204.85	-5.2
205.322	-8.6
205.794	5.3
206.266	-7.8
206.739	-10.2
207.211	5.4
207.683	-8.9
208.155	-2.4
208.627	-15.9
209.099	-1.7
209.57	-6
210.042	-4.9
210.514	-1.3
210.986	-2.8
211.458	-6.9
211.93	-3.6
212.402	4.4
212.873	-6.2
213.345	-3.2
213.817	-14.4
214.288	-4.4
214.76	-8.1
215.232	-3.8
215.703	-4.1
216.175	0.2
216.646	-2.9
217.118	-9.9
217.589	-3.7
218.061	0.8
218.532	-8.3
219.004	1.6
219.475	-4.4
219.946	-3.9
220.418	-5.7
220.889	2.6
221.36	0.8
221.832	-3.3
222.303	-10.5
222.774	2.6
223.245	-9.4
223.717	-3.2
224.188	-7.6
224.659	-8.3
225.13	-4.7
225.601	0.4
226.072	0.9
226.543	-0.8
227.014	-5.4
227.485	-4.9
227.956	-7.4
228.427	-0.3
228.898	-0.2
229.369	7.2
229.839	-6
230.31	-11.6
230.781	-0.6
231.252	-4.4
231.722	-7.3
232.193	-4.9
232.664	-4.7
233.135	-6.6
233.605	-9.3
234.076	-6.2
234.546	-7.3
235.017	-1.7
235.487	-3.7
235.958	-0.8
236.428	-8.7
236.899	0.4
237.369	5.1
237.84	-6.4
238.31	0.9
238.78	-5.1
239.251	-6.6
239.721	4.1
240.191	-1.3
240.662	-1.8
241.132	-3.5
241.602	-7.4
242.072	-1.2
242.542	3.2
243.013	-4.1
243.483	-2.8
243.953	-4
244.423	-4.4
244.893	-2.6
245.363	1.8
245.833	1.9
246.303	-3.4
246.773	5.7
247.243	-1.2
247.712	1.5
248.182	10.4
248.652	9.2
249.122	-4.1
249.592	-1.2
250.061	5.8
250.531	12.2
251.001	4.3
251.471	5.4
251.94	5.3
252.41	-1.8
252.879	-8.5
253.349	9
253.818	5.3
254.288	-1.2
254.757	0.6
255.227	-8.1
255.696	1.6
256.166	7.1
256.635	5.5
257.105	0.4
257.574	-0
258.043	2.8
258.513	-1.4
258.982	4.1
259.451	-0.9
259.92	5.4
260.389	0.8
260.859	6
261.328	-0.7
261.797	8.5
262.266	7
262.735	5.3
263.204	2.5
263.673	-0.8
264.142	1.5
264.611	-5.8
265.08	4.8
265.549	-5.1
266.018	7.4
266.487	-0.6
266.955	-4.4
267.424	2.7
267.893	4
268.362	-2.1
268.83	3.7
269.299	7.7
269.768	8.8
270.236	4.9
270.705	2.2
271.174	-2.7
271.642	3.9
272.111	5.5
272.579	4.6
273.048	9.5
273.516	11.7
273.985	6.5
274.453	10
274.922	18.1
275.39	4.9
275.858	-2.7
276.327	11.5
276.795	20.1
277.263	-0.2
277.731	17.6
278.2	14.4
278.668	16.6
279.136	12.5
279.604	5.1
280.072	13.9
280.54	9
281.008	6.6
281.477	11.1
281.945	7.5
282.413	8.5
282.881	12.8
283.348	8.3
283.816	14.6
284.284	16.1
284.752	16.7
285.22	8.8
285.688	7.4
286.156	13.9
286.623	15.9
287.091	14.2
287.559	16.6
288.026	14.3
288.494	16.5
288.962	6.2
289.429	9.7
289.897	13.2
290.364	7.6
290.832	20
291.3	15.4
291.767	16.5
292.234	19.2
292.702	15.8
293.169	19.1
293.637	20.9
294.104	18.4
294.571	5.8
295.039	9.8
295.506	14.1
295.973	18.1
296.44	14.9
296.908	12.3
297.375	12.5
297.842	19.4
298.309	20.5
298.776	11
299.243	26
299.71	15.2
300.177	24.3
300.644	18.3
301.111	22.8
301.578	24.4
302.045	22.7
302.512	24.7
302.979	21.8
303.446	25.8
303.913	20.4
304.379	20.2
304.846	24.3
305.313	22.8
305.78	25.9
306.246	18.7
306.713	21.3
307.18	26.1
307.646	28.7
308.113	27.9
308.579	21.2
309.046	29.5
309.512	25.3
309.979	21.2
310.445	28.1
310.912	29.4
311.378	34.9
311.845	32.3
312.311	32.6
312.777	30.8
313.244	31.9
313.71	36
314.176	26.3
314.642	24.6
315.109	30.5
315.575	37.6
316.041	37.6
316.507	26
316.973	34.2
317.439	36.6
317.905	34.1
318.371	37.5
318.837	31.9
319.303	33.9
319.769	35.4
320.235	34.6
320.701	34.2
321.167	40.1
321.633	28.5
322.099	31.9
322.564	40.6
323.03	37.8
323.496	38.4
323.962	42.1
324.427	35.9
324.893	44
325.359	35.1
325.824	40
326.29	39.5
326.755	42.3
327.221	39.6
327.686	43.2
328.152	48.8
328.617	48.3
329.083	44.7
329.548	56.6
330.014	46.3
330.479	42.2
330.944	42.7
331.41	43.3
331.875	45.7
332.34	41.9
332.805	40.6
333.271	43.6
333.736	41.3
334.201	51.1
334.666	52.2
335.131	55.9
335.596	51.3
336.061	50.1
336.526	44
336.991	54.2
337.456	52
337.921	48
338.386	47.2
338.851	52
339.316	50.2
339.781	43.3
340.246	52.2
340.711	52.9
341.175	57.9
341.64	45
342.105	50.2
342.569	54.2
343.034	61.8
343.499	52.5
343.963	56.6
344.428	71.4
344.893	62.6
345.357	58.8
345.822	61.8
346.286	67.1
346.751	77.7
347.215	73.1
347.679	74.4
348.144	96.7
348.608	84.7
349.073	72.1
349.537	71.9
350.001	86
350.465	89
350.93	77.2
351.394	86
351.858	81.2
352.322	92.3
352.786	87.5
353.25	99.5
353.715	110.1
354.179	96.2
354.643	119.1
355.107	114.1
355.571	106.7
356.035	103.3
356.498	111.5
356.962	122.5
357.426	124.6
357.89	121.3
358.354	91.2
358.818	91
359.281	81
359.745	81.9
360.209	78.3
360.673	75.7
361.136	80.3
361.6	89
362.064	88.5
362.527	84.8
362.991	102.4
363.454	85.1
363.918	82
364.381	85.1
364.845	85.6
365.308	94.8
365.772	91.3
366.235	90.6
366.698	89.7
367.162	90.7
367.625	91
368.088	93.2
368.552	92.7
369.015	96.2
369.478	95
369.941	96.3
370.404	94.6
370.867	104.8
371.331	106.1
371.794	116
372.257	110
372.72	116.7
373.183	99.4
373.646	100.2
374.109	100.7
374.572	107.4
375.035	103.9
375.497	113.1
375.96	106.6
376.423	104.7
376.886	119.5
377.349	115.9
377.811	108.1
378.274	109.3
378.737	113.1
379.199	115
379.662	115.3
380.125	119.8
380.587	110.8
381.05	111.5
381.512	118.2
381.975	130.2
382.437	128
382.9	125.4
383.362	128.1
383.825	137.1
384.287	134.8
384.75	124.2
385.212	130.9
385.674	146
386.136	142
386.599	130.5
387.061	128
387.523	129
387.985	128.4
388.447	138.7
388.91	134.8
389.372	136.8
389.834	142.6
390.296	133.4
390.758	143.2
391.22	141.9
391.682	157.3
392.144	176
392.606	161.9
393.068	151.3
393.529	160.4
393.991	149.1
394.453	146.2
394.915	145
395.377	150.4
395.838	156.3
396.3	148.4
396.762	146.3
397.224	140.4
397.685	135.4
398.147	146.7
398.608	142
399.07	139.1
399.531	152.7
399.993	153.2
400.454	168.9
400.916	160.4
401.377	154
401.839	160.9
402.3	160.7
402.762	177.9
403.223	189.4
403.684	183.8
404.145	170.4
404.607	172.3
405.068	169.5
405.529	176.5
405.99	193.8
406.451	186.2
406.913	183.1
407.374	176
407.835	179.8
408.296	171.7
408.757	180
409.218	196.2
409.679	187.2
410.14	182.5
410.601	184
411.062	189.6
411.522	190.4
411.983	188.5
412.444	194.9
412.905	196.3
413.366	193.7
413.826	214.8
414.287	236.7
414.748	287.1
415.208	269.1
415.669	228
416.13	216.6
416.59	218.9
417.051	235.1
417.511	242.2
417.972	267.8
418.432	277.5
418.893	312.6
419.353	268.9
419.814	214.3
420.274	198.6
420.734	188
421.195	204.9
421.655	207.5
422.115	210.2
422.576	207.7
423.036	208.1
423.496	220.4
423.956	230
424.416	249
424.876	284.3
425.336	282.9
425.797	283.6
426.257	277.3
426.717	255.1
427.177	244.5
427.637	237.8
428.097	251.2
428.556	269
429.016	288.5
429.476	281.3
429.936	294.7
430.396	296.1
430.856	310.1
431.315	327.3
431.775	368.7
432.235	403.2
432.694	380
433.154	379.9
433.614	413.2
434.073	350.7
434.533	302.1
434.993	281.6
435.452	301.4
435.912	309.5
436.371	308
436.83	299.2
437.29	285.6
437.749	259.2
438.209	263.6
438.668	298.7
439.127	308.8
439.587	292
440.046	275.9
440.505	282.9
440.964	306.7
441.424	346.1
441.883	336.9
442.342	276.5
442.801	238.9
443.26	239
443.719	239.8
444.178	236.6
444.637	223.7
445.096	242.7
445.555	243.3
446.014	241.2
446.473	248.1
446.932	251.7
447.391	246.7
447.849	253.8
448.308	237.2
448.767	241.4
449.226	257
449.685	258.2
450.143	272.8
450.602	256
451.061	255.2
451.519	250.7
451.978	256.5
452.436	260.1
452.895	263.9
453.353	281.7
453.812	260.2
454.27	268.2
454.729	262.9
455.187	266.3
455.646	268.2
456.104	269.1
456.562	278.3
457.021	291.3
457.479	293.4
457.937	294.4
458.395	294.3
458.854	276.5
459.312	282.4
459.77	297.2
460.228	280.1
460.686	267
461.144	275.1
461.602	270.4
462.06	271.2
462.518	276.5
462.976	283.6
463.434	290
463.892	292.2
464.35	299.5
464.808	314.5
465.266	288.4
465.724	292.2
466.181	304.8
466.639	295.3
467.097	316.4
467.555	324.2
468.012	331.7
468.47	338.6
468.928	358.8
469.385	378.8
469.843	378.5
470.3	375.3
470.758	393
471.215	417.5
471.673	445.9
472.13	444.6
472.588	455.5
473.045	408.6
473.503	411.8
473.96	421.6
474.417	439.7
474.875	477.9
475.332	515.1
475.789	506.3
476.246	501.8
476.704	524
477.161	547.5
477.618	565.1
478.075	601.5
478.532	649.3
478.989	732.7
479.446	844.8
479.903	804.5
480.36	838.6
480.817	892.5
481.274	991
481.731	1080.1
482.188	1161.6
482.645	1281.5
483.102	1386.8
483.558	1506.5
484.015	1567.6
484.472	1528.5
484.929	1472.8
485.385	1436.3
485.842	1417.8
486.299	1376.5
486.755	1323
487.212	1120.1
487.668	959.2
488.125	885.2
488.582	821.3
489.038	784.1
489.494	745.5
489.951	727.6
490.407	708.6
490.864	682.8
491.32	684.8
491.776	685.8
492.233	697.8
492.689	658.7
493.145	660.2
493.602	649.1
494.058	650.2
494.514	663.1
494.97	683.9
495.426	688.7
495.882	666.6
496.338	663.3
496.794	660.1
497.251	661.1
497.707	674.4
498.163	674.7
498.618	687.3
499.074	687.1
499.53	719.7
499.986	716
500.442	703
500.898	671.5
501.354	666.5
501.809	666.4
502.265	668.3
502.721	683.1
503.177	682.6
503.632	690.9
504.088	696.5
504.543	715
504.999	743.2
505.455	711.7
505.91	683
506.366	685.4
506.821	681.4
507.277	678.9
507.732	682.2
508.187	671.1
508.643	686.1
509.098	701
509.553	712.3
510.009	725.4
510.464	730
510.919	742
511.375	755.4
511.83	761.5
512.285	786.4
512.74	815.8
513.195	859
513.65	828.1
514.105	826.4
514.56	838.3
515.015	844.9
515.47	868.4
515.925	830.4
516.38	844.9
516.835	850
517.29	834.8
517.745	827.7
518.2	827.7
518.655	801.5
519.109	803.5
519.564	799.9
520.019	791.3
520.474	771.6
520.928	774.7
521.383	778.1
521.838	766.8
522.292	769.5
522.747	768.2
523.201	759.7
523.656	747.2
524.11	749.2
524.565	752.1
525.019	738.8
525.474	746.4
525.928	754.4
526.382	749.6
526.837	754.5
527.291	758.5
527.745	760
528.2	754.9
528.654	741.6
529.108	739.9
529.562	747
530.016	740.9
530.47	727.5
530.925	730.9
531.379	746.8
531.833	751.6
532.287	747.4
532.741	756.1
533.195	756.3
533.649	763.2
534.103	770.9
534.556	759.5
535.01	761.5
535.464	760.9
535.918	769.5
536.372	770.1
536.826	770.9
537.279	743.8
537.733	764.6
538.187	765.9
538.64	758.6
539.094	775.9
539.548	788.8
540.001	785.1
540.455	770.2
540.908	793.2
541.362	795.7
541.815	809.9
542.269	809.3
542.722	815
543.175	818.7
543.629	820.5
544.082	851.8
544.536	845
544.989	849.9
545.442	857.8
545.895	857.1
546.349	845
546.802	856.7
547.255	858.3
547.708	867.3
548.161	876.7
548.614	880.2
549.067	888.7
549.52	887.5
549.973	871.9
550.426	871.5
550.879	873.9
551.332	863.1
551.785	863.6
552.238	862.4
552.691	878.3
553.144	893.2
553.596	917
554.049	928.8
554.502	955.1
554.955	982.7
555.407	966.4
555.86	971.8
556.313	953.6
556.765	933.1
557.218	959
557.67	943.6
558.123	932.4
558.576	930
559.028	945.8
559.48	953.1
559.933	930.3
560.385	898.4
560.838	860.6
561.29	841.1
561.742	829.7
562.195	823.1
562.647	820.6
563.099	834.8
563.551	834
564.004	850.2
564.456	830.8
564.908	813.5
565.36	796.5
565.812	780.5
566.264	776.6
566.716	768.4
567.168	752.5
567.62	760.1
568.072	752.1
568.524	741.4
568.976	737.8
569.428	731.8
569.88	725.8
570.332	733.1
570.784	734.6
571.235	722
571.687	748.2
572.139	754.1
572.59	772.4
573.042	764.7
573.494	756.5
573.945	763.8
574.397	743.2
574.849	741
575.3	740.6
575.752	726.7
576.203	718.8
576.655	734.1
577.106	715.5
577.557	707.9
578.009	710.9
578.46	710.5
578.912	712.2
579.363	715.2
579.814	721.2
580.265	705.6
580.717	711.6
581.168	713.9
581.619	723.1
582.07	723.8
582.521	706.1
582.972	710.1
583.423	714.7
583.875	716.8
584.326	727.6
584.777	751.8
585.227	770.8
585.678	793.2
586.129	826.9
586.58	850.8
587.031	873.1
587.482	923.6
587.933	969.8
588.384	927.5
588.834	853.2
589.285	829.3
589.736	833.1
590.186	816.2
590.637	810.4
591.088	790.3
591.538	782.6
591.989	775.7
592.439	770.1
592.89	757
593.34	746
593.791	745.2
594.241	744.4
594.692	740
595.142	728.5
595.593	742.4
596.043	743.2
596.493	756.6
596.943	750.8
597.394	763.7
597.844	760.2
598.294	784
598.744	805.1
599.195	833.4
599.645	875.8
600.095	913.5
600.545	967.7
600.995	1028.3
601.445	1093.2
601.895	1155.5
602.345	1199.5
602.795	1164.7
603.245	1136
603.695	1073.7
604.145	1022.2
604.594	973.6
605.044	912.9
605.494	851.4
605.944	801.8
606.393	794.4
606.843	772.6
607.293	776.2
607.743	781.5
608.192	784.5
608.642	793.6
609.091	798.1
609.541	808.9
609.99	805.1
610.44	800.8
610.889	766.2
611.339	729.8
611.788	720.8
612.238	725.8
612.687	737.7
613.136	742.8
613.586	747.8
614.035	739.4
614.484	751.2
614.933	742.3
615.383	747
615.832	755.1
616.281	747
616.73	703.1
617.179	684.9
617.628	676.6
618.077	676.6
618.526	655
618.975	647.1
619.424	648.3
619.873	645.3
620.322	648.2
620.771	629.7
621.22	643.2
621.669	624.4
622.118	628.3
622.567	611.5
623.015	603.4
623.464	604.9
623.913	591.5
624.361	580.1
624.81	584.7
625.259	585.5
625.707	578
626.156	589.3
626.604	608.2
627.053	596.7
627.501	596.6
627.95	597.6
628.398	609
628.847	601.5
629.295	601.7
629.744	609.7
630.192	600.8
630.64	594.8
631.089	572.6
631.537	566
631.985	556
632.433	569.9
632.881	566.3
633.33	568.7
633.778	565.2
634.226	553.6
634.674	566
635.122	568.3
635.57	584.2
636.018	594.6
636.466	592.2
636.914	584.6
637.362	597
637.81	602.3
638.258	607.4
638.705	608.9
639.153	632.6
639.601	655.2
640.049	672.6
640.497	707.1
640.944	725.5
641.392	679.5
641.84	649.6
642.287	615.1
642.735	598.3
643.182	596.2
643.63	587.5
644.078	587.5
644.525	598.8
644.973	610.7
645.42	613.5
645.867	640.7
646.315	663.7
646.762	681.9
647.21	719.7
647.657	732.6
648.104	764.7
648.551	791
648.999	848.7
649.446	925.7
649.893	1014.9
650.34	1152.6
650.787	1360.9
651.234	1678.6
651.682	2148.7
652.129	2944
652.576	4157.5
653.023	6094.3
653.47	8205.3
653.917	10231.3
654.363	11799.1
654.81	13038.7
655.257	12368
655.704	8156.1
656.151	4948.2
656.598	3254.3
657.044	2336.7
657.491	1801.8
657.938	1464.5
658.385	1235.1
658.831	1072.8
659.278	976
659.724	868
660.171	796.3
660.618	733.6
661.064	705.9
661.511	694.3
661.957	675.4
662.404	653.8
662.85	674.6
663.296	651.1
663.743	584.3
664.189	558.8
664.635	556
665.082	549.4
665.528	558.7
665.974	540.6
666.42	533.1
666.867	526
667.313	506.9
667.759	483.3
668.205	476.5
668.651	475.3
669.097	464.3
669.543	457.2
669.989	469.4
670.435	465
670.881	466.6
671.327	472.7
671.773	489
672.219	514.2
672.665	568.2
673.11	612.4
673.556	661.5
674.002	701
674.448	681.3
674.893	583.7
675.339	503.8
675.785	473.7
676.23	445.3
676.676	407.8
677.122	393.9
677.567	389.2
678.013	391.4
678.458	377.9
678.904	381.3
679.349	363.2
679.794	377.6
680.24	369.3
680.685	367.3
681.131	363.2
681.576	366
682.021	370.7
682.466	365.5
682.912	359.9
683.357	375.3
683.802	403
684.247	434
684.692	477.2
685.137	515.9
685.583	563.1
686.028	589.3
686.473	539
686.918	467.2
687.363	439.8
687.807	417.3
688.252	383.2
688.697	374.3
689.142	352.8
689.587	343.4
690.032	340.5
690.477	358.7
690.921	365
691.366	403.6
691.811	432.7
692.255	440.6
692.7	483.5
693.145	520.1
693.589	730.8
694.034	1190.1
694.478	1617.5
694.923	1830.4
695.367	2386.8
695.812	1274.2
696.256	527.7
696.701	390.3
697.145	358.7
697.59	342.2
698.034	339.8
698.478	344.3
698.922	338.8
699.367	344.2
699.811	346.2
700.255	364.1
700.699	396.7
701.143	440.8
701.588	493.4
702.032	537.1
702.476	542.9
702.92	510.6
703.364	520.5
703.808	677.5
704.252	1101.7
704.696	1543.1
705.14	1765.4
705.584	2259.7
706.027	1112.5
706.471	556.2
706.915	424.2
707.359	377.4
707.803	341.6
708.246	322.2
708.69	328.2
709.134	331.5
709.577	313.6
710.021	321.5
710.465	315
710.908	315
711.352	312.8
711.795	324.2
712.239	364.1
712.682	405.8
713.126	427.6
713.569	488
714.012	375.6
714.456	318.3
714.899	306.2
715.342	282.9
715.786	275.3
716.229	266.1
716.672	263.8
717.115	259.4
717.558	266.5
718.002	265.3
718.445	278.2
718.888	304.6
719.331	307.4
719.774	324.3
720.217	317.2
720.66	291.5
721.103	279
721.546	270.8
721.989	267.5
722.432	242.3
722.874	247.9
723.317	238.5
723.76	247.8
724.203	266.9
724.645	339.8
725.088	466.9
725.531	599.4
725.974	682
726.416	561.7
726.859	319.6
727.301	262.5
727.744	247.5
728.187	253.1
728.629	244.8
729.071	253.3
729.514	271
729.956	287.3
730.399	291.8
730.841	302.6
731.283	294.1
731.726	280.5
732.168	274.1
732.61	285.7
733.053	300.3
733.495	326.7
733.937	372.1
734.379	419.3
734.821	463.1
735.263	574.1
735.705	884.5
736.148	1667
736.59	2726.5
737.032	3227.9
737.474	2634.1
737.916	865.7
738.357	455.7
738.799	352.3
739.241	306.7
739.683	295.6
740.125	305.9
740.567	306.2
741.008	338
741.45	339.3
741.892	335.2
742.334	366.5
742.775	391
743.217	367.6
743.658	292.2
744.1	272.6
744.542	274.5
744.983	337.3
745.425	366.6
745.866	362.5
746.307	294.7
746.749	293
747.19	343.4
747.632	475.7
748.073	924.6
748.514	1972.8
748.956	3018.5
749.397	3783.7
749.838	3150.6
750.279	3126
750.72	1573
751.162	576.3
751.603	341.3
752.044	267.3
752.485	231.5
752.926	218.2
753.367	213.5
753.808	200
754.249	204.4
754.69	201.9
755.131	194.8
755.572	189.9
756.013	188.7
756.453	195.6
756.894	198.3
757.335	200.8
757.776	194.9
758.216	205.9
758.657	210.3
759.098	214.5
759.538	234.8
759.979	277.8
760.42	395.9
760.86	743.4
761.301	1913.1
761.741	4683
762.182	6789.1
762.622	4805.2
763.063	1396.8
763.503	563.4
763.943	345
764.384	296.6
764.824	279.4
765.264	279.2
765.705	233.1
766.145	195.6
766.585	183.8
767.025	182.1
767.465	178.1
767.906	198.8
768.346	221.8
768.786	230.4
769.226	234.7
769.666	324.2
770.106	649.5
770.546	1640.7
770.986	2785.1
771.426	2506.8
771.866	828.2
772.306	344.8
772.745	213.4
773.185	173
773.625	174.6
774.065	155.2
774.505	163.4
774.944	223.4
775.384	392.6
775.824	662.1
776.263	638.1
776.703	305.7
777.142	174.2
777.582	145.5
778.021	131.5
778.461	133.7
778.9	128.4
779.34	126.6
779.779	120.1
780.219	109.9
780.658	111.3
781.097	115.8
781.537	112.9
781.976	109.6
782.415	112.3
782.855	110
783.294	114.9
783.733	104.5
784.172	112.7
784.611	102.8
785.05	111.1
785.489	121
785.928	124.9
786.367	119.6
786.806	120.7
787.245	136
787.684	142.7
788.123	152.6
788.562	142.4
789.001	139.2
789.44	125.7
789.879	121.3
790.317	122.7
790.756	133.4
791.195	133.8
791.634	153.3
792.072	210.7
792.511	377.3
792.95	1044.1
793.388	2218
793.827	2012.4
794.265	701
794.704	293.5
795.142	190.5
795.581	161
796.019	142.5
796.458	137.3
796.896	132.2
797.334	134.5
797.773	160.4
798.211	228.9
798.649	451.7
799.087	1066
799.526	1677.6
799.964	2112
800.402	2097.4
800.84	804.3
801.278	314.8
801.716	196.4
802.154	163
802.592	152.3
803.03	146.1
803.468	147.5
803.906	150.4
804.344	161.8
804.782	151.9
805.22	140.8
805.658	139.2
806.096	154.2
806.533	164.1
806.971	180.6
807.409	232.7
