Data from 20171114-ORNL-Ar_H_NY_Subt18_08-04-13-800.txt Node
Date: Tue Nov 14 08:04:13 EST 2017
User: Ender
Spectrometer: HR+D1039
Trigger mode: 0
Integration Time (sec): 2.730000E-2
Scans to average: 10
Electric dark correction enabled: true
Nonlinearity correction enabled: false
Boxcar width: 0
XAxis mode: Wavelengths
Number of Pixels in Spectrum: 2048
>>>>>Begin Spectral Data<<<<<
187.836	-5.54
188.309	-5.54
188.782	-5.54
189.255	5.56
189.728	-7.24
190.201	7.76
190.674	2.06
191.147	6.16
191.619	-10.04
192.092	0.26
192.565	5.86
193.038	-1.14
193.511	-2.24
193.984	-3.84
194.456	0.56
194.929	4.66
195.402	-6.34
195.874	3.46
196.347	-0.74
196.82	-6.94
197.292	5.26
197.765	-0.14
198.237	-5.34
198.71	-2.44
199.182	-1.44
199.655	1.26
200.127	0.76
200.6	-0.44
201.072	1.26
201.544	-4.64
202.017	-2.24
202.489	3.96
202.961	-0.24
203.433	-6.64
203.906	0.26
204.378	-2.24
204.85	-3.34
205.322	-6.84
205.794	-3.14
206.266	-7.34
206.739	-6.44
207.211	3.86
207.683	-4.14
208.155	-2.54
208.627	-9.84
209.099	2.26
209.57	-9.04
210.042	-0.64
210.514	6.06
210.986	2.46
211.458	-5.64
211.93	-0.54
212.402	-1.74
212.873	-2.64
213.345	-7.24
213.817	-10.44
214.288	-3.64
214.76	-9.34
215.232	-3.54
215.703	-1.84
216.175	4.06
216.646	-5.34
217.118	-0.24
217.589	-5.04
218.061	-2.74
218.532	-2.24
219.004	4.46
219.475	-3.04
219.946	-5.74
220.418	-7.74
220.889	5.46
221.36	-0.14
221.832	-4.74
222.303	-5.24
222.774	3.86
223.245	-7.64
223.717	-9.84
224.188	-1.84
224.659	0.36
225.13	-3.94
225.601	-0.84
226.072	0.46
226.543	-1.64
227.014	2.56
227.485	1.16
227.956	-4.34
228.427	3.06
228.898	3.96
229.369	2.76
229.839	-0.34
230.31	-5.04
230.781	1.16
231.252	-0.84
231.722	-6.94
232.193	-1.14
232.664	-2.34
233.135	1.56
233.605	-4.74
234.076	-12.44
234.546	3.96
235.017	-3.04
235.487	-0.74
235.958	-0.94
236.428	-2.34
236.899	-0.34
237.369	5.16
237.84	-4.64
238.31	3.66
238.78	-0.34
239.251	-0.14
239.721	12.66
240.191	-1.64
240.662	2.06
241.132	-1.04
241.602	-1.94
242.072	-1.44
242.542	9.56
243.013	-2.14
243.483	7.96
243.953	6.66
244.423	2.16
244.893	0.66
245.363	1.06
245.833	4.86
246.303	0.76
246.773	5.46
247.243	6.46
247.712	2.56
248.182	10.66
248.652	9.16
249.122	-1.64
249.592	4.96
250.061	18.76
250.531	34.06
251.001	12.96
251.471	26.86
251.94	22.46
252.41	5.66
252.879	-0.94
253.349	12.76
253.818	14.26
254.288	6.46
254.757	8.36
255.227	2.06
255.696	4.86
256.166	8.96
256.635	9.36
257.105	6.96
257.574	6.46
258.043	10.76
258.513	10.46
258.982	15.16
259.451	8.36
259.92	17.56
260.389	12.86
260.859	11.56
261.328	10.26
261.797	18.96
262.266	10.86
262.735	7.96
263.204	4.76
263.673	1.06
264.142	9.26
264.611	-1.44
265.08	2.96
265.549	3.66
266.018	8.86
266.487	3.86
266.955	-6.04
267.424	7.06
267.893	10.06
268.362	3.66
268.83	5.76
269.299	10.86
269.768	7.26
270.236	8.76
270.705	7.96
271.174	6.26
271.642	4.36
272.111	8.86
272.579	16.26
273.048	16.36
273.516	22.16
273.985	22.06
274.453	20.26
274.922	18.96
275.39	9.46
275.858	2.66
276.327	8.06
276.795	17.66
277.263	10.16
277.731	26.96
278.2	50.16
278.668	46.76
279.136	43.36
279.604	26.16
280.072	14.36
280.54	14.96
281.008	14.46
281.477	21.16
281.945	15.86
282.413	16.06
282.881	12.26
283.348	5.06
283.816	11.46
284.284	17.56
284.752	19.26
285.22	14.26
285.688	13.06
286.156	8.46
286.623	36.86
287.091	44.36
287.559	25.16
288.026	16.96
288.494	10.56
288.962	-2.64
289.429	5.36
289.897	15.56
290.364	10.86
290.832	18.06
291.3	15.66
291.767	17.46
292.234	17.66
292.702	9.76
293.169	18.36
293.637	19.76
294.104	13.46
294.571	6.16
295.039	7.86
295.506	10.86
295.973	15.16
296.44	17.06
296.908	20.16
297.375	10.66
297.842	19.96
298.309	16.46
298.776	12.96
299.243	15.86
299.71	11.56
300.177	21.46
300.644	20.36
301.111	19.46
301.578	19.36
302.045	7.16
302.512	17.26
302.979	20.76
303.446	18.16
303.913	13.16
304.379	13.26
304.846	21.16
305.313	22.06
305.78	15.26
306.246	17.56
306.713	25.26
307.18	26.36
307.646	24.36
308.113	29.36
308.579	22.16
309.046	29.46
309.512	22.26
309.979	12.56
310.445	22.66
310.912	23.26
311.378	24.66
311.845	21.06
312.311	27.46
312.777	24.76
313.244	28.56
313.71	33.96
314.176	24.66
314.642	27.96
315.109	27.46
315.575	30.86
316.041	34.26
316.507	29.66
316.973	31.76
317.439	30.16
317.905	27.46
318.371	36.26
318.837	30.56
319.303	30.16
319.769	26.06
320.235	27.46
320.701	33.56
321.167	37.66
321.633	28.86
322.099	33.66
322.564	41.16
323.03	33.86
323.496	32.56
323.962	37.46
324.427	29.06
324.893	39.56
325.359	31.86
325.824	35.66
326.29	33.36
326.755	32.76
327.221	28.26
327.686	37.36
328.152	46.26
328.617	37.26
329.083	43.96
329.548	41.86
330.014	46.06
330.479	33.66
330.944	40.96
331.41	31.96
331.875	37.06
332.34	40.16
332.805	40.46
333.271	41.66
333.736	36.76
334.201	45.56
334.666	44.06
335.131	53.26
335.596	43.96
336.061	51.46
336.526	35.66
336.991	45.46
337.456	54.76
337.921	46.76
338.386	40.86
338.851	37.36
339.316	43.36
339.781	44.16
340.246	43.66
340.711	36.36
341.175	41.46
341.64	39.96
342.105	45.96
342.569	46.76
343.034	44.86
343.499	55.36
343.963	47.16
344.428	55.96
344.893	53.96
345.357	53.16
345.822	54.76
346.286	65.06
346.751	61.46
347.215	61.86
347.679	60.96
348.144	79.56
348.608	69.66
349.073	57.46
349.537	66.26
350.001	67.86
350.465	75.06
350.93	71.66
351.394	72.56
351.858	71.26
352.322	80.36
352.786	70.76
353.25	77.56
353.715	91.66
354.179	81.66
354.643	98.56
355.107	107.46
355.571	91.36
356.035	82.06
356.498	99.96
356.962	101.96
357.426	107.36
357.89	98.36
358.354	82.46
358.818	73.96
359.281	82.26
359.745	66.56
360.209	70.06
360.673	64.96
361.136	71.06
361.6	81.66
362.064	73.76
362.527	77.86
362.991	80.86
363.454	69.06
363.918	68.16
364.381	68.46
364.845	78.16
365.308	75.66
365.772	71.16
366.235	83.86
366.698	73.06
367.162	80.06
367.625	72.36
368.088	82.46
368.552	83.86
369.015	73.96
369.478	85.06
369.941	90.96
370.404	89.36
370.867	94.56
371.331	92.66
371.794	98.76
372.257	93.26
372.72	107.06
373.183	96.96
373.646	91.76
374.109	95.86
374.572	93.36
375.035	92.96
375.497	92.06
375.96	88.76
376.423	89.06
376.886	95.56
377.349	98.16
377.811	93.26
378.274	94.96
378.737	96.96
379.199	98.36
379.662	90.26
380.125	103.96
380.587	100.96
381.05	109.76
381.512	114.56
381.975	114.56
382.437	115.06
382.9	110.06
383.362	116.76
383.825	123.96
384.287	131.96
384.75	122.46
385.212	119.76
385.674	124.96
386.136	123.06
386.599	114.16
387.061	106.46
387.523	109.46
387.985	120.96
388.447	131.46
388.91	128.66
389.372	137.36
389.834	126.16
390.296	123.06
390.758	134.06
391.22	146.96
391.682	191.66
392.144	253.16
392.606	205.36
393.068	143.66
393.529	148.66
393.991	132.16
394.453	133.36
394.915	137.76
395.377	171.26
395.838	191.86
396.3	134.56
396.762	120.16
397.224	117.56
397.685	112.96
398.147	106.16
398.608	114.26
399.07	109.46
399.531	115.36
399.993	124.96
400.454	130.56
400.916	128.46
401.377	130.06
401.839	130.36
402.3	134.16
402.762	148.86
403.223	150.96
403.684	151.96
404.145	145.06
404.607	140.86
405.068	136.36
405.529	151.26
405.99	169.56
406.451	145.26
406.913	159.86
407.374	145.66
407.835	142.16
408.296	148.56
408.757	150.36
409.218	162.76
409.679	159.26
410.14	155.36
410.601	156.26
411.062	162.66
411.522	167.06
411.983	170.06
412.444	155.16
412.905	160.46
413.366	160.06
413.826	174.76
414.287	195.06
414.748	236.36
415.208	216.96
415.669	186.56
416.13	181.36
416.59	177.06
417.051	191.56
417.511	190.36
417.972	211.66
418.432	219.56
418.893	263.86
419.353	223.86
419.814	183.86
420.274	166.76
420.734	156.56
421.195	176.46
421.655	174.16
422.115	170.06
422.576	171.16
423.036	168.36
423.496	184.76
423.956	190.36
424.416	202.36
424.876	234.56
425.336	233.76
425.797	229.06
426.257	233.86
426.717	210.86
427.177	205.46
427.637	194.26
428.097	203.06
428.556	220.66
429.016	236.06
429.476	227.66
429.936	242.76
430.396	248.56
430.856	248.56
431.315	274.96
431.775	301.06
432.235	329.86
432.694	304.56
433.154	318.36
433.614	331.06
434.073	298.96
434.533	248.66
434.993	242.46
435.452	246.56
435.912	262.86
436.371	247.86
436.83	241.06
437.29	237.86
437.749	223.06
438.209	217.16
438.668	239.96
439.127	253.76
439.587	224.46
440.046	212.16
440.505	224.16
440.964	237.46
441.424	270.06
441.883	261.56
442.342	221.66
442.801	204.96
443.26	191.56
443.719	198.06
444.178	193.06
444.637	183.16
445.096	195.86
445.555	194.86
446.014	198.76
446.473	196.76
446.932	199.36
447.391	193.26
447.849	201.36
448.308	197.46
448.767	199.26
449.226	217.96
449.685	203.56
450.143	218.26
450.602	215.66
451.061	203.86
451.519	202.66
451.978	206.56
452.436	214.76
452.895	213.46
453.353	219.46
453.812	210.96
454.27	213.76
454.729	205.26
455.187	208.16
455.646	212.56
456.104	223.86
456.562	226.76
457.021	231.46
457.479	222.06
457.937	235.76
458.395	227.06
458.854	217.76
459.312	220.46
459.77	229.76
460.228	218.86
460.686	209.46
461.144	220.16
461.602	206.86
462.06	215.36
462.518	231.06
462.976	226.36
463.434	230.16
463.892	231.46
464.35	239.96
464.808	249.86
465.266	240.56
465.724	235.46
466.181	243.76
466.639	238.56
467.097	258.56
467.555	264.76
468.012	266.56
468.47	272.36
468.928	291.66
469.385	301.96
469.843	306.36
470.3	298.36
470.758	306.36
471.215	321.36
471.673	348.66
472.13	341.86
472.588	364.76
473.045	327.56
473.503	325.46
473.96	343.46
474.417	348.96
474.875	373.46
475.332	410.46
475.789	410.76
476.246	408.56
476.704	424.66
477.161	450.76
477.618	458.66
478.075	489.26
478.532	536.46
478.989	593.96
479.446	677.16
479.903	668.06
480.36	709.96
480.817	752.76
481.274	864.16
481.731	947.06
482.188	1039.56
482.645	1162.86
483.102	1263.76
483.558	1364.76
484.015	1424.96
484.472	1418.26
484.929	1364.96
485.385	1329.86
485.842	1287.36
486.299	1223.16
486.755	1126.36
487.212	956.26
487.668	823.36
488.125	762.46
488.582	698.66
489.038	665.36
489.494	630.46
489.951	597.76
490.407	585.86
490.864	566.56
491.32	564.46
491.776	558.66
492.233	565.66
492.689	531.86
493.145	534.36
493.602	525.06
494.058	537.56
494.514	538.26
494.97	545.46
495.426	562.46
495.882	541.76
496.338	532.26
496.794	553.36
497.251	546.56
497.707	556.36
498.163	552.86
498.618	568.26
499.074	564.36
499.53	582.96
499.986	591.46
500.442	568.96
500.898	558.46
501.354	551.76
501.809	557.36
502.265	561.36
502.721	584.56
503.177	587.46
503.632	581.06
504.088	587.16
504.543	625.46
504.999	620.36
505.455	577.06
505.91	550.26
506.366	554.96
506.821	542.96
507.277	545.96
507.732	555.06
508.187	538.16
508.643	550.56
509.098	553.06
509.553	569.36
510.009	582.16
510.464	577.76
510.919	600.96
511.375	604.36
511.83	617.46
512.285	634.86
512.74	663.06
513.195	674.86
513.65	664.16
514.105	672.36
514.56	674.96
515.015	690.36
515.47	708.76
515.925	689.66
516.38	696.26
516.835	694.46
517.29	680.96
517.745	680.86
518.2	677.36
518.655	658.76
519.109	655.46
519.564	652.16
520.019	639.76
520.474	633.86
520.928	637.26
521.383	634.16
521.838	619.56
522.292	619.86
522.747	618.76
523.201	618.66
523.656	598.46
524.11	596.96
524.565	593.56
525.019	593.16
525.474	603.96
525.928	615.96
526.382	600.96
526.837	605.86
527.291	606.36
527.745	609.66
528.2	606.26
528.654	592.86
529.108	591.56
529.562	593.96
530.016	597.16
530.47	596.46
530.925	597.66
531.379	601.86
531.833	607.16
532.287	612.56
532.741	610.46
533.195	607.16
533.649	620.36
534.103	622.66
534.556	618.16
535.01	613.46
535.464	610.26
535.918	626.26
536.372	630.46
536.826	631.36
537.279	611.06
537.733	610.06
538.187	611.36
538.64	618.66
539.094	631.36
539.548	624.56
540.001	627.16
540.455	612.06
540.908	625.26
541.362	630.56
541.815	642.46
542.269	654.06
542.722	656.96
543.175	651.66
543.629	664.56
544.082	668.86
544.536	672.76
544.989	673.26
545.442	674.36
545.895	678.76
546.349	676.86
546.802	677.86
547.255	675.76
547.708	688.96
548.161	702.26
548.614	708.46
549.067	699.16
549.52	699.56
549.973	693.16
550.426	694.76
550.879	677.86
551.332	670.96
551.785	687.06
552.238	685.16
552.691	705.86
553.144	704.26
553.596	723.36
554.049	733.76
554.502	761.46
554.955	776.66
555.407	769.86
555.86	764.46
556.313	751.36
556.765	744.56
557.218	757.96
557.67	752.26
558.123	741.56
558.576	744.26
559.028	747.86
559.48	746.86
559.933	740.36
560.385	707.26
560.838	687.86
561.29	665.06
561.742	655.56
562.195	644.96
562.647	645.66
563.099	650.26
563.551	648.46
564.004	655.06
564.456	645.46
564.908	641.06
565.36	626.46
565.812	611.26
566.264	611.56
566.716	612.96
567.168	600.86
567.62	617.46
568.072	593.86
568.524	587.06
568.976	571.66
569.428	557.06
569.88	560.66
570.332	567.46
570.784	560.36
571.235	574.76
571.687	573.86
572.139	588.56
572.59	592.46
573.042	598.96
573.494	597.76
573.945	590.76
574.397	576.56
574.849	573.66
575.3	569.76
575.752	568.96
576.203	563.46
576.655	575.06
577.106	554.96
577.557	554.06
578.009	552.26
578.46	548.96
578.912	550.16
579.363	550.26
579.814	548.76
580.265	545.46
580.717	545.36
581.168	554.16
581.619	568.56
582.07	573.46
582.521	569.56
582.972	554.76
583.423	563.06
583.875	560.16
584.326	585.06
584.777	621.26
585.227	688.36
585.678	765.16
586.129	844.56
586.58	914.26
587.031	989.36
587.482	1135.76
587.933	1302.86
588.384	1122.56
588.834	814.26
589.285	669.36
589.736	638.56
590.186	635.36
590.637	635.36
591.088	609.76
591.538	607.16
591.989	595.96
592.439	601.46
592.89	594.36
593.34	587.56
593.791	581.66
594.241	576.46
594.692	586.76
595.142	573.96
595.593	572.76
596.043	581.16
596.493	581.26
596.943	586.06
597.394	587.86
597.844	580.46
598.294	597.86
598.744	608.46
599.195	625.96
599.645	663.46
600.095	699.26
600.545	740.96
600.995	785.96
601.445	830.46
601.895	882.76
602.345	933.56
602.795	908.76
603.245	871.86
603.695	825.26
604.145	779.36
604.594	733.36
605.044	692.86
605.494	657.36
605.944	612.96
606.393	600.46
606.843	591.26
607.293	584.76
607.743	596.66
608.192	603.96
608.642	614.06
609.091	628.56
609.541	626.06
609.99	618.16
610.44	607.86
610.889	575.76
611.339	561.36
611.788	561.46
612.238	566.06
612.687	577.26
613.136	580.76
613.586	590.96
614.035	589.06
614.484	606.56
614.933	604.56
615.383	600.56
615.832	586.16
616.281	570.46
616.73	557.46
617.179	529.06
617.628	519.76
618.077	508.26
618.526	498.76
618.975	493.86
619.424	493.96
619.873	496.86
620.322	499.36
620.771	489.66
621.22	489.26
621.669	469.26
622.118	468.06
622.567	469.36
623.015	454.46
623.464	457.56
623.913	449.26
624.361	440.76
624.81	448.86
625.259	447.26
625.707	446.06
626.156	440.96
626.604	451.16
627.053	449.06
627.501	449.96
627.95	454.06
628.398	454.76
628.847	453.36
629.295	445.56
629.744	457.36
630.192	452.36
630.64	456.46
631.089	460.46
631.537	456.96
631.985	464.66
632.433	469.36
632.881	482.76
633.33	513.76
633.778	498.06
634.226	448.06
634.674	456.46
635.122	462.26
635.57	469.06
636.018	490.66
636.466	464.66
636.914	443.56
637.362	450.86
637.81	463.56
638.258	460.26
638.705	460.96
639.153	470.36
639.601	489.46
640.049	503.06
640.497	523.96
640.944	552.46
641.392	519.06
641.84	477.46
642.287	460.46
642.735	451.76
643.182	447.26
643.63	454.26
644.078	450.26
644.525	469.26
644.973	473.66
645.42	474.46
645.867	492.96
646.315	507.66
646.762	521.16
647.21	538.16
647.657	553.26
648.104	584.16
648.551	606.96
648.999	662.66
649.446	720.06
649.893	782.56
650.34	912.26
650.787	1082.36
651.234	1348.06
651.682	1738.56
652.129	2369.66
652.576	3424.06
653.023	5076.76
653.47	7065.76
653.917	8914.76
654.363	10521.06
654.81	11838.26
655.257	11258.66
655.704	7290.56
656.151	4272.26
656.598	2744.66
657.044	1948.16
657.491	1491.66
657.938	1189.06
658.385	989.66
658.831	860.06
659.278	763.46
659.724	670.86
660.171	623.96
660.618	564.46
661.064	539.26
661.511	512.96
661.957	514.16
662.404	498.16
662.85	492.96
663.296	481.26
663.743	444.76
664.189	416.86
664.635	416.66
665.082	410.96
665.528	411.26
665.974	402.66
666.42	394.96
666.867	390.46
667.313	375.16
667.759	372.96
668.205	377.96
668.651	382.76
669.097	385.16
669.543	394.86
669.989	363.16
670.435	347.46
670.881	350.26
671.327	348.76
671.773	366.56
672.219	377.66
672.665	419.96
673.11	443.76
673.556	489.16
674.002	531.06
674.448	507.56
674.893	428.16
675.339	368.36
675.785	349.26
676.23	322.46
676.676	296.26
677.122	297.16
677.567	290.96
678.013	287.96
678.458	281.96
678.904	274.76
679.349	276.86
679.794	272.56
680.24	264.86
680.685	271.56
681.131	270.86
681.576	272.56
682.021	280.96
682.466	272.16
682.912	267.76
683.357	265.06
683.802	288.76
684.247	313.26
684.692	341.96
685.137	381.76
685.583	408.66
686.028	440.06
686.473	400.36
686.918	340.06
687.363	328.86
687.807	303.76
688.252	282.46
688.697	275.26
689.142	260.46
689.587	254.26
690.032	244.66
690.477	261.36
690.921	269.16
691.366	295.26
691.811	312.36
692.255	338.76
692.7	360.06
693.145	378.86
693.589	515.36
694.034	848.86
694.478	1171.36
694.923	1369.16
695.367	1820.46
695.812	939.86
696.256	391.86
696.701	289.06
697.145	266.06
697.59	246.06
698.034	249.16
698.478	255.36
698.922	255.86
699.367	251.86
699.811	254.16
700.255	277.66
700.699	299.86
701.143	323.16
701.588	365.16
702.032	399.16
702.476	396.76
702.92	380.46
703.364	377.86
703.808	476.36
704.252	770.26
704.696	1095.16
705.14	1321.06
705.584	1699.86
706.027	840.56
706.471	408.86
706.915	306.96
707.359	269.06
707.803	247.66
708.246	238.96
708.69	245.36
709.134	245.46
709.577	237.56
710.021	236.26
710.465	229.56
710.908	230.16
711.352	231.36
711.795	232.86
712.239	266.36
712.682	286.76
713.126	324.06
713.569	361.96
714.012	284.96
714.456	253.36
714.899	234.16
715.342	212.26
715.786	197.76
716.229	205.66
716.672	203.16
717.115	192.36
717.558	192.16
718.002	199.56
718.445	210.36
718.888	220.76
719.331	215.96
719.774	236.86
720.217	233.56
720.66	219.56
721.103	211.06
721.546	198.16
721.989	197.06
722.432	174.46
722.874	184.96
723.317	171.96
723.76	180.36
724.203	196.46
724.645	239.36
725.088	336.76
725.531	431.86
725.974	508.56
726.416	426.26
726.859	243.96
727.301	188.76
727.744	186.16
728.187	181.46
728.629	180.76
729.071	187.96
729.514	198.06
729.956	200.66
730.399	205.46
730.841	224.36
731.283	200.06
731.726	198.96
732.168	196.46
732.61	202.06
733.053	211.96
733.495	239.06
733.937	263.96
734.379	305.76
734.821	329.26
735.263	404.96
735.705	611.76
736.148	1172.86
736.59	1984.26
737.032	2429.96
737.474	1987.96
737.916	625.56
738.357	322.16
738.799	248.96
739.241	223.76
739.683	210.76
740.125	225.46
740.567	229.56
741.008	242.76
741.45	240.66
741.892	242.76
742.334	267.06
742.775	279.06
743.217	257.56
743.658	212.26
744.1	196.26
744.542	202.36
744.983	249.66
745.425	264.86
745.866	263.06
746.307	224.76
746.749	218.26
747.19	246.36
747.632	333.96
748.073	641.06
748.514	1378.26
748.956	2213.26
749.397	2763.16
749.838	2317.06
750.279	2385.66
750.72	1192.56
751.162	426.16
751.603	247.26
752.044	193.76
752.485	165.96
752.926	155.26
753.367	154.46
753.808	143.76
754.249	144.06
754.69	141.86
755.131	143.86
755.572	137.76
756.013	138.66
756.453	142.46
756.894	136.36
757.335	141.96
757.776	154.36
758.216	148.76
758.657	147.56
759.098	154.56
759.538	170.56
759.979	195.36
760.42	267.86
760.86	516.36
761.301	1336.76
761.741	3353.96
762.182	5220.56
762.622	3698.56
763.063	1031.26
763.503	419.86
763.943	265.46
