Data from 20171114-ORNL-Ar_H_NY_Subt18_08-05-41-971.txt Node
Date: Tue Nov 14 08:05:41 EST 2017
User: Ender
Spectrometer: HR+D1039
Trigger mode: 0
Integration Time (sec): 2.730000E-2
Scans to average: 10
Electric dark correction enabled: true
Nonlinearity correction enabled: false
Boxcar width: 0
XAxis mode: Wavelengths
Number of Pixels in Spectrum: 2048
>>>>>Begin Spectral Data<<<<<
187.836	1.04
188.309	1.04
188.782	1.04
189.255	-0.36
189.728	-5.56
190.201	5.84
190.674	3.94
191.147	2.44
191.619	-10.56
192.092	-0.16
192.565	7.54
193.038	0.64
193.511	-0.46
193.984	5.94
194.456	-5.36
194.929	3.34
195.402	-3.16
195.874	-5.16
196.347	-5.46
196.82	-8.36
197.292	8.34
197.765	-0.76
198.237	-8.46
198.71	2.64
199.182	-2.46
199.655	6.34
200.127	1.84
200.6	-4.26
201.072	-2.36
201.544	-1.86
202.017	4.14
202.489	4.54
202.961	-3.66
203.433	-6.06
203.906	-6.16
204.378	-8.56
204.85	-0.86
205.322	-6.36
205.794	-4.06
206.266	-10.76
206.739	-11.76
207.211	3.84
207.683	-8.76
208.155	-7.86
208.627	-6.56
209.099	-2.86
209.57	-8.06
210.042	-5.76
210.514	-7.56
210.986	0.34
211.458	-8.66
211.93	1.44
212.402	3.74
212.873	-3.76
213.345	-9.56
213.817	-10.26
214.288	-3.76
214.76	-12.26
215.232	-0.46
215.703	-3.56
216.175	-7.66
216.646	-0.96
217.118	-7.86
217.589	-1.66
218.061	-3.26
218.532	-5.06
219.004	-5.06
219.475	-8.76
219.946	-0.76
220.418	-4.86
220.889	0.84
221.36	1.34
221.832	-2.36
222.303	-6.76
222.774	3.04
223.245	-6.56
223.717	-6.86
224.188	-2.46
224.659	-12.96
225.13	-7.76
225.601	-5.16
226.072	5.24
226.543	-0.76
227.014	2.64
227.485	-3.16
227.956	-2.76
228.427	-2.66
228.898	2.64
229.369	4.94
229.839	-3.66
230.31	-1.96
230.781	4.24
231.252	-1.96
231.722	-6.96
232.193	3.74
232.664	0.04
233.135	-2.96
233.605	-3.86
234.076	-6.76
234.546	3.84
235.017	1.24
235.487	-3.66
235.958	0.94
236.428	-2.16
236.899	2.54
237.369	-0.06
237.84	-2.76
238.31	4.94
238.78	1.44
239.251	-4.86
239.721	0.14
240.191	3.24
240.662	1.84
241.132	6.04
241.602	-2.76
242.072	6.94
242.542	3.74
243.013	-8.06
243.483	4.24
243.953	3.44
244.423	0.84
244.893	-3.96
245.363	6.04
245.833	11.34
246.303	4.24
246.773	3.44
247.243	5.04
247.712	-0.56
248.182	12.74
248.652	5.04
249.122	-1.16
249.592	8.84
250.061	20.34
250.531	34.04
251.001	19.24
251.471	21.84
251.94	18.84
252.41	7.94
252.879	-0.56
253.349	16.54
253.818	8.94
254.288	6.84
254.757	2.24
255.227	5.74
255.696	2.74
256.166	8.64
256.635	7.04
257.105	8.84
257.574	10.64
258.043	6.74
258.513	10.74
258.982	17.94
259.451	12.04
259.92	17.64
260.389	15.74
260.859	17.54
261.328	14.54
261.797	18.04
262.266	7.64
262.735	17.14
263.204	5.94
263.673	2.34
264.142	4.84
264.611	1.64
265.08	0.44
265.549	-1.96
266.018	5.74
266.487	2.84
266.955	2.04
267.424	-0.66
267.893	5.34
268.362	4.84
268.83	3.74
269.299	7.94
269.768	6.04
270.236	10.64
270.705	-0.86
271.174	8.74
271.642	7.84
272.111	11.44
272.579	18.84
273.048	17.84
273.516	26.54
273.985	32.74
274.453	25.44
274.922	21.24
275.39	9.84
275.858	-1.56
276.327	7.94
276.795	16.84
277.263	10.14
277.731	35.34
278.2	59.74
278.668	57.94
279.136	48.04
279.604	22.44
280.072	15.14
280.54	14.24
281.008	10.84
281.477	15.14
281.945	11.04
282.413	14.84
282.881	15.84
283.348	13.14
283.816	17.14
284.284	18.14
284.752	18.14
285.22	15.34
285.688	18.64
286.156	17.94
286.623	45.04
287.091	55.94
287.559	26.04
288.026	21.04
288.494	14.14
288.962	11.34
289.429	11.54
289.897	16.54
290.364	16.34
290.832	21.84
291.3	11.74
291.767	18.24
292.234	19.54
292.702	12.34
293.169	22.24
293.637	24.74
294.104	19.04
294.571	8.04
295.039	9.24
295.506	13.84
295.973	17.44
296.44	22.24
296.908	18.44
297.375	17.94
297.842	20.04
298.309	15.94
298.776	15.14
299.243	16.24
299.71	17.84
300.177	20.84
300.644	20.44
301.111	22.94
301.578	25.24
302.045	20.84
302.512	31.04
302.979	27.94
303.446	21.34
303.913	18.84
304.379	21.94
304.846	30.34
305.313	16.04
305.78	24.14
306.246	22.24
306.713	26.14
307.18	23.34
307.646	28.14
308.113	28.24
308.579	24.34
309.046	31.64
309.512	27.84
309.979	18.54
310.445	31.14
310.912	31.34
311.378	31.04
311.845	29.34
312.311	31.94
312.777	38.64
313.244	33.74
313.71	41.04
314.176	36.04
314.642	30.74
315.109	33.44
315.575	37.54
316.041	36.14
316.507	32.84
316.973	37.54
317.439	37.44
317.905	42.24
318.371	42.04
318.837	32.64
319.303	41.24
319.769	37.74
320.235	33.54
320.701	38.24
321.167	45.04
321.633	35.14
322.099	42.74
322.564	45.94
323.03	40.24
323.496	42.84
323.962	39.34
324.427	34.24
324.893	45.14
325.359	37.74
325.824	39.94
326.29	35.74
326.755	41.24
327.221	43.64
327.686	44.34
328.152	42.64
328.617	41.54
329.083	48.74
329.548	52.14
330.014	52.14
330.479	45.14
330.944	49.54
331.41	38.24
331.875	43.24
332.34	42.64
332.805	42.84
333.271	51.44
333.736	43.04
334.201	54.84
334.666	58.24
335.131	54.24
335.596	52.54
336.061	55.34
336.526	45.64
336.991	50.94
337.456	58.34
337.921	47.74
338.386	51.64
338.851	55.24
339.316	43.94
339.781	44.74
340.246	59.54
340.711	47.74
341.175	51.84
341.64	44.54
342.105	56.44
342.569	57.74
343.034	58.34
343.499	57.64
343.963	62.44
344.428	63.94
344.893	65.24
345.357	63.84
345.822	65.84
346.286	68.54
346.751	75.74
347.215	70.24
347.679	76.34
348.144	96.64
348.608	88.34
349.073	68.44
349.537	71.94
350.001	84.64
350.465	90.94
350.93	85.44
351.394	84.54
351.858	78.44
352.322	89.44
352.786	86.24
353.25	99.54
353.715	109.84
354.179	98.64
354.643	125.34
355.107	128.04
355.571	106.54
356.035	103.54
356.498	118.94
356.962	130.64
357.426	133.54
357.89	121.84
358.354	87.44
358.818	86.84
359.281	85.04
359.745	75.44
360.209	72.74
360.673	73.54
361.136	79.84
361.6	83.44
362.064	80.04
362.527	83.24
362.991	91.64
363.454	82.44
363.918	80.14
364.381	77.04
364.845	84.24
365.308	88.94
365.772	85.64
366.235	85.54
366.698	85.04
367.162	88.44
367.625	87.34
368.088	92.44
368.552	88.94
369.015	85.24
369.478	93.14
369.941	97.84
370.404	96.34
370.867	105.04
371.331	104.44
371.794	114.84
372.257	109.14
372.72	112.44
373.183	110.44
373.646	102.94
374.109	101.54
374.572	113.94
375.035	102.14
375.497	111.24
375.96	105.44
376.423	100.44
376.886	111.14
377.349	110.04
377.811	103.84
378.274	106.34
378.737	109.24
379.199	109.04
379.662	108.84
380.125	117.54
380.587	110.64
381.05	121.44
381.512	132.94
381.975	141.04
382.437	128.24
382.9	118.54
383.362	131.64
383.825	146.24
384.287	147.34
384.75	139.34
385.212	143.24
385.674	144.74
386.136	139.04
386.599	123.44
387.061	124.34
387.523	129.44
387.985	137.84
388.447	145.54
388.91	144.34
389.372	158.84
389.834	149.44
390.296	143.44
390.758	156.44
391.22	172.14
391.682	211.14
392.144	293.04
392.606	231.14
393.068	173.34
393.529	169.24
393.991	155.64
394.453	140.64
394.915	156.54
395.377	196.44
395.838	211.04
396.3	160.84
396.762	143.84
397.224	131.54
397.685	127.54
398.147	127.84
398.608	125.94
399.07	124.94
399.531	138.84
399.993	141.54
400.454	155.74
400.916	139.84
401.377	150.94
401.839	147.24
402.3	152.94
402.762	171.44
403.223	179.84
403.684	173.44
404.145	158.04
404.607	161.74
405.068	166.04
405.529	173.94
405.99	192.54
406.451	180.14
406.913	178.34
407.374	160.24
407.835	154.24
408.296	164.64
408.757	172.44
409.218	184.24
409.679	180.94
410.14	175.84
410.601	170.54
411.062	180.44
411.522	188.64
411.983	191.24
412.444	176.14
412.905	178.14
413.366	181.64
413.826	191.54
414.287	216.04
414.748	265.94
415.208	234.74
415.669	204.24
416.13	205.64
416.59	198.54
417.051	211.64
417.511	215.44
417.972	239.44
418.432	241.84
418.893	284.84
419.353	243.44
419.814	197.54
420.274	184.94
420.734	175.64
421.195	200.34
421.655	200.84
422.115	190.34
422.576	187.74
423.036	204.84
423.496	206.14
423.956	211.74
424.416	221.84
424.876	259.24
425.336	256.94
425.797	256.24
426.257	256.44
426.717	234.34
427.177	231.14
427.637	218.54
428.097	233.34
428.556	237.24
429.016	270.24
429.476	261.04
429.936	275.54
430.396	280.74
430.856	291.64
431.315	320.94
431.775	348.44
432.235	382.64
432.694	355.14
433.154	359.94
433.614	388.34
434.073	329.44
434.533	287.94
434.993	267.94
435.452	285.94
435.912	304.34
436.371	289.14
436.83	287.04
437.29	271.14
437.749	245.74
438.209	249.04
438.668	272.14
439.127	286.74
439.587	273.84
440.046	248.74
440.505	255.94
440.964	279.34
441.424	324.24
441.883	307.64
442.342	261.04
442.801	224.44
443.26	214.64
443.719	221.64
444.178	215.64
444.637	213.64
445.096	216.44
445.555	228.74
446.014	224.14
446.473	224.64
446.932	227.44
447.391	219.34
447.849	228.44
448.308	214.64
448.767	226.64
449.226	231.44
449.685	240.34
450.143	247.34
450.602	234.94
451.061	221.24
451.519	233.84
451.978	234.54
452.436	230.54
452.895	243.24
453.353	246.34
453.812	237.94
454.27	237.04
454.729	237.74
455.187	238.74
455.646	242.04
456.104	246.24
456.562	261.54
457.021	267.14
457.479	251.94
457.937	271.74
458.395	266.04
458.854	243.54
459.312	248.34
459.77	267.34
460.228	256.44
460.686	240.54
461.144	254.34
461.602	240.64
462.06	240.44
462.518	251.94
462.976	251.44
463.434	254.34
463.892	260.34
464.35	276.54
464.808	289.24
465.266	257.24
465.724	265.44
466.181	272.34
466.639	275.34
467.097	291.34
467.555	307.24
468.012	292.74
468.47	307.04
468.928	323.24
469.385	343.44
469.843	339.54
470.3	359.44
470.758	362.54
471.215	385.54
471.673	404.74
472.13	405.14
472.588	422.34
473.045	365.84
473.503	374.94
473.96	390.74
474.417	399.64
474.875	432.14
475.332	469.54
475.789	461.34
476.246	470.14
476.704	487.94
477.161	501.04
477.618	522.64
478.075	562.74
478.532	618.84
478.989	693.14
479.446	810.24
479.903	777.14
480.36	804.44
480.817	857.94
481.274	971.14
481.731	1076.14
482.188	1173.24
482.645	1304.74
483.102	1418.64
483.558	1543.74
484.015	1607.54
484.472	1581.04
484.929	1514.04
485.385	1475.04
485.842	1441.54
486.299	1376.14
486.755	1304.04
487.212	1096.24
487.668	923.94
488.125	853.54
488.582	782.44
489.038	745.34
489.494	716.14
489.951	689.34
490.407	662.14
490.864	644.64
491.32	644.24
491.776	634.54
492.233	642.14
492.689	612.34
493.145	599.24
493.602	605.74
494.058	618.44
494.514	620.24
494.97	640.54
495.426	648.94
495.882	619.74
496.338	617.24
496.794	622.84
497.251	618.64
497.707	637.14
498.163	643.54
498.618	633.64
499.074	652.44
499.53	674.84
499.986	679.84
500.442	654.14
500.898	629.14
501.354	618.14
501.809	634.34
502.265	640.64
502.721	657.44
503.177	659.14
503.632	665.94
504.088	678.74
504.543	715.84
504.999	709.44
505.455	668.54
505.91	631.44
506.366	636.84
506.821	627.34
507.277	618.04
507.732	622.44
508.187	624.24
508.643	630.54
509.098	632.94
509.553	644.34
510.009	661.34
510.464	666.44
510.919	684.84
511.375	697.24
511.83	707.54
512.285	727.84
512.74	754.34
513.195	781.34
513.65	772.74
514.105	770.94
514.56	775.14
515.015	793.14
515.47	818.24
515.925	793.44
516.38	795.64
516.835	790.54
517.29	775.54
517.745	776.04
518.2	769.34
518.655	747.84
519.109	743.04
519.564	743.94
520.019	729.94
520.474	726.94
520.928	725.34
521.383	720.24
521.838	707.04
522.292	710.64
522.747	712.14
523.201	697.24
523.656	699.04
524.11	682.84
524.565	690.84
525.019	692.04
525.474	694.94
525.928	700.84
526.382	692.74
526.837	700.04
527.291	708.34
527.745	698.74
528.2	698.44
528.654	686.14
529.108	685.64
529.562	683.24
530.016	684.24
530.47	686.24
530.925	699.34
531.379	703.54
531.833	694.54
532.287	701.44
532.741	718.04
533.195	699.64
533.649	716.84
534.103	721.24
534.556	705.74
535.01	723.94
535.464	708.64
535.918	722.84
536.372	730.24
536.826	721.44
537.279	708.84
537.733	706.84
538.187	716.74
538.64	718.14
539.094	722.14
539.548	738.44
540.001	713.84
540.455	721.24
540.908	727.54
541.362	737.24
541.815	749.54
542.269	753.14
542.722	755.54
543.175	766.14
543.629	765.84
544.082	786.14
544.536	785.54
544.989	778.04
545.442	787.14
545.895	786.34
546.349	781.14
546.802	793.44
547.255	792.44
547.708	799.74
548.161	822.14
548.614	818.94
549.067	818.94
549.52	822.84
549.973	813.34
550.426	811.24
550.879	787.04
551.332	796.64
551.785	795.64
552.238	804.44
552.691	811.24
553.144	824.94
553.596	846.84
554.049	855.94
554.502	886.14
554.955	906.74
555.407	896.74
555.86	902.44
556.313	889.84
556.765	888.94
557.218	882.84
557.67	884.14
558.123	877.34
558.576	866.24
559.028	869.54
559.48	886.54
559.933	858.84
560.385	833.34
560.838	801.54
561.29	781.94
561.742	778.74
562.195	765.84
562.647	754.94
563.099	764.14
563.551	761.24
564.004	783.64
564.456	769.24
564.908	761.94
565.36	744.44
565.812	738.14
566.264	722.04
566.716	716.34
567.168	706.94
567.62	715.64
568.072	699.54
568.524	697.34
568.976	680.24
569.428	668.34
569.88	661.14
570.332	670.44
570.784	670.64
571.235	677.64
571.687	683.34
572.139	694.34
572.59	709.34
573.042	703.14
573.494	707.54
573.945	696.64
574.397	682.84
574.849	688.54
575.3	679.14
575.752	673.24
576.203	676.14
576.655	675.24
577.106	668.64
577.557	668.04
578.009	668.04
578.46	662.34
578.912	667.74
579.363	661.04
579.814	666.94
580.265	657.64
580.717	668.14
581.168	665.44
581.619	664.94
582.07	682.24
582.521	676.14
582.972	669.34
583.423	670.64
583.875	678.54
584.326	694.54
584.777	741.84
585.227	817.84
585.678	898.94
586.129	983.54
586.58	1055.74
587.031	1132.74
587.482	1305.34
587.933	1469.74
588.384	1281.84
588.834	957.54
589.285	790.24
589.736	772.94
590.186	762.84
590.637	753.64
591.088	733.14
591.538	717.64
591.989	718.34
592.439	713.54
592.89	709.64
593.34	694.94
593.791	696.64
594.241	691.14
594.692	690.44
595.142	693.34
595.593	694.74
596.043	699.84
596.493	699.84
596.943	704.44
597.394	713.14
597.844	700.14
598.294	712.94
598.744	744.34
599.195	761.54
599.645	795.94
600.095	836.04
600.545	899.34
600.995	941.64
601.445	1006.94
601.895	1063.94
602.345	1123.44
602.795	1093.44
603.245	1049.64
603.695	994.04
604.145	929.94
604.594	886.74
605.044	841.74
605.494	788.84
605.944	740.64
606.393	736.84
606.843	726.04
607.293	718.94
607.743	711.64
608.192	734.24
608.642	743.64
609.091	764.74
609.541	763.24
609.99	757.64
610.44	751.94
610.889	711.74
611.339	689.54
611.788	670.64
612.238	684.34
612.687	709.54
613.136	702.54
613.586	723.04
614.035	718.24
614.484	738.94
614.933	742.94
615.383	740.94
615.832	728.84
616.281	699.44
616.73	669.24
617.179	658.14
617.628	637.94
618.077	619.34
618.526	597.44
618.975	603.54
619.424	606.64
619.873	596.24
620.322	601.44
620.771	589.74
621.22	591.64
621.669	579.64
622.118	581.74
622.567	562.64
623.015	559.24
623.464	558.04
623.913	545.44
624.361	533.44
624.81	533.34
625.259	539.34
625.707	551.74
626.156	545.84
626.604	551.24
627.053	549.14
627.501	564.14
627.95	563.44
628.398	558.44
628.847	552.64
629.295	564.34
629.744	557.94
630.192	558.54
630.64	557.34
631.089	552.44
631.537	565.64
631.985	567.74
632.433	583.34
632.881	590.94
633.33	635.24
633.778	619.94
634.226	552.94
634.674	552.04
635.122	560.94
635.57	577.44
636.018	607.84
636.466	556.64
636.914	545.74
637.362	558.64
637.81	562.54
638.258	562.44
638.705	567.14
639.153	585.14
639.601	595.14
640.049	623.54
640.497	647.54
640.944	668.14
641.392	619.84
641.84	593.64
642.287	570.74
642.735	548.94
643.182	555.74
643.63	546.74
644.078	558.14
644.525	581.84
644.973	576.74
645.42	583.74
645.867	606.54
646.315	623.24
646.762	636.84
647.21	675.04
647.657	694.44
648.104	729.44
648.551	747.84
648.999	811.94
649.446	888.34
649.893	979.54
650.34	1123.64
650.787	1341.94
651.234	1663.14
651.682	2168.34
652.129	2971.24
652.576	4296.44
653.023	6350.64
653.47	8703.54
653.917	10923.14
654.363	12673.24
654.81	14096.04
655.257	13378.64
655.704	8760.64
656.151	5164.74
656.598	3349.04
657.044	2368.84
657.491	1802.74
657.938	1460.84
658.385	1219.74
658.831	1056.34
659.278	936.04
659.724	831.14
660.171	773.14
660.618	707.34
661.064	667.64
661.511	645.54
661.957	633.34
662.404	620.44
662.85	631.04
663.296	610.04
663.743	543.94
664.189	522.54
664.635	509.04
665.082	513.84
665.528	508.14
665.974	502.44
666.42	489.14
666.867	494.64
667.313	476.44
667.759	460.04
668.205	461.64
668.651	468.14
669.097	471.14
669.543	477.44
669.989	457.54
670.435	432.54
670.881	424.54
671.327	429.44
671.773	455.64
672.219	474.34
672.665	520.24
673.11	552.64
673.556	606.84
674.002	644.24
674.448	635.84
674.893	526.34
675.339	461.24
675.785	424.64
676.23	407.24
676.676	379.24
677.122	366.84
677.567	357.24
678.013	359.84
678.458	348.14
678.904	338.94
679.349	335.94
679.794	343.14
680.24	335.74
680.685	329.24
681.131	331.34
681.576	327.44
682.021	340.44
682.466	337.94
682.912	333.04
683.357	327.24
683.802	365.94
684.247	389.04
684.692	439.24
685.137	469.74
685.583	514.44
686.028	539.54
686.473	497.34
686.918	423.74
687.363	398.54
687.807	377.64
688.252	349.24
688.697	338.64
689.142	324.34
689.587	314.54
690.032	306.74
690.477	325.94
690.921	335.64
691.366	364.94
691.811	391.74
692.255	409.04
692.7	438.64
693.145	476.14
693.589	652.44
694.034	1063.14
694.478	1455.44
694.923	1663.04
695.367	2165.84
695.812	1145.44
696.256	480.94
696.701	349.34
697.145	326.94
697.59	306.54
698.034	301.24
698.478	312.24
698.922	310.84
699.367	305.94
699.811	320.34
700.255	327.54
700.699	365.64
701.143	399.24
701.588	451.34
702.032	484.04
702.476	503.54
702.92	468.94
703.364	466.14
703.808	598.54
704.252	971.14
704.696	1374.44
705.14	1597.24
705.584	2055.94
706.027	1031.94
706.471	503.34
706.915	385.84
707.359	335.34
707.803	304.64
708.246	291.64
708.69	301.34
709.134	301.04
709.577	302.04
710.021	303.24
710.465	303.84
710.908	286.54
711.352	283.54
711.795	300.64
712.239	323.34
712.682	361.24
713.126	397.34
713.569	456.04
714.012	358.54
714.456	311.64
714.899	284.84
715.342	261.84
715.786	251.04
716.229	242.64
716.672	244.64
717.115	233.04
717.558	241.44
718.002	236.44
718.445	249.34
718.888	276.24
719.331	276.54
719.774	301.54
720.217	287.54
720.66	274.34
721.103	245.74
721.546	249.04
721.989	234.44
722.432	220.44
722.874	226.44
723.317	214.84
723.76	226.94
724.203	243.54
724.645	294.14
725.088	417.64
725.531	539.34
725.974	607.84
726.416	516.14
726.859	290.44
727.301	236.64
727.744	223.44
728.187	218.74
728.629	227.84
729.071	227.34
729.514	240.14
729.956	255.74
730.399	269.84
730.841	272.94
731.283	261.54
731.726	246.04
732.168	247.44
732.61	252.54
733.053	270.94
733.495	300.84
733.937	326.04
734.379	383.54
734.821	417.74
735.263	508.54
735.705	777.14
736.148	1463.24
736.59	2434.34
737.032	2943.34
737.474	2387.84
737.916	768.74
738.357	403.54
738.799	312.34
739.241	282.44
739.683	268.84
740.125	282.94
740.567	280.54
741.008	296.04
741.45	306.84
741.892	301.84
742.334	327.24
742.775	350.44
743.217	327.24
743.658	250.34
744.1	246.04
744.542	248.54
744.983	289.74
745.425	319.34
745.866	330.24
746.307	273.34
746.749	267.24
747.19	304.24
747.632	421.84
748.073	812.34
748.514	1740.64
748.956	2690.24
749.397	3373.84
749.838	2808.94
750.279	2839.84
750.72	1438.74
751.162	528.54
751.603	304.34
752.044	235.44
752.485	209.04
752.926	199.74
753.367	192.14
753.808	180.14
754.249	182.44
754.69	179.14
755.131	177.74
755.572	171.54
756.013	177.64
756.453	174.84
756.894	180.74
757.335	182.94
757.776	180.44
758.216	189.44
758.657	186.54
759.098	190.34
759.538	214.24
759.979	247.74
760.42	357.24
760.86	654.34
761.301	1681.44
761.741	4121.24
762.182	6179.64
762.622	4344.54
