Data from 20171114-ORNL-Ar_H_NY_Subt18_08-07-33-073.txt Node
Date: Tue Nov 14 08:07:33 EST 2017
User: Ender
Spectrometer: HR+D1039
Trigger mode: 0
Integration Time (sec): 2.730000E-2
Scans to average: 10
Electric dark correction enabled: true
Nonlinearity correction enabled: false
Boxcar width: 0
XAxis mode: Wavelengths
Number of Pixels in Spectrum: 2048
>>>>>Begin Spectral Data<<<<<
187.836	-5.83
188.309	-5.83
188.782	-5.83
189.255	-1.03
189.728	2.87
190.201	5.67
190.674	1.17
191.147	2.47
191.619	-6.33
192.092	0.27
192.565	3.77
193.038	-2.03
193.511	4.17
193.984	0.57
194.456	-1.23
194.929	-1.63
195.402	-3.43
195.874	0.57
196.347	-0.13
196.82	-2.33
197.292	5.37
197.765	-5.83
198.237	-3.23
198.71	1.27
199.182	0.87
199.655	4.67
200.127	5.67
200.6	-1.73
201.072	-0.43
201.544	-2.03
202.017	-0.73
202.489	6.77
202.961	1.27
203.433	0.27
203.906	0.07
204.378	-5.33
204.85	-3.33
205.322	-9.43
205.794	0.57
206.266	-1.43
206.739	-6.93
207.211	1.07
207.683	-4.23
208.155	-1.23
208.627	-5.33
209.099	-1.53
209.57	-8.43
210.042	1.97
210.514	-8.53
210.986	-0.63
211.458	-8.23
211.93	-2.83
212.402	-1.73
212.873	-1.13
213.345	-9.43
213.817	-7.03
214.288	-2.93
214.76	-5.93
215.232	-4.73
215.703	0.47
216.175	-5.03
216.646	-5.73
217.118	-1.03
217.589	-4.83
218.061	1.37
218.532	-0.93
219.004	-0.63
219.475	-2.53
219.946	-0.83
220.418	-4.43
220.889	5.27
221.36	-1.33
221.832	-9.83
222.303	-7.33
222.774	-0.13
223.245	-7.03
223.717	-5.93
224.188	0.57
224.659	-3.33
225.13	-2.63
225.601	3.47
226.072	1.67
226.543	-4.13
227.014	0.07
227.485	-2.03
227.956	-0.23
228.427	2.17
228.898	1.07
229.369	1.07
229.839	0.07
230.31	-4.23
230.781	1.77
231.252	-3.93
231.722	1.27
232.193	-8.13
232.664	3.57
233.135	0.17
233.605	-0.83
234.076	-1.83
234.546	2.97
235.017	7.27
235.487	1.97
235.958	0.87
236.428	-3.83
236.899	3.37
237.369	-1.63
237.84	-0.13
238.31	1.97
238.78	2.97
239.251	0.27
239.721	3.57
240.191	-0.63
240.662	-1.23
241.132	-2.43
241.602	-0.93
242.072	-1.03
242.542	6.37
243.013	0.07
243.483	3.27
243.953	6.27
244.423	-4.13
244.893	-0.93
245.363	4.67
245.833	2.47
246.303	-5.93
246.773	5.07
247.243	3.17
247.712	8.17
248.182	11.17
248.652	8.37
249.122	-0.13
249.592	9.27
250.061	16.27
250.531	28.47
251.001	15.67
251.471	20.77
251.94	15.77
252.41	4.27
252.879	-4.13
253.349	14.37
253.818	14.67
254.288	3.87
254.757	1.07
255.227	1.27
255.696	-1.53
256.166	8.87
256.635	8.17
257.105	9.07
257.574	4.67
258.043	6.87
258.513	5.17
258.982	14.17
259.451	6.67
259.92	11.77
260.389	11.37
260.859	13.37
261.328	5.87
261.797	13.17
262.266	5.27
262.735	9.47
263.204	-0.93
263.673	2.17
264.142	5.67
264.611	-1.03
265.08	-2.03
265.549	-0.23
266.018	2.97
266.487	-2.23
266.955	-2.83
267.424	-2.03
267.893	6.47
268.362	3.87
268.83	-1.73
269.299	11.07
269.768	5.77
270.236	4.47
270.705	-1.53
271.174	3.07
271.642	5.87
272.111	8.07
272.579	15.97
273.048	19.17
273.516	22.57
273.985	21.97
274.453	20.67
274.922	17.47
275.39	10.17
275.858	0.67
276.327	6.17
276.795	22.57
277.263	10.07
277.731	22.67
278.2	49.07
278.668	46.47
279.136	44.77
279.604	11.67
280.072	10.57
280.54	11.47
281.008	6.27
281.477	9.67
281.945	6.37
282.413	9.97
282.881	11.47
283.348	5.57
283.816	13.67
284.284	12.97
284.752	15.27
285.22	11.37
285.688	11.47
286.156	14.17
286.623	35.07
287.091	44.67
287.559	22.27
288.026	12.97
288.494	9.07
288.962	2.17
289.429	2.97
289.897	19.77
290.364	9.97
290.832	17.17
291.3	11.67
291.767	16.97
292.234	10.77
292.702	9.47
293.169	6.37
293.637	13.37
294.104	14.17
294.571	3.57
295.039	13.97
295.506	10.37
295.973	14.27
296.44	14.37
296.908	18.27
297.375	11.77
297.842	13.27
298.309	18.47
298.776	13.97
299.243	16.87
299.71	10.07
300.177	17.37
300.644	17.67
301.111	19.27
301.578	17.87
302.045	4.87
302.512	14.07
302.979	24.77
303.446	20.47
303.913	16.37
304.379	12.67
304.846	22.37
305.313	18.37
305.78	19.67
306.246	18.07
306.713	25.97
307.18	23.37
307.646	22.07
308.113	21.77
308.579	17.87
309.046	19.07
309.512	26.47
309.979	12.07
310.445	21.27
310.912	20.67
311.378	28.07
311.845	28.47
312.311	27.77
312.777	27.07
313.244	28.27
313.71	35.47
314.176	29.47
314.642	22.57
315.109	20.87
315.575	32.37
316.041	33.17
316.507	32.17
316.973	24.87
317.439	27.77
317.905	29.87
318.371	24.27
318.837	27.87
319.303	31.87
319.769	29.37
320.235	30.27
320.701	33.27
321.167	31.07
321.633	30.97
322.099	35.07
322.564	40.67
323.03	34.97
323.496	29.27
323.962	26.17
324.427	27.07
324.893	37.77
325.359	27.77
325.824	30.57
326.29	27.27
326.755	34.77
327.221	35.87
327.686	36.87
328.152	37.87
328.617	37.87
329.083	36.97
329.548	44.17
330.014	37.97
330.479	32.17
330.944	34.67
331.41	40.77
331.875	34.57
332.34	33.37
332.805	42.87
333.271	40.47
333.736	36.47
334.201	49.47
334.666	44.87
335.131	51.57
335.596	45.17
336.061	47.17
336.526	37.97
336.991	39.87
337.456	48.67
337.921	49.77
338.386	38.77
338.851	36.37
339.316	43.57
339.781	47.27
340.246	46.57
340.711	44.57
341.175	42.67
341.64	38.67
342.105	42.77
342.569	47.77
343.034	50.77
343.499	48.97
343.963	45.07
344.428	57.47
344.893	55.77
345.357	55.77
345.822	45.27
346.286	60.27
346.751	63.87
347.215	55.57
347.679	55.67
348.144	74.17
348.608	60.97
349.073	60.57
349.537	65.07
350.001	61.87
350.465	79.67
350.93	70.77
351.394	69.57
351.858	65.47
352.322	73.17
352.786	73.27
353.25	83.27
353.715	92.07
354.179	84.57
354.643	96.07
355.107	101.67
355.571	87.47
356.035	86.57
356.498	103.87
356.962	98.97
357.426	114.67
357.89	99.57
358.354	80.77
358.818	76.27
359.281	71.37
359.745	59.67
360.209	64.07
360.673	65.37
361.136	70.77
361.6	78.37
362.064	72.37
362.527	70.27
362.991	75.67
363.454	68.27
363.918	61.87
364.381	69.37
364.845	70.17
365.308	71.17
365.772	72.87
366.235	74.17
366.698	72.57
367.162	78.77
367.625	74.27
368.088	81.17
368.552	75.47
369.015	76.77
369.478	82.07
369.941	88.57
370.404	83.67
370.867	95.97
371.331	93.37
371.794	99.37
372.257	98.27
372.72	100.57
373.183	99.27
373.646	93.57
374.109	91.37
374.572	96.87
375.035	102.07
375.497	93.57
375.96	95.97
376.423	91.57
376.886	96.87
377.349	102.17
377.811	90.17
378.274	92.77
378.737	98.67
379.199	98.37
379.662	95.97
380.125	105.17
380.587	105.27
381.05	109.77
381.512	121.47
381.975	121.97
382.437	119.77
382.9	118.37
383.362	120.07
383.825	132.47
384.287	132.27
384.75	129.37
385.212	125.37
385.674	124.57
386.136	123.37
386.599	119.77
387.061	119.47
387.523	127.37
387.985	124.97
388.447	136.47
388.91	130.37
389.372	151.97
389.834	140.77
390.296	130.47
390.758	144.07
391.22	152.37
391.682	194.67
392.144	273.67
392.606	216.77
393.068	150.27
393.529	153.17
393.991	139.67
394.453	138.87
394.915	147.57
395.377	172.07
395.838	199.27
396.3	142.37
396.762	130.07
397.224	123.57
397.685	120.17
398.147	122.07
398.608	118.17
399.07	116.87
399.531	120.87
399.993	135.17
400.454	134.37
400.916	138.47
401.377	133.27
401.839	137.57
402.3	138.77
402.762	152.47
403.223	164.67
403.684	159.27
404.145	148.17
404.607	155.47
405.068	156.17
405.529	151.67
405.99	172.37
406.451	164.37
406.913	162.17
407.374	147.47
407.835	152.87
408.296	156.77
408.757	156.87
409.218	179.47
409.679	161.97
410.14	161.57
410.601	163.37
411.062	172.37
411.522	186.97
411.983	174.17
412.444	160.77
412.905	168.77
413.366	167.37
413.826	178.57
414.287	205.47
414.748	240.07
415.208	233.97
415.669	201.17
416.13	193.07
416.59	188.47
417.051	201.37
417.511	202.47
417.972	220.37
418.432	234.87
418.893	263.17
419.353	241.07
419.814	187.87
420.274	171.97
420.734	167.07
421.195	187.57
421.655	190.77
422.115	185.47
422.576	178.87
423.036	188.07
423.496	198.37
423.956	203.77
424.416	214.57
424.876	249.57
425.336	248.07
425.797	246.67
426.257	237.37
426.717	224.17
427.177	226.97
427.637	212.97
428.097	221.77
428.556	229.27
429.016	256.47
429.476	248.37
429.936	256.97
430.396	262.07
430.856	270.37
431.315	298.87
431.775	334.77
432.235	351.47
432.694	329.07
433.154	340.37
433.614	363.97
434.073	316.67
434.533	269.17
434.993	257.67
435.452	262.27
435.912	276.57
436.371	272.27
436.83	270.07
437.29	256.17
437.749	232.87
438.209	231.57
438.668	252.47
439.127	269.37
439.587	252.27
440.046	237.07
440.505	243.47
440.964	261.47
441.424	299.47
441.883	291.07
442.342	249.17
442.801	214.07
443.26	213.77
443.719	212.07
444.178	210.07
444.637	200.07
445.096	211.87
445.555	210.37
446.014	212.57
446.473	221.97
446.932	217.47
447.391	215.37
447.849	220.47
448.308	209.17
448.767	211.07
449.226	225.27
449.685	223.47
450.143	235.57
450.602	236.67
451.061	223.77
451.519	222.37
451.978	218.87
452.436	220.27
452.895	230.67
453.353	238.17
453.812	229.77
454.27	227.37
454.729	230.77
455.187	235.97
455.646	235.07
456.104	232.17
456.562	255.17
457.021	252.47
457.479	242.87
457.937	260.77
458.395	249.97
458.854	234.97
459.312	247.87
459.77	256.67
460.228	243.77
460.686	234.27
461.144	241.07
461.602	234.47
462.06	235.07
462.518	244.77
462.976	247.77
463.434	254.87
463.892	246.67
464.35	262.07
464.808	278.47
465.266	254.77
465.724	259.77
466.181	258.97
466.639	262.67
467.097	272.27
467.555	290.37
468.012	289.87
468.47	296.07
468.928	320.37
469.385	328.67
469.843	335.77
470.3	331.97
470.758	346.77
471.215	370.87
471.673	388.27
472.13	382.77
472.588	394.67
473.045	358.27
473.503	365.07
473.96	380.97
474.417	392.37
474.875	421.17
475.332	460.97
475.789	444.37
476.246	452.17
476.704	470.27
477.161	484.97
477.618	497.77
478.075	542.17
478.532	579.17
478.989	654.07
479.446	765.37
479.903	741.37
480.36	775.07
480.817	839.37
481.274	934.57
481.731	1031.17
482.188	1118.17
482.645	1251.37
483.102	1340.77
483.558	1487.57
484.015	1529.67
484.472	1516.67
484.929	1454.47
485.385	1405.57
485.842	1368.17
486.299	1305.17
486.755	1247.67
487.212	1056.27
487.668	893.77
488.125	827.17
488.582	754.27
489.038	726.27
489.494	678.57
489.951	660.37
490.407	649.77
490.864	626.67
491.32	617.27
491.776	614.57
492.233	626.97
492.689	604.47
493.145	587.67
493.602	582.97
494.058	594.37
494.514	587.87
494.97	618.47
495.426	627.57
495.882	600.57
496.338	591.47
496.794	610.07
497.251	599.67
497.707	620.07
498.163	615.67
498.618	616.27
499.074	622.57
499.53	654.97
499.986	656.27
500.442	630.67
500.898	608.87
501.354	605.47
501.809	618.57
502.265	619.97
502.721	643.27
503.177	653.17
503.632	650.57
504.088	666.77
504.543	702.07
504.999	683.37
505.455	635.07
505.91	611.27
506.366	610.97
506.821	614.17
507.277	605.27
507.732	602.37
508.187	617.97
508.643	613.97
509.098	616.17
509.553	630.87
510.009	652.87
510.464	649.87
510.919	673.17
511.375	679.07
511.83	685.27
512.285	699.07
512.74	734.57
513.195	764.67
513.65	747.07
514.105	747.47
514.56	747.27
515.015	776.97
515.47	780.77
515.925	778.67
516.38	763.77
516.835	775.17
517.29	768.67
517.745	756.47
518.2	743.17
518.655	724.37
519.109	732.27
519.564	724.47
520.019	713.17
520.474	706.47
520.928	698.77
521.383	704.37
521.838	710.17
522.292	703.57
522.747	692.27
523.201	688.37
523.656	676.97
524.11	684.17
524.565	680.07
525.019	671.87
525.474	685.47
525.928	685.97
526.382	671.27
526.837	685.27
527.291	686.07
527.745	674.27
528.2	674.57
528.654	677.67
529.108	674.77
529.562	674.57
530.016	679.07
530.47	679.47
530.925	685.57
531.379	677.77
531.833	689.87
532.287	691.77
532.741	689.27
533.195	693.97
533.649	688.97
534.103	699.67
534.556	691.97
535.01	699.47
535.464	694.17
535.918	711.87
536.372	702.07
536.826	709.57
537.279	690.97
537.733	705.97
538.187	708.27
538.64	701.07
539.094	710.87
539.548	717.17
540.001	707.27
540.455	705.97
540.908	712.27
541.362	722.07
541.815	734.47
542.269	748.87
542.722	752.17
543.175	754.17
543.629	756.07
544.082	771.17
544.536	780.27
544.989	767.47
545.442	780.67
545.895	772.77
546.349	777.17
546.802	777.27
547.255	780.27
547.708	806.47
548.161	793.77
548.614	812.17
549.067	815.47
549.52	801.47
549.973	791.77
550.426	794.27
550.879	786.97
551.332	798.47
551.785	800.27
552.238	789.37
552.691	807.47
553.144	819.37
553.596	832.57
554.049	842.97
554.502	877.17
554.955	899.37
555.407	900.27
555.86	889.97
556.313	879.17
556.765	866.37
557.218	864.57
557.67	867.37
558.123	862.77
558.576	863.47
559.028	863.27
559.48	868.07
559.933	863.27
560.385	822.07
560.838	796.97
561.29	780.57
561.742	780.57
562.195	766.47
562.647	759.77
563.099	770.17
563.551	765.97
564.004	767.07
564.456	767.97
564.908	746.37
565.36	734.77
565.812	728.77
566.264	717.67
566.716	717.47
567.168	709.17
567.62	716.27
568.072	698.67
568.524	687.67
568.976	682.07
569.428	676.87
569.88	666.57
570.332	675.47
570.784	674.47
571.235	675.27
571.687	686.07
572.139	695.37
572.59	703.27
573.042	707.17
573.494	702.57
573.945	700.57
574.397	684.77
574.849	679.37
575.3	686.17
575.752	678.87
576.203	662.67
576.655	673.17
577.106	664.77
577.557	663.77
578.009	670.47
578.46	658.17
578.912	654.77
579.363	659.47
579.814	655.97
580.265	656.07
580.717	668.87
581.168	671.37
581.619	670.17
582.07	672.17
582.521	663.47
582.972	659.67
583.423	675.57
583.875	673.77
584.326	692.27
584.777	736.57
585.227	819.47
585.678	911.87
586.129	989.07
586.58	1052.67
587.031	1145.37
587.482	1284.77
587.933	1467.87
588.384	1277.77
588.834	955.37
589.285	799.57
589.736	774.77
590.186	770.67
590.637	757.47
591.088	737.67
591.538	739.57
591.989	734.37
592.439	724.27
592.89	709.07
593.34	712.27
593.791	698.27
594.241	698.37
594.692	706.27
595.142	693.67
595.593	693.47
596.043	702.87
596.493	710.67
596.943	718.37
597.394	723.27
597.844	704.67
598.294	733.87
598.744	750.27
599.195	773.47
599.645	804.57
600.095	844.97
600.545	921.57
600.995	959.37
601.445	1014.77
601.895	1086.17
602.345	1135.37
602.795	1101.17
603.245	1053.77
603.695	999.47
604.145	947.77
604.594	898.77
605.044	846.97
605.494	799.77
605.944	751.87
606.393	738.07
606.843	728.37
607.293	722.27
607.743	728.67
608.192	745.47
608.642	761.77
609.091	763.17
609.541	766.27
609.99	764.57
610.44	762.47
610.889	727.97
611.339	696.67
611.788	680.87
612.238	706.77
612.687	724.57
613.136	712.17
613.586	727.07
614.035	733.07
614.484	750.07
614.933	745.27
615.383	751.57
615.832	737.97
616.281	729.77
616.73	688.57
617.179	654.97
617.628	644.27
618.077	626.17
618.526	626.47
618.975	619.87
619.424	623.87
619.873	605.77
620.322	613.27
620.771	609.67
621.22	597.97
621.669	589.57
622.118	587.87
622.567	582.27
623.015	565.77
623.464	578.27
623.913	558.27
624.361	556.07
624.81	549.47
625.259	552.37
625.707	543.87
626.156	554.27
626.604	564.07
627.053	559.47
627.501	567.27
627.95	564.67
628.398	588.17
628.847	566.97
629.295	572.97
629.744	571.97
630.192	561.37
630.64	576.77
631.089	559.37
631.537	580.77
631.985	592.67
632.433	591.77
632.881	611.87
633.33	661.87
633.778	639.27
634.226	579.57
634.674	569.37
635.122	585.27
635.57	594.07
636.018	629.67
636.466	572.27
636.914	559.57
637.362	582.57
637.81	581.17
638.258	574.87
638.705	570.87
639.153	608.37
639.601	609.27
640.049	637.87
640.497	668.77
640.944	694.97
641.392	645.57
641.84	614.07
642.287	584.17
642.735	569.57
643.182	563.77
643.63	578.47
644.078	580.77
644.525	597.97
644.973	592.67
645.42	608.37
645.867	621.07
646.315	637.37
646.762	662.87
647.21	695.97
647.657	709.17
648.104	751.67
648.551	771.47
648.999	837.67
649.446	926.27
649.893	1000.47
650.34	1156.97
650.787	1394.47
651.234	1732.97
651.682	2258.67
652.129	3101.37
652.576	4481.67
653.023	6599.57
653.47	9013.67
653.917	11182.37
654.363	12871.87
654.81	14192.17
655.257	13506.87
655.704	8854.37
656.151	5243.17
656.598	3389.57
657.044	2400.17
657.491	1851.17
657.938	1493.37
658.385	1249.77
658.831	1070.67
659.278	958.57
659.724	852.47
660.171	781.37
660.618	715.07
661.064	688.27
661.511	661.17
661.957	646.37
662.404	644.97
662.85	642.97
663.296	617.07
663.743	563.37
664.189	546.07
664.635	537.47
665.082	531.67
665.528	527.27
665.974	516.37
666.42	508.47
666.867	502.87
667.313	486.97
667.759	479.27
668.205	476.07
668.651	484.57
669.097	486.37
669.543	490.57
669.989	473.37
670.435	446.37
670.881	440.07
671.327	447.17
671.773	471.57
672.219	491.27
672.665	540.17
673.11	576.87
673.556	626.77
674.002	666.37
674.448	646.67
674.893	553.37
675.339	475.47
675.785	442.27
676.23	418.37
676.676	391.77
677.122	385.77
677.567	371.37
678.013	364.87
678.458	358.17
678.904	367.77
679.349	344.07
679.794	355.37
680.24	350.47
680.685	353.77
681.131	349.97
681.576	353.57
682.021	348.47
682.466	346.17
682.912	344.07
683.357	354.17
683.802	383.27
684.247	410.07
684.692	454.27
685.137	491.47
685.583	532.57
686.028	561.27
686.473	509.67
686.918	443.07
687.363	422.87
687.807	387.87
688.252	368.97
688.697	362.77
689.142	337.87
689.587	328.97
690.032	329.07
690.477	341.97
690.921	360.27
691.366	387.67
691.811	402.27
692.255	427.27
692.7	453.67
693.145	506.37
693.589	709.17
694.034	1122.17
694.478	1540.87
694.923	1723.27
695.367	2253.67
695.812	1191.07
696.256	491.07
696.701	373.57
697.145	341.67
697.59	332.77
698.034	314.37
698.478	338.97
698.922	322.57
699.367	323.47
699.811	334.17
700.255	352.57
700.699	389.27
701.143	429.97
701.588	481.17
702.032	511.47
702.476	511.57
702.92	493.67
703.364	490.37
703.808	643.77
704.252	1047.37
704.696	1454.37
705.14	1654.07
705.584	2102.37
706.027	1054.87
706.471	520.97
706.915	396.37
707.359	353.07
707.803	319.07
708.246	309.57
708.69	310.27
709.134	315.37
709.577	312.77
710.021	315.57
710.465	305.07
710.908	302.97
711.352	298.27
711.795	320.77
712.239	350.67
712.682	383.07
713.126	417.57
713.569	466.37
714.012	369.17
714.456	323.97
714.899	306.17
715.342	274.17
715.786	265.07
716.229	255.17
716.672	248.17
717.115	249.27
717.558	247.57
718.002	255.57
718.445	268.67
718.888	275.67
719.331	296.17
719.774	303.77
720.217	307.47
720.66	285.67
721.103	266.17
721.546	256.27
721.989	249.97
722.432	233.17
722.874	243.37
723.317	231.27
723.76	241.37
724.203	266.07
724.645	323.47
725.088	441.67
725.531	569.87
725.974	634.67
726.416	542.27
726.859	308.27
727.301	245.07
727.744	239.87
728.187	243.67
728.629	245.47
729.071	242.07
729.514	265.27
729.956	268.27
730.399	291.47
730.841	288.77
731.283	264.17
731.726	262.57
732.168	259.57
732.61	265.17
733.053	294.27
733.495	314.47
733.937	354.17
734.379	397.67
734.821	440.57
735.263	544.47
735.705	853.47
736.148	1612.77
736.59	2579.47
737.032	3031.37
737.474	2446.47
737.916	813.77
738.357	424.87
738.799	332.87
739.241	298.27
739.683	287.77
740.125	295.97
740.567	300.57
741.008	318.07
741.45	313.17
741.892	316.47
742.334	340.37
742.775	362.47
743.217	338.27
743.658	274.17
744.1	254.07
744.542	262.77
744.983	310.97
745.425	347.47
745.866	342.57
746.307	286.47
746.749	280.47
747.19	334.07
747.632	458.27
748.073	910.57
748.514	1900.97
748.956	2833.67
749.397	3557.77
749.838	2970.77
750.279	2925.77
750.72	1485.77
751.162	549.67
751.603	312.07
752.044	255.27
752.485	231.17
752.926	219.27
753.367	203.87
753.808	199.67
754.249	197.27
754.69	194.67
755.131	190.87
755.572	182.07
756.013	185.17
756.453	181.67
756.894	190.27
757.335	198.17
757.776	194.07
758.216	197.87
758.657	203.67
759.098	205.97
759.538	232.27
759.979	272.27
760.42	382.47
760.86	724.37
761.301	1868.37
761.741	4468.07
762.182	6344.07
762.622	4450.67
763.063	1303.57
763.503	545.37
