Data from 20171114-ORNL-Ar_H_NY_Subt18_08-08-02-281.txt Node
Date: Tue Nov 14 08:08:02 EST 2017
User: Ender
Spectrometer: HR+D1039
Trigger mode: 0
Integration Time (sec): 2.730000E-2
Scans to average: 10
Electric dark correction enabled: true
Nonlinearity correction enabled: false
Boxcar width: 0
XAxis mode: Wavelengths
Number of Pixels in Spectrum: 2048
>>>>>Begin Spectral Data<<<<<
187.836	1.1
188.309	1.1
188.782	1.1
189.255	5.8
189.728	-4.3
190.201	1.1
190.674	-0.7
191.147	3.3
191.619	-9.1
192.092	0.9
192.565	1.8
193.038	-0
193.511	2.4
193.984	3.4
194.456	0.6
194.929	0.3
195.402	-5.5
195.874	-1.1
196.347	-2.7
196.82	-7.8
197.292	5.9
197.765	5.3
198.237	-10
198.71	5
199.182	-1.4
199.655	1.3
200.127	2.8
200.6	-5.4
201.072	-5.6
201.544	-2.2
202.017	-4.5
202.489	-2
202.961	-2.8
203.433	1
203.906	-9.4
204.378	-5.2
204.85	-5
205.322	-4.5
205.794	1.9
206.266	-3
206.739	-4.4
207.211	4.4
207.683	-8.3
208.155	3.3
208.627	-9.1
209.099	-0.2
209.57	-13.1
210.042	-6.5
210.514	-1.6
210.986	-3.3
211.458	-11.8
211.93	-3.7
212.402	-0.5
212.873	-4.7
213.345	-5.9
213.817	-11.9
214.288	-11.4
214.76	-8.8
215.232	-1.2
215.703	2.1
216.175	-1.1
216.646	-1.9
217.118	-5.2
217.589	-6.6
218.061	-6.2
218.532	-5.9
219.004	-2.4
219.475	-6.8
219.946	-4.4
220.418	-4.6
220.889	3.4
221.36	-1.2
221.832	-4.3
222.303	-0.9
222.774	-3
223.245	-10
223.717	-7.1
224.188	-8
224.659	-5.7
225.13	-0.5
225.601	0.1
226.072	3.1
226.543	0.3
227.014	-1.5
227.485	-2.1
227.956	-6.1
228.427	0.1
228.898	-0.6
229.369	3.6
229.839	-2.9
230.31	-8.9
230.781	6.5
231.252	-3.8
231.722	-3.8
232.193	-6.3
232.664	0.7
233.135	1.1
233.605	1.3
234.076	0.4
234.546	0.6
235.017	2.8
235.487	0.9
235.958	0.7
236.428	-5.8
236.899	-1.6
237.369	7.3
237.84	-3.6
238.31	6.3
238.78	-4.4
239.251	-0
239.721	5.7
240.191	-0.6
240.662	-6.1
241.132	1.3
241.602	-2.3
242.072	4.8
242.542	8.5
243.013	0.1
243.483	4.7
243.953	0.3
244.423	-3.8
244.893	-2.9
245.363	0.7
245.833	0.6
246.303	1.8
246.773	8.2
247.243	6.6
247.712	-2.7
248.182	14.2
248.652	8.9
249.122	-0.8
249.592	12.7
250.061	17
250.531	31
251.001	15
251.471	16.3
251.94	14.9
252.41	6.4
252.879	4.6
253.349	9.7
253.818	8.8
254.288	2.4
254.757	4.8
255.227	-2.1
255.696	-0.4
256.166	8.2
256.635	7.8
257.105	2.2
257.574	5.6
258.043	9.3
258.513	5.2
258.982	14.6
259.451	4.2
259.92	12.3
260.389	7.9
260.859	14.1
261.328	10.9
261.797	12.1
262.266	9.4
262.735	10.6
263.204	3.4
263.673	-1.7
264.142	4.7
264.611	-5.5
265.08	0.3
265.549	-0.2
266.018	1.9
266.487	-8.1
266.955	-2.3
267.424	0.5
267.893	10.3
268.362	2.5
268.83	-1.5
269.299	12.7
269.768	8.7
270.236	4.4
270.705	10.4
271.174	3
271.642	7.5
272.111	12.4
272.579	18.1
273.048	25.3
273.516	21.8
273.985	28.1
274.453	24.8
274.922	16
275.39	12.5
275.858	-0.6
276.327	18.9
276.795	21.4
277.263	14.9
277.731	32
278.2	50.6
278.668	54.3
279.136	37.6
279.604	19
280.072	13.9
280.54	11.4
281.008	13.8
281.477	12.1
281.945	14.9
282.413	8.9
282.881	9.3
283.348	8.3
283.816	17.9
284.284	17.2
284.752	19
285.22	18
285.688	16.3
286.156	19.3
286.623	40.7
287.091	50.9
287.559	26.2
288.026	17.5
288.494	12.8
288.962	9.6
289.429	10
289.897	15.1
290.364	10
290.832	13
291.3	14.8
291.767	19.7
292.234	20.8
292.702	7.1
293.169	15.5
293.637	19.3
294.104	18.5
294.571	7
295.039	7.2
295.506	13.2
295.973	20.9
296.44	15.2
296.908	16.9
297.375	14.9
297.842	15.8
298.309	15
298.776	5.9
299.243	22.4
299.71	13.4
300.177	21.9
300.644	18.8
301.111	16.6
301.578	22.6
302.045	21.2
302.512	22.8
302.979	26.1
303.446	15.2
303.913	12.8
304.379	20.9
304.846	25.3
305.313	24.6
305.78	24.1
306.246	25
306.713	27.9
307.18	26.1
307.646	29
308.113	28.1
308.579	20.1
309.046	27.5
309.512	22.7
309.979	13.3
310.445	22.2
310.912	25.5
311.378	33.7
311.845	21.4
312.311	25.1
312.777	28.5
313.244	28.9
313.71	34.9
314.176	28
314.642	20.8
315.109	20.2
315.575	34.8
316.041	38
316.507	33.9
316.973	36.3
317.439	35.8
317.905	25.1
318.371	30.5
318.837	31
319.303	30.2
319.769	35.3
320.235	28.8
320.701	32.5
321.167	39.7
321.633	33.6
322.099	36.1
322.564	36.9
323.03	38.9
323.496	40.9
323.962	41.1
324.427	32.3
324.893	39.8
325.359	38.9
325.824	40.1
326.29	34.2
326.755	35.9
327.221	43.9
327.686	34.6
328.152	39.9
328.617	36.4
329.083	41.8
329.548	42.3
330.014	45.9
330.479	43.1
330.944	36.3
331.41	42.2
331.875	42.4
332.34	45
332.805	35.4
333.271	53.8
333.736	47.8
334.201	51
334.666	54.3
335.131	49.9
335.596	49.1
336.061	44.6
336.526	39.3
336.991	43.2
337.456	59.1
337.921	41.8
338.386	39
338.851	39.2
339.316	36.5
339.781	45.3
340.246	51.3
340.711	45.1
341.175	45.3
341.64	38.9
342.105	51.6
342.569	53.1
343.034	56.5
343.499	48
343.963	52.6
344.428	62.6
344.893	57
345.357	56.2
345.822	64.2
346.286	63.1
346.751	68
347.215	64.7
347.679	65.8
348.144	91.2
348.608	79.5
349.073	65
349.537	71.9
350.001	76.2
350.465	85.5
350.93	78.4
351.394	80
351.858	67.2
352.322	81.4
352.786	82.3
353.25	94.2
353.715	114.4
354.179	97.5
354.643	118.9
355.107	123.2
355.571	97
356.035	98.7
356.498	114.9
356.962	118.3
357.426	127.9
357.89	112.6
358.354	93.9
358.818	88.1
359.281	64.1
359.745	75.2
360.209	66
360.673	77.1
361.136	78.8
361.6	81.1
362.064	80.8
362.527	76.1
362.991	92.1
363.454	80
363.918	78.6
364.381	76.3
364.845	83.1
365.308	83.2
365.772	86.2
366.235	85.4
366.698	78.9
367.162	77.8
367.625	82.2
368.088	81.8
368.552	85.9
369.015	87.6
369.478	94.1
369.941	100.6
370.404	96.1
370.867	105.1
371.331	107.8
371.794	113.4
372.257	106.7
372.72	116.3
373.183	112.6
373.646	102
374.109	105.7
374.572	108.1
375.035	100.8
375.497	105
375.96	103.7
376.423	100.8
376.886	109.9
377.349	106.8
377.811	96.1
378.274	100.9
378.737	101.9
379.199	107.8
379.662	115.3
380.125	119.8
380.587	122.6
381.05	130
381.512	126.2
381.975	129.6
382.437	122.9
382.9	124.5
383.362	129.9
383.825	137.4
384.287	148.8
384.75	143.7
385.212	143.9
385.674	138.7
386.136	139
386.599	123.4
387.061	124.5
387.523	126.9
387.985	139.5
388.447	143.3
388.91	145.9
389.372	157.1
389.834	145.1
390.296	138.8
390.758	151.9
391.22	173
391.682	202.5
392.144	310.7
392.606	228.5
393.068	171.4
393.529	166.8
393.991	155.8
394.453	148.9
394.915	150
395.377	195.3
395.838	213.6
396.3	148.1
396.762	135.9
397.224	131.7
397.685	133.7
398.147	130
398.608	130.7
399.07	126.8
399.531	132.8
399.993	137.6
400.454	151.8
400.916	137.7
401.377	142.2
401.839	151.3
402.3	146.4
402.762	151
403.223	176.4
403.684	161.9
404.145	159.4
404.607	156.4
405.068	160
405.529	168.4
405.99	186.2
406.451	175.6
406.913	174.1
407.374	161
407.835	157.5
408.296	167.9
408.757	176.5
409.218	184.9
409.679	176.9
410.14	177.2
410.601	172.2
411.062	183.8
411.522	192.1
411.983	186.9
412.444	176.5
412.905	177.8
413.366	175.4
413.826	197.3
414.287	212.2
414.748	249.5
415.208	235.6
415.669	211.2
416.13	198.2
416.59	197.2
417.051	211.5
417.511	217.7
417.972	233.5
418.432	240.1
418.893	279.1
419.353	252.2
419.814	193.7
420.274	179.6
420.734	181.1
421.195	195.3
421.655	192.8
422.115	192.6
422.576	185.1
423.036	198.4
423.496	197.4
423.956	205.3
424.416	227.8
424.876	262.9
425.336	260.5
425.797	260.3
426.257	254.1
426.717	227.4
427.177	230.3
427.637	219.8
428.097	236.6
428.556	244.1
429.016	264.6
429.476	264.3
429.936	268
430.396	278.2
430.856	281.8
431.315	314.1
431.775	345.4
432.235	373.2
432.694	346.3
433.154	354.5
433.614	396.1
434.073	343.3
434.533	285.9
434.993	265.9
435.452	273.1
435.912	289.1
436.371	285.4
436.83	284.3
437.29	274.4
437.749	253
438.209	244.1
438.668	275.2
439.127	286.7
439.587	261.8
440.046	238.6
440.505	256.7
440.964	266.7
441.424	319.8
441.883	305.7
442.342	254.2
442.801	218.8
443.26	220
443.719	213.6
444.178	219.3
444.637	216.2
445.096	214.5
445.555	217
446.014	219.9
446.473	223.9
446.932	229
447.391	218.8
447.849	224.5
448.308	211.6
448.767	219.5
449.226	228.4
449.685	237
450.143	236.4
450.602	237.1
451.061	222.5
451.519	229
451.978	233.9
452.436	227.7
452.895	233.3
453.353	255.4
453.812	232.6
454.27	235.6
454.729	237.1
455.187	237.4
455.646	246.6
456.104	251.8
456.562	257.5
457.021	267.6
457.479	252.7
457.937	270
458.395	252
458.854	245
459.312	257.9
459.77	272.2
460.228	245.2
460.686	234.3
461.144	243.4
461.602	232.3
462.06	238.3
462.518	254.7
462.976	244
463.434	251.7
463.892	265.4
464.35	270.7
464.808	275
465.266	258.6
465.724	259.6
466.181	261.4
466.639	266.7
467.097	281.3
467.555	291.5
468.012	289.7
468.47	304.6
468.928	323.4
469.385	334.1
469.843	338.4
470.3	341.5
470.758	357.5
471.215	379.6
471.673	405.9
472.13	403.1
472.588	412.9
473.045	370.7
473.503	377.7
473.96	389.2
474.417	396.7
474.875	423.5
475.332	472.3
475.789	449.6
476.246	458.1
476.704	486.3
477.161	504
477.618	511.4
478.075	552.2
478.532	608.8
478.989	681.2
479.446	802.1
479.903	756.7
480.36	801.1
480.817	847
481.274	947.9
481.731	1046.5
482.188	1150.7
482.645	1271.3
483.102	1385.6
483.558	1505.7
484.015	1576.6
484.472	1541.8
484.929	1500
485.385	1434.4
485.842	1402.2
486.299	1334.3
486.755	1261.1
487.212	1073.5
487.668	910
488.125	841.6
488.582	754.8
489.038	722.1
489.494	692.9
489.951	668.4
490.407	650.9
490.864	634.7
491.32	624.7
491.776	626.5
492.233	631
492.689	593.1
493.145	592.5
493.602	589.3
494.058	600.6
494.514	599.1
494.97	624.6
495.426	630.1
495.882	607.7
496.338	595.9
496.794	610.3
497.251	594.2
497.707	608.1
498.163	613.9
498.618	624.3
499.074	625.2
499.53	667.1
499.986	659.5
500.442	642.2
500.898	605.3
501.354	606.4
501.809	613.7
502.265	627
502.721	643.4
503.177	654.8
503.632	649.3
504.088	655.6
504.543	700.1
504.999	699.4
505.455	641.8
505.91	597.8
506.366	618.9
506.821	610.9
507.277	599.9
507.732	607.7
508.187	599.6
508.643	615.1
509.098	606.7
509.553	640.5
510.009	645.6
510.464	643.3
510.919	660.9
511.375	677.4
511.83	682.9
512.285	709.4
512.74	735.1
513.195	768.7
513.65	745.8
514.105	743
514.56	742.3
515.015	754.8
515.47	783.2
515.925	760.8
516.38	765.4
516.835	771.6
517.29	748.4
517.745	753.8
518.2	746.8
518.655	721.4
519.109	716.7
519.564	709.7
520.019	696.9
520.474	704.6
520.928	703.3
521.383	700.3
521.838	688.3
522.292	679.5
522.747	682.8
523.201	676.7
523.656	673
524.11	682
524.565	679.1
525.019	677
525.474	685.1
525.928	671.9
526.382	670.3
526.837	672.5
527.291	672.3
527.745	663
528.2	682.1
528.654	679.1
529.108	663.7
529.562	669.2
530.016	669.7
530.47	661.5
530.925	672.9
531.379	680.2
531.833	681.2
532.287	682.9
532.741	684.7
533.195	689.5
533.649	686.5
534.103	695.7
534.556	685.8
535.01	688.8
535.464	680
535.918	691.4
536.372	699.3
536.826	697.9
537.279	681.6
537.733	694.7
538.187	688
538.64	690.6
539.094	698.5
539.548	711.8
540.001	693
540.455	698.7
540.908	708.4
541.362	714.6
541.815	722
542.269	731.4
542.722	728.9
543.175	736.8
543.629	743.6
544.082	766.6
544.536	763.1
544.989	762.9
545.442	762.9
545.895	757.2
546.349	771.1
546.802	760.7
547.255	775.2
547.708	790.3
548.161	786.1
548.614	800.1
549.067	794.1
549.52	797.6
549.973	789.4
550.426	779.9
550.879	770.1
551.332	769.3
551.785	782.8
552.238	776.6
552.691	793.1
553.144	798.4
553.596	821.3
554.049	836.6
554.502	863.3
554.955	881.4
555.407	885
555.86	876.9
556.313	862
556.765	854.1
557.218	857.8
557.67	848.6
558.123	840.3
558.576	832.5
559.028	859.2
559.48	846.2
559.933	848.3
560.385	814.3
560.838	781.8
561.29	774.7
561.742	756.9
562.195	746.5
562.647	736.5
563.099	748.7
563.551	747.5
564.004	762.6
564.456	755.5
564.908	740.8
565.36	726.3
565.812	707.2
566.264	710.4
566.716	703.9
567.168	698.7
567.62	705.1
568.072	689.6
568.524	677.1
568.976	662.6
569.428	648.8
569.88	649.5
570.332	665.5
570.784	662.5
571.235	662.3
571.687	660.5
572.139	679.4
572.59	684.7
573.042	681.7
573.494	682.4
573.945	682.2
574.397	671
574.849	668.8
575.3	667.5
575.752	654.6
576.203	663.7
576.655	666.7
577.106	646.5
577.557	636.3
578.009	644.5
578.46	642.9
578.912	641.4
579.363	644.9
579.814	640.7
580.265	640.3
580.717	639.6
581.168	652.8
581.619	656.8
582.07	665.1
582.521	653.7
582.972	652
583.423	653.6
583.875	662.5
584.326	687.6
584.777	730.4
585.227	809.4
585.678	902.3
586.129	999.3
586.58	1074.5
587.031	1151.7
587.482	1308.2
587.933	1500.2
588.384	1297.9
588.834	970.7
589.285	793.8
589.736	766.9
590.186	756.3
590.637	745.4
591.088	722.4
591.538	726.5
591.989	709
592.439	713.2
592.89	701.6
593.34	696.5
593.791	687.2
594.241	676.8
594.692	695.7
595.142	690.8
595.593	691.4
596.043	689.9
596.493	698.7
596.943	696.6
597.394	699.4
597.844	703.6
598.294	720.5
598.744	730.8
599.195	758
599.645	793.4
600.095	835.4
600.545	902.6
600.995	944.7
601.445	1007.4
601.895	1063.2
602.345	1103.7
602.795	1077.8
603.245	1034.9
603.695	971.4
604.145	921.7
604.594	885
605.044	826.5
605.494	777.6
605.944	732.7
606.393	718
606.843	714
607.293	710.7
607.743	711.1
608.192	733
608.642	746
609.091	744.2
609.541	758.6
609.99	754.1
610.44	748.8
610.889	700.8
611.339	680.2
611.788	667.7
612.238	686.5
612.687	710.9
613.136	707.4
613.586	735.3
614.035	727
614.484	742.3
614.933	746.3
615.383	734.7
615.832	713.5
616.281	713.2
616.73	662.6
617.179	653.6
617.628	642
618.077	629
618.526	602.6
618.975	605.3
619.424	595.9
619.873	597.7
620.322	604.6
620.771	585.4
621.22	586.5
621.669	586.8
622.118	572.6
622.567	568.6
623.015	557.3
623.464	558.8
623.913	549.6
624.361	540.7
624.81	537.7
625.259	541.2
625.707	537.8
626.156	544.3
626.604	561.8
627.053	550.7
627.501	541.8
627.95	552
628.398	567.1
628.847	554.3
629.295	560.6
629.744	568.1
630.192	549.7
630.64	562.6
631.089	555.9
631.537	571
631.985	581.1
632.433	595.9
632.881	594.8
633.33	664.8
633.778	644.7
634.226	562.4
634.674	565.1
635.122	578.1
635.57	589.3
636.018	629.1
636.466	569.6
636.914	548.6
637.362	561.2
637.81	566.1
638.258	565.6
638.705	570.7
639.153	593.5
639.601	601.4
640.049	626.3
640.497	656.3
640.944	675
641.392	618.7
641.84	602.1
642.287	576.1
642.735	557.2
643.182	562.1
643.63	560.8
644.078	564.4
644.525	588.9
644.973	593.1
645.42	589.3
645.867	606.7
646.315	621.8
646.762	645
647.21	683.5
647.657	708.3
648.104	730.3
648.551	753.8
648.999	822.9
649.446	900.6
649.893	995.7
650.34	1147.2
650.787	1384.1
651.234	1723.6
651.682	2249.7
652.129	3129.5
652.576	4488.2
653.023	6661.6
653.47	9052.5
653.917	11273.8
654.363	12919
654.81	14206.8
655.257	13510.9
655.704	8802.9
656.151	5202.3
656.598	3365.4
657.044	2373.8
657.491	1830.4
657.938	1466.2
658.385	1219.9
658.831	1061.6
659.278	942.1
659.724	843.6
660.171	771.7
660.618	700.1
661.064	680
661.511	654
661.957	648
662.404	628.4
662.85	633.4
663.296	610.7
663.743	555.9
664.189	531
664.635	522
665.082	518.6
665.528	518.6
665.974	504.9
666.42	498.5
666.867	502.4
667.313	483.4
667.759	476.1
668.205	480.1
668.651	488.4
669.097	476.6
669.543	492.1
669.989	465.3
670.435	439.6
670.881	436.4
671.327	436.4
671.773	454.5
672.219	479.1
672.665	536.7
673.11	577.6
673.556	613.5
674.002	664.3
674.448	639
674.893	535.9
675.339	457.1
675.785	429.1
676.23	414.8
676.676	382.3
677.122	377.7
677.567	361.3
678.013	363.1
678.458	352.5
678.904	352.2
679.349	336.5
679.794	341.8
680.24	336.6
680.685	344.9
681.131	336.9
681.576	339.6
682.021	350.2
682.466	334.7
682.912	355.3
683.357	341.6
683.802	369.7
684.247	405.6
684.692	451.1
685.137	482
685.583	526.1
686.028	549.4
686.473	501.3
686.918	438
687.363	408.7
687.807	383.4
688.252	364.6
688.697	345.6
689.142	330.1
689.587	324.8
690.032	314.9
690.477	329.5
690.921	343.1
691.366	372.5
691.811	394.5
692.255	425.7
692.7	450.4
693.145	498.4
693.589	702.6
694.034	1112.6
694.478	1499.8
694.923	1675.7
695.367	2184.6
695.812	1157.9
696.256	485.2
696.701	365.6
697.145	333
697.59	320.7
698.034	320.9
698.478	319
698.922	315.9
699.367	316.1
699.811	335.4
700.255	345.3
700.699	384.4
701.143	411.3
701.588	460.2
702.032	504.4
702.476	500.4
702.92	481.7
703.364	485.2
703.808	630
704.252	1028.6
704.696	1427.4
705.14	1611.5
705.584	2058.6
706.027	1033.7
706.471	506.6
706.915	385.7
707.359	335.6
707.803	312.8
708.246	296.7
708.69	296.7
709.134	313.1
709.577	304.3
710.021	317.3
710.465	299.3
710.908	294.4
711.352	291.7
711.795	308.1
712.239	346.1
712.682	370.9
713.126	406.8
713.569	450.5
714.012	360.8
714.456	313.6
714.899	298.3
715.342	264.1
715.786	257
716.229	253.6
716.672	246.9
717.115	237.1
717.558	246.4
718.002	242.4
718.445	255.4
718.888	278.9
719.331	294.9
719.774	299.7
720.217	296.6
720.66	283.4
721.103	264.8
721.546	244.5
721.989	240.5
722.432	227.1
722.874	232.5
723.317	225
723.76	236
724.203	254
724.645	315.9
725.088	442.1
725.531	556.1
725.974	626.8
726.416	533.7
726.859	299.2
727.301	243.1
727.744	237.9
728.187	226.6
728.629	238.7
729.071	243.8
729.514	257.5
729.956	269.9
730.399	280
730.841	282.5
731.283	266.3
731.726	258.3
732.168	254.6
732.61	265.4
733.053	274.6
733.495	308.4
733.937	345.3
734.379	393.8
734.821	428.1
735.263	531.3
735.705	828.7
736.148	1570
736.59	2516.7
737.032	2920.6
737.474	2392.1
737.916	783.6
738.357	419
738.799	323.9
739.241	291.8
739.683	278.4
740.125	286.9
740.567	290.5
741.008	312.6
741.45	314.3
741.892	304.8
742.334	342.8
742.775	344.8
743.217	321
743.658	268.8
744.1	241.6
744.542	260.7
744.983	307
745.425	327.9
745.866	337.3
746.307	278
746.749	281.8
747.19	321.4
747.632	456.5
748.073	883.6
748.514	1851.8
748.956	2774.6
749.397	3466.3
749.838	2875.1
750.279	2848.3
750.72	1449.8
751.162	537
751.603	315.1
752.044	245.8
752.485	210.3
752.926	205.6
753.367	198.5
753.808	183.7
754.249	191.8
754.69	182.4
755.131	176.6
755.572	180.4
756.013	174
756.453	179
756.894	185.3
757.335	193.4
757.776	197.7
758.216	187.2
758.657	191.6
759.098	197.4
759.538	216.6
759.979	258
760.42	369.9
760.86	710.8
761.301	1843.8
761.741	4380.2
762.182	6163.2
762.622	4327.8
763.063	1278.9
763.503	520.1
763.943	343
764.384	348.4
764.824	408.7
765.264	440.7
765.705	304.1
766.145	212.2
766.585	186.8
767.025	181.2
767.465	187.3
767.906	242.9
768.346	324.9
768.786	347.2
769.226	269.2
769.666	318.5
770.106	630.7
770.546	1545.6
770.986	2560.2
771.426	2279.7
771.866	771.7
772.306	324.9
772.745	204.6
773.185	179.1
773.625	168.8
774.065	167
774.505	204
774.944	319.3
775.384	706
775.824	1255.2
776.263	1205.4
776.703	515.8
777.142	227.9
777.582	152.1
778.021	133.8
778.461	134.5
778.9	145.5
779.34	133.7
779.779	123.9
780.219	108.6
780.658	108.5
781.097	114.8
781.537	111.4
781.976	106.6
782.415	102.9
782.855	99.6
783.294	99.2
783.733	101.9
784.172	106.6
784.611	95.5
785.05	110.8
785.489	112.9
785.928	114.4
786.367	117.6
786.806	114.8
787.245	135.1
787.684	139
788.123	143.3
788.562	132.7
789.001	126.3
789.44	119.4
789.879	121
790.317	121.8
790.756	125.9
791.195	132
791.634	142.6
792.072	201.4
792.511	366.2
792.95	1018.6
793.388	2070.8
793.827	1857
794.265	649.4
794.704	277.5
795.142	182.2
795.581	153.4
796.019	138.9
796.458	127.9
796.896	114.3
797.334	128
797.773	153.4
798.211	222.1
798.649	435.8
799.087	1010.4
799.526	1560
799.964	1979.6
800.402	1929.8
800.84	735.3
801.278	299.4
801.716	181
802.154	144.2
802.592	138.8
803.03	141.2
803.468	130
803.906	136.5
804.344	145.4
804.782	142.4
805.22	124.9
805.658	122.2
806.096	148.1
806.533	153
806.971	168.6
807.409	208.1
