Data from 20171114-ORNL-Ar_H_NY_Subt18_08-08-13-200.txt Node
Date: Tue Nov 14 08:08:13 EST 2017
User: Ender
Spectrometer: HR+D1039
Trigger mode: 0
Integration Time (sec): 2.730000E-2
Scans to average: 10
Electric dark correction enabled: true
Nonlinearity correction enabled: false
Boxcar width: 0
XAxis mode: Wavelengths
Number of Pixels in Spectrum: 2048
>>>>>Begin Spectral Data<<<<<
187.836	-4.46
188.309	-4.46
188.782	-4.46
189.255	2.54
189.728	-0.36
190.201	1.14
190.674	-0.16
191.147	1.84
191.619	-7.66
192.092	4.54
192.565	9.74
193.038	0.14
193.511	0.54
193.984	2.14
194.456	-1.96
194.929	-5.56
195.402	-1.76
195.874	-0.66
196.347	1.44
196.82	-7.06
197.292	3.54
197.765	-1.16
198.237	-12.66
198.71	0.74
199.182	-6.76
199.655	2.94
200.127	2.24
200.6	-0.26
201.072	-0.76
201.544	-4.96
202.017	-4.56
202.489	-2.26
202.961	0.84
203.433	-6.36
203.906	-6.76
204.378	-8.46
204.85	-2.96
205.322	-6.56
205.794	1.54
206.266	-3.86
206.739	-6.96
207.211	3.54
207.683	-4.36
208.155	-2.16
208.627	-6.76
209.099	0.64
209.57	-4.06
210.042	-1.56
210.514	-4.56
210.986	-3.06
211.458	-9.76
211.93	0.44
212.402	2.04
212.873	-0.56
213.345	-8.36
213.817	-10.86
214.288	-4.46
214.76	-6.76
215.232	-3.26
215.703	-2.76
216.175	-3.26
216.646	-1.36
217.118	-8.46
217.589	-1.96
218.061	-4.66
218.532	-5.56
219.004	-3.46
219.475	-7.96
219.946	-1.96
220.418	-7.16
220.889	-0.66
221.36	-3.36
221.832	0.54
222.303	-7.86
222.774	0.94
223.245	-10.06
223.717	-14.36
224.188	-5.16
224.659	-11.76
225.13	-5.96
225.601	-5.96
226.072	6.54
226.543	2.74
227.014	-1.66
227.485	2.14
227.956	-6.46
228.427	-7.36
228.898	-4.96
229.369	3.84
229.839	-5.86
230.31	-7.16
230.781	0.74
231.252	-5.36
231.722	-3.96
232.193	4.24
232.664	2.84
233.135	3.94
233.605	2.04
234.076	-4.36
234.546	8.34
235.017	2.54
235.487	2.64
235.958	3.84
236.428	-5.46
236.899	4.34
237.369	5.24
237.84	-0.96
238.31	3.24
238.78	8.04
239.251	-4.16
239.721	0.34
240.191	-5.46
240.662	-3.16
241.132	-2.06
241.602	-3.36
242.072	7.44
242.542	6.74
243.013	1.44
243.483	4.54
243.953	0.64
244.423	-4.36
244.893	-0.96
245.363	0.24
245.833	0.74
246.303	-3.26
246.773	-0.36
247.243	3.04
247.712	6.44
248.182	8.34
248.652	3.84
249.122	-0.16
249.592	11.84
250.061	19.94
250.531	30.14
251.001	14.84
251.471	26.24
251.94	15.04
252.41	4.54
252.879	-2.56
253.349	13.94
253.818	11.74
254.288	9.14
254.757	4.44
255.227	-2.46
255.696	-4.36
256.166	1.24
256.635	4.94
257.105	9.44
257.574	5.54
258.043	10.44
258.513	7.24
258.982	10.74
259.451	0.74
259.92	9.94
260.389	12.14
260.859	12.54
261.328	6.64
261.797	14.94
262.266	12.14
262.735	7.94
263.204	8.64
263.673	-1.46
264.142	3.44
264.611	-0.76
265.08	4.04
265.549	6.44
266.018	7.44
266.487	1.94
266.955	-0.06
267.424	1.44
267.893	7.14
268.362	1.94
268.83	6.94
269.299	7.94
269.768	7.04
270.236	3.64
270.705	8.24
271.174	3.84
271.642	8.44
272.111	11.44
272.579	10.54
273.048	17.04
273.516	26.94
273.985	21.94
274.453	27.84
274.922	20.84
275.39	4.24
275.858	5.64
276.327	8.44
276.795	12.14
277.263	7.94
277.731	22.54
278.2	49.04
278.668	52.44
279.136	43.74
279.604	12.64
280.072	15.54
280.54	7.84
281.008	7.34
281.477	9.64
281.945	13.44
282.413	10.94
282.881	10.24
283.348	6.34
283.816	18.44
284.284	14.44
284.752	18.04
285.22	16.44
285.688	11.34
286.156	16.64
286.623	43.04
287.091	48.54
287.559	26.84
288.026	16.44
288.494	14.94
288.962	2.64
289.429	11.14
289.897	20.04
290.364	12.74
290.832	13.74
291.3	17.14
291.767	16.44
292.234	24.94
292.702	17.24
293.169	23.34
293.637	23.14
294.104	15.94
294.571	11.54
295.039	14.24
295.506	16.04
295.973	12.54
296.44	15.64
296.908	19.64
297.375	18.34
297.842	23.24
298.309	18.74
298.776	19.44
299.243	15.54
299.71	9.14
300.177	19.34
300.644	24.34
301.111	17.44
301.578	17.74
302.045	16.74
302.512	24.84
302.979	30.74
303.446	19.84
303.913	17.64
304.379	20.84
304.846	26.54
305.313	15.24
305.78	18.94
306.246	23.94
306.713	19.84
307.18	24.74
307.646	22.24
308.113	25.44
308.579	21.34
309.046	22.84
309.512	29.54
309.979	22.54
310.445	22.54
310.912	22.34
311.378	30.04
311.845	24.04
312.311	26.04
312.777	31.44
313.244	30.34
313.71	35.64
314.176	28.84
314.642	29.24
315.109	24.74
315.575	43.74
316.041	39.44
316.507	32.74
316.973	41.94
317.439	37.74
317.905	33.94
318.371	34.24
318.837	32.74
319.303	31.34
319.769	27.34
320.235	35.74
320.701	36.14
321.167	36.94
321.633	38.64
322.099	38.34
322.564	46.64
323.03	39.64
323.496	38.04
323.962	38.44
324.427	36.24
324.893	44.24
325.359	36.74
325.824	38.74
326.29	39.84
326.755	37.34
327.221	39.64
327.686	36.94
328.152	45.44
328.617	33.94
329.083	48.84
329.548	47.84
330.014	44.54
330.479	35.94
330.944	37.84
331.41	42.54
331.875	41.24
332.34	41.44
332.805	41.04
333.271	49.74
333.736	42.54
334.201	47.04
334.666	50.64
335.131	51.14
335.596	52.44
336.061	47.54
336.526	42.44
336.991	51.14
337.456	55.14
337.921	51.54
338.386	47.24
338.851	44.84
339.316	44.24
339.781	44.14
340.246	50.44
340.711	42.54
341.175	44.24
341.64	41.04
342.105	44.34
342.569	53.04
343.034	54.74
343.499	52.14
343.963	50.04
344.428	66.84
344.893	59.04
345.357	61.04
345.822	58.84
346.286	66.24
346.751	69.84
347.215	65.64
347.679	74.14
348.144	94.24
348.608	80.64
349.073	67.24
349.537	72.14
350.001	78.44
350.465	86.04
350.93	77.64
351.394	78.14
351.858	69.84
352.322	85.64
352.786	80.34
353.25	100.74
353.715	117.64
354.179	99.74
354.643	120.54
355.107	125.74
355.571	103.24
356.035	103.24
356.498	123.54
356.962	122.94
357.426	130.24
357.89	110.74
358.354	87.64
358.818	72.94
359.281	81.64
359.745	82.54
360.209	81.54
360.673	74.94
361.136	75.84
361.6	73.74
362.064	85.44
362.527	82.94
362.991	84.24
363.454	85.14
363.918	80.04
364.381	78.84
364.845	83.34
365.308	84.84
365.772	84.24
366.235	83.94
366.698	84.64
367.162	88.34
367.625	85.34
368.088	84.24
368.552	92.44
369.015	89.94
369.478	90.74
369.941	100.74
370.404	95.24
370.867	102.34
371.331	103.74
371.794	117.34
372.257	110.74
372.72	119.64
373.183	111.44
373.646	98.34
374.109	99.84
374.572	106.14
375.035	105.54
375.497	105.64
375.96	104.34
376.423	100.44
376.886	109.34
377.349	109.74
377.811	102.44
378.274	108.84
378.737	112.14
379.199	113.94
379.662	111.84
380.125	123.64
380.587	122.24
381.05	118.34
381.512	120.54
381.975	136.04
382.437	127.44
382.9	122.14
383.362	130.04
383.825	140.24
384.287	150.94
384.75	144.84
385.212	140.44
385.674	142.84
386.136	135.84
386.599	130.74
387.061	134.14
387.523	129.64
387.985	137.44
388.447	146.04
388.91	142.84
389.372	162.04
389.834	152.44
390.296	148.44
390.758	162.04
391.22	166.84
391.682	213.34
392.144	304.84
392.606	235.14
393.068	167.74
393.529	170.94
393.991	153.94
394.453	151.44
394.915	157.94
395.377	197.04
395.838	222.24
396.3	153.84
396.762	145.54
397.224	133.74
397.685	132.34
398.147	134.74
398.608	124.04
399.07	130.34
399.531	126.84
399.993	136.54
400.454	145.94
400.916	145.54
401.377	141.54
401.839	155.54
402.3	155.74
402.762	165.94
403.223	181.14
403.684	174.54
404.145	161.74
404.607	165.44
405.068	165.14
405.529	170.14
405.99	188.54
406.451	175.94
406.913	171.44
407.374	166.84
407.835	155.94
408.296	172.74
408.757	166.54
409.218	187.04
409.679	181.54
410.14	176.24
410.601	173.54
411.062	178.34
411.522	198.64
411.983	193.84
412.444	183.24
412.905	181.34
413.366	182.44
413.826	190.84
414.287	220.04
414.748	258.74
415.208	241.14
415.669	210.84
416.13	202.84
416.59	204.54
417.051	217.54
417.511	218.44
417.972	233.44
418.432	249.74
418.893	285.64
419.353	245.14
419.814	203.14
420.274	186.44
420.734	186.44
421.195	187.34
421.655	199.14
422.115	193.14
422.576	192.04
423.036	195.44
423.496	206.64
423.956	215.14
424.416	226.34
424.876	264.54
425.336	269.44
425.797	265.34
426.257	254.84
426.717	239.84
427.177	228.84
427.637	224.54
428.097	234.44
428.556	244.64
429.016	276.04
429.476	263.54
429.936	277.54
430.396	278.34
430.856	300.14
431.315	317.44
431.775	355.74
432.235	385.34
432.694	357.34
433.154	365.14
433.614	399.44
434.073	346.34
434.533	287.64
434.993	270.64
435.452	287.54
435.912	298.64
436.371	287.54
436.83	278.24
437.29	273.34
437.749	248.84
438.209	248.64
438.668	278.74
439.127	295.94
439.587	262.84
440.046	248.94
440.505	260.64
440.964	270.54
441.424	316.44
441.883	313.94
442.342	257.84
442.801	226.94
443.26	223.84
443.719	216.34
444.178	222.84
444.637	206.44
445.096	218.84
445.555	229.44
446.014	222.54
446.473	230.34
446.932	235.54
447.391	229.24
447.849	223.04
448.308	217.44
448.767	219.54
449.226	234.44
449.685	239.34
450.143	246.94
450.602	231.14
451.061	214.44
451.519	229.04
451.978	234.04
452.436	235.84
452.895	235.34
453.353	257.04
453.812	242.14
454.27	239.44
454.729	231.34
455.187	233.94
455.646	244.14
456.104	242.64
456.562	254.94
457.021	265.64
457.479	252.04
457.937	262.64
458.395	256.64
458.854	247.04
459.312	259.24
459.77	278.24
460.228	245.94
460.686	247.24
461.144	243.94
461.602	248.64
462.06	246.44
462.518	251.04
462.976	254.04
463.434	255.74
463.892	262.84
464.35	268.74
464.808	289.34
465.266	262.84
465.724	270.14
466.181	267.74
466.639	269.94
467.097	290.24
467.555	299.44
468.012	302.14
468.47	309.14
468.928	324.04
469.385	332.64
469.843	340.64
470.3	347.44
470.758	361.94
471.215	389.14
471.673	403.04
472.13	405.74
472.588	412.34
473.045	378.14
473.503	371.14
473.96	394.04
474.417	399.34
474.875	429.54
475.332	470.34
475.789	453.14
476.246	467.24
476.704	493.34
477.161	507.84
477.618	514.84
478.075	559.84
478.532	610.34
478.989	688.64
479.446	811.14
479.903	771.54
480.36	802.64
480.817	859.24
481.274	951.64
481.731	1058.34
482.188	1156.24
482.645	1286.24
483.102	1400.84
483.558	1533.64
484.015	1585.54
484.472	1569.24
484.929	1512.64
485.385	1474.04
485.842	1417.54
486.299	1343.64
486.755	1282.24
487.212	1081.24
487.668	911.44
488.125	836.54
488.582	759.04
489.038	731.54
489.494	703.94
489.951	662.74
490.407	661.44
490.864	645.74
491.32	640.24
491.776	625.14
492.233	638.74
492.689	595.14
493.145	591.04
493.602	593.74
494.058	606.54
494.514	595.14
494.97	624.14
495.426	640.44
495.882	612.54
496.338	603.44
496.794	620.84
497.251	595.04
497.707	623.94
498.163	610.14
498.618	629.04
499.074	634.24
499.53	677.84
499.986	669.84
500.442	642.14
500.898	627.14
501.354	612.44
501.809	624.04
502.265	620.44
502.721	654.24
503.177	656.64
503.632	650.94
504.088	666.94
504.543	699.74
504.999	696.34
505.455	641.14
505.91	613.64
506.366	624.04
506.821	612.64
507.277	613.04
507.732	607.34
508.187	611.14
508.643	616.64
509.098	621.74
509.553	636.34
510.009	645.54
510.464	656.14
510.919	676.64
511.375	686.14
511.83	687.74
512.285	704.34
512.74	748.84
513.195	770.74
513.65	754.04
514.105	758.34
514.56	755.54
515.015	775.44
515.47	794.64
515.925	764.94
516.38	765.24
516.835	771.64
517.29	761.64
517.745	757.34
518.2	750.94
518.655	729.54
519.109	727.24
519.564	725.44
520.019	708.24
520.474	703.54
520.928	709.04
521.383	703.84
521.838	682.94
522.292	682.74
522.747	696.44
523.201	688.24
523.656	676.34
524.11	678.64
524.565	679.24
525.019	677.94
525.474	687.84
525.928	688.84
526.382	682.34
526.837	676.04
527.291	689.54
527.745	685.54
528.2	677.24
528.654	670.54
529.108	674.24
529.562	676.94
530.016	678.34
530.47	677.24
530.925	668.64
531.379	674.44
531.833	688.74
532.287	682.04
532.741	675.14
533.195	684.84
533.649	697.54
534.103	702.34
534.556	684.94
535.01	705.24
535.464	692.84
535.918	695.94
536.372	695.04
536.826	698.04
537.279	696.44
537.733	697.54
538.187	697.44
538.64	693.74
539.094	709.14
539.548	709.64
540.001	701.94
540.455	714.14
540.908	714.24
541.362	717.74
541.815	736.14
542.269	737.14
542.722	749.44
543.175	755.04
543.629	764.84
544.082	774.84
544.536	757.74
544.989	759.04
545.442	785.74
545.895	771.54
546.349	768.84
546.802	775.34
547.255	780.74
547.708	790.24
548.161	789.54
548.614	798.34
549.067	814.64
549.52	794.54
549.973	802.74
550.426	784.84
550.879	780.74
551.332	785.44
551.785	787.44
552.238	794.44
552.691	804.84
553.144	808.34
553.596	835.04
554.049	843.34
554.502	875.64
554.955	887.74
555.407	890.54
555.86	863.24
556.313	863.24
556.765	866.34
557.218	860.34
557.67	867.44
558.123	860.74
558.576	846.34
559.028	857.64
559.48	866.94
559.933	859.44
560.385	825.94
560.838	793.14
561.29	768.84
561.742	775.44
562.195	752.04
562.647	744.24
563.099	765.14
563.551	751.94
564.004	761.44
564.456	763.74
564.908	755.64
565.36	732.04
565.812	724.64
566.264	712.14
566.716	710.24
567.168	708.94
567.62	714.04
568.072	693.84
568.524	695.94
568.976	672.84
569.428	664.04
569.88	664.94
570.332	672.74
570.784	662.34
571.235	666.34
571.687	680.54
572.139	682.84
572.59	698.54
573.042	699.74
573.494	686.54
573.945	685.04
574.397	662.84
574.849	677.54
575.3	678.64
575.752	669.64
576.203	661.14
576.655	669.84
577.106	653.24
577.557	653.34
578.009	649.44
578.46	651.34
578.912	651.24
579.363	643.74
579.814	655.74
580.265	654.24
580.717	656.14
581.168	661.34
581.619	658.74
582.07	671.94
582.521	664.84
582.972	655.84
583.423	666.74
583.875	669.84
584.326	691.34
584.777	738.04
585.227	823.84
585.678	923.04
586.129	1025.54
586.58	1085.84
587.031	1168.44
587.482	1331.74
587.933	1513.94
588.384	1309.74
588.834	977.94
589.285	803.04
589.736	770.94
590.186	760.54
590.637	748.74
591.088	735.04
591.538	725.14
591.989	714.44
592.439	713.34
592.89	708.54
593.34	699.64
593.791	707.34
594.241	701.34
594.692	706.84
595.142	688.24
595.593	690.14
596.043	696.14
596.493	704.24
596.943	711.94
597.394	719.64
597.844	704.54
598.294	715.14
598.744	744.94
599.195	767.64
599.645	806.94
600.095	843.14
600.545	904.24
600.995	952.24
601.445	1003.94
601.895	1049.74
602.345	1112.64
602.795	1086.34
603.245	1044.04
603.695	987.74
604.145	938.04
604.594	889.44
605.044	842.94
605.494	783.24
605.944	734.14
606.393	726.34
606.843	707.34
607.293	720.94
607.743	712.14
608.192	730.24
608.642	746.44
609.091	758.34
609.541	757.04
609.99	754.44
610.44	750.74
610.889	716.94
611.339	692.84
611.788	671.74
612.238	701.34
612.687	717.94
613.136	709.24
613.586	729.64
614.035	732.04
614.484	746.74
614.933	756.74
615.383	745.34
615.832	728.44
616.281	725.44
616.73	676.84
617.179	655.14
617.628	640.44
618.077	620.14
618.526	605.54
618.975	608.64
619.424	609.44
619.873	611.54
620.322	609.44
620.771	609.04
621.22	583.74
621.669	579.74
622.118	582.84
622.567	581.24
623.015	555.14
623.464	568.14
623.913	548.74
624.361	537.24
624.81	544.54
625.259	543.24
625.707	549.14
626.156	539.24
626.604	551.14
627.053	566.44
627.501	557.24
627.95	557.24
628.398	565.54
628.847	560.34
629.295	561.24
629.744	560.34
630.192	560.64
630.64	567.14
631.089	549.94
631.537	575.64
631.985	586.84
632.433	610.34
632.881	609.44
633.33	664.94
633.778	639.54
634.226	571.84
634.674	575.04
635.122	574.44
635.57	595.34
636.018	626.44
636.466	571.44
636.914	544.64
637.362	573.24
637.81	574.74
638.258	568.04
638.705	573.34
639.153	594.14
639.601	609.54
640.049	643.74
640.497	661.24
640.944	677.14
641.392	640.44
641.84	605.54
642.287	586.64
642.735	560.74
643.182	556.44
643.63	563.34
644.078	566.34
644.525	582.54
644.973	595.84
645.42	595.54
645.867	618.54
646.315	638.44
646.762	655.04
647.21	683.74
647.657	707.54
648.104	738.04
648.551	769.74
648.999	842.84
649.446	914.84
649.893	1001.54
650.34	1165.34
650.787	1383.74
651.234	1734.54
651.682	2282.14
652.129	3128.84
652.576	4518.14
653.023	6673.34
653.47	9141.54
653.917	11336.24
654.363	13017.14
654.81	14277.04
655.257	13593.44
655.704	8905.34
656.151	5247.14
656.598	3401.34
657.044	2396.54
657.491	1829.24
657.938	1478.64
658.385	1241.94
658.831	1071.34
659.278	952.34
659.724	854.64
660.171	781.54
660.618	718.04
661.064	687.64
661.511	656.54
661.957	644.34
662.404	641.04
662.85	646.84
663.296	623.54
663.743	555.14
664.189	540.24
664.635	519.04
665.082	517.24
665.528	520.54
665.974	514.34
666.42	517.44
666.867	506.74
667.313	484.54
667.759	480.04
668.205	480.14
668.651	480.54
669.097	478.14
669.543	507.14
669.989	469.94
670.435	445.84
670.881	444.74
671.327	442.24
671.773	464.34
672.219	483.34
672.665	538.74
673.11	571.74
673.556	623.04
674.002	657.34
674.448	645.34
674.893	538.14
675.339	470.54
675.785	438.54
676.23	414.14
676.676	381.04
677.122	374.94
677.567	370.34
678.013	373.24
678.458	354.64
678.904	356.24
679.349	343.64
679.794	350.04
680.24	349.54
680.685	338.44
681.131	342.14
681.576	338.14
682.021	346.14
682.466	337.94
682.912	345.94
683.357	344.14
683.802	376.34
684.247	406.94
684.692	455.04
685.137	489.84
685.583	526.04
686.028	545.94
686.473	506.34
686.918	443.74
687.363	399.94
687.807	381.14
688.252	356.44
688.697	351.94
689.142	344.64
689.587	328.24
690.032	322.54
690.477	338.14
690.921	348.34
691.366	377.04
691.811	389.94
692.255	426.74
692.7	457.04
693.145	491.34
693.589	699.14
694.034	1126.64
694.478	1527.14
694.923	1696.74
695.367	2197.54
695.812	1168.14
696.256	490.84
696.701	370.94
697.145	329.24
697.59	328.44
698.034	324.74
698.478	319.24
698.922	324.24
699.367	320.24
699.811	332.14
700.255	359.74
700.699	386.84
701.143	415.84
701.588	471.84
702.032	508.04
702.476	502.64
702.92	478.54
703.364	490.34
703.808	643.94
704.252	1054.64
704.696	1453.04
705.14	1638.24
705.584	2064.44
706.027	1041.24
706.471	511.14
706.915	389.24
707.359	340.24
707.803	306.94
708.246	302.54
708.69	306.94
709.134	314.04
709.577	311.54
710.021	316.74
710.465	303.94
710.908	301.04
711.352	295.04
711.795	312.74
712.239	351.04
712.682	381.54
713.126	408.84
713.569	459.44
714.012	363.44
714.456	315.44
714.899	291.24
715.342	276.04
715.786	255.54
716.229	259.34
716.672	246.84
717.115	241.24
717.558	245.64
718.002	248.54
718.445	262.84
718.888	283.24
719.331	286.84
719.774	304.64
720.217	303.44
720.66	277.74
721.103	260.44
721.546	252.64
721.989	243.64
722.432	230.34
722.874	231.44
723.317	226.34
723.76	235.74
724.203	258.64
724.645	312.84
725.088	449.44
725.531	560.34
725.974	626.94
726.416	540.44
726.859	306.64
727.301	247.34
727.744	237.14
728.187	234.04
728.629	237.34
729.071	239.94
729.514	254.84
729.956	273.44
730.399	278.54
730.841	274.74
731.283	266.24
731.726	266.74
732.168	257.44
732.61	266.84
733.053	275.34
733.495	316.14
733.937	348.84
734.379	394.54
734.821	435.84
735.263	541.64
735.705	840.44
736.148	1596.84
736.59	2562.14
737.032	2954.04
737.474	2403.84
737.916	790.04
738.357	424.44
738.799	327.54
739.241	290.94
739.683	281.24
740.125	287.34
740.567	298.94
741.008	314.64
741.45	312.54
741.892	311.94
742.334	348.24
742.775	345.84
743.217	335.14
743.658	265.64
744.1	247.54
744.542	258.04
744.983	304.84
745.425	337.74
745.866	340.24
746.307	284.94
746.749	281.94
747.19	327.64
747.632	458.74
748.073	901.94
748.514	1875.84
748.956	2801.04
749.397	3524.44
749.838	2913.54
750.279	2857.54
750.72	1459.84
751.162	537.24
751.603	314.94
752.044	250.04
752.485	216.14
752.926	205.74
753.367	201.34
753.808	195.24
754.249	187.94
754.69	188.34
755.131	182.74
755.572	179.74
756.013	177.94
756.453	189.64
756.894	185.04
757.335	191.44
757.776	192.24
758.216	194.64
758.657	194.04
759.098	206.84
759.538	224.14
759.979	264.14
760.42	379.74
760.86	718.94
761.301	1863.14
761.741	4433.84
762.182	6209.14
762.622	4343.74
