Data from 20171114-ORNL-Ar_H_NY_Subt18_08-09-11-949.txt Node
Date: Tue Nov 14 08:09:11 EST 2017
User: Ender
Spectrometer: HR+D1039
Trigger mode: 0
Integration Time (sec): 2.730000E-2
Scans to average: 10
Electric dark correction enabled: true
Nonlinearity correction enabled: false
Boxcar width: 0
XAxis mode: Wavelengths
Number of Pixels in Spectrum: 2048
>>>>>Begin Spectral Data<<<<<
187.836	-4.26
188.309	-4.26
188.782	-4.26
189.255	2.64
189.728	1.44
190.201	3.44
190.674	-1.26
191.147	3.04
191.619	-11.16
192.092	-0.06
192.565	2.44
193.038	1.14
193.511	-2.46
193.984	2.44
194.456	-0.96
194.929	1.24
195.402	1.14
195.874	1.14
196.347	-1.66
196.82	-9.86
197.292	6.14
197.765	-0.66
198.237	-9.66
198.71	-0.36
199.182	-3.16
199.655	4.04
200.127	1.74
200.6	2.94
201.072	-8.86
201.544	-5.96
202.017	-3.76
202.489	1.54
202.961	2.14
203.433	0.44
203.906	-5.86
204.378	-7.16
204.85	-1.46
205.322	-11.26
205.794	-4.16
206.266	-2.06
206.739	-8.66
207.211	0.94
207.683	-11.46
208.155	-2.46
208.627	-2.76
209.099	-1.66
209.57	-8.46
210.042	-8.26
210.514	-3.46
210.986	-4.36
211.458	-7.76
211.93	-5.26
212.402	1.24
212.873	-11.36
213.345	-6.46
213.817	-11.26
214.288	-4.16
214.76	-12.86
215.232	-2.66
215.703	-0.06
216.175	-6.96
216.646	-9.56
217.118	-8.46
217.589	-7.96
218.061	-4.76
218.532	0.24
219.004	-3.56
219.475	-5.56
219.946	-2.56
220.418	-10.16
220.889	1.74
221.36	-6.66
221.832	-3.96
222.303	-12.16
222.774	-2.16
223.245	-17.16
223.717	-9.66
224.188	-9.76
224.659	-10.16
225.13	-7.26
225.601	-3.26
226.072	3.54
226.543	-2.56
227.014	-1.96
227.485	-5.96
227.956	-8.66
228.427	-4.56
228.898	-3.86
229.369	4.84
229.839	-8.86
230.31	-8.06
230.781	-0.26
231.252	-2.86
231.722	-6.46
232.193	-6.46
232.664	-3.06
233.135	-1.86
233.605	-6.96
234.076	-13.06
234.546	0.64
235.017	1.74
235.487	-3.76
235.958	-8.16
236.428	-11.06
236.899	-3.26
237.369	-7.36
237.84	-3.06
238.31	-1.16
238.78	-5.76
239.251	-3.76
239.721	-7.56
240.191	-7.36
240.662	-5.36
241.132	-3.56
241.602	-5.46
242.072	-2.96
242.542	1.54
243.013	-2.16
243.483	0.64
243.953	4.54
244.423	-4.66
244.893	-7.96
245.363	3.04
245.833	-7.26
246.303	-2.76
246.773	0.04
247.243	-6.86
247.712	-2.86
248.182	-4.26
248.652	-0.46
249.122	-14.86
249.592	-1.36
250.061	1.94
250.531	8.24
251.001	-5.16
251.471	-2.46
251.94	5.64
252.41	-4.66
252.879	-9.96
253.349	5.14
253.818	0.64
254.288	0.94
254.757	3.44
255.227	-11.46
255.696	-2.66
256.166	1.44
256.635	-1.16
257.105	-2.76
257.574	-0.66
258.043	-4.36
258.513	-1.86
258.982	-0.06
259.451	-5.66
259.92	-1.46
260.389	-3.06
260.859	4.54
261.328	-1.46
261.797	4.24
262.266	-1.36
262.735	2.44
263.204	3.14
263.673	0.74
264.142	1.64
264.611	-14.26
265.08	-5.06
265.549	-1.36
266.018	1.44
266.487	-2.06
266.955	-2.66
267.424	-6.46
267.893	-0.76
268.362	-0.96
268.83	-3.16
269.299	2.54
269.768	-1.66
270.236	-0.46
270.705	-6.76
271.174	-7.06
271.642	0.24
272.111	-1.86
272.579	-0.36
273.048	-1.86
273.516	-0.56
273.985	2.14
274.453	3.64
274.922	10.04
275.39	0.34
275.858	-2.16
276.327	5.04
276.795	10.04
277.263	-0.46
277.731	5.44
278.2	9.94
278.668	7.14
279.136	8.24
279.604	-1.46
280.072	6.44
280.54	2.24
281.008	0.34
281.477	5.24
281.945	5.94
282.413	3.84
282.881	8.34
283.348	-5.06
283.816	8.84
284.284	2.34
284.752	11.84
285.22	6.64
285.688	6.54
286.156	5.44
286.623	15.54
287.091	6.04
287.559	6.14
288.026	4.04
288.494	8.84
288.962	-3.26
289.429	2.84
289.897	9.24
290.364	7.44
290.832	9.84
291.3	8.64
291.767	8.54
292.234	10.24
292.702	4.74
293.169	7.94
293.637	15.44
294.104	14.64
294.571	-1.56
295.039	2.74
295.506	8.64
295.973	6.84
296.44	7.64
296.908	8.04
297.375	4.64
297.842	8.04
298.309	13.14
298.776	5.54
299.243	11.94
299.71	7.54
300.177	7.34
300.644	8.94
301.111	10.24
301.578	15.44
302.045	5.74
302.512	16.94
302.979	18.84
303.446	15.94
303.913	9.24
304.379	5.64
304.846	16.94
305.313	19.14
305.78	14.34
306.246	15.44
306.713	13.44
307.18	15.14
307.646	15.14
308.113	15.84
308.579	14.04
309.046	10.14
309.512	19.14
309.979	6.94
310.445	23.94
310.912	15.34
311.378	16.04
311.845	16.04
312.311	19.84
312.777	21.84
313.244	19.24
313.71	27.24
314.176	17.34
314.642	16.74
315.109	17.74
315.575	25.74
316.041	22.34
316.507	18.14
316.973	23.64
317.439	23.94
317.905	28.84
318.371	25.54
318.837	20.74
319.303	26.74
319.769	21.64
320.235	15.94
320.701	22.44
321.167	25.14
321.633	20.54
322.099	24.54
322.564	25.64
323.03	19.44
323.496	21.54
323.962	26.24
324.427	20.94
324.893	24.54
325.359	30.34
325.824	21.94
326.29	23.74
326.755	25.24
327.221	31.44
327.686	23.04
328.152	35.14
328.617	32.84
329.083	35.64
329.548	34.24
330.014	31.44
330.479	27.34
330.944	30.24
331.41	34.14
331.875	33.64
332.34	38.74
332.805	28.54
333.271	27.54
333.736	25.74
334.201	37.94
334.666	38.14
335.131	36.24
335.596	34.14
336.061	32.74
336.526	34.94
336.991	39.14
337.456	46.24
337.921	37.04
338.386	29.84
338.851	32.64
339.316	33.64
339.781	40.14
340.246	37.84
340.711	32.84
341.175	38.04
341.64	40.54
342.105	41.74
342.569	44.74
343.034	43.64
343.499	39.04
343.963	45.54
344.428	51.84
344.893	48.64
345.357	46.14
345.822	46.64
346.286	54.24
346.751	55.34
347.215	55.84
347.679	52.84
348.144	75.64
348.608	61.54
349.073	56.74
349.537	57.04
350.001	63.94
350.465	64.54
350.93	55.84
351.394	61.14
351.858	50.24
352.322	76.04
352.786	61.54
353.25	87.34
353.715	82.64
354.179	81.84
354.643	90.14
355.107	95.94
355.571	79.74
356.035	70.34
356.498	89.34
356.962	83.24
357.426	98.64
357.89	84.74
358.354	70.34
358.818	63.34
359.281	61.24
359.745	64.24
360.209	66.04
360.673	61.84
361.136	62.54
361.6	71.14
362.064	69.64
362.527	70.04
362.991	75.04
363.454	65.84
363.918	68.44
364.381	65.44
364.845	67.84
365.308	71.64
365.772	69.94
366.235	69.24
366.698	68.94
367.162	70.74
367.625	68.44
368.088	64.74
368.552	70.24
369.015	74.94
369.478	76.44
369.941	86.84
370.404	72.54
370.867	87.64
371.331	86.34
371.794	87.94
372.257	77.14
372.72	94.54
373.183	87.44
373.646	84.14
374.109	82.64
374.572	87.44
375.035	81.44
375.497	91.54
375.96	93.14
376.423	86.04
376.886	95.24
377.349	89.44
377.811	86.24
378.274	88.14
378.737	89.24
379.199	97.84
379.662	91.44
380.125	95.74
380.587	92.94
381.05	96.54
381.512	99.24
381.975	106.34
382.437	112.14
382.9	105.44
383.362	108.14
383.825	116.14
384.287	114.74
384.75	109.14
385.212	114.04
385.674	115.24
386.136	125.44
386.599	110.14
387.061	101.74
387.523	114.04
387.985	111.14
388.447	116.94
388.91	112.64
389.372	122.74
389.834	115.14
390.296	116.44
390.758	116.44
391.22	123.14
391.682	138.44
392.144	146.24
392.606	138.54
393.068	129.34
393.529	145.24
393.991	135.94
394.453	121.34
394.915	123.54
395.377	124.44
395.838	132.74
396.3	125.54
396.762	126.74
397.224	126.54
397.685	127.54
398.147	124.34
398.608	121.14
399.07	115.84
399.531	127.14
399.993	133.64
400.454	143.14
400.916	135.14
401.377	133.84
401.839	139.54
402.3	135.54
402.762	156.64
403.223	162.24
403.684	155.04
404.145	151.54
404.607	145.84
405.068	148.94
405.529	152.34
405.99	166.64
406.451	155.14
406.913	160.64
407.374	152.24
407.835	153.24
408.296	164.34
408.757	160.24
409.218	171.94
409.679	159.34
410.14	163.24
410.601	159.64
411.062	174.34
411.522	160.74
411.983	174.94
412.444	165.84
412.905	173.94
413.366	173.74
413.826	195.64
414.287	215.74
414.748	256.24
415.208	239.24
415.669	209.44
416.13	199.94
416.59	198.64
417.051	210.44
417.511	214.84
417.972	235.24
418.432	244.74
418.893	285.64
419.353	249.94
419.814	190.24
420.274	174.24
420.734	172.04
421.195	183.84
421.655	186.84
422.115	184.84
422.576	188.74
423.036	194.04
423.496	194.94
423.956	209.14
424.416	222.64
424.876	252.84
425.336	245.24
425.797	251.74
426.257	236.14
426.717	231.64
427.177	220.14
427.637	216.54
428.097	232.94
428.556	233.14
429.016	257.84
429.476	248.04
429.936	263.44
430.396	269.04
430.856	281.14
431.315	295.64
431.775	324.94
432.235	355.64
432.694	336.14
433.154	336.84
433.614	357.44
434.073	306.94
434.533	263.34
434.993	252.94
435.452	269.84
435.912	268.04
436.371	269.84
436.83	268.54
437.29	254.84
437.749	232.44
438.209	239.94
438.668	255.24
439.127	269.84
439.587	257.04
440.046	236.04
440.505	251.44
440.964	266.24
441.424	307.44
441.883	294.34
442.342	258.64
442.801	219.04
443.26	220.24
443.719	219.64
444.178	218.24
444.637	204.64
445.096	214.94
445.555	220.74
446.014	228.14
446.473	227.44
446.932	229.14
447.391	220.74
447.849	227.24
448.308	217.24
448.767	223.14
449.226	227.04
449.685	233.44
450.143	254.34
450.602	240.84
451.061	224.64
451.519	229.84
451.978	233.44
452.436	226.44
452.895	239.84
453.353	256.14
453.812	234.34
454.27	239.54
454.729	237.84
455.187	246.54
455.646	241.34
456.104	246.74
456.562	263.04
457.021	262.64
457.479	258.84
457.937	270.34
458.395	259.14
458.854	250.24
459.312	251.74
459.77	270.64
460.228	256.84
460.686	241.54
461.144	250.94
461.602	251.04
462.06	245.94
462.518	259.24
462.976	254.94
463.434	258.94
463.892	266.34
464.35	282.44
464.808	290.54
465.266	266.84
465.724	271.54
466.181	271.04
466.639	278.64
467.097	295.44
467.555	298.74
468.012	307.44
468.47	308.84
468.928	319.04
469.385	335.74
469.843	344.24
470.3	345.04
470.758	361.74
471.215	376.14
471.673	396.94
472.13	405.04
472.588	415.64
473.045	375.34
473.503	383.64
473.96	393.24
474.417	401.54
474.875	428.34
475.332	470.54
475.789	456.34
476.246	474.84
476.704	481.34
477.161	513.44
477.618	524.74
478.075	547.54
478.532	608.54
478.989	676.94
479.446	773.84
479.903	743.44
480.36	784.54
480.817	823.34
481.274	917.54
481.731	1006.14
482.188	1091.04
482.645	1206.24
483.102	1298.64
483.558	1409.14
484.015	1452.24
484.472	1417.44
484.929	1391.64
485.385	1347.54
485.842	1304.14
486.299	1255.44
486.755	1216.64
487.212	1028.24
487.668	889.44
488.125	829.54
488.582	760.34
489.038	730.64
489.494	691.64
489.951	670.74
490.407	659.84
490.864	651.24
491.32	637.44
491.776	645.44
492.233	651.54
492.689	606.34
493.145	605.44
493.602	599.64
494.058	610.24
494.514	613.94
494.97	629.74
495.426	640.44
495.882	620.64
496.338	608.64
496.794	621.24
497.251	614.24
497.707	630.04
498.163	635.94
498.618	644.44
499.074	646.94
499.53	669.54
499.986	663.14
500.442	646.74
500.898	619.34
501.354	615.14
501.809	621.84
502.265	623.24
502.721	639.84
503.177	651.84
503.632	653.34
504.088	666.24
504.543	672.74
504.999	691.94
505.455	655.14
505.91	640.54
506.366	636.54
506.821	639.34
507.277	642.64
507.732	639.84
508.187	635.34
508.643	654.64
509.098	653.14
509.553	667.74
510.009	678.64
510.464	684.04
510.919	696.44
511.375	706.54
511.83	716.94
512.285	730.04
512.74	761.24
513.195	780.84
513.65	782.44
514.105	767.14
514.56	774.34
515.015	796.04
515.47	812.44
515.925	791.34
516.38	795.64
516.835	813.54
517.29	791.94
517.745	788.84
518.2	766.24
518.655	750.34
519.109	762.14
519.564	747.74
520.019	754.24
520.474	731.04
520.928	725.14
521.383	725.64
521.838	717.34
522.292	722.04
522.747	720.64
523.201	709.44
523.656	706.94
524.11	719.54
524.565	695.14
525.019	697.54
525.474	711.94
525.928	708.74
526.382	708.84
526.837	716.04
527.291	714.14
527.745	699.74
528.2	708.44
528.654	700.14
529.108	694.14
529.562	698.74
530.016	690.34
530.47	702.44
530.925	708.54
531.379	701.94
531.833	713.14
532.287	707.54
532.741	705.54
533.195	709.54
533.649	713.14
534.103	723.04
534.556	720.64
535.01	716.54
535.464	717.54
535.918	725.64
536.372	724.74
536.826	727.34
537.279	721.74
537.733	732.44
538.187	721.64
538.64	729.14
539.094	729.54
539.548	744.54
540.001	734.94
540.455	737.14
540.908	743.94
541.362	754.44
541.815	763.44
542.269	775.64
542.722	774.64
543.175	779.54
543.629	786.94
544.082	810.54
544.536	798.94
544.989	794.94
545.442	813.64
545.895	807.94
546.349	816.64
546.802	811.64
547.255	813.74
547.708	823.84
548.161	837.74
548.614	843.74
549.067	839.34
549.52	836.14
549.973	830.84
550.426	829.34
550.879	823.54
551.332	819.24
551.785	824.34
552.238	829.64
552.691	845.74
553.144	857.64
553.596	875.04
554.049	881.84
554.502	917.24
554.955	927.14
555.407	918.44
555.86	920.74
556.313	907.54
556.765	910.34
557.218	890.64
557.67	897.04
558.123	900.74
558.576	889.54
559.028	903.44
559.48	906.54
559.933	892.44
560.385	867.24
560.838	823.24
561.29	805.24
561.742	810.14
562.195	792.24
562.647	796.84
563.099	799.34
563.551	781.84
564.004	799.24
564.456	794.24
564.908	777.04
565.36	749.44
565.812	755.84
566.264	735.04
566.716	734.94
567.168	721.14
567.62	723.84
568.072	720.54
568.524	714.64
568.976	718.34
569.428	692.54
569.88	697.94
570.332	703.84
570.784	703.04
571.235	708.54
571.687	710.84
572.139	726.34
572.59	736.64
573.042	734.74
573.494	738.44
573.945	724.34
574.397	714.34
574.849	713.84
575.3	712.94
575.752	702.54
576.203	698.34
576.655	710.84
577.106	688.54
577.557	687.84
578.009	692.64
578.46	682.04
578.912	679.04
579.363	682.04
579.814	691.44
580.265	679.34
580.717	696.54
581.168	686.64
581.619	704.04
582.07	704.84
582.521	692.24
582.972	693.34
583.423	696.04
583.875	685.24
584.326	695.44
584.777	719.84
585.227	746.24
585.678	763.04
586.129	788.94
586.58	804.44
587.031	835.84
587.482	889.64
587.933	937.34
588.384	901.94
588.834	819.54
589.285	799.24
589.736	794.04
590.186	786.84
590.637	789.24
591.088	760.04
591.538	757.34
591.989	756.64
592.439	750.74
592.89	735.74
593.34	726.04
593.791	735.74
594.241	721.84
594.692	731.74
595.142	708.34
595.593	715.74
596.043	725.04
596.493	737.74
596.943	726.74
597.394	740.04
597.844	739.04
598.294	763.64
598.744	777.94
599.195	798.54
599.645	853.44
600.095	898.44
600.545	954.04
600.995	997.14
601.445	1070.44
601.895	1127.24
602.345	1168.34
602.795	1152.04
603.245	1115.34
603.695	1049.04
604.145	989.94
604.594	942.64
605.044	888.44
605.494	835.14
605.944	782.94
606.393	771.04
606.843	754.24
607.293	769.94
607.743	753.84
608.192	777.64
608.642	779.14
609.091	781.94
609.541	795.24
609.99	784.84
610.44	780.24
610.889	738.04
611.339	721.64
611.788	704.34
612.238	712.04
612.687	727.34
613.136	730.84
613.586	731.84
614.035	728.74
614.484	738.34
614.933	735.94
615.383	733.54
615.832	734.14
616.281	725.14
616.73	692.04
617.179	682.24
617.628	668.84
618.077	653.64
618.526	644.84
618.975	638.24
619.424	641.54
619.873	632.34
620.322	643.04
620.771	619.74
621.22	612.44
621.669	617.04
622.118	600.74
622.567	594.74
623.015	592.64
623.464	584.84
623.913	586.94
624.361	572.84
624.81	564.94
625.259	582.14
625.707	577.94
626.156	566.84
626.604	587.94
627.053	580.74
627.501	576.84
627.95	592.44
628.398	599.34
628.847	592.24
629.295	585.54
629.744	596.44
630.192	587.64
630.64	583.84
631.089	561.04
631.537	555.34
631.985	542.84
632.433	555.14
632.881	546.44
633.33	561.84
633.778	547.84
634.226	545.94
634.674	560.34
635.122	560.34
635.57	576.34
636.018	574.34
636.466	588.04
636.914	576.34
637.362	578.44
637.81	599.24
638.258	612.74
638.705	607.44
639.153	633.34
639.601	644.44
640.049	660.24
640.497	692.84
640.944	720.04
641.392	671.74
641.84	634.14
642.287	601.74
642.735	586.14
643.182	586.54
643.63	578.84
644.078	584.04
644.525	597.44
644.973	601.14
645.42	611.34
645.867	639.94
646.315	645.64
646.762	673.64
647.21	701.24
647.657	728.84
648.104	756.14
648.551	781.14
648.999	836.84
649.446	905.84
649.893	997.44
650.34	1151.94
650.787	1373.54
651.234	1674.94
651.682	2200.44
652.129	2975.44
652.576	4248.94
653.023	6202.84
653.47	8344.74
653.917	10299.94
654.363	11777.04
654.81	12927.64
655.257	12249.74
655.704	8067.64
656.151	4869.44
656.598	3197.04
657.044	2292.14
657.491	1781.64
657.938	1439.34
658.385	1203.94
658.831	1061.44
659.278	949.14
659.724	848.74
660.171	792.74
660.618	725.14
661.064	700.74
661.511	666.14
661.957	659.84
662.404	646.84
662.85	662.54
663.296	636.44
663.743	574.24
664.189	557.54
664.635	545.24
665.082	550.74
665.528	550.54
665.974	541.14
666.42	526.14
666.867	521.94
667.313	503.44
667.759	485.84
668.205	472.24
668.651	474.54
669.097	472.24
669.543	463.64
669.989	474.24
670.435	471.14
670.881	468.04
671.327	471.94
671.773	500.74
672.219	515.34
672.665	577.24
673.11	618.94
673.556	665.84
674.002	711.74
674.448	686.64
674.893	575.94
675.339	499.84
675.785	465.94
676.23	438.04
676.676	405.94
677.122	405.74
677.567	389.44
678.013	386.34
678.458	379.64
678.904	374.84
679.349	365.64
679.794	373.84
680.24	368.04
680.685	367.24
681.131	368.44
681.576	371.04
682.021	369.64
682.466	363.14
682.912	365.84
683.357	369.34
683.802	405.44
684.247	433.44
684.692	475.84
685.137	527.14
685.583	553.54
686.028	589.54
686.473	541.34
686.918	471.64
687.363	440.54
687.807	412.74
688.252	388.14
688.697	384.54
689.142	352.84
689.587	346.64
690.032	342.34
690.477	364.84
690.921	380.14
691.366	393.64
691.811	425.94
692.255	450.64
692.7	490.24
693.145	543.44
693.589	767.44
694.034	1228.94
694.478	1666.94
694.923	1840.34
695.367	2363.04
695.812	1263.94
696.256	536.14
696.701	392.74
697.145	367.14
697.59	340.64
698.034	331.74
698.478	335.44
698.922	341.74
699.367	338.74
699.811	360.84
700.255	369.14
700.699	409.44
701.143	459.14
701.588	495.44
702.032	540.54
702.476	541.14
702.92	516.44
703.364	537.44
703.808	707.94
704.252	1155.84
704.696	1577.44
705.14	1769.34
705.584	2248.74
706.027	1126.04
706.471	555.34
706.915	425.74
707.359	366.74
707.803	333.74
708.246	326.04
708.69	331.64
709.134	327.54
709.577	320.94
710.021	329.84
710.465	328.14
710.908	319.54
711.352	307.14
711.795	324.84
712.239	373.14
712.682	409.44
713.126	434.04
713.569	474.94
714.012	378.84
714.456	317.64
714.899	293.74
715.342	281.34
715.786	276.94
716.229	275.84
716.672	272.74
717.115	256.84
717.558	263.14
718.002	263.54
718.445	271.34
718.888	305.34
719.331	300.34
719.774	325.84
720.217	315.34
720.66	299.84
721.103	279.04
721.546	268.24
721.989	263.64
722.432	247.34
722.874	251.14
723.317	238.64
723.76	248.04
724.203	266.84
724.645	334.84
725.088	483.44
725.531	603.84
725.974	677.44
726.416	577.74
726.859	324.24
727.301	260.84
727.744	253.94
728.187	245.84
728.629	253.84
729.071	253.74
729.514	268.14
729.956	285.04
730.399	290.74
730.841	303.54
731.283	285.74
731.726	292.04
732.168	273.24
732.61	284.94
733.053	306.14
733.495	334.94
733.937	373.54
734.379	435.24
734.821	471.84
735.263	589.34
735.705	930.34
736.148	1775.04
736.59	2815.14
737.032	3218.34
737.474	2621.74
737.916	885.24
738.357	462.24
738.799	347.14
739.241	322.94
739.683	300.74
740.125	308.24
740.567	315.74
741.008	339.34
741.45	333.74
741.892	335.64
742.334	365.84
742.775	383.44
743.217	360.04
743.658	293.14
744.1	271.44
744.542	284.64
744.983	346.54
745.425	363.94
745.866	365.64
746.307	293.64
746.749	296.24
747.19	360.04
747.632	501.54
748.073	995.34
748.514	2078.14
748.956	3079.94
749.397	3879.34
749.838	3207.04
750.279	3101.24
750.72	1597.54
751.162	586.54
751.603	346.24
752.044	267.44
752.485	231.64
752.926	221.54
753.367	215.24
753.808	205.64
754.249	205.14
754.69	192.94
755.131	196.64
755.572	196.84
756.013	187.24
756.453	192.04
756.894	199.74
757.335	194.34
757.776	212.34
758.216	196.24
758.657	212.64
759.098	210.64
759.538	238.74
759.979	285.74
760.42	410.54
760.86	797.54
761.301	2105.64
761.741	4919.44
762.182	6776.74
762.622	4779.84
763.063	1416.64
763.503	576.84
