Data from 20171114-ORNL-Ar_H_NY_Subt18_08-06-00-261.txt Node
Date: Tue Nov 14 08:06:00 EST 2017
User: Ender
Spectrometer: HR+D1039
Trigger mode: 0
Integration Time (sec): 2.730000E-2
Scans to average: 10
Electric dark correction enabled: true
Nonlinearity correction enabled: false
Boxcar width: 0
XAxis mode: Wavelengths
Number of Pixels in Spectrum: 2048
>>>>>Begin Spectral Data<<<<<
187.836	-4.9
188.309	-4.9
188.782	-4.9
189.255	-0.2
189.728	-4.2
190.201	7.9
190.674	2.8
191.147	0.8
191.619	-6.1
192.092	0.6
192.565	5.1
193.038	7
193.511	1
193.984	-1.7
194.456	-4.5
194.929	-2.3
195.402	-0.4
195.874	-0.9
196.347	-1.6
196.82	-2.6
197.292	14.5
197.765	3.7
198.237	-6.8
198.71	7.3
199.182	1.5
199.655	-0.8
200.127	5
200.6	3.6
201.072	-3.3
201.544	1.4
202.017	-3.8
202.489	4.8
202.961	-4.5
203.433	0.2
203.906	-8.3
204.378	-2.7
204.85	1.2
205.322	-4.4
205.794	0.6
206.266	-0.8
206.739	-12
207.211	0.7
207.683	-8.6
208.155	-2.9
208.627	-7.1
209.099	-1.5
209.57	1.2
210.042	-1.9
210.514	-2.8
210.986	0.4
211.458	-5.6
211.93	-0.1
212.402	3.9
212.873	-8.4
213.345	-8.1
213.817	-11.5
214.288	1
214.76	-8.5
215.232	-2
215.703	-5.1
216.175	-3.3
216.646	-3.2
217.118	-7
217.589	-1.2
218.061	0.5
218.532	-7.6
219.004	-3.8
219.475	-3.6
219.946	-2
220.418	2.6
220.889	8.2
221.36	9.6
221.832	-0.8
222.303	-8.6
222.774	-0.1
223.245	-5.1
223.717	-9.2
224.188	2.7
224.659	-0.8
225.13	-6.9
225.601	1.5
226.072	8
226.543	-1.9
227.014	-0.2
227.485	0
227.956	-5.9
228.427	2.9
228.898	-1
229.369	5.1
229.839	-3.3
230.31	-8.3
230.781	4.6
231.252	0.1
231.722	-3.5
232.193	-4.8
232.664	-3.3
233.135	1.9
233.605	2.6
234.076	-2.7
234.546	0.7
235.017	2.5
235.487	5.1
235.958	4.1
236.428	3.1
236.899	1.5
237.369	6.8
237.84	-3.8
238.31	8
238.78	0.7
239.251	4.2
239.721	4.2
240.191	2.1
240.662	-1.2
241.132	-0.6
241.602	-1
242.072	6
242.542	5.3
243.013	-0.1
243.483	5.7
243.953	5.3
244.423	1.5
244.893	-1.3
245.363	7.4
245.833	2.9
246.303	1.8
246.773	9.5
247.243	-0.8
247.712	8.1
248.182	9.6
248.652	12.9
249.122	3.9
249.592	12.3
250.061	23.6
250.531	36.8
251.001	19.8
251.471	24.8
251.94	22.2
252.41	6.3
252.879	1.2
253.349	13.9
253.818	10.9
254.288	7.5
254.757	5.5
255.227	2.6
255.696	0.3
256.166	0.5
256.635	5.6
257.105	15.1
257.574	10.8
258.043	7.4
258.513	16.4
258.982	18.5
259.451	6.2
259.92	9.3
260.389	11.9
260.859	10.9
261.328	14.7
261.797	22.2
262.266	7.1
262.735	17.2
263.204	8.5
263.673	1.6
264.142	9.7
264.611	-2.7
265.08	0.1
265.549	2.9
266.018	6.6
266.487	1.4
266.955	4
267.424	6.7
267.893	10.1
268.362	8.9
268.83	2.2
269.299	16.9
269.768	13.9
270.236	10.3
270.705	12.8
271.174	9.8
271.642	11.7
272.111	9.7
272.579	17.9
273.048	27.4
273.516	30.5
273.985	35.6
274.453	31
274.922	22.8
275.39	14.6
275.858	8.4
276.327	13.4
276.795	21
277.263	18.1
277.731	36.7
278.2	60.4
278.668	60.7
279.136	48.9
279.604	22.6
280.072	18.5
280.54	15.8
281.008	10.5
281.477	20.8
281.945	14.9
282.413	12.5
282.881	20.2
283.348	5.2
283.816	19.1
284.284	20.7
284.752	22.3
285.22	10.9
285.688	17.1
286.156	24.9
286.623	45.9
287.091	54.6
287.559	32.7
288.026	15
288.494	22.5
288.962	6.9
289.429	7.3
289.897	22.1
290.364	17
290.832	20.6
291.3	14.8
291.767	16.5
292.234	24.4
292.702	13.3
293.169	21.9
293.637	23.6
294.104	27
294.571	20.1
295.039	16.8
295.506	12.7
295.973	22.5
296.44	18.3
296.908	21
297.375	22.8
297.842	20.2
298.309	18.3
298.776	15
299.243	26.5
299.71	17.5
300.177	25.6
300.644	27
301.111	22.2
301.578	25.2
302.045	16.1
302.512	29.1
302.979	22.8
303.446	24.5
303.913	20.4
304.379	20.3
304.846	29.9
305.313	28.6
305.78	26.4
306.246	30
306.713	30.2
307.18	32.2
307.646	34.3
308.113	30.4
308.579	30.6
309.046	31
309.512	31.1
309.979	22.7
310.445	29.6
310.912	33.7
311.378	34.3
311.845	33.2
312.311	39.3
312.777	36.8
313.244	33.4
313.71	37.2
314.176	33.9
314.642	39.7
315.109	37.2
315.575	38.5
316.041	44
316.507	37.5
316.973	40.9
317.439	35.9
317.905	38.6
318.371	36.1
318.837	39.5
319.303	39.9
319.769	35.2
320.235	33.5
320.701	41.8
321.167	42.8
321.633	35.3
322.099	43.2
322.564	48.2
323.03	43.9
323.496	39.4
323.962	42
324.427	42.6
324.893	43.6
325.359	37.5
325.824	34.7
326.29	42.3
326.755	40.7
327.221	42.3
327.686	39.6
328.152	53.9
328.617	43.9
329.083	50.9
329.548	51.1
330.014	57.4
330.479	43.1
330.944	45.6
331.41	42.7
331.875	51.6
332.34	46.5
332.805	49.5
333.271	48.1
333.736	54.2
334.201	56.2
334.666	50.5
335.131	61.7
335.596	56.1
336.061	52.8
336.526	44.2
336.991	57
337.456	61.9
337.921	56.9
338.386	50.9
338.851	49.7
339.316	51
339.781	51.5
340.246	55.2
340.711	45.7
341.175	52.3
341.64	48.6
342.105	54.3
342.569	57
343.034	65.9
343.499	61.5
343.963	55.7
344.428	64.9
344.893	64.1
345.357	64.6
345.822	59.5
346.286	69.9
346.751	74.2
347.215	66
347.679	76
348.144	103.9
348.608	84
349.073	67.5
349.537	81
350.001	87.6
350.465	92.1
350.93	85.3
351.394	84.8
351.858	77.2
352.322	84.8
352.786	85.3
353.25	101.3
353.715	111.8
354.179	111.2
354.643	129.8
355.107	130.5
355.571	114.2
356.035	108.1
356.498	121.9
356.962	130.5
357.426	141.3
357.89	126.4
358.354	94.4
358.818	87.6
359.281	88.3
359.745	84.3
360.209	80.3
360.673	78.1
361.136	83.6
361.6	87.4
362.064	90.9
362.527	86.8
362.991	87.4
363.454	80.6
363.918	80.9
364.381	88.4
364.845	89.8
365.308	97.6
365.772	92.3
366.235	94.3
366.698	86.1
367.162	88
367.625	93.2
368.088	93.2
368.552	93.2
369.015	96.8
369.478	103.6
369.941	109.5
370.404	98.2
370.867	107.8
371.331	112.8
371.794	121.6
372.257	114.4
372.72	121.1
373.183	119.5
373.646	108.3
374.109	109.5
374.572	116.1
375.035	119.8
375.497	111.3
375.96	116.6
376.423	104.8
376.886	120.3
377.349	111.8
377.811	106.9
378.274	110.5
378.737	114.1
379.199	114.3
379.662	114.8
380.125	123.2
380.587	121.2
381.05	131.8
381.512	141.2
381.975	139.9
382.437	129.1
382.9	128.9
383.362	141.6
383.825	149.7
384.287	160.9
384.75	146.3
385.212	144
385.674	149.1
386.136	143.1
386.599	129
387.061	130.7
387.523	129.2
387.985	143.8
388.447	145.1
388.91	144.3
389.372	163.1
389.834	158.1
390.296	144.8
390.758	167
391.22	178.7
391.682	224.3
392.144	299.5
392.606	236.4
393.068	174.7
393.529	173.5
393.991	158.8
394.453	152.7
394.915	155.7
395.377	198.3
395.838	220.3
396.3	161.6
396.762	146.9
397.224	136
397.685	130.7
398.147	135
398.608	129.2
399.07	128.2
399.531	138.4
399.993	147.5
400.454	157.4
400.916	144.6
401.377	152.4
401.839	154.9
402.3	154.5
402.762	175.5
403.223	181.7
403.684	181
404.145	165.8
404.607	163.7
405.068	172.3
405.529	176.7
405.99	191
406.451	179.2
406.913	178.8
407.374	171.9
407.835	170.6
408.296	174.6
408.757	175.4
409.218	196.2
409.679	181.5
410.14	182
410.601	179.4
411.062	189.5
411.522	195.1
411.983	198.4
412.444	183.3
412.905	187.1
413.366	186.3
413.826	191.3
414.287	222.4
414.748	264.7
415.208	253.6
415.669	213.5
416.13	205.5
416.59	206.2
417.051	222.3
417.511	222.3
417.972	243.3
418.432	257.6
418.893	299.2
419.353	257.6
419.814	207.4
420.274	189.7
420.734	194.4
421.195	204.3
421.655	202.8
422.115	198.5
422.576	191.5
423.036	204.4
423.496	214.5
423.956	224.4
424.416	240.3
424.876	267
425.336	267.2
425.797	268.1
426.257	258.7
426.717	248.4
427.177	240.4
427.637	236.5
428.097	240.3
428.556	251
429.016	269.9
429.476	274.4
429.936	281.8
430.396	290.1
430.856	302.8
431.315	328
431.775	359.1
432.235	386.1
432.694	368
433.154	377.7
433.614	406.2
434.073	350.4
434.533	295.2
434.993	281.6
435.452	291.9
435.912	300.5
436.371	291.7
436.83	288.1
437.29	270.5
437.749	256.7
438.209	258.9
438.668	279.4
439.127	300.3
439.587	271.6
440.046	257.6
440.505	270.5
440.964	291.4
441.424	334.1
441.883	321.4
442.342	264.9
442.801	234.1
443.26	230.4
443.719	229.3
444.178	218.4
444.637	213.8
445.096	222.9
445.555	225.6
446.014	233.4
446.473	235.9
446.932	233.8
447.391	231.3
447.849	235.4
448.308	221.1
448.767	221.2
449.226	244.8
449.685	235.3
450.143	253.4
450.602	238.4
451.061	236.6
451.519	239.4
451.978	242
452.436	245.9
452.895	245.2
453.353	261
453.812	246.1
454.27	248.4
454.729	245.9
455.187	248.6
455.646	242.1
456.104	253.7
456.562	271.8
457.021	280
457.479	269.5
457.937	282.1
458.395	271.4
458.854	258.4
459.312	267.3
459.77	276.8
460.228	263.2
460.686	244.7
461.144	255.5
461.602	239.6
462.06	243.5
462.518	257.6
462.976	258.4
463.434	263.8
463.892	271.3
464.35	272.3
464.808	296.4
465.266	273
465.724	276.6
466.181	278.7
466.639	280.3
467.097	295.6
467.555	306.6
468.012	305.3
468.47	315.3
468.928	340.7
469.385	347.6
469.843	357.7
470.3	357.7
470.758	372.3
471.215	395.9
471.673	422.3
472.13	418.5
472.588	423.9
473.045	382.5
473.503	383
473.96	403.7
474.417	407.3
474.875	442.6
475.332	476.3
475.789	466.4
476.246	465.2
476.704	494.1
477.161	512.4
477.618	536.5
478.075	579.1
478.532	626.7
478.989	706.2
479.446	819.7
479.903	796.7
480.36	834.8
480.817	882.7
481.274	997.5
481.731	1096.6
482.188	1203.1
482.645	1333
483.102	1441.3
483.558	1587.7
484.015	1653.4
484.472	1614.7
484.929	1562.1
485.385	1525.7
485.842	1476.8
486.299	1405.5
486.755	1340.6
487.212	1130.1
487.668	950.3
488.125	876.2
488.582	799.6
489.038	767.3
489.494	734.8
489.951	709.8
490.407	687
490.864	663.5
491.32	650.8
491.776	644.4
492.233	656.3
492.689	628.1
493.145	619.5
493.602	617.3
494.058	633.8
494.514	633.7
494.97	650.4
495.426	668.3
495.882	632
496.338	639
496.794	632.8
497.251	631.6
497.707	653.6
498.163	648
498.618	657.4
499.074	661.8
499.53	693.9
499.986	693.1
500.442	672.3
500.898	639.5
501.354	642.9
501.809	644.4
502.265	661.4
502.721	676.5
503.177	688.5
503.632	675.3
504.088	688.1
504.543	734.7
504.999	726.4
505.455	665.7
505.91	647.5
506.366	644.3
506.821	635.3
507.277	633.6
507.732	627.5
508.187	637.1
508.643	644.7
509.098	640
509.553	662.1
510.009	679.6
510.464	688.1
510.919	706.4
511.375	702.6
511.83	718.2
512.285	733.8
512.74	767.4
513.195	793.3
513.65	783
514.105	781.2
514.56	788.6
515.015	807.3
515.47	819.8
515.925	802.1
516.38	806.4
516.835	801.7
517.29	790.7
517.745	783.2
518.2	758.5
518.655	754.6
519.109	756
519.564	749.7
520.019	732.6
520.474	747.4
520.928	741.1
521.383	728.6
521.838	720.6
522.292	724.7
522.747	714.6
523.201	710.6
523.656	704
524.11	698.8
524.565	698.8
525.019	696.6
525.474	713.5
525.928	713.9
526.382	709.8
526.837	697
527.291	708.6
527.745	711.2
528.2	699.8
528.654	704.1
529.108	687.4
529.562	716.2
530.016	700.8
530.47	697.4
530.925	702.9
531.379	710.2
531.833	721.9
532.287	715.2
532.741	719.8
533.195	712.5
533.649	718.3
534.103	733
534.556	720.4
535.01	719.3
535.464	717.2
535.918	723.5
536.372	725.4
536.826	729
537.279	714.3
537.733	721.2
538.187	724.2
538.64	729.4
539.094	741.4
539.548	744
540.001	729.2
540.455	728.9
540.908	744.3
541.362	750.9
541.815	758.1
542.269	770.6
542.722	764.1
543.175	786.8
543.629	780.6
544.082	786.5
544.536	793.1
544.989	791.7
545.442	802.9
545.895	793.4
546.349	797.1
546.802	795.4
547.255	810.7
547.708	811.8
548.161	820.6
548.614	828.1
549.067	829.5
549.52	823.7
549.973	821.2
550.426	805.8
550.879	806.1
551.332	805.7
551.785	817.9
552.238	813.5
552.691	825.4
553.144	840.4
553.596	853.1
554.049	868.7
554.502	900.5
554.955	926.3
555.407	920.9
555.86	905.3
556.313	898.6
556.765	889.3
557.218	883.4
557.67	882.5
558.123	880.8
558.576	870.2
559.028	879.5
559.48	886
559.933	882.3
560.385	839.8
560.838	812.6
561.29	803.1
561.742	794.3
562.195	762.3
562.647	770.5
563.099	780.6
563.551	776.5
564.004	789.4
564.456	786.3
564.908	771.9
565.36	750.4
565.812	735.2
566.264	724.1
566.716	733.4
567.168	719.4
567.62	732
568.072	713.3
568.524	694.3
568.976	700.4
569.428	684.8
569.88	678.4
570.332	685.2
570.784	687.8
571.235	689.7
571.687	694.8
572.139	703
572.59	720.1
573.042	721.9
573.494	711.8
573.945	702.7
574.397	693.8
574.849	700.3
575.3	692.2
575.752	690.6
576.203	681.2
576.655	684.3
577.106	670
577.557	661.6
578.009	671.7
578.46	673.9
578.912	659.7
579.363	663.1
579.814	668.7
580.265	662.9
580.717	662.8
581.168	668.6
581.619	684.9
582.07	680.3
582.521	675.5
582.972	677.9
583.423	686.1
583.875	686.8
584.326	700.4
584.777	748.1
585.227	837.7
585.678	926.6
586.129	1015.3
586.58	1092.1
587.031	1175.2
587.482	1346.5
587.933	1540.5
588.384	1338
588.834	993.9
589.285	809.3
589.736	789.3
590.186	787.9
590.637	769.6
591.088	731.6
591.538	741.3
591.989	732.1
592.439	733.6
592.89	725.7
593.34	709.1
593.791	702.3
594.241	702.2
594.692	714.3
595.142	702.5
595.593	697.5
596.043	710.3
596.493	718.6
596.943	715.9
597.394	730.7
597.844	711.6
598.294	733.9
598.744	749.3
599.195	773
599.645	807
600.095	852.1
600.545	916.5
600.995	969.8
601.445	1024
601.895	1086.5
602.345	1134.9
602.795	1105.7
603.245	1063.4
603.695	1010.3
604.145	947
604.594	904
605.044	849.6
605.494	786.8
605.944	753.1
606.393	738
606.843	723.5
607.293	735.2
607.743	718.7
608.192	751.4
608.642	757.1
609.091	772.1
609.541	766
609.99	778.6
610.44	771.7
610.889	712.9
611.339	691.8
611.788	695.7
612.238	704.6
612.687	717
613.136	722.9
613.586	745.1
614.035	743.2
614.484	755.1
614.933	763.9
615.383	751.9
615.832	741.8
616.281	721
616.73	681.7
617.179	662.7
617.628	644.2
618.077	637.4
618.526	616.7
618.975	621.1
619.424	612.1
619.873	612.6
620.322	616.3
620.771	606.3
621.22	593.2
621.669	588.3
622.118	590
622.567	577
623.015	568.1
623.464	561.3
623.913	564
624.361	544.4
624.81	545.6
625.259	549.1
625.707	560.9
626.156	558
626.604	564.5
627.053	553.5
627.501	551.9
627.95	555.9
628.398	577.3
628.847	558.1
629.295	561.2
629.744	567.2
630.192	565.5
630.64	551.4
631.089	555.1
631.537	568.4
631.985	586.6
632.433	594.8
632.881	614.4
633.33	658.6
633.778	638
634.226	562.6
634.674	570.2
635.122	580
635.57	590.5
636.018	619.6
636.466	579.2
636.914	553.2
637.362	559.1
637.81	565.6
638.258	570
638.705	562.1
639.153	603.3
639.601	612.9
640.049	633.7
640.497	664.5
640.944	690.3
641.392	640.1
641.84	608.9
642.287	581.6
642.735	559.9
643.182	573.9
643.63	562.8
644.078	575.9
644.525	586.9
644.973	590.4
645.42	603
645.867	614.6
646.315	634
646.762	652.8
647.21	683.5
647.657	706.3
648.104	740.6
648.551	776.9
648.999	831.3
649.446	917
649.893	1010.4
650.34	1159.5
650.787	1386.5
651.234	1711.6
651.682	2231.8
652.129	3108.5
652.576	4433.5
653.023	6544.2
653.47	9030.5
653.917	11321.2
654.363	13073.7
654.81	14489.2
655.257	13803.3
655.704	9034.6
656.151	5334.8
656.598	3444.5
657.044	2441.1
657.491	1858.8
657.938	1482.3
658.385	1228.4
658.831	1081.6
659.278	957.7
659.724	850.2
660.171	778.1
660.618	719.9
661.064	683
661.511	670.3
661.957	647.2
662.404	641.2
662.85	642.1
663.296	622.7
663.743	558.5
664.189	521.5
664.635	517.4
665.082	520.5
665.528	528.4
665.974	509.4
666.42	507.7
666.867	498.8
667.313	485.5
667.759	472.8
668.205	481.6
668.651	479.3
669.097	478.3
669.543	505.1
669.989	471.3
670.435	444.2
670.881	437.8
671.327	438
671.773	463.3
672.219	482.3
672.665	535.1
673.11	567.2
673.556	618.5
674.002	648
674.448	645
674.893	540.5
675.339	471.4
675.785	432.2
676.23	415.8
676.676	384.8
677.122	379.4
677.567	363.7
678.013	352.9
678.458	351.6
678.904	349.9
679.349	341.7
679.794	344
680.24	340.5
680.685	335.7
681.131	340.1
681.576	340.2
682.021	353.3
682.466	344.3
682.912	343.5
683.357	350.8
683.802	378.2
684.247	407
684.692	450.8
685.137	482.8
685.583	527.7
686.028	555.4
686.473	504.2
686.918	439.7
687.363	410.4
687.807	390.9
688.252	357.2
688.697	345.4
689.142	335.8
689.587	323.8
690.032	313.9
690.477	342
690.921	350.5
691.366	378.7
691.811	397.9
692.255	429.7
692.7	454.2
693.145	496.8
693.589	670.1
694.034	1082.3
694.478	1490.5
694.923	1684.8
695.367	2212.5
695.812	1178.8
696.256	487.8
696.701	367.8
697.145	334.5
697.59	317.4
698.034	317.5
698.478	326.6
698.922	316.2
699.367	324.7
699.811	331
700.255	355.7
700.699	372
701.143	418
701.588	457.9
702.032	497.4
702.476	491.1
702.92	476.2
703.364	482.8
703.808	614.1
704.252	996.7
704.696	1401.8
705.14	1641.1
705.584	2083.1
706.027	1041.5
706.471	510.7
706.915	384.9
707.359	343
707.803	314.2
708.246	303.8
708.69	308.3
709.134	314.2
709.577	305.9
710.021	310.8
710.465	296.8
710.908	297.4
711.352	290.5
711.795	309.3
712.239	347.5
712.682	376.9
713.126	410.5
713.569	451
714.012	365.3
714.456	323.3
714.899	294.6
715.342	273.5
715.786	252.8
716.229	249.3
716.672	251.9
717.115	247.2
717.558	246.8
718.002	248.3
718.445	262.8
718.888	280.1
719.331	284.8
719.774	304.5
720.217	298.9
720.66	275.7
721.103	253
721.546	241.6
721.989	242.2
722.432	225
722.874	233
723.317	226.6
723.76	228.9
724.203	253.6
724.645	302.3
725.088	437.1
725.531	560.3
725.974	620.9
726.416	535.5
726.859	299.2
727.301	245.8
727.744	238.2
728.187	229.5
728.629	236
729.071	244.3
729.514	252.3
729.956	271.4
730.399	268.7
730.841	276.4
731.283	268.1
731.726	257.8
732.168	256
732.61	264.1
733.053	280.5
733.495	300.6
733.937	341.5
734.379	380.7
734.821	420.7
735.263	524.9
735.705	792.3
736.148	1510.8
736.59	2472
737.032	2968.2
737.474	2423
737.916	786.3
738.357	415
738.799	316.1
739.241	294
739.683	277.3
740.125	288.9
740.567	286.6
741.008	310.3
741.45	308.2
741.892	313.5
742.334	338
742.775	346.3
743.217	332.1
743.658	271.8
744.1	240.5
744.542	255.9
744.983	303.5
745.425	340.5
745.866	332.7
746.307	283.2
746.749	275
747.19	316.3
747.632	436.9
748.073	836
748.514	1775.1
748.956	2740.2
749.397	3427.8
749.838	2868.6
750.279	2877.5
750.72	1453.1
751.162	541.8
751.603	309.1
752.044	240.4
752.485	213.6
752.926	210
753.367	203.1
753.808	191.6
754.249	180.1
754.69	190.1
755.131	187.1
755.572	177.2
756.013	174
756.453	182.5
756.894	182.3
757.335	190.5
757.776	190
758.216	191.5
758.657	191.6
759.098	194
759.538	227.3
759.979	255.2
760.42	358.6
760.86	676.4
761.301	1723.4
761.741	4228.9
762.182	6264.4
762.622	4418.1
763.063	1268.7
763.503	519.3
763.943	331.2
764.384	339.6
764.824	412.5
765.264	453.6
765.705	316
766.145	202.5
766.585	186
767.025	180.7
767.465	191.7
767.906	246.9
768.346	325.5
768.786	346.4
769.226	259.3
769.666	305.5
770.106	587.8
770.546	1481.9
770.986	2575.6
771.426	2318.5
771.866	764.7
772.306	320.4
772.745	209.5
773.185	171
773.625	167.4
774.065	164.6
774.505	199.2
774.944	306.4
775.384	684.7
775.824	1245.9
776.263	1224.2
776.703	519.1
777.142	231.7
777.582	154.5
778.021	135.6
778.461	145.5
778.9	136.1
779.34	134.2
779.779	114
780.219	109.3
780.658	108.5
781.097	113.3
781.537	110.6
781.976	105.9
782.415	111.7
782.855	104.4
783.294	104.7
783.733	108.8
784.172	110.7
784.611	98.9
785.05	114.1
785.489	109.8
785.928	112.9
786.367	121.8
786.806	113.3
787.245	129.1
787.684	137.1
788.123	149
788.562	131.4
789.001	124.5
789.44	119.5
789.879	114.5
790.317	118.6
790.756	122.9
791.195	132.9
791.634	141.1
792.072	193.5
792.511	347.7
792.95	952.9
793.388	2071.8
793.827	1895.4
794.265	662
794.704	272
795.142	175.1
795.581	150.9
796.019	128
796.458	127.8
796.896	119.2
797.334	129.7
797.773	149.1
798.211	215.5
798.649	411.7
799.087	986.6
799.526	1539
799.964	1937
800.402	1956.7
800.84	732.7
801.278	291.6
801.716	181.8
802.154	152.8
802.592	141.7
803.03	137.9
803.468	128.4
803.906	141.4
804.344	147.2
804.782	137.6
805.22	121.7
805.658	122.5
806.096	143.2
806.533	155.6
806.971	168.4
