Data from 20171114-ORNL-Ar_H_NY_Subt18_08-08-41-317.txt Node
Date: Tue Nov 14 08:08:41 EST 2017
User: Ender
Spectrometer: HR+D1039
Trigger mode: 0
Integration Time (sec): 2.730000E-2
Scans to average: 10
Electric dark correction enabled: true
Nonlinearity correction enabled: false
Boxcar width: 0
XAxis mode: Wavelengths
Number of Pixels in Spectrum: 2048
>>>>>Begin Spectral Data<<<<<
187.836	-3.23
188.309	-3.23
188.782	-3.23
189.255	3.47
189.728	-2.43
190.201	5.67
190.674	-1.53
191.147	0.47
191.619	-3.03
192.092	1.47
192.565	2.57
193.038	0.47
193.511	0.47
193.984	7.77
194.456	-3.73
194.929	-2.43
195.402	-4.73
195.874	-1.23
196.347	-3.83
196.82	-10.43
197.292	1.77
197.765	-1.93
198.237	-11.43
198.71	-0.53
199.182	-1.03
199.655	1.17
200.127	-3.93
200.6	-5.63
201.072	-4.63
201.544	-1.93
202.017	-2.73
202.489	0.27
202.961	-0.83
203.433	-4.13
203.906	-11.43
204.378	-9.13
204.85	-4.33
205.322	-8.63
205.794	-5.03
206.266	-1.73
206.739	-5.63
207.211	-1.13
207.683	-12.03
208.155	-8.43
208.627	-7.93
209.099	-6.73
209.57	-11.13
210.042	-6.73
210.514	-5.53
210.986	-4.83
211.458	-7.73
211.93	-6.63
212.402	-5.53
212.873	-8.43
213.345	-8.43
213.817	-10.93
214.288	-8.93
214.76	-14.63
215.232	-1.93
215.703	-5.13
216.175	-5.43
216.646	-9.63
217.118	-11.13
217.589	-5.43
218.061	-2.13
218.532	-6.53
219.004	-3.93
219.475	-6.53
219.946	-3.73
220.418	-2.53
220.889	0.67
221.36	1.17
221.832	-8.93
222.303	-5.93
222.774	-1.73
223.245	-10.63
223.717	-9.83
224.188	-6.73
224.659	-9.43
225.13	-9.73
225.601	-3.53
226.072	0.07
226.543	-3.53
227.014	-5.43
227.485	-6.23
227.956	-13.33
228.427	-6.23
228.898	-4.73
229.369	-0.93
229.839	-1.13
230.31	-10.93
230.781	1.37
231.252	-12.53
231.722	-8.93
232.193	-6.23
232.664	-2.93
233.135	-0.73
233.605	-3.23
234.076	-11.73
234.546	-5.13
235.017	1.67
235.487	-3.23
235.958	-3.43
236.428	-2.23
236.899	-3.03
237.369	3.97
237.84	0.07
238.31	-1.03
238.78	-5.03
239.251	-5.53
239.721	0.47
240.191	-4.23
240.662	-8.63
241.132	-6.53
241.602	0.57
242.072	-1.23
242.542	3.77
243.013	-11.63
243.483	-0.83
243.953	2.97
244.423	-3.03
244.893	-10.23
245.363	1.47
245.833	1.17
246.303	-4.43
246.773	7.57
247.243	-5.03
247.712	-5.73
248.182	1.97
248.652	0.67
249.122	-7.33
249.592	5.67
250.061	1.47
250.531	13.47
251.001	3.37
251.471	2.67
251.94	8.17
252.41	-0.83
252.879	-5.33
253.349	5.67
253.818	1.97
254.288	0.37
254.757	-0.93
255.227	-7.43
255.696	-3.33
256.166	3.17
256.635	-0.23
257.105	-2.93
257.574	-0.73
258.043	-1.43
258.513	-8.33
258.982	2.57
259.451	1.47
259.92	7.77
260.389	-0.43
260.859	2.97
261.328	5.47
261.797	7.77
262.266	2.97
262.735	6.77
263.204	4.47
263.673	-4.93
264.142	0.27
264.611	-3.33
265.08	-0.53
265.549	-2.03
266.018	1.67
266.487	-5.73
266.955	-5.53
267.424	-7.73
267.893	4.07
268.362	1.27
268.83	-5.63
269.299	7.87
269.768	5.67
270.236	-0.13
270.705	-8.43
271.174	0.07
271.642	-1.23
272.111	4.17
272.579	0.47
273.048	7.57
273.516	6.17
273.985	10.37
274.453	12.27
274.922	7.67
275.39	2.47
275.858	-5.43
276.327	5.47
276.795	11.47
277.263	6.47
277.731	16.97
278.2	21.67
278.668	22.47
279.136	17.87
279.604	8.47
280.072	6.87
280.54	7.07
281.008	3.17
281.477	9.27
281.945	12.47
282.413	10.57
282.881	6.27
283.348	0.87
283.816	6.17
284.284	8.97
284.752	12.57
285.22	4.37
285.688	10.67
286.156	5.77
286.623	19.17
287.091	16.67
287.559	14.37
288.026	4.77
288.494	10.67
288.962	1.37
289.429	7.97
289.897	13.17
290.364	10.17
290.832	13.07
291.3	12.87
291.767	16.67
292.234	13.97
292.702	5.97
293.169	13.07
293.637	14.17
294.104	12.67
294.571	0.07
295.039	5.67
295.506	4.97
295.973	8.17
296.44	7.77
296.908	13.77
297.375	13.37
297.842	11.47
298.309	14.77
298.776	6.37
299.243	13.97
299.71	7.17
300.177	8.87
300.644	14.37
301.111	17.57
301.578	15.07
302.045	14.17
302.512	17.17
302.979	13.77
303.446	16.67
303.913	11.07
304.379	8.27
304.846	22.67
305.313	23.37
305.78	14.17
306.246	15.77
306.713	21.27
307.18	14.27
307.646	19.17
308.113	21.37
308.579	22.17
309.046	17.97
309.512	18.17
309.979	9.57
310.445	21.37
310.912	18.37
311.378	23.07
311.845	26.87
312.311	23.17
312.777	29.47
313.244	23.77
313.71	27.67
314.176	18.77
314.642	16.87
315.109	17.97
315.575	23.27
316.041	32.37
316.507	26.47
316.973	27.77
317.439	21.47
317.905	30.97
318.371	27.47
318.837	24.57
319.303	30.17
319.769	23.87
320.235	27.27
320.701	29.77
321.167	28.07
321.633	25.47
322.099	31.77
322.564	29.97
323.03	31.07
323.496	32.17
323.962	36.77
324.427	25.27
324.893	37.37
325.359	28.47
325.824	36.77
326.29	35.47
326.755	33.67
327.221	30.87
327.686	32.57
328.152	40.37
328.617	34.27
329.083	39.57
329.548	40.27
330.014	35.27
330.479	33.67
330.944	29.97
331.41	36.47
331.875	40.37
332.34	41.77
332.805	38.77
333.271	41.37
333.736	31.17
334.201	43.27
334.666	44.67
335.131	41.97
335.596	42.77
336.061	43.37
336.526	32.27
336.991	42.77
337.456	43.97
337.921	36.97
338.386	31.77
338.851	35.37
339.316	39.57
339.781	37.67
340.246	38.87
340.711	40.47
341.175	43.27
341.64	33.87
342.105	39.77
342.569	40.57
343.034	46.67
343.499	45.17
343.963	43.37
344.428	51.47
344.893	46.67
345.357	56.57
345.822	50.77
346.286	53.77
346.751	59.77
347.215	57.87
347.679	62.77
348.144	81.17
348.608	72.27
349.073	58.47
349.537	62.57
350.001	68.37
350.465	75.17
350.93	67.77
351.394	68.87
351.858	64.77
352.322	79.27
352.786	72.97
353.25	85.07
353.715	91.27
354.179	86.17
354.643	107.77
355.107	103.87
355.571	93.97
356.035	83.37
356.498	94.97
356.962	103.27
357.426	109.77
357.89	100.97
358.354	77.07
358.818	75.97
359.281	71.67
359.745	64.67
360.209	65.17
360.673	72.37
361.136	65.27
361.6	74.97
362.064	74.67
362.527	71.57
362.991	82.37
363.454	66.67
363.918	67.97
364.381	64.47
364.845	67.37
365.308	75.77
365.772	77.87
366.235	79.07
366.698	77.07
367.162	78.07
367.625	71.37
368.088	78.47
368.552	78.37
369.015	81.37
369.478	84.57
369.941	89.67
370.404	84.07
370.867	89.97
371.331	96.67
371.794	97.37
372.257	95.97
372.72	101.37
373.183	94.67
373.646	81.97
374.109	84.67
374.572	99.17
375.035	97.27
375.497	99.97
375.96	93.77
376.423	87.37
376.886	104.17
377.349	98.57
377.811	95.17
378.274	95.57
378.737	98.27
379.199	95.77
379.662	96.37
380.125	101.07
380.587	96.57
381.05	102.57
381.512	102.07
381.975	116.27
382.437	107.17
382.9	113.77
383.362	112.37
383.825	129.57
384.287	124.87
384.75	119.47
385.212	118.27
385.674	125.77
386.136	119.97
386.599	113.17
387.061	115.57
387.523	124.67
387.985	123.17
388.447	124.67
388.91	121.97
389.372	129.37
389.834	121.27
390.296	124.47
390.758	129.47
391.22	141.97
391.682	167.37
392.144	198.97
392.606	171.37
393.068	138.27
393.529	151.37
393.991	134.37
394.453	132.17
394.915	133.37
395.377	146.67
395.838	155.57
396.3	130.37
396.762	137.37
397.224	129.17
397.685	122.07
398.147	129.07
398.608	127.17
399.07	124.17
399.531	130.97
399.993	134.37
400.454	149.87
400.916	140.07
401.377	137.17
401.839	135.67
402.3	139.77
402.762	153.57
403.223	162.47
403.684	158.37
404.145	153.77
404.607	153.67
405.068	160.07
405.529	159.77
405.99	178.47
406.451	166.07
406.913	169.97
407.374	154.67
407.835	155.77
408.296	155.27
408.757	159.27
409.218	178.77
409.679	169.97
410.14	162.37
410.601	175.27
411.062	174.17
411.522	177.17
411.983	168.97
412.444	166.87
412.905	178.17
413.366	173.27
413.826	185.37
414.287	207.87
414.748	252.57
415.208	239.07
415.669	204.37
416.13	196.17
416.59	199.87
417.051	212.67
417.511	215.47
417.972	230.27
418.432	236.37
418.893	274.07
419.353	247.77
419.814	197.47
420.274	180.67
420.734	171.97
421.195	191.47
421.655	187.37
422.115	191.87
422.576	191.07
423.036	198.97
423.496	200.47
423.956	209.37
424.416	225.17
424.876	262.57
425.336	260.07
425.797	260.97
426.257	249.77
426.717	229.67
427.177	225.97
427.637	219.77
428.097	229.47
428.556	238.67
429.016	254.97
429.476	250.77
429.936	265.17
430.396	267.87
430.856	275.47
431.315	300.57
431.775	337.27
432.235	366.07
432.694	345.87
433.154	347.47
433.614	381.57
434.073	319.87
434.533	272.17
434.993	258.27
435.452	271.37
435.912	277.07
436.371	280.47
436.83	267.17
437.29	261.87
437.749	242.67
438.209	235.57
438.668	270.97
439.127	282.67
439.587	253.97
440.046	241.57
440.505	257.97
440.964	272.07
441.424	307.57
441.883	309.27
442.342	253.97
442.801	224.17
443.26	219.07
443.719	221.97
444.178	218.77
444.637	210.37
445.096	220.77
445.555	224.47
446.014	221.67
446.473	227.67
446.932	228.77
447.391	224.07
447.849	231.57
448.308	209.67
448.767	218.37
449.226	227.37
449.685	233.97
450.143	250.77
450.602	237.07
451.061	220.17
451.519	229.17
451.978	224.47
452.436	234.27
452.895	233.37
453.353	246.27
453.812	238.97
454.27	241.67
454.729	241.47
455.187	241.17
455.646	240.37
456.104	246.27
456.562	255.07
457.021	263.57
457.479	260.27
457.937	266.97
458.395	261.57
458.854	246.87
459.312	256.27
459.77	269.47
460.228	254.07
460.686	244.67
461.144	250.57
461.602	246.87
462.06	242.37
462.518	253.97
462.976	253.17
463.434	259.37
463.892	262.47
464.35	274.57
464.808	281.27
465.266	259.07
465.724	265.97
466.181	272.97
466.639	268.07
467.097	284.97
467.555	294.87
468.012	300.37
468.47	300.57
468.928	322.47
469.385	331.67
469.843	343.17
470.3	347.97
470.758	366.47
471.215	375.17
471.673	401.07
472.13	399.47
472.588	419.77
473.045	371.77
473.503	379.17
473.96	393.07
474.417	398.97
474.875	435.87
475.332	473.37
475.789	455.97
476.246	460.77
476.704	480.87
477.161	498.97
477.618	506.47
478.075	550.67
478.532	605.87
478.989	679.37
479.446	785.07
479.903	747.47
480.36	780.07
480.817	819.27
481.274	914.67
481.731	999.57
482.188	1093.17
482.645	1212.77
483.102	1300.67
483.558	1425.07
484.015	1469.67
484.472	1440.17
484.929	1381.97
485.385	1355.27
485.842	1315.97
486.299	1262.97
486.755	1222.07
487.212	1043.67
487.668	885.17
488.125	816.07
488.582	750.87
489.038	721.07
489.494	695.67
489.951	673.97
490.407	649.47
490.864	635.57
491.32	631.67
491.776	638.67
492.233	644.37
492.689	605.17
493.145	594.57
493.602	589.37
494.058	608.77
494.514	612.57
494.97	616.97
495.426	640.77
495.882	607.67
496.338	603.37
496.794	619.37
497.251	610.87
497.707	616.87
498.163	621.87
498.618	626.77
499.074	636.97
499.53	662.97
499.986	666.37
500.442	640.37
500.898	621.67
501.354	614.47
501.809	624.17
502.265	621.37
502.721	640.57
503.177	638.37
503.632	640.77
504.088	645.87
504.543	670.47
504.999	701.17
505.455	654.27
505.91	631.37
506.366	632.07
506.821	629.07
507.277	622.97
507.732	628.27
508.187	627.47
508.643	648.17
509.098	638.67
509.553	649.67
510.009	669.17
510.464	666.47
510.919	686.57
511.375	685.37
511.83	699.07
512.285	711.77
512.74	756.27
513.195	772.77
513.65	767.47
514.105	754.67
514.56	770.17
515.015	784.87
515.47	797.87
515.925	784.27
516.38	783.77
516.835	781.87
517.29	773.07
517.745	767.67
518.2	758.57
518.655	743.37
519.109	738.87
519.564	734.67
520.019	722.07
520.474	725.87
520.928	720.37
521.383	712.57
521.838	708.27
522.292	712.97
522.747	704.07
523.201	704.77
523.656	707.17
524.11	693.67
524.565	686.07
525.019	691.17
525.474	704.17
525.928	699.17
526.382	688.57
526.837	699.07
527.291	694.77
527.745	687.47
528.2	683.67
528.654	698.87
529.108	687.97
529.562	683.37
530.016	690.97
530.47	679.37
530.925	687.97
531.379	687.37
531.833	697.57
532.287	685.57
532.741	698.57
533.195	690.37
533.649	704.27
534.103	712.07
534.556	696.47
535.01	704.17
535.464	696.57
535.918	717.37
536.372	704.87
536.826	714.37
537.279	702.47
537.733	702.97
538.187	708.97
538.64	698.37
539.094	716.07
539.548	718.97
540.001	716.17
540.455	719.67
540.908	727.77
541.362	735.07
541.815	740.07
542.269	750.57
542.722	752.27
543.175	755.67
543.629	767.57
544.082	782.77
544.536	777.27
544.989	788.07
545.442	806.67
545.895	792.97
546.349	793.87
546.802	789.87
547.255	788.97
547.708	804.87
548.161	807.67
548.614	816.07
549.067	817.57
549.52	820.97
549.973	819.57
550.426	808.87
550.879	801.07
551.332	799.77
551.785	810.47
552.238	807.87
552.691	808.77
553.144	840.77
553.596	857.57
554.049	859.97
554.502	893.67
554.955	909.47
555.407	916.37
555.86	901.37
556.313	896.17
556.765	881.57
557.218	881.87
557.67	877.57
558.123	872.97
558.576	855.47
559.028	881.67
559.48	887.77
559.933	871.67
560.385	842.87
560.838	820.27
561.29	795.67
561.742	787.67
562.195	765.47
562.647	763.07
563.099	787.87
563.551	769.47
564.004	784.87
564.456	781.87
564.908	758.47
565.36	744.27
565.812	724.07
566.264	715.77
566.716	729.37
567.168	714.07
567.62	715.17
568.072	711.87
568.524	696.67
568.976	697.27
569.428	688.87
569.88	677.77
570.332	685.97
570.784	695.07
571.235	684.77
571.687	699.67
572.139	709.27
572.59	718.27
573.042	715.87
573.494	705.37
573.945	713.17
574.397	688.77
574.849	692.87
575.3	692.87
575.752	689.57
576.203	680.37
576.655	685.57
577.106	666.07
577.557	677.87
578.009	664.07
578.46	673.27
578.912	668.97
579.363	662.87
579.814	662.77
580.265	672.47
580.717	672.87
581.168	664.27
581.619	683.27
582.07	695.07
582.521	678.37
582.972	677.67
583.423	684.57
583.875	675.47
584.326	689.67
584.777	722.57
585.227	764.17
585.678	802.17
586.129	841.27
586.58	888.37
587.031	931.07
587.482	999.87
587.933	1098.17
588.384	1010.37
588.834	871.37
589.285	797.17
589.736	785.07
590.186	777.97
590.637	777.37
591.088	749.97
591.538	742.47
591.989	739.07
592.439	728.17
592.89	728.37
593.34	710.27
593.791	714.87
594.241	704.77
594.692	704.27
595.142	699.07
595.593	702.77
596.043	705.57
596.493	718.47
596.943	722.97
597.394	731.57
597.844	720.37
598.294	737.17
598.744	757.57
599.195	790.97
599.645	833.67
600.095	866.07
600.545	923.57
600.995	982.77
601.445	1045.97
601.895	1090.87
602.345	1136.27
602.795	1117.87
603.245	1079.47
603.695	1016.87
604.145	974.57
604.594	923.27
605.044	867.07
605.494	809.37
605.944	763.77
606.393	746.87
606.843	739.17
607.293	740.97
607.743	734.77
608.192	746.87
608.642	753.57
609.091	761.17
609.541	767.47
609.99	769.47
610.44	763.67
610.889	728.17
611.339	701.57
611.788	694.57
612.238	692.67
612.687	709.87
613.136	701.07
613.586	724.17
614.035	713.77
614.484	732.87
614.933	721.47
615.383	721.17
615.832	723.87
616.281	717.17
616.73	678.97
617.179	659.67
617.628	644.17
618.077	629.47
618.526	627.97
618.975	615.37
619.424	620.87
619.873	618.57
620.322	622.97
620.771	610.17
621.22	615.77
621.669	591.87
622.118	585.77
622.567	587.37
623.015	564.67
623.464	565.77
623.913	560.47
624.361	553.97
624.81	560.17
625.259	556.57
625.707	559.77
626.156	549.67
626.604	572.67
627.053	567.77
627.501	569.67
627.95	582.77
628.398	583.17
628.847	566.37
629.295	584.37
629.744	581.37
630.192	566.77
630.64	576.67
631.089	565.37
631.537	564.87
631.985	560.37
632.433	567.97
632.881	563.27
633.33	591.37
633.778	577.87
634.226	552.47
634.674	560.67
635.122	559.67
635.57	567.67
636.018	594.67
636.466	577.37
636.914	557.57
637.362	578.47
637.81	579.17
638.258	587.47
638.705	590.57
639.153	622.77
639.601	623.27
640.049	645.97
640.497	681.07
640.944	697.97
641.392	648.67
641.84	620.27
642.287	590.37
642.735	573.17
643.182	574.47
643.63	570.77
644.078	570.87
644.525	581.17
644.973	590.47
645.42	604.57
645.867	619.17
646.315	647.57
646.762	667.87
647.21	691.17
647.657	706.77
648.104	750.47
648.551	764.97
648.999	822.47
649.446	900.77
649.893	993.17
650.34	1132.47
650.787	1354.17
651.234	1678.67
651.682	2171.77
652.129	2970.87
652.576	4235.27
653.023	6180.97
653.47	8394.17
653.917	10320.07
654.363	11847.17
654.81	13009.87
655.257	12330.37
655.704	8147.47
656.151	4874.37
656.598	3199.97
657.044	2294.57
657.491	1767.67
657.938	1424.37
658.385	1208.47
658.831	1046.17
659.278	949.17
659.724	845.87
660.171	779.87
660.618	712.57
661.064	676.57
661.511	666.67
661.957	658.27
662.404	635.67
662.85	644.27
663.296	619.37
663.743	564.87
664.189	537.97
664.635	536.17
665.082	526.87
665.528	537.57
665.974	522.17
666.42	517.97
666.867	516.37
667.313	493.27
667.759	482.17
668.205	461.57
668.651	464.07
669.097	462.67
669.543	463.87
669.989	454.67
670.435	451.87
670.881	458.67
671.327	467.07
671.773	478.97
672.219	494.67
672.665	554.07
673.11	592.77
673.556	649.97
674.002	678.67
674.448	661.37
674.893	557.57
675.339	484.67
675.785	448.37
676.23	437.07
676.676	396.97
677.122	392.97
677.567	384.67
678.013	377.27
678.458	365.57
678.904	366.07
679.349	355.17
679.794	360.17
680.24	358.27
680.685	359.47
681.131	346.57
681.576	350.07
682.021	359.27
682.466	355.77
682.912	349.77
683.357	351.47
683.802	390.27
684.247	419.77
684.692	466.77
685.137	508.07
685.583	534.17
686.028	577.27
686.473	533.07
686.918	458.67
687.363	416.67
687.807	404.47
688.252	372.67
688.697	369.77
689.142	340.87
689.587	340.07
690.032	336.77
690.477	347.77
690.921	358.07
691.366	395.47
691.811	411.57
692.255	442.47
692.7	466.97
693.145	520.67
693.589	733.27
694.034	1190.87
694.478	1591.17
694.923	1769.87
695.367	2281.27
695.812	1219.67
696.256	514.97
696.701	378.47
697.145	349.37
697.59	339.17
698.034	325.87
698.478	336.47
698.922	326.47
699.367	330.47
699.811	341.17
700.255	359.87
700.699	396.17
701.143	436.47
701.588	489.87
702.032	526.67
702.476	523.97
702.92	501.07
703.364	511.67
703.808	671.47
704.252	1093.67
704.696	1508.27
705.14	1701.37
705.584	2155.17
706.027	1091.07
706.471	530.97
706.915	406.67
707.359	361.87
707.803	335.37
708.246	317.97
708.69	314.57
709.134	327.17
709.577	316.77
710.021	320.57
710.465	309.97
710.908	296.17
711.352	305.57
711.795	316.47
712.239	356.57
712.682	384.57
713.126	411.47
713.569	459.37
714.012	365.47
714.456	319.77
714.899	302.47
715.342	276.67
715.786	269.67
716.229	270.77
716.672	259.57
717.115	254.47
717.558	256.97
718.002	256.47
718.445	267.47
718.888	288.37
719.331	297.97
719.774	312.47
720.217	310.17
720.66	287.37
721.103	268.67
721.546	261.67
721.989	259.97
722.432	235.27
722.874	238.07
723.317	230.37
723.76	242.87
724.203	267.27
724.645	326.37
725.088	455.77
725.531	583.97
725.974	651.37
726.416	555.77
726.859	303.67
727.301	252.47
727.744	247.77
728.187	234.37
728.629	242.17
729.071	245.37
729.514	263.77
729.956	274.97
730.399	293.47
730.841	296.37
731.283	283.57
731.726	270.37
732.168	271.77
732.61	276.77
733.053	291.97
733.495	319.37
733.937	361.67
734.379	423.07
734.821	445.57
735.263	579.37
735.705	885.77
736.148	1689.87
736.59	2692.77
737.032	3092.77
737.474	2528.27
737.916	836.97
738.357	452.27
738.799	330.67
739.241	302.87
739.683	288.47
740.125	302.57
740.567	307.67
741.008	327.27
741.45	326.67
741.892	326.77
742.334	363.17
742.775	367.37
743.217	362.07
743.658	279.77
744.1	268.07
744.542	271.37
744.983	326.87
745.425	349.57
745.866	350.87
746.307	284.97
746.749	291.07
747.19	336.07
747.632	478.47
748.073	958.57
748.514	1993.67
748.956	2931.47
749.397	3694.57
749.838	3063.57
750.279	2995.67
750.72	1519.47
751.162	566.27
751.603	334.97
752.044	260.97
752.485	221.17
752.926	216.77
753.367	204.97
753.808	198.07
754.249	202.97
754.69	189.97
755.131	191.27
755.572	181.97
756.013	183.97
756.453	191.37
756.894	188.37
757.335	194.67
757.776	202.77
758.216	207.07
758.657	201.57
759.098	212.47
759.538	229.67
759.979	278.57
760.42	396.27
760.86	767.57
761.301	1984.17
761.741	4675.07
762.182	6482.37
762.622	4589.67
763.063	1349.97
