Data from 20171114-ORNL-Ar_H_NY_Subt18_08-06-41-480.txt Node
Date: Tue Nov 14 08:06:41 EST 2017
User: Ender
Spectrometer: HR+D1039
Trigger mode: 0
Integration Time (sec): 2.730000E-2
Scans to average: 10
Electric dark correction enabled: true
Nonlinearity correction enabled: false
Boxcar width: 0
XAxis mode: Wavelengths
Number of Pixels in Spectrum: 2048
>>>>>Begin Spectral Data<<<<<
187.836	-4.35
188.309	-4.35
188.782	-4.35
189.255	-0.35
189.728	-1.15
190.201	8.25
190.674	-0.15
191.147	2.05
191.619	-9.15
192.092	2.05
192.565	1.75
193.038	-0.95
193.511	-0.25
193.984	0.55
194.456	1.15
194.929	2.65
195.402	0.65
195.874	-2.75
196.347	0.15
196.82	-7.95
197.292	4.35
197.765	-4.35
198.237	1.15
198.71	7.75
199.182	0.55
199.655	1.65
200.127	3.85
200.6	-5.75
201.072	-2.85
201.544	-8.45
202.017	0.95
202.489	1.45
202.961	-0.55
203.433	-5.45
203.906	-4.75
204.378	-2.95
204.85	-4.75
205.322	-9.65
205.794	-2.25
206.266	-3.95
206.739	-6.85
207.211	0.25
207.683	-8.25
208.155	-6.15
208.627	-7.45
209.099	-2.35
209.57	-7.95
210.042	1.85
210.514	-1.75
210.986	-6.05
211.458	-4.75
211.93	-6.65
212.402	1.35
212.873	-5.55
213.345	-6.25
213.817	-8.85
214.288	-1.65
214.76	-12.15
215.232	-2.35
215.703	-6.45
216.175	-9.65
216.646	-2.85
217.118	-6.15
217.589	-5.45
218.061	-2.15
218.532	-1.55
219.004	2.25
219.475	-3.65
219.946	-1.75
220.418	-8.45
220.889	4.25
221.36	4.45
221.832	-1.45
222.303	-7.35
222.774	-1.25
223.245	-7.55
223.717	-6.55
224.188	-2.95
224.659	-8.95
225.13	-6.65
225.601	-7.35
226.072	2.45
226.543	-0.65
227.014	-1.75
227.485	1.15
227.956	1.05
228.427	-0.05
228.898	-3.75
229.369	4.15
229.839	-8.45
230.31	-6.05
230.781	0.25
231.252	-0.65
231.722	-5.15
232.193	-0.05
232.664	-2.45
233.135	1.75
233.605	1.05
234.076	-3.25
234.546	-1.55
235.017	2.85
235.487	-1.75
235.958	-1.45
236.428	-3.05
236.899	-5.75
237.369	-1.05
237.84	-5.15
238.31	1.35
238.78	0.35
239.251	-5.95
239.721	0.95
240.191	-4.55
240.662	-5.95
241.132	-0.05
241.602	-4.05
242.072	6.65
242.542	5.25
243.013	-7.35
243.483	3.35
243.953	-0.25
244.423	-2.85
244.893	0.25
245.363	3.15
245.833	-0.35
246.303	-9.15
246.773	8.95
247.243	2.35
247.712	1.85
248.182	0.35
248.652	-4.05
249.122	-7.75
249.592	-0.55
250.061	3.55
250.531	11.45
251.001	1.35
251.471	6.85
251.94	9.15
252.41	7.25
252.879	-5.25
253.349	5.95
253.818	6.85
254.288	8.45
254.757	3.85
255.227	-1.95
255.696	2.15
256.166	-1.75
256.635	3.25
257.105	6.55
257.574	0.05
258.043	1.65
258.513	0.25
258.982	2.45
259.451	-5.85
259.92	2.65
260.389	2.15
260.859	9.45
261.328	1.55
261.797	3.55
262.266	-2.95
262.735	5.05
263.204	4.95
263.673	1.25
264.142	8.35
264.611	-1.15
265.08	0.15
265.549	-0.25
266.018	4.45
266.487	-2.55
266.955	-2.05
267.424	4.85
267.893	5.15
268.362	0.15
268.83	2.75
269.299	11.05
269.768	0.75
270.236	8.55
270.705	-1.25
271.174	5.45
271.642	9.65
272.111	5.45
272.579	5.95
273.048	4.75
273.516	3.65
273.985	0.75
274.453	9.85
274.922	16.35
275.39	3.55
275.858	0.35
276.327	6.95
276.795	16.85
277.263	7.75
277.731	11.55
278.2	13.15
278.668	12.45
279.136	13.95
279.604	9.25
280.072	6.65
280.54	19.15
281.008	7.55
281.477	16.05
281.945	13.55
282.413	8.55
282.881	16.65
283.348	9.65
283.816	12.15
284.284	13.95
284.752	12.65
285.22	16.65
285.688	12.15
286.156	16.05
286.623	15.45
287.091	16.25
287.559	17.05
288.026	10.65
288.494	9.15
288.962	2.95
289.429	11.35
289.897	18.15
290.364	14.95
290.832	17.55
291.3	13.05
291.767	14.85
292.234	14.05
292.702	7.85
293.169	20.85
293.637	20.55
294.104	14.35
294.571	14.15
295.039	16.95
295.506	15.65
295.973	13.95
296.44	18.35
296.908	14.55
297.375	17.05
297.842	18.75
298.309	12.55
298.776	7.05
299.243	18.55
299.71	11.95
300.177	22.85
300.644	25.05
301.111	17.65
301.578	25.45
302.045	17.05
302.512	25.55
302.979	25.75
303.446	22.05
303.913	16.35
304.379	14.15
304.846	28.35
305.313	26.55
305.78	24.05
306.246	25.45
306.713	27.35
307.18	23.85
307.646	24.45
308.113	23.05
308.579	18.05
309.046	30.55
309.512	19.45
309.979	29.25
310.445	26.75
310.912	28.45
311.378	36.75
311.845	23.85
312.311	32.05
312.777	33.35
313.244	32.25
313.71	34.25
314.176	30.25
314.642	30.25
315.109	27.45
315.575	33.65
316.041	36.35
316.507	29.45
316.973	38.05
317.439	28.35
317.905	38.95
318.371	35.65
318.837	28.55
319.303	29.55
319.769	30.75
320.235	35.55
320.701	35.55
321.167	34.65
321.633	34.55
322.099	36.35
322.564	38.85
323.03	39.15
323.496	39.55
323.962	41.55
324.427	34.25
324.893	40.75
325.359	38.25
325.824	41.05
326.29	43.25
326.755	41.15
327.221	40.85
327.686	35.65
328.152	54.65
328.617	45.55
329.083	49.25
329.548	51.25
330.014	49.25
330.479	39.85
330.944	47.85
331.41	42.55
331.875	51.65
332.34	41.35
332.805	39.05
333.271	47.75
333.736	43.05
334.201	54.95
334.666	57.45
335.131	50.65
335.596	52.85
336.061	51.45
336.526	36.25
336.991	50.25
337.456	54.65
337.921	52.75
338.386	49.35
338.851	51.25
339.316	52.55
339.781	51.25
340.246	56.95
340.711	47.25
341.175	50.05
341.64	45.95
342.105	52.35
342.569	56.95
343.034	67.75
343.499	56.65
343.963	51.25
344.428	67.85
344.893	62.75
345.357	62.05
345.822	62.55
346.286	69.35
346.751	74.05
347.215	62.85
347.679	77.85
348.144	92.35
348.608	88.25
349.073	73.65
349.537	75.75
350.001	83.65
350.465	90.95
350.93	83.65
351.394	89.05
351.858	79.05
352.322	81.45
352.786	91.05
353.25	107.25
353.715	113.25
354.179	102.25
354.643	122.35
355.107	128.05
355.571	103.15
356.035	106.55
356.498	114.85
356.962	121.25
357.426	129.05
357.89	121.15
358.354	88.65
358.818	89.05
359.281	84.65
359.745	81.85
360.209	77.55
360.673	73.15
361.136	88.15
361.6	90.95
362.064	88.45
362.527	81.25
362.991	92.65
363.454	80.95
363.918	79.75
364.381	80.85
364.845	90.15
365.308	90.65
365.772	93.35
366.235	93.45
366.698	87.35
367.162	92.85
367.625	88.05
368.088	87.65
368.552	88.15
369.015	96.25
369.478	98.25
369.941	101.05
370.404	96.45
370.867	98.45
371.331	108.85
371.794	115.15
372.257	102.85
372.72	112.85
373.183	101.75
373.646	99.95
374.109	105.35
374.572	111.85
375.035	106.45
375.497	112.05
375.96	114.35
376.423	114.45
376.886	122.15
377.349	115.05
377.811	113.75
378.274	114.75
378.737	111.85
379.199	116.85
379.662	115.05
380.125	112.15
380.587	111.75
381.05	107.95
381.512	116.25
381.975	125.55
382.437	119.75
382.9	123.25
383.362	134.25
383.825	141.45
384.287	136.65
384.75	132.05
385.212	127.65
385.674	143.85
386.136	136.75
386.599	124.75
387.061	135.65
387.523	130.85
387.985	130.45
388.447	143.45
388.91	136.35
389.372	134.75
389.834	134.05
390.296	136.95
390.758	137.05
391.22	146.35
391.682	155.65
392.144	169.55
392.606	158.95
393.068	148.15
393.529	159.85
393.991	150.25
394.453	137.15
394.915	142.85
395.377	152.85
395.838	146.35
396.3	145.85
396.762	154.15
397.224	148.55
397.685	142.25
398.147	148.05
398.608	147.35
399.07	143.85
399.531	150.75
399.993	157.35
400.454	167.85
400.916	158.75
401.377	163.95
401.839	170.85
402.3	168.45
402.762	183.75
403.223	189.45
403.684	178.25
404.145	164.85
404.607	178.95
405.068	176.05
405.529	178.85
405.99	204.35
406.451	194.25
406.913	187.15
407.374	180.75
407.835	175.05
408.296	184.25
408.757	187.05
409.218	200.55
409.679	191.85
410.14	188.85
410.601	191.55
411.062	192.05
411.522	196.65
411.983	197.05
412.444	192.65
412.905	199.15
413.366	205.75
413.826	214.85
414.287	238.35
414.748	291.95
415.208	275.25
415.669	232.15
416.13	237.65
416.59	227.55
417.051	237.15
417.511	238.75
417.972	270.35
418.432	278.55
418.893	315.95
419.353	271.55
419.814	217.15
420.274	202.05
420.734	195.95
421.195	213.65
421.655	204.85
422.115	213.45
422.576	217.75
423.036	223.35
423.496	232.55
423.956	237.45
424.416	254.45
424.876	295.75
425.336	289.55
425.797	289.45
426.257	287.65
426.717	263.65
427.177	257.85
427.637	243.55
428.097	253.55
428.556	267.85
429.016	290.25
429.476	281.95
429.936	295.05
430.396	300.35
430.856	316.95
431.315	339.25
431.775	369.85
432.235	406.35
432.694	378.75
433.154	379.95
433.614	416.45
434.073	356.75
434.533	311.55
434.993	291.55
435.452	303.25
435.912	316.55
436.371	308.65
436.83	302.15
437.29	292.85
437.749	274.95
438.209	265.15
438.668	302.95
439.127	322.25
439.587	289.75
440.046	270.25
440.505	286.45
440.964	299.55
441.424	351.95
441.883	334.95
442.342	286.25
442.801	247.75
443.26	238.45
443.719	242.25
444.178	241.15
444.637	235.75
445.096	255.35
445.555	253.45
446.014	247.05
446.473	250.25
446.932	255.35
447.391	256.35
447.849	258.95
448.308	248.65
448.767	253.05
449.226	263.75
449.685	262.75
450.143	277.25
450.602	261.65
451.061	252.55
451.519	256.15
451.978	257.95
452.436	265.15
452.895	264.55
453.353	281.65
453.812	262.45
454.27	274.35
454.729	269.95
455.187	267.55
455.646	273.15
456.104	274.45
456.562	286.15
457.021	300.85
457.479	285.45
457.937	310.45
458.395	294.55
458.854	281.85
459.312	292.35
459.77	299.95
460.228	284.05
460.686	273.65
461.144	278.55
461.602	273.45
462.06	277.15
462.518	293.25
462.976	282.85
463.434	288.65
463.892	289.95
464.35	304.15
464.808	321.95
465.266	299.45
465.724	303.15
466.181	306.05
466.639	308.65
467.097	327.85
467.555	332.75
468.012	329.35
468.47	342.55
468.928	360.75
469.385	379.65
469.843	374.95
470.3	391.85
470.758	400.95
471.215	419.75
471.673	445.75
472.13	447.55
472.588	459.55
473.045	415.45
473.503	416.25
473.96	435.25
474.417	448.35
474.875	471.15
475.332	521.95
475.789	508.35
476.246	508.85
476.704	537.35
477.161	553.55
477.618	579.65
478.075	617.35
478.532	667.25
478.989	747.15
479.446	858.25
479.903	815.45
480.36	847.35
480.817	897.75
481.274	1005.15
481.731	1084.35
482.188	1173.05
482.645	1309.95
483.102	1403.95
483.558	1533.15
484.015	1572.35
484.472	1532.65
484.929	1500.55
485.385	1453.25
485.842	1430.85
486.299	1380.35
486.755	1335.05
487.212	1143.85
487.668	972.55
488.125	901.95
488.582	826.15
489.038	797.05
489.494	763.55
489.951	745.25
490.407	731.15
490.864	695.75
491.32	701.65
491.776	706.65
492.233	704.45
492.689	669.75
493.145	665.75
493.602	649.35
494.058	677.85
494.514	669.95
494.97	690.95
495.426	708.75
495.882	686.15
496.338	671.85
496.794	668.35
497.251	679.95
497.707	690.55
498.163	684.45
498.618	699.25
499.074	710.45
499.53	729.95
499.986	733.85
500.442	704.05
500.898	681.35
501.354	667.55
501.809	675.75
502.265	685.95
502.721	687.35
503.177	698.15
503.632	705.75
504.088	714.45
504.543	734.05
504.999	748.25
505.455	714.05
505.91	693.75
506.366	692.25
506.821	687.75
507.277	688.15
507.732	693.45
508.187	691.55
508.643	699.35
509.098	704.35
509.553	726.85
510.009	724.65
510.464	734.55
510.919	764.55
511.375	753.15
511.83	774.25
512.285	795.35
512.74	831.05
513.195	853.95
513.65	845.95
514.105	840.45
514.56	842.85
515.015	857.15
515.47	873.35
515.925	860.35
516.38	860.35
516.835	862.25
517.29	847.55
517.745	841.45
518.2	843.25
518.655	830.45
519.109	810.75
519.564	812.05
520.019	793.85
520.474	794.75
520.928	789.95
521.383	790.55
521.838	786.75
522.292	782.05
522.747	783.35
523.201	763.05
523.656	760.55
524.11	759.05
524.565	763.45
525.019	757.15
525.474	757.55
525.928	767.55
526.382	761.05
526.837	770.15
527.291	768.45
527.745	772.75
528.2	756.35
528.654	763.25
529.108	747.85
529.562	748.75
530.016	757.35
530.47	748.75
530.925	757.55
531.379	759.45
531.833	759.55
532.287	768.95
532.741	754.45
533.195	756.55
533.649	770.85
534.103	777.35
534.556	762.75
535.01	767.55
535.464	757.95
535.918	781.05
536.372	784.65
536.826	787.25
537.279	774.55
537.733	777.85
538.187	772.75
538.64	772.55
539.094	783.05
539.548	793.45
540.001	786.95
540.455	795.25
540.908	792.85
541.362	809.95
541.815	813.15
542.269	828.15
542.722	834.85
543.175	842.45
543.629	835.05
544.082	870.45
544.536	856.35
544.989	863.15
545.442	863.25
545.895	856.35
546.349	863.85
546.802	875.25
547.255	871.65
547.708	883.15
548.161	885.95
548.614	890.35
549.067	895.25
549.52	886.85
549.973	887.05
550.426	882.35
550.879	874.05
551.332	868.35
551.785	868.55
552.238	877.95
552.691	887.45
553.144	900.55
553.596	924.45
554.049	938.65
554.502	966.45
554.955	994.25
555.407	989.85
555.86	975.55
556.313	966.25
556.765	956.35
557.218	952.25
557.67	947.45
558.123	946.45
558.576	953.65
559.028	950.55
559.48	964.15
559.933	949.75
560.385	912.55
560.838	879.75
561.29	867.35
561.742	848.45
562.195	839.85
562.647	831.85
563.099	842.55
563.551	839.15
564.004	851.25
564.456	834.85
564.908	830.35
565.36	813.75
565.812	785.85
566.264	779.95
566.716	785.95
567.168	770.55
567.62	759.35
568.072	753.95
568.524	748.05
568.976	737.35
569.428	728.15
569.88	730.95
570.332	739.75
570.784	745.85
571.235	748.15
571.687	756.35
572.139	763.55
572.59	771.35
573.042	764.75
573.494	775.85
573.945	756.35
574.397	739.05
574.849	751.05
575.3	749.85
575.752	737.45
576.203	734.25
576.655	736.35
577.106	736.55
577.557	731.25
578.009	726.25
578.46	721.25
578.912	718.65
579.363	722.45
579.814	725.75
580.265	708.25
580.717	731.35
581.168	719.95
581.619	730.45
582.07	725.55
582.521	727.85
582.972	719.85
583.423	725.55
583.875	731.15
584.326	733.05
584.777	760.05
585.227	776.65
585.678	792.95
586.129	815.65
586.58	845.25
587.031	860.35
587.482	890.65
587.933	935.75
588.384	908.95
588.834	851.95
589.285	827.85
589.736	826.35
590.186	832.65
590.637	819.65
591.088	798.75
591.538	793.65
591.989	784.45
592.439	780.95
592.89	770.55
593.34	757.25
593.791	760.75
594.241	746.15
594.692	745.75
595.142	748.45
595.593	737.25
596.043	751.35
596.493	752.25
596.943	758.35
597.394	772.75
597.844	763.85
598.294	787.45
598.744	804.85
599.195	835.75
599.645	881.95
600.095	916.75
600.545	988.85
600.995	1039.05
601.445	1090.45
601.895	1162.15
602.345	1207.15
602.795	1189.05
603.245	1139.95
603.695	1091.05
604.145	1027.55
604.594	977.05
605.044	916.65
605.494	854.05
605.944	806.45
606.393	796.55
606.843	778.05
607.293	775.45
607.743	776.35
608.192	780.75
608.642	794.85
609.091	813.65
609.541	806.45
609.99	813.75
610.44	810.15
610.889	767.25
611.339	743.55
611.788	724.45
612.238	737.15
612.687	738.35
613.136	746.55
613.586	755.15
614.035	746.25
614.484	756.95
614.933	759.15
615.383	751.55
615.832	751.25
616.281	743.75
616.73	708.55
617.179	698.45
617.628	694.75
618.077	674.55
618.526	663.35
618.975	664.45
619.424	657.25
619.873	655.25
620.322	665.25
620.771	653.05
621.22	644.85
621.669	636.85
622.118	626.35
622.567	620.75
623.015	611.45
623.464	608.15
623.913	592.35
624.361	584.65
624.81	588.05
625.259	584.55
625.707	582.05
626.156	597.75
626.604	604.95
627.053	600.05
627.501	601.85
627.95	610.45
628.398	608.65
628.847	605.35
629.295	609.55
629.744	609.05
630.192	608.25
630.64	597.25
631.089	584.45
631.537	570.65
631.985	565.45
632.433	571.55
632.881	553.85
633.33	563.45
633.778	560.55
634.226	559.35
634.674	567.85
635.122	568.45
635.57	583.05
636.018	597.65
636.466	593.55
636.914	587.65
637.362	609.35
637.81	614.75
638.258	618.25
638.705	622.55
639.153	642.95
639.601	662.65
640.049	680.75
640.497	705.55
640.944	734.85
641.392	684.65
641.84	652.75
642.287	621.75
642.735	593.55
643.182	600.25
643.63	598.25
644.078	599.05
644.525	599.55
644.973	614.15
645.42	622.65
645.867	648.85
646.315	672.25
646.762	696.45
647.21	720.25
647.657	734.05
648.104	776.75
648.551	790.15
648.999	854.05
649.446	937.45
649.893	1018.15
650.34	1160.55
650.787	1384.55
651.234	1686.55
651.682	2179.75
652.129	2952.85
652.576	4210.75
653.023	6078.75
653.47	8263.35
653.917	10285.65
654.363	11845.35
654.81	13078.75
655.257	12390.85
655.704	8214.05
656.151	4970.85
656.598	3269.15
657.044	2339.65
657.491	1821.55
657.938	1468.75
658.385	1231.35
658.831	1085.55
659.278	972.95
659.724	874.85
660.171	810.65
660.618	741.45
661.064	713.25
661.511	686.05
661.957	677.55
662.404	666.85
662.85	672.95
663.296	664.55
663.743	592.35
664.189	566.65
664.635	558.95
665.082	555.05
665.528	557.55
665.974	545.65
666.42	537.85
666.867	540.55
667.313	509.35
667.759	492.65
668.205	478.75
668.651	478.35
669.097	480.75
669.543	463.75
669.989	475.25
670.435	471.85
670.881	480.65
671.327	476.45
671.773	503.15
672.219	515.65
672.665	583.65
673.11	622.45
673.556	674.05
674.002	708.85
674.448	695.05
674.893	582.65
675.339	497.95
675.785	471.25
676.23	445.25
676.676	414.35
677.122	414.95
677.567	394.65
678.013	391.05
678.458	386.15
678.904	380.55
679.349	371.25
679.794	375.95
680.24	373.05
680.685	374.05
681.131	371.35
681.576	367.25
682.021	375.65
682.466	369.65
682.912	370.15
683.357	375.45
683.802	411.75
684.247	435.45
684.692	488.85
685.137	524.95
685.583	562.45
686.028	596.75
686.473	551.55
686.918	486.45
687.363	447.65
687.807	422.35
688.252	394.45
688.697	381.05
689.142	368.85
689.587	355.85
690.032	350.25
690.477	366.35
690.921	382.55
691.366	395.85
691.811	425.95
692.255	455.85
692.7	489.25
693.145	528.15
693.589	736.75
694.034	1199.75
694.478	1646.35
694.923	1841.25
695.367	2418.35
695.812	1273.35
696.256	529.65
696.701	392.75
697.145	359.95
697.59	344.95
698.034	338.85
698.478	345.35
698.922	336.45
699.367	344.15
699.811	353.45
700.255	375.85
700.699	407.25
701.143	450.35
701.588	492.05
702.032	534.15
702.476	536.25
702.92	520.75
703.364	527.25
703.808	670.85
704.252	1109.85
704.696	1554.95
705.14	1787.15
705.584	2275.55
706.027	1134.65
706.471	548.95
706.915	431.15
707.359	379.15
707.803	343.85
708.246	331.35
708.69	334.95
709.134	334.75
709.577	320.55
710.021	327.55
710.465	320.35
710.908	318.95
711.352	316.55
711.795	331.75
712.239	370.65
712.682	406.65
713.126	431.65
713.569	479.75
714.012	374.95
714.456	316.45
714.899	308.95
715.342	286.25
715.786	276.65
716.229	276.25
716.672	269.95
717.115	262.25
717.558	268.85
718.002	267.75
718.445	274.35
718.888	306.35
719.331	307.95
719.774	328.75
720.217	334.65
720.66	297.55
721.103	284.85
721.546	268.15
721.989	268.65
722.432	247.85
722.874	250.65
723.317	241.95
723.76	244.15
724.203	269.45
724.645	336.15
725.088	469.55
725.531	606.75
725.974	682.95
726.416	583.75
726.859	318.75
727.301	258.85
727.744	253.45
728.187	247.05
728.629	257.05
729.071	253.45
729.514	272.35
729.956	295.55
730.399	302.35
730.841	303.45
731.283	295.75
731.726	280.15
732.168	276.95
732.61	292.55
733.053	303.85
733.495	332.45
733.937	374.85
734.379	431.65
734.821	465.05
735.263	585.95
735.705	890.35
736.148	1669.05
736.59	2758.35
737.032	3260.75
737.474	2646.55
737.916	860.45
738.357	453.05
738.799	354.05
739.241	319.65
739.683	303.15
740.125	309.55
740.567	320.75
741.008	334.15
741.45	334.05
741.892	340.45
742.334	375.15
742.775	383.35
743.217	370.75
743.658	297.15
744.1	275.45
744.542	291.15
744.983	341.75
745.425	373.55
745.866	372.55
746.307	299.05
746.749	295.55
747.19	347.25
747.632	486.45
748.073	944.95
748.514	1983.55
748.956	3033.35
749.397	3839.95
749.838	3172.75
750.279	3156.15
750.72	1599.45
751.162	586.45
751.603	346.55
752.044	276.45
752.485	230.25
752.926	226.25
753.367	216.95
753.808	209.95
754.249	204.65
754.69	196.25
755.131	192.65
755.572	190.35
756.013	189.05
756.453	194.45
756.894	201.45
757.335	199.25
757.776	201.45
758.216	209.75
758.657	214.55
759.098	219.35
759.538	245.55
759.979	285.75
760.42	401.15
760.86	740.45
761.301	1948.15
761.741	4735.05
762.182	6874.45
762.622	4852.85
763.063	1400.75
