Data from 20171114-ORNL-Ar_H_NY_Subt18_08-05-25-593.txt Node
Date: Tue Nov 14 08:05:25 EST 2017
User: Ender
Spectrometer: HR+D1039
Trigger mode: 0
Integration Time (sec): 2.730000E-2
Scans to average: 10
Electric dark correction enabled: true
Nonlinearity correction enabled: false
Boxcar width: 0
XAxis mode: Wavelengths
Number of Pixels in Spectrum: 2048
>>>>>Begin Spectral Data<<<<<
187.836	-9.23
188.309	-9.23
188.782	-9.23
189.255	-0.23
189.728	-2.63
190.201	3.67
190.674	-0.13
191.147	5.87
191.619	-5.43
192.092	4.27
192.565	6.37
193.038	-0.63
193.511	-0.33
193.984	-2.13
194.456	1.37
194.929	-2.23
195.402	5.67
195.874	-4.23
196.347	-0.43
196.82	-9.03
197.292	0.17
197.765	-3.33
198.237	-7.83
198.71	-2.33
199.182	-4.23
199.655	4.17
200.127	0.97
200.6	-3.83
201.072	-6.93
201.544	-6.23
202.017	-1.33
202.489	-1.63
202.961	-6.53
203.433	-6.13
203.906	-3.43
204.378	-7.83
204.85	2.47
205.322	-3.93
205.794	-7.83
206.266	-6.73
206.739	-7.83
207.211	-3.53
207.683	-11.43
208.155	-7.83
208.627	-11.23
209.099	2.87
209.57	-12.13
210.042	-0.13
210.514	-4.73
210.986	-6.43
211.458	-12.03
211.93	-6.33
212.402	5.97
212.873	-4.73
213.345	-3.53
213.817	-9.53
214.288	-6.83
214.76	-11.93
215.232	-4.53
215.703	-1.83
216.175	-4.53
216.646	-7.63
217.118	-7.23
217.589	-1.73
218.061	-0.23
218.532	-8.53
219.004	-0.53
219.475	-2.53
219.946	0.57
220.418	-5.53
220.889	0.27
221.36	-1.73
221.832	-5.73
222.303	-5.13
222.774	-1.23
223.245	-10.83
223.717	-1.93
224.188	-3.23
224.659	-7.03
225.13	-3.33
225.601	-3.03
226.072	0.97
226.543	-3.43
227.014	-4.13
227.485	-3.53
227.956	-13.53
228.427	-0.13
228.898	4.37
229.369	5.97
229.839	-3.33
230.31	-6.23
230.781	5.57
231.252	-7.23
231.722	-5.73
232.193	-2.23
232.664	-3.03
233.135	-2.43
233.605	3.67
234.076	-5.23
234.546	4.37
235.017	6.47
235.487	-5.93
235.958	-5.03
236.428	0.57
236.899	0.87
237.369	0.67
237.84	-5.83
238.31	9.37
238.78	5.97
239.251	3.07
239.721	4.77
240.191	0.47
240.662	-3.43
241.132	-0.83
241.602	-2.43
242.072	-1.23
242.542	-1.63
243.013	-0.73
243.483	4.97
243.953	3.97
244.423	-3.83
244.893	-2.73
245.363	-1.23
245.833	3.77
246.303	-4.33
246.773	7.97
247.243	2.27
247.712	2.07
248.182	9.57
248.652	6.47
249.122	1.67
249.592	10.27
250.061	22.37
250.531	35.77
251.001	23.17
251.471	25.57
251.94	19.67
252.41	8.47
252.879	2.07
253.349	13.17
253.818	10.87
254.288	5.17
254.757	4.27
255.227	-3.33
255.696	2.27
256.166	3.27
256.635	6.07
257.105	6.97
257.574	8.17
258.043	8.07
258.513	12.17
258.982	19.67
259.451	8.57
259.92	12.57
260.389	15.87
260.859	13.07
261.328	7.27
261.797	20.27
262.266	8.27
262.735	12.67
263.204	6.87
263.673	-1.03
264.142	7.37
264.611	-2.83
265.08	2.77
265.549	0.97
266.018	8.87
266.487	-5.73
266.955	2.57
267.424	0.67
267.893	5.47
268.362	-0.23
268.83	4.87
269.299	13.87
269.768	6.07
270.236	12.17
270.705	7.17
271.174	4.07
271.642	7.27
272.111	13.67
272.579	18.27
273.048	26.07
273.516	22.87
273.985	28.47
274.453	25.37
274.922	18.87
275.39	10.97
275.858	4.67
276.327	18.37
276.795	19.57
277.263	4.67
277.731	33.97
278.2	58.27
278.668	70.17
279.136	55.97
279.604	24.47
280.072	14.97
280.54	12.97
281.008	9.57
281.477	12.97
281.945	17.57
282.413	19.47
282.881	19.87
283.348	5.67
283.816	17.17
284.284	20.87
284.752	18.07
285.22	14.67
285.688	19.87
286.156	23.07
286.623	50.67
287.091	56.17
287.559	31.47
288.026	23.17
288.494	16.77
288.962	3.77
289.429	11.37
289.897	16.97
290.364	19.07
290.832	12.47
291.3	16.37
291.767	19.67
292.234	21.07
292.702	13.67
293.169	14.17
293.637	19.77
294.104	17.77
294.571	12.47
295.039	18.77
295.506	17.67
295.973	16.67
296.44	20.77
296.908	19.37
297.375	20.97
297.842	14.57
298.309	15.97
298.776	19.07
299.243	17.47
299.71	7.97
300.177	25.07
300.644	21.97
301.111	14.77
301.578	26.87
302.045	19.37
302.512	26.47
302.979	25.27
303.446	21.37
303.913	21.27
304.379	24.87
304.846	27.77
305.313	24.97
305.78	23.57
306.246	26.37
306.713	20.97
307.18	26.07
307.646	28.67
308.113	30.57
308.579	27.47
309.046	29.57
309.512	28.27
309.979	24.27
310.445	28.87
310.912	26.57
311.378	31.47
311.845	27.77
312.311	30.37
312.777	29.37
313.244	37.17
313.71	40.87
314.176	29.17
314.642	30.67
315.109	34.97
315.575	39.77
316.041	34.67
316.507	37.27
316.973	44.07
317.439	36.27
317.905	36.07
318.371	42.47
318.837	38.07
319.303	30.37
319.769	35.47
320.235	34.47
320.701	36.47
321.167	38.57
321.633	36.57
322.099	37.17
322.564	50.27
323.03	40.47
323.496	44.87
323.962	42.47
324.427	40.07
324.893	45.57
325.359	41.77
325.824	33.47
326.29	38.27
326.755	35.97
327.221	40.97
327.686	48.17
328.152	43.27
328.617	42.07
329.083	56.07
329.548	53.97
330.014	53.47
330.479	44.57
330.944	44.27
331.41	47.67
331.875	48.07
332.34	44.57
332.805	46.77
333.271	48.27
333.736	44.67
334.201	53.77
334.666	56.77
335.131	57.57
335.596	55.67
336.061	55.17
336.526	43.47
336.991	57.07
337.456	59.77
337.921	47.07
338.386	43.77
338.851	43.07
339.316	41.67
339.781	51.67
340.246	52.27
340.711	48.27
341.175	55.17
341.64	47.47
342.105	51.87
342.569	53.97
343.034	62.97
343.499	60.07
343.963	52.97
344.428	67.47
344.893	60.67
345.357	67.07
345.822	65.57
346.286	75.07
346.751	69.77
347.215	65.57
347.679	79.67
348.144	93.67
348.608	84.67
349.073	69.57
349.537	75.97
350.001	90.67
350.465	93.97
350.93	81.07
351.394	79.57
351.858	71.67
352.322	88.77
352.786	84.07
353.25	101.67
353.715	116.97
354.179	102.57
354.643	125.97
355.107	128.97
355.571	113.57
356.035	107.57
356.498	122.97
356.962	131.87
357.426	126.47
357.89	120.87
358.354	83.97
358.818	84.87
359.281	78.17
359.745	77.67
360.209	86.47
360.673	74.77
361.136	85.27
361.6	83.97
362.064	83.77
362.527	80.27
362.991	91.17
363.454	80.27
363.918	77.97
364.381	75.47
364.845	85.27
365.308	84.87
365.772	87.97
366.235	87.67
366.698	83.47
367.162	93.57
367.625	91.37
368.088	91.67
368.552	86.37
369.015	90.17
369.478	94.57
369.941	100.17
370.404	93.47
370.867	100.57
371.331	108.57
371.794	115.07
372.257	114.57
372.72	120.37
373.183	103.37
373.646	103.17
374.109	101.87
374.572	105.67
375.035	118.07
375.497	106.67
375.96	108.27
376.423	100.87
376.886	105.97
377.349	105.77
377.811	102.97
378.274	104.27
378.737	110.87
379.199	114.77
379.662	111.77
380.125	119.67
380.587	115.37
381.05	116.87
381.512	127.67
381.975	130.17
382.437	129.17
382.9	128.57
383.362	132.67
383.825	140.27
384.287	150.47
384.75	146.77
385.212	140.87
385.674	142.27
386.136	138.27
386.599	128.77
387.061	129.97
387.523	126.27
387.985	133.27
388.447	142.27
388.91	139.87
389.372	155.37
389.834	147.47
390.296	143.07
390.758	153.67
391.22	164.07
391.682	205.87
392.144	291.87
392.606	223.07
393.068	170.57
393.529	168.17
393.991	149.17
394.453	144.97
394.915	154.27
395.377	186.17
395.838	209.67
396.3	156.77
396.762	134.77
397.224	129.57
397.685	128.27
398.147	128.67
398.608	127.67
399.07	127.17
399.531	130.67
399.993	141.67
400.454	151.37
400.916	146.87
401.377	149.57
401.839	147.17
402.3	147.07
402.762	163.77
403.223	175.77
403.684	167.57
404.145	161.77
404.607	161.87
405.068	163.07
405.529	171.77
405.99	186.17
406.451	176.77
406.913	169.27
407.374	163.67
407.835	163.47
408.296	160.37
408.757	167.07
409.218	186.07
409.679	174.87
410.14	171.77
410.601	179.57
411.062	180.97
411.522	185.57
411.983	187.57
412.444	171.17
412.905	173.87
413.366	183.07
413.826	191.47
414.287	216.67
414.748	251.47
415.208	240.57
415.669	205.87
416.13	204.27
416.59	200.27
417.051	210.97
417.511	213.97
417.972	239.17
418.432	240.07
418.893	280.37
419.353	248.87
419.814	201.57
420.274	179.67
420.734	173.97
421.195	192.67
421.655	194.37
422.115	195.97
422.576	194.07
423.036	191.67
423.496	203.77
423.956	215.57
424.416	232.47
424.876	259.27
425.336	258.57
425.797	259.27
426.257	253.57
426.717	241.67
427.177	232.17
427.637	218.57
428.097	234.27
428.556	243.97
429.016	263.17
429.476	261.57
429.936	274.17
430.396	275.57
430.856	285.37
431.315	313.37
431.775	345.07
432.235	372.27
432.694	343.07
433.154	360.87
433.614	387.97
434.073	335.27
434.533	285.47
434.993	267.27
435.452	281.87
435.912	294.97
436.371	290.07
436.83	284.07
437.29	263.27
437.749	248.57
438.209	242.87
438.668	268.87
439.127	289.07
439.587	259.97
440.046	247.97
440.505	262.27
440.964	272.87
441.424	315.37
441.883	306.77
442.342	256.17
442.801	220.77
443.26	216.47
443.719	217.07
444.178	215.17
444.637	216.17
445.096	217.97
445.555	211.67
446.014	218.57
446.473	222.87
446.932	222.17
447.391	214.17
447.849	224.27
448.308	213.67
448.767	226.67
449.226	228.17
449.685	231.67
450.143	244.27
450.602	243.27
451.061	223.87
451.519	231.87
451.978	238.17
452.436	227.97
452.895	245.47
453.353	242.47
453.812	234.67
454.27	237.37
454.729	238.27
455.187	234.77
455.646	247.17
456.104	242.07
456.562	262.17
457.021	261.77
457.479	252.17
457.937	266.67
458.395	260.37
458.854	242.17
459.312	251.07
459.77	272.67
460.228	249.17
460.686	240.77
461.144	240.97
461.602	238.27
462.06	242.57
462.518	249.67
462.976	247.27
463.434	254.07
463.892	259.17
464.35	277.67
464.808	287.17
465.266	265.47
465.724	262.67
466.181	270.47
466.639	274.07
467.097	279.17
467.555	297.87
468.012	308.07
468.47	306.97
468.928	330.77
469.385	337.37
469.843	337.37
470.3	344.77
470.758	362.97
471.215	379.27
471.673	405.77
472.13	397.17
472.588	415.17
473.045	362.07
473.503	371.77
473.96	390.87
474.417	397.67
474.875	425.37
475.332	475.27
475.789	460.37
476.246	463.47
476.704	486.57
477.161	503.47
477.618	521.17
478.075	553.57
478.532	607.77
478.989	686.67
479.446	798.27
479.903	772.27
480.36	804.57
480.817	868.87
481.274	963.07
481.731	1068.77
482.188	1162.17
482.645	1298.27
483.102	1420.37
483.558	1559.77
484.015	1603.67
484.472	1580.67
484.929	1534.27
485.385	1484.67
485.842	1443.97
486.299	1368.27
486.755	1308.37
487.212	1112.47
487.668	918.87
488.125	839.87
488.582	780.57
489.038	746.27
489.494	704.47
489.951	688.87
490.407	666.67
490.864	653.97
491.32	635.97
491.776	641.47
492.233	643.57
492.689	612.77
493.145	599.17
493.602	582.47
494.058	610.17
494.514	611.77
494.97	629.07
495.426	645.97
495.882	624.47
496.338	612.07
496.794	617.97
497.251	619.37
497.707	628.57
498.163	632.97
498.618	639.47
499.074	646.67
499.53	667.77
499.986	677.27
500.442	649.17
500.898	617.67
501.354	619.27
501.809	634.07
502.265	638.37
502.721	658.07
503.177	674.47
503.632	663.57
504.088	668.57
504.543	702.17
504.999	703.97
505.455	653.57
505.91	627.47
506.366	630.77
506.821	617.27
507.277	620.87
507.732	615.47
508.187	624.77
508.643	627.77
509.098	623.07
509.553	641.27
510.009	647.37
510.464	659.87
510.919	682.87
511.375	693.27
511.83	695.77
512.285	719.67
512.74	747.57
513.195	779.67
513.65	768.87
514.105	761.67
514.56	770.07
515.015	783.47
515.47	804.67
515.925	788.67
516.38	793.47
516.835	792.17
517.29	774.97
517.745	766.97
518.2	760.07
518.655	742.57
519.109	736.17
519.564	732.57
520.019	736.47
520.474	718.27
520.928	717.47
521.383	715.67
521.838	704.87
522.292	705.97
522.747	713.17
523.201	705.17
523.656	691.77
524.11	686.57
524.565	687.87
525.019	685.37
525.474	696.57
525.928	701.67
526.382	695.57
526.837	689.27
527.291	694.57
527.745	694.17
528.2	698.27
528.654	685.27
529.108	680.27
529.562	686.07
530.016	679.77
530.47	687.27
530.925	695.47
531.379	698.37
531.833	690.07
532.287	698.17
532.741	707.27
533.195	682.97
533.649	705.97
534.103	725.87
534.556	696.77
535.01	713.57
535.464	699.37
535.918	717.17
536.372	717.27
536.826	702.47
537.279	694.17
537.733	708.77
538.187	713.47
538.64	705.37
539.094	709.87
539.548	716.67
540.001	719.17
540.455	706.77
540.908	724.77
541.362	731.27
541.815	732.87
542.269	754.17
542.722	755.27
543.175	759.07
543.629	752.07
544.082	776.37
544.536	781.77
544.989	770.67
545.442	777.67
545.895	776.07
546.349	785.27
546.802	785.97
547.255	782.17
547.708	790.47
548.161	797.87
548.614	811.67
549.067	807.67
549.52	803.17
549.973	793.57
550.426	792.07
550.879	778.67
551.332	781.77
551.785	790.07
552.238	803.47
552.691	811.07
553.144	821.97
553.596	831.97
554.049	848.77
554.502	881.27
554.955	893.87
555.407	893.37
555.86	885.07
556.313	874.17
556.765	877.47
557.218	873.77
557.67	867.37
558.123	862.47
558.576	854.97
559.028	866.97
559.48	869.07
559.933	857.97
560.385	829.97
560.838	803.27
561.29	766.47
561.742	766.57
562.195	748.47
562.647	760.97
563.099	749.97
563.551	767.67
564.004	779.47
564.456	760.17
564.908	736.77
565.36	724.57
565.812	714.07
566.264	715.67
566.716	719.87
567.168	706.37
567.62	715.57
568.072	694.57
568.524	677.27
568.976	673.17
569.428	664.77
569.88	665.57
570.332	670.37
570.784	669.67
571.235	664.17
571.687	673.17
572.139	686.57
572.59	693.37
573.042	697.47
573.494	693.67
573.945	683.57
574.397	672.07
574.849	675.77
575.3	679.77
575.752	668.17
576.203	668.97
576.655	674.87
577.106	647.07
577.557	640.27
578.009	654.87
578.46	651.07
578.912	648.67
579.363	656.67
579.814	651.17
580.265	651.17
580.717	649.87
581.168	649.17
581.619	664.47
582.07	667.97
582.521	662.47
582.972	652.37
583.423	660.57
583.875	667.87
584.326	690.17
584.777	720.77
585.227	810.47
585.678	894.67
586.129	983.67
586.58	1061.67
587.031	1153.67
587.482	1304.17
587.933	1490.77
588.384	1285.47
588.834	953.47
589.285	786.37
589.736	760.67
590.186	757.27
590.637	753.37
591.088	718.87
591.538	717.87
591.989	707.07
592.439	706.47
592.89	697.07
593.34	694.27
593.791	695.07
594.241	681.67
594.692	686.07
595.142	682.47
595.593	688.07
596.043	693.17
596.493	701.17
596.943	696.57
597.394	700.17
597.844	694.67
598.294	700.37
598.744	730.97
599.195	759.37
599.645	787.17
600.095	830.87
600.545	894.17
600.995	925.97
601.445	998.57
601.895	1050.17
602.345	1095.67
602.795	1078.57
603.245	1030.97
603.695	973.57
604.145	917.47
604.594	881.27
605.044	827.37
605.494	773.57
605.944	729.87
606.393	705.27
606.843	708.57
607.293	714.97
607.743	707.27
608.192	721.47
608.642	735.77
609.091	742.27
609.541	745.67
609.99	741.37
610.44	739.07
610.889	689.67
611.339	677.27
611.788	662.47
612.238	676.57
612.687	692.67
613.136	694.77
613.586	717.77
614.035	708.17
614.484	730.97
614.933	734.07
615.383	716.87
615.832	715.87
616.281	700.97
616.73	662.97
617.179	643.17
617.628	629.27
618.077	611.97
618.526	599.57
618.975	596.67
619.424	594.57
619.873	583.97
620.322	601.47
620.771	585.67
621.22	582.77
621.669	568.67
622.118	565.67
622.567	552.47
623.015	552.97
623.464	548.67
623.913	540.87
624.361	531.37
624.81	527.37
625.259	530.97
625.707	538.37
626.156	538.47
626.604	546.47
627.053	544.27
627.501	547.07
627.95	542.87
628.398	556.17
628.847	541.57
629.295	537.77
629.744	555.57
630.192	546.87
630.64	542.27
631.089	540.27
631.537	544.37
631.985	559.37
632.433	567.07
632.881	580.37
633.33	621.17
633.778	609.87
634.226	543.87
634.674	542.17
635.122	561.27
635.57	579.47
636.018	606.37
636.466	555.57
636.914	535.77
637.362	538.57
637.81	549.07
638.258	546.27
638.705	551.87
639.153	579.57
639.601	589.37
640.049	611.37
640.497	644.27
640.944	653.37
641.392	609.67
641.84	585.97
642.287	559.27
642.735	544.27
643.182	547.47
643.63	544.17
644.078	551.37
644.525	561.57
644.973	573.37
645.42	569.87
645.867	604.27
646.315	613.77
646.762	631.27
647.21	662.87
647.657	682.07
648.104	717.07
648.551	746.27
648.999	798.37
649.446	877.67
649.893	962.47
650.34	1113.27
650.787	1328.47
651.234	1648.47
651.682	2164.97
652.129	2958.97
652.576	4220.97
653.023	6314.17
653.47	8679.47
653.917	10888.17
654.363	12649.27
654.81	14109.37
655.257	13394.57
655.704	8754.17
656.151	5142.17
656.598	3322.87
657.044	2357.57
657.491	1791.47
657.938	1444.57
658.385	1209.17
658.831	1045.77
659.278	927.97
659.724	829.27
660.171	754.07
660.618	692.77
661.064	641.57
661.511	632.77
661.957	629.07
662.404	612.17
662.85	616.17
663.296	598.97
663.743	536.37
664.189	502.77
664.635	503.97
665.082	507.97
665.528	497.57
665.974	496.37
666.42	481.37
666.867	483.07
667.313	474.77
667.759	459.27
668.205	449.87
668.651	459.77
669.097	460.37
669.543	472.97
669.989	450.97
670.435	421.77
670.881	419.67
671.327	420.57
671.773	439.37
672.219	457.77
672.665	508.87
673.11	544.47
673.556	581.47
674.002	641.77
674.448	618.17
674.893	514.97
675.339	447.17
675.785	416.87
676.23	394.47
676.676	371.17
677.122	367.27
677.567	358.67
678.013	350.07
678.458	341.87
678.904	346.87
679.349	325.47
679.794	333.67
680.24	332.87
680.685	334.07
681.131	325.97
681.576	333.97
682.021	330.97
682.466	324.37
682.912	329.37
683.357	330.57
683.802	353.37
684.247	377.37
684.692	427.37
685.137	469.87
685.583	504.37
686.028	530.87
686.473	484.47
686.918	418.27
687.363	386.17
687.807	375.37
688.252	335.27
688.697	332.37
689.142	314.37
689.587	311.57
690.032	310.37
690.477	316.57
690.921	326.17
691.366	359.27
691.811	373.57
692.255	400.87
692.7	444.27
693.145	473.77
693.589	644.17
694.034	1027.87
694.478	1437.07
694.923	1642.77
695.367	2133.37
695.812	1124.17
696.256	467.67
696.701	350.57
697.145	318.17
697.59	305.67
698.034	302.47
698.478	314.47
698.922	304.27
699.367	305.87
699.811	323.07
700.255	330.37
700.699	358.77
701.143	399.37
701.588	452.17
702.032	489.27
702.476	483.77
702.92	457.27
703.364	462.37
703.808	581.97
704.252	941.47
704.696	1349.77
705.14	1579.47
705.584	2014.07
706.027	996.47
706.471	492.97
706.915	372.37
707.359	326.97
707.803	305.17
708.246	291.17
708.69	296.87
709.134	287.67
709.577	292.77
710.021	292.37
710.465	283.37
710.908	286.87
711.352	276.97
711.795	287.97
712.239	330.57
712.682	364.57
713.126	388.57
713.569	442.57
714.012	351.87
714.456	302.77
714.899	279.77
715.342	260.27
715.786	242.07
716.229	242.27
716.672	241.57
717.115	231.57
717.558	235.87
718.002	241.97
718.445	242.47
718.888	266.87
719.331	270.67
719.774	293.97
720.217	282.67
720.66	262.27
721.103	245.67
721.546	237.47
721.989	237.97
722.432	215.47
722.874	220.27
723.317	208.37
723.76	216.97
724.203	239.97
724.645	295.37
725.088	411.77
725.531	529.67
725.974	609.47
726.416	513.97
726.859	285.67
727.301	225.47
727.744	220.47
728.187	211.97
728.629	218.17
729.071	224.97
729.514	245.77
729.956	254.67
730.399	263.17
730.841	264.67
731.283	252.97
731.726	253.87
732.168	237.97
732.61	245.27
733.053	263.77
733.495	292.77
733.937	328.67
734.379	366.97
734.821	407.37
735.263	496.37
735.705	757.27
736.148	1433.07
736.59	2368.67
737.032	2865.67
737.474	2348.47
737.916	753.07
738.357	403.97
738.799	299.97
739.241	279.57
739.683	267.27
740.125	275.07
740.567	276.47
741.008	294.97
741.45	294.17
741.892	290.67
742.334	322.87
742.775	331.67
743.217	313.07
743.658	250.27
744.1	233.17
744.542	240.97
744.983	279.97
745.425	317.07
745.866	316.57
746.307	265.37
746.749	264.17
747.19	295.17
747.632	417.07
748.073	798.27
748.514	1693.67
748.956	2634.97
749.397	3315.87
749.838	2754.37
750.279	2781.97
750.72	1403.87
751.162	505.27
751.603	296.27
752.044	231.77
752.485	199.37
752.926	195.27
753.367	193.67
753.808	180.77
754.249	181.57
754.69	174.87
755.131	163.47
755.572	168.17
756.013	165.87
756.453	170.27
756.894	167.07
757.335	177.97
757.776	178.17
758.216	179.47
758.657	182.67
759.098	185.27
759.538	209.47
759.979	243.77
760.42	340.57
760.86	634.87
761.301	1625.67
761.741	4031.37
762.182	6066.27
