Data from 20171114-ORNL-Ar_H_NY_Subt18_08-08-47-077.txt Node
Date: Tue Nov 14 08:08:47 EST 2017
User: Ender
Spectrometer: HR+D1039
Trigger mode: 0
Integration Time (sec): 2.730000E-2
Scans to average: 10
Electric dark correction enabled: true
Nonlinearity correction enabled: false
Boxcar width: 0
XAxis mode: Wavelengths
Number of Pixels in Spectrum: 2048
>>>>>Begin Spectral Data<<<<<
187.836	-1.64
188.309	-1.64
188.782	-1.64
189.255	-2.54
189.728	1.36
190.201	3.46
190.674	3.46
191.147	0.46
191.619	-11.94
192.092	-1.64
192.565	3.66
193.038	2.76
193.511	1.56
193.984	-0.64
194.456	-3.24
194.929	4.26
195.402	0.16
195.874	0.56
196.347	-4.64
196.82	-5.64
197.292	10.46
197.765	-1.74
198.237	-6.34
198.71	4.26
199.182	2.36
199.655	0.26
200.127	3.66
200.6	-0.24
201.072	-3.14
201.544	-3.24
202.017	-1.04
202.489	4.66
202.961	-2.04
203.433	-2.64
203.906	-5.44
204.378	-7.44
204.85	0.86
205.322	-8.14
205.794	-0.04
206.266	-2.34
206.739	-6.54
207.211	-1.44
207.683	-7.64
208.155	-6.54
208.627	-3.84
209.099	-3.34
209.57	-3.34
210.042	2.86
210.514	1.26
210.986	-3.84
211.458	-2.64
211.93	-1.04
212.402	-1.84
212.873	-6.74
213.345	-10.14
213.817	-11.24
214.288	-2.44
214.76	-6.14
215.232	1.66
215.703	-6.64
216.175	-2.24
216.646	-5.14
217.118	-8.84
217.589	-3.04
218.061	-1.14
218.532	-3.74
219.004	-3.74
219.475	-2.64
219.946	-5.84
220.418	-1.64
220.889	0.86
221.36	2.36
221.832	-4.14
222.303	-9.54
222.774	0.56
223.245	-7.24
223.717	-1.44
224.188	0.46
224.659	-6.94
225.13	-11.74
225.601	-1.94
226.072	-6.94
226.543	-10.64
227.014	-1.94
227.485	-1.74
227.956	-0.94
228.427	-4.94
228.898	-0.24
229.369	1.86
229.839	-4.54
230.31	-9.04
230.781	1.76
231.252	-8.94
231.722	-1.44
232.193	-0.84
232.664	-1.94
233.135	0.96
233.605	-1.34
234.076	-4.04
234.546	-2.34
235.017	3.16
235.487	-4.84
235.958	-4.34
236.428	-7.74
236.899	-4.04
237.369	-1.84
237.84	-5.04
238.31	2.06
238.78	-6.64
239.251	-3.84
239.721	0.36
240.191	-1.84
240.662	-1.04
241.132	-3.84
241.602	-3.84
242.072	-1.64
242.542	8.76
243.013	-7.04
243.483	1.66
243.953	0.66
244.423	2.46
244.893	-6.34
245.363	1.36
245.833	-0.84
246.303	-5.64
246.773	-1.24
247.243	-0.24
247.712	-3.24
248.182	2.66
248.652	6.66
249.122	-5.54
249.592	-0.14
250.061	0.76
250.531	8.26
251.001	-1.54
251.471	0.96
251.94	9.36
252.41	-3.54
252.879	-8.74
253.349	4.66
253.818	5.36
254.288	8.46
254.757	-0.04
255.227	0.36
255.696	-2.14
256.166	3.96
256.635	1.36
257.105	5.16
257.574	-1.54
258.043	2.26
258.513	-5.54
258.982	1.26
259.451	4.16
259.92	4.66
260.389	0.96
260.859	2.96
261.328	1.16
261.797	1.36
262.266	-3.84
262.735	3.06
263.204	-1.54
263.673	-3.74
264.142	4.56
264.611	0.36
265.08	1.36
265.549	0.96
266.018	5.96
266.487	-2.84
266.955	-6.64
267.424	-2.34
267.893	5.36
268.362	-0.34
268.83	1.26
269.299	8.26
269.768	2.86
270.236	-0.14
270.705	-3.14
271.174	0.46
271.642	-2.44
272.111	4.16
272.579	5.06
273.048	1.36
273.516	-3.64
273.985	4.06
274.453	7.06
274.922	9.56
275.39	7.06
275.858	-5.64
276.327	10.96
276.795	9.86
277.263	4.86
277.731	15.06
278.2	17.06
278.668	9.66
279.136	13.86
279.604	6.26
280.072	3.76
280.54	9.56
281.008	1.86
281.477	8.06
281.945	10.36
282.413	11.26
282.881	5.06
283.348	1.46
283.816	7.56
284.284	10.86
284.752	15.76
285.22	9.76
285.688	12.16
286.156	6.26
286.623	19.16
287.091	5.46
287.559	11.76
288.026	6.16
288.494	8.26
288.962	-2.04
289.429	-0.14
289.897	14.16
290.364	5.76
290.832	14.96
291.3	10.06
291.767	8.16
292.234	15.46
292.702	2.26
293.169	11.86
293.637	17.56
294.104	12.66
294.571	2.76
295.039	1.16
295.506	6.76
295.973	9.26
296.44	6.76
296.908	12.86
297.375	8.46
297.842	11.96
298.309	11.16
298.776	4.56
299.243	14.56
299.71	5.46
300.177	16.96
300.644	11.86
301.111	10.36
301.578	16.66
302.045	11.56
302.512	15.76
302.979	24.76
303.446	21.06
303.913	14.16
304.379	13.26
304.846	23.46
305.313	14.66
305.78	18.16
306.246	22.76
306.713	14.26
307.18	16.56
307.646	17.86
308.113	25.86
308.579	20.56
309.046	18.06
309.512	21.36
309.979	9.16
310.445	24.06
310.912	20.56
311.378	26.66
311.845	25.06
312.311	22.76
312.777	29.86
313.244	32.06
313.71	32.76
314.176	20.76
314.642	19.16
315.109	25.26
315.575	26.06
316.041	31.36
316.507	19.56
316.973	26.86
317.439	18.96
317.905	26.86
318.371	28.46
318.837	24.26
319.303	30.96
319.769	21.76
320.235	28.56
320.701	28.56
321.167	28.76
321.633	28.36
322.099	30.26
322.564	34.66
323.03	26.76
323.496	29.46
323.962	29.66
324.427	28.46
324.893	34.66
325.359	31.46
325.824	26.66
326.29	33.06
326.755	30.36
327.221	31.16
327.686	28.56
328.152	38.36
328.617	34.16
329.083	37.26
329.548	44.86
330.014	39.26
330.479	28.76
330.944	32.66
331.41	32.06
331.875	33.26
332.34	37.36
332.805	30.36
333.271	30.06
333.736	29.86
334.201	38.36
334.666	41.06
335.131	47.36
335.596	44.66
336.061	37.36
336.526	30.16
336.991	42.36
337.456	45.56
337.921	40.46
338.386	43.16
338.851	32.86
339.316	44.66
339.781	41.36
340.246	47.66
340.711	43.46
341.175	42.26
341.64	34.06
342.105	43.56
342.569	48.36
343.034	49.86
343.499	41.16
343.963	40.66
344.428	55.16
344.893	52.36
345.357	52.76
345.822	56.36
346.286	65.56
346.751	57.36
347.215	59.36
347.679	59.16
348.144	83.16
348.608	74.86
349.073	61.06
349.537	61.76
350.001	63.16
350.465	73.36
350.93	68.46
351.394	67.86
351.858	58.06
352.322	71.86
352.786	64.76
353.25	82.56
353.715	98.26
354.179	83.96
354.643	103.86
355.107	99.66
355.571	88.06
356.035	85.76
356.498	95.96
356.962	97.06
357.426	106.06
357.89	102.06
358.354	76.76
358.818	75.36
359.281	67.26
359.745	62.86
360.209	61.06
360.673	65.06
361.136	72.96
361.6	73.16
362.064	77.76
362.527	76.26
362.991	78.16
363.454	66.96
363.918	67.86
364.381	66.56
364.845	78.36
365.308	77.76
365.772	77.16
366.235	79.56
366.698	72.76
367.162	85.46
367.625	69.06
368.088	78.86
368.552	75.06
369.015	80.56
369.478	87.86
369.941	90.46
370.404	79.96
370.867	91.36
371.331	93.16
371.794	97.36
372.257	91.96
372.72	94.36
373.183	86.26
373.646	88.16
374.109	87.66
374.572	87.26
375.035	88.36
375.497	95.96
375.96	94.16
376.423	97.56
376.886	105.86
377.349	101.96
377.811	93.26
378.274	90.26
378.737	95.66
379.199	101.06
379.662	102.16
380.125	104.36
380.587	98.46
381.05	102.06
381.512	108.76
381.975	117.36
382.437	104.66
382.9	104.56
383.362	111.86
383.825	122.56
384.287	114.76
384.75	113.46
385.212	112.66
385.674	126.36
386.136	114.36
386.599	110.26
387.061	115.56
387.523	113.96
387.985	115.76
388.447	125.16
388.91	123.06
389.372	117.86
389.834	123.96
390.296	119.46
390.758	124.36
391.22	129.16
391.682	135.86
392.144	162.56
392.606	140.86
393.068	133.46
393.529	141.26
393.991	130.56
394.453	123.76
394.915	123.76
395.377	133.06
395.838	130.46
396.3	129.86
396.762	132.96
397.224	131.56
397.685	118.46
398.147	129.16
398.608	133.16
399.07	121.46
399.531	124.16
399.993	137.66
400.454	140.76
400.916	141.56
401.377	141.66
401.839	142.96
402.3	149.26
402.762	159.46
403.223	175.06
403.684	158.06
404.145	149.76
404.607	153.56
405.068	150.96
405.529	160.76
405.99	173.76
406.451	166.66
406.913	168.16
407.374	161.96
407.835	156.36
408.296	159.16
408.757	161.06
409.218	171.86
409.679	170.46
410.14	164.56
410.601	164.86
411.062	174.56
411.522	174.06
411.983	177.76
412.444	170.56
412.905	175.76
413.366	179.66
413.826	188.46
414.287	215.66
414.748	262.76
415.208	242.76
415.669	207.36
416.13	209.06
416.59	194.26
417.051	212.76
417.511	220.16
417.972	242.66
418.432	242.86
418.893	285.56
419.353	246.86
419.814	196.46
420.274	182.96
420.734	176.86
421.195	195.86
421.655	189.96
422.115	192.86
422.576	186.76
423.036	200.16
423.496	205.36
423.956	214.66
424.416	224.26
424.876	254.86
425.336	261.06
425.797	250.16
426.257	253.96
426.717	237.26
427.177	228.56
427.637	210.36
428.097	223.96
428.556	236.26
429.016	263.76
429.476	251.26
429.936	261.86
430.396	269.26
430.856	273.56
431.315	309.76
431.775	329.76
432.235	365.16
432.694	326.46
433.154	338.46
433.614	383.16
434.073	328.86
434.533	270.16
434.993	259.66
435.452	277.16
435.912	273.96
436.371	278.46
436.83	273.86
437.29	262.66
437.749	243.76
438.209	232.36
438.668	266.96
439.127	275.36
439.587	254.46
440.046	245.46
440.505	260.56
440.964	266.56
441.424	317.86
441.883	311.36
442.342	256.66
442.801	235.26
443.26	222.46
443.719	222.06
444.178	213.46
444.637	211.76
445.096	218.56
445.555	225.66
446.014	226.36
446.473	227.66
446.932	227.56
447.391	221.56
447.849	230.56
448.308	218.56
448.767	232.46
449.226	242.96
449.685	237.06
450.143	252.46
450.602	239.26
451.061	232.06
451.519	234.66
451.978	228.36
452.436	230.66
452.895	242.46
453.353	253.96
453.812	236.76
454.27	247.56
454.729	236.96
455.187	245.56
455.646	246.26
456.104	253.46
456.562	266.56
457.021	268.06
457.479	263.86
457.937	271.36
458.395	261.16
458.854	250.56
459.312	262.56
459.77	275.06
460.228	250.56
460.686	243.46
461.144	251.76
461.602	247.76
462.06	249.76
462.518	262.16
462.976	256.66
463.434	261.86
463.892	263.66
464.35	270.26
464.808	293.66
465.266	273.76
465.724	278.46
466.181	282.96
466.639	276.06
467.097	291.86
467.555	301.76
468.012	304.26
468.47	310.66
468.928	325.56
469.385	346.06
469.843	352.06
470.3	355.56
470.758	361.26
471.215	381.46
471.673	411.16
472.13	405.06
472.588	422.56
473.045	374.86
473.503	372.36
473.96	394.46
474.417	406.46
474.875	438.66
475.332	468.46
475.789	453.76
476.246	464.36
476.704	492.86
477.161	504.96
477.618	516.26
478.075	556.46
478.532	608.56
478.989	679.36
479.446	780.26
479.903	759.66
480.36	775.96
480.817	824.46
481.274	913.66
481.731	997.66
482.188	1074.56
482.645	1198.46
483.102	1275.66
483.558	1392.26
484.015	1443.26
484.472	1408.06
484.929	1372.66
485.385	1336.06
485.842	1294.66
486.299	1245.56
486.755	1228.76
487.212	1036.26
487.668	876.26
488.125	829.96
488.582	766.36
489.038	736.46
489.494	697.16
489.951	676.96
490.407	656.46
490.864	642.26
491.32	638.36
491.776	635.46
492.233	638.26
492.689	614.96
493.145	605.96
493.602	600.46
494.058	613.26
494.514	610.16
494.97	633.26
495.426	645.36
495.882	615.46
496.338	605.96
496.794	619.66
497.251	612.36
497.707	631.06
498.163	621.06
498.618	629.26
499.074	644.26
499.53	659.96
499.986	664.86
500.442	644.66
500.898	615.76
501.354	618.96
501.809	624.06
502.265	626.06
502.721	631.06
503.177	651.56
503.632	654.26
504.088	654.96
504.543	659.46
504.999	697.26
505.455	655.86
505.91	643.86
506.366	639.26
506.821	629.26
507.277	633.56
507.732	642.26
508.187	636.26
508.643	643.76
509.098	649.16
509.553	675.06
510.009	665.96
510.464	679.46
510.919	696.56
511.375	701.16
511.83	712.06
512.285	734.26
512.74	753.16
513.195	788.96
513.65	775.76
514.105	770.96
514.56	769.66
515.015	786.06
515.47	806.46
515.925	790.46
516.38	797.16
516.835	791.96
517.29	772.16
517.745	781.26
518.2	757.06
518.655	747.56
519.109	743.16
519.564	747.06
520.019	732.26
520.474	729.86
520.928	726.36
521.383	725.06
521.838	715.66
522.292	706.36
522.747	713.26
523.201	712.26
523.656	708.56
524.11	699.66
524.565	708.66
525.019	690.46
525.474	700.06
525.928	703.46
526.382	702.36
526.837	695.86
527.291	710.26
527.745	706.56
528.2	706.66
528.654	700.16
529.108	688.66
529.562	692.76
530.016	704.96
530.47	685.16
530.925	700.36
531.379	695.46
531.833	700.36
532.287	705.26
532.741	702.76
533.195	710.96
533.649	710.36
534.103	711.96
534.556	707.76
535.01	716.06
535.464	700.46
535.918	725.06
536.372	728.46
536.826	719.26
537.279	709.96
537.733	714.66
538.187	723.06
538.64	716.96
539.094	733.76
539.548	729.26
540.001	724.96
540.455	728.46
540.908	737.76
541.362	742.16
541.815	754.56
542.269	775.16
542.722	767.76
543.175	773.56
543.629	783.36
544.082	795.16
544.536	802.66
544.989	794.26
545.442	799.56
545.895	804.06
546.349	801.46
546.802	800.96
547.255	810.36
547.708	818.36
548.161	825.56
548.614	831.96
549.067	840.36
549.52	837.56
549.973	820.26
550.426	831.76
550.879	806.56
551.332	806.36
551.785	826.16
552.238	823.16
552.691	829.66
553.144	837.86
553.596	864.26
554.049	875.16
554.502	905.56
554.955	924.26
555.407	921.86
555.86	917.96
556.313	903.96
556.765	893.06
557.218	886.16
557.67	895.46
558.123	887.36
558.576	883.36
559.028	891.96
559.48	895.86
559.933	884.56
560.385	856.16
560.838	828.46
561.29	802.46
561.742	803.86
562.195	782.26
562.647	780.36
563.099	789.66
563.551	790.76
564.004	802.56
564.456	782.76
564.908	761.56
565.36	751.46
565.812	741.76
566.264	739.76
566.716	729.16
567.168	710.46
567.62	721.66
568.072	710.16
568.524	703.96
568.976	706.26
569.428	691.86
569.88	682.96
570.332	695.26
570.784	695.26
571.235	694.26
571.687	704.56
572.139	705.16
572.59	719.16
573.042	730.66
573.494	723.66
573.945	713.86
574.397	697.76
574.849	704.26
575.3	708.36
575.752	697.76
576.203	688.66
576.655	699.86
577.106	683.06
577.557	676.96
578.009	690.56
578.46	679.46
578.912	677.56
579.363	672.06
579.814	675.76
580.265	674.26
580.717	681.06
581.168	684.26
581.619	695.16
582.07	688.86
582.521	687.96
582.972	680.86
583.423	690.06
583.875	686.76
584.326	686.56
584.777	709.66
585.227	741.96
585.678	764.46
586.129	778.06
586.58	806.26
587.031	823.46
587.482	869.96
587.933	916.96
588.384	876.06
588.834	821.96
589.285	787.36
589.736	780.16
590.186	777.86
590.637	774.06
591.088	758.56
591.538	746.86
591.989	749.46
592.439	737.96
592.89	733.76
593.34	726.56
593.791	723.06
594.241	708.66
594.692	713.26
595.142	712.86
595.593	711.66
596.043	721.66
596.493	725.16
596.943	725.66
597.394	732.96
597.844	727.66
598.294	743.96
598.744	774.66
599.195	819.26
599.645	836.26
600.095	879.06
600.545	948.16
600.995	990.76
601.445	1039.66
601.895	1112.86
602.345	1141.56
602.795	1126.36
603.245	1087.26
603.695	1028.26
604.145	972.16
604.594	922.36
605.044	880.16
605.494	818.36
605.944	777.56
606.393	749.46
606.843	749.76
607.293	748.36
607.743	755.46
608.192	766.26
608.642	767.66
609.091	770.36
609.541	770.76
609.99	776.06
610.44	779.86
610.889	727.76
611.339	715.36
611.788	704.76
612.238	702.66
612.687	713.16
613.136	715.06
613.586	721.76
614.035	710.56
614.484	727.16
614.933	730.76
615.383	723.96
615.832	720.26
616.281	714.56
616.73	684.76
617.179	677.26
617.628	652.96
618.077	628.86
618.526	625.66
618.975	632.06
619.424	627.76
619.873	625.86
620.322	621.16
620.771	621.56
621.22	619.26
621.669	604.66
622.118	594.56
622.567	593.16
623.015	579.96
623.464	584.86
623.913	579.76
624.361	565.76
624.81	564.46
625.259	570.06
625.707	566.86
626.156	562.46
626.604	578.26
627.053	574.16
627.501	571.86
627.95	585.66
628.398	595.26
628.847	568.56
629.295	574.06
629.744	589.36
630.192	587.46
630.64	569.66
631.089	561.16
631.537	557.26
631.985	543.16
632.433	541.96
632.881	548.76
633.33	551.86
633.778	542.96
634.226	537.06
634.674	547.56
635.122	557.26
635.57	565.96
636.018	580.16
636.466	570.16
636.914	571.76
637.362	585.46
637.81	577.86
638.258	596.46
638.705	597.66
639.153	620.56
639.601	634.36
640.049	658.36
640.497	682.26
640.944	709.86
641.392	659.86
641.84	634.56
642.287	601.66
642.735	579.46
643.182	576.06
643.63	569.36
644.078	573.96
644.525	588.26
644.973	592.66
645.42	604.66
645.867	627.76
646.315	644.06
646.762	670.36
647.21	683.56
647.657	708.66
648.104	754.46
648.551	774.56
648.999	828.96
649.446	908.66
649.893	993.16
650.34	1146.06
650.787	1328.66
651.234	1653.56
651.682	2146.96
652.129	2914.86
652.576	4154.76
653.023	6016.46
653.47	8144.96
653.917	10056.66
654.363	11473.36
654.81	12606.16
655.257	11961.56
655.704	7914.96
656.151	4781.96
656.598	3120.06
657.044	2253.96
657.491	1754.76
657.938	1409.06
658.385	1192.56
658.831	1029.46
659.278	934.16
659.724	833.06
660.171	776.36
660.618	712.36
661.064	689.26
661.511	672.66
661.957	654.76
662.404	643.96
662.85	650.76
663.296	629.76
663.743	567.46
664.189	548.36
664.635	546.16
665.082	539.16
665.528	541.46
665.974	528.16
666.42	523.76
666.867	520.76
667.313	496.66
667.759	485.46
668.205	473.06
668.651	469.46
669.097	458.86
669.543	451.36
669.989	459.86
670.435	460.66
670.881	458.36
671.327	466.36
671.773	487.16
672.219	504.86
672.665	567.56
673.11	610.16
673.556	655.46
674.002	693.96
674.448	675.56
674.893	558.26
675.339	488.96
675.785	452.96
676.23	436.26
676.676	408.26
677.122	393.66
677.567	390.16
678.013	376.66
678.458	377.56
678.904	375.66
679.349	365.76
679.794	366.26
680.24	365.06
680.685	354.66
681.131	349.46
681.576	364.86
682.021	371.86
682.466	369.96
682.912	361.86
683.357	359.26
683.802	399.46
684.247	432.36
684.692	474.96
685.137	515.26
685.583	552.56
686.028	578.36
686.473	539.96
686.918	459.46
687.363	431.76
687.807	406.36
688.252	386.26
688.697	374.66
689.142	353.16
689.587	346.66
690.032	337.16
690.477	364.26
690.921	370.86
691.366	396.06
691.811	410.06
692.255	453.56
692.7	482.96
693.145	532.96
693.589	741.76
694.034	1196.06
694.478	1620.26
694.923	1778.66
695.367	2308.66
695.812	1234.46
696.256	518.76
696.701	387.46
697.145	361.86
697.59	341.86
698.034	330.16
698.478	341.06
698.922	332.46
699.367	329.76
699.811	338.96
700.255	369.06
700.699	402.26
701.143	433.56
701.588	490.76
702.032	532.66
702.476	532.46
702.92	512.36
703.364	512.66
703.808	683.86
704.252	1108.96
704.696	1541.26
705.14	1743.46
705.584	2199.86
706.027	1112.56
706.471	542.96
706.915	416.66
707.359	363.16
707.803	329.56
708.246	317.66
708.69	321.96
709.134	327.86
709.577	321.26
710.021	318.36
710.465	312.96
710.908	306.46
711.352	319.56
711.795	327.46
712.239	371.66
712.682	402.16
713.126	420.76
713.569	463.96
714.012	370.56
714.456	317.36
714.899	307.06
715.342	282.36
715.786	270.46
716.229	264.26
716.672	259.16
717.115	266.66
717.558	255.76
718.002	259.46
718.445	272.86
718.888	295.96
719.331	300.96
719.774	319.46
720.217	314.46
720.66	305.36
721.103	283.76
721.546	266.26
721.989	257.36
722.432	250.56
722.874	249.86
723.317	232.06
723.76	236.96
724.203	278.86
724.645	335.36
725.088	466.86
725.531	596.86
725.974	664.26
726.416	566.36
726.859	321.66
727.301	258.36
727.744	246.46
728.187	240.56
728.629	248.76
729.071	253.26
729.514	274.86
729.956	278.46
730.399	297.36
730.841	294.46
731.283	282.16
731.726	281.76
732.168	277.46
732.61	280.76
733.053	305.06
733.495	333.76
733.937	365.06
734.379	424.46
734.821	458.26
735.263	576.66
735.705	908.86
736.148	1718.06
736.59	2745.16
737.032	3131.16
737.474	2570.16
737.916	850.96
738.357	454.36
738.799	337.16
739.241	308.56
739.683	290.26
740.125	305.86
740.567	311.26
741.008	324.26
741.45	332.86
741.892	330.86
742.334	366.36
742.775	381.96
743.217	362.66
743.658	289.76
744.1	273.36
744.542	274.06
744.983	333.06
745.425	363.46
745.866	358.66
746.307	290.96
746.749	292.96
747.19	347.76
747.632	491.26
748.073	961.36
748.514	2018.06
748.956	3000.76
749.397	3780.06
749.838	3115.06
750.279	3056.16
750.72	1579.66
751.162	586.56
751.603	337.46
752.044	263.96
752.485	235.16
752.926	226.26
753.367	210.66
753.808	203.06
754.249	199.86
754.69	195.96
755.131	189.16
755.572	192.26
756.013	189.66
756.453	194.86
756.894	188.86
757.335	196.06
757.776	209.96
758.216	205.46
758.657	210.76
759.098	211.86
759.538	239.76
759.979	277.46
760.42	411.26
760.86	780.36
761.301	2043.56
761.741	4794.26
762.182	6587.46
762.622	4660.86
763.063	1385.66
763.503	561.26
763.943	345.76
