Data from 20171114-ORNL-Ar_H_NY_Subt18_08-05-20-133.txt Node
Date: Tue Nov 14 08:05:20 EST 2017
User: Ender
Spectrometer: HR+D1039
Trigger mode: 0
Integration Time (sec): 2.730000E-2
Scans to average: 10
Electric dark correction enabled: true
Nonlinearity correction enabled: false
Boxcar width: 0
XAxis mode: Wavelengths
Number of Pixels in Spectrum: 2048
>>>>>Begin Spectral Data<<<<<
187.836	0.44
188.309	0.44
188.782	0.44
189.255	-0.56
189.728	-1.06
190.201	2.04
190.674	4.84
191.147	2.64
191.619	-6.16
192.092	0.74
192.565	5.74
193.038	0.04
193.511	1.24
193.984	0.24
194.456	-7.16
194.929	0.64
195.402	-6.86
195.874	3.14
196.347	-1.66
196.82	-7.36
197.292	3.84
197.765	1.14
198.237	-6.96
198.71	0.04
199.182	-0.56
199.655	1.24
200.127	5.54
200.6	-5.16
201.072	0.94
201.544	-9.36
202.017	-1.76
202.489	3.84
202.961	-2.26
203.433	-1.96
203.906	-5.26
204.378	1.84
204.85	-10.46
205.322	-11.06
205.794	-6.26
206.266	-6.96
206.739	-4.66
207.211	1.34
207.683	-2.36
208.155	-2.56
208.627	-7.96
209.099	-6.96
209.57	-6.16
210.042	-6.26
210.514	-2.36
210.986	-3.26
211.458	-7.96
211.93	-2.46
212.402	1.44
212.873	-6.56
213.345	-3.46
213.817	-9.66
214.288	-3.86
214.76	-12.76
215.232	-0.36
215.703	-3.96
216.175	-1.36
216.646	-9.46
217.118	-16.76
217.589	0.04
218.061	0.24
218.532	-3.26
219.004	-0.46
219.475	-2.86
219.946	-4.16
220.418	-4.16
220.889	-1.76
221.36	4.64
221.832	2.14
222.303	-8.06
222.774	-5.16
223.245	-13.76
223.717	-10.96
224.188	-12.76
224.659	-9.36
225.13	-9.96
225.601	-3.26
226.072	-2.56
226.543	-0.46
227.014	2.44
227.485	-2.16
227.956	-9.06
228.427	-4.66
228.898	-1.16
229.369	3.94
229.839	-5.86
230.31	-4.56
230.781	4.44
231.252	1.44
231.722	-5.46
232.193	2.24
232.664	-0.66
233.135	2.54
233.605	-0.26
234.076	-4.16
234.546	2.04
235.017	8.94
235.487	4.64
235.958	3.84
236.428	0.54
236.899	0.84
237.369	3.64
237.84	-1.36
238.31	4.34
238.78	3.94
239.251	0.94
239.721	1.44
240.191	-3.86
240.662	-2.16
241.132	1.24
241.602	-4.66
242.072	-0.96
242.542	7.54
243.013	0.14
243.483	4.94
243.953	6.04
244.423	-2.16
244.893	1.14
245.363	3.74
245.833	-1.36
246.303	5.14
246.773	10.74
247.243	0.34
247.712	5.84
248.182	8.64
248.652	9.14
249.122	4.24
249.592	11.64
250.061	21.04
250.531	32.94
251.001	13.34
251.471	23.64
251.94	22.54
252.41	9.14
252.879	8.04
253.349	9.24
253.818	6.44
254.288	7.34
254.757	11.64
255.227	1.84
255.696	4.94
256.166	9.04
256.635	5.04
257.105	10.44
257.574	8.04
258.043	7.74
258.513	20.14
258.982	26.54
259.451	7.94
259.92	8.64
260.389	11.34
260.859	16.14
261.328	9.14
261.797	15.64
262.266	7.34
262.735	13.54
263.204	7.74
263.673	0.74
264.142	11.84
264.611	1.14
265.08	1.74
265.549	6.04
266.018	5.84
266.487	-2.06
266.955	-1.16
267.424	2.04
267.893	3.24
268.362	3.64
268.83	9.64
269.299	10.14
269.768	5.04
270.236	7.54
270.705	7.14
271.174	3.94
271.642	10.74
272.111	9.14
272.579	16.04
273.048	23.04
273.516	29.14
273.985	25.94
274.453	28.44
274.922	23.44
275.39	12.64
275.858	10.14
276.327	14.44
276.795	20.74
277.263	12.04
277.731	36.14
278.2	56.34
278.668	55.84
279.136	52.44
279.604	20.94
280.072	17.34
280.54	13.24
281.008	15.24
281.477	16.64
281.945	10.74
282.413	16.74
282.881	17.54
283.348	7.74
283.816	19.14
284.284	16.04
284.752	21.24
285.22	10.54
285.688	17.94
286.156	14.34
286.623	46.44
287.091	52.54
287.559	33.74
288.026	17.64
288.494	17.84
288.962	12.14
289.429	12.74
289.897	17.54
290.364	16.44
290.832	15.94
291.3	14.14
291.767	22.14
292.234	20.34
292.702	12.74
293.169	21.04
293.637	29.74
294.104	24.14
294.571	12.94
295.039	18.24
295.506	14.24
295.973	19.74
296.44	13.84
296.908	20.94
297.375	24.04
297.842	15.94
298.309	21.44
298.776	18.74
299.243	20.34
299.71	16.34
300.177	21.04
300.644	29.24
301.111	21.94
301.578	28.74
302.045	21.34
302.512	21.94
302.979	25.64
303.446	25.44
303.913	21.44
304.379	21.04
304.846	32.44
305.313	28.04
305.78	23.44
306.246	28.14
306.713	25.94
307.18	27.24
307.646	34.74
308.113	34.84
308.579	28.34
309.046	25.14
309.512	32.54
309.979	26.54
310.445	29.94
310.912	29.54
311.378	35.14
311.845	30.54
312.311	34.84
312.777	30.34
313.244	38.84
313.71	38.94
314.176	31.54
314.642	32.34
315.109	35.34
315.575	38.44
316.041	39.44
316.507	38.64
316.973	44.84
317.439	39.34
317.905	38.74
318.371	41.14
318.837	38.84
319.303	40.14
319.769	41.54
320.235	35.74
320.701	35.64
321.167	37.94
321.633	37.14
322.099	40.24
322.564	47.04
323.03	40.44
323.496	34.44
323.962	41.84
324.427	44.24
324.893	42.94
325.359	44.24
325.824	38.24
326.29	42.44
326.755	43.64
327.221	43.94
327.686	39.14
328.152	49.24
328.617	42.14
329.083	50.14
329.548	55.34
330.014	49.84
330.479	40.54
330.944	41.74
331.41	44.34
331.875	44.74
332.34	46.54
332.805	44.64
333.271	49.24
333.736	48.64
334.201	57.34
334.666	55.74
335.131	55.34
335.596	56.14
336.061	55.34
336.526	43.94
336.991	51.84
337.456	62.44
337.921	49.64
338.386	44.64
338.851	52.84
339.316	51.94
339.781	47.74
340.246	57.34
340.711	48.94
341.175	53.54
341.64	49.24
342.105	56.74
342.569	56.94
343.034	62.24
343.499	59.54
343.963	53.64
344.428	68.14
344.893	57.34
345.357	65.74
345.822	61.44
346.286	65.04
346.751	75.54
347.215	72.84
347.679	75.84
348.144	102.84
348.608	87.74
349.073	74.14
349.537	78.74
350.001	84.34
350.465	91.64
350.93	81.04
351.394	85.64
351.858	76.54
352.322	94.04
352.786	84.54
353.25	99.24
353.715	115.84
354.179	101.44
354.643	119.74
355.107	132.04
355.571	107.34
356.035	109.74
356.498	118.44
356.962	127.04
357.426	135.44
357.89	116.84
358.354	91.94
358.818	88.44
359.281	91.04
359.745	77.94
360.209	77.34
360.673	75.64
361.136	78.34
361.6	88.44
362.064	88.64
362.527	86.64
362.991	97.94
363.454	86.84
363.918	78.44
364.381	76.64
364.845	83.74
365.308	84.44
365.772	96.44
366.235	93.74
366.698	88.04
367.162	87.14
367.625	89.04
368.088	86.14
368.552	90.74
369.015	90.94
369.478	98.44
369.941	100.94
370.404	94.34
370.867	107.44
371.331	102.14
371.794	117.44
372.257	106.04
372.72	116.24
373.183	113.14
373.646	102.34
374.109	108.44
374.572	104.04
375.035	114.04
375.497	110.84
375.96	106.14
376.423	110.84
376.886	114.34
377.349	111.94
377.811	98.84
378.274	111.14
378.737	113.14
379.199	113.04
379.662	110.34
380.125	119.84
380.587	119.94
381.05	128.64
381.512	132.44
381.975	137.74
382.437	131.04
382.9	125.14
383.362	131.54
383.825	141.14
384.287	150.44
384.75	146.84
385.212	140.54
385.674	138.54
386.136	139.34
386.599	129.74
387.061	133.14
387.523	127.24
387.985	140.54
388.447	144.24
388.91	144.54
389.372	156.84
389.834	149.14
390.296	145.64
390.758	157.64
391.22	166.04
391.682	205.64
392.144	293.74
392.606	227.14
393.068	165.34
393.529	165.74
393.991	156.24
394.453	151.84
394.915	160.04
395.377	187.94
395.838	211.04
396.3	159.24
396.762	147.94
397.224	128.64
397.685	129.14
398.147	134.84
398.608	129.34
399.07	129.74
399.531	135.64
399.993	143.64
400.454	145.44
400.916	152.64
401.377	147.64
401.839	149.94
402.3	151.84
402.762	168.94
403.223	180.24
403.684	172.44
404.145	165.34
404.607	169.74
405.068	166.14
405.529	171.14
405.99	187.94
406.451	176.24
406.913	180.74
407.374	165.14
407.835	162.54
408.296	170.14
408.757	181.64
409.218	184.04
409.679	182.04
410.14	175.74
410.601	175.14
411.062	182.74
411.522	194.14
411.983	187.54
412.444	181.44
412.905	181.34
413.366	180.34
413.826	194.64
414.287	218.44
414.748	265.74
415.208	245.84
415.669	211.84
416.13	209.44
416.59	201.94
417.051	212.24
417.511	220.24
417.972	232.44
418.432	252.64
418.893	283.74
419.353	250.14
419.814	195.64
420.274	190.44
420.734	183.94
421.195	200.04
421.655	195.04
422.115	195.14
422.576	197.74
423.036	200.94
423.496	204.34
423.956	219.84
424.416	231.34
424.876	267.64
425.336	266.74
425.797	259.64
426.257	259.74
426.717	243.94
427.177	232.64
427.637	224.54
428.097	234.04
428.556	238.94
429.016	268.14
429.476	259.44
429.936	277.64
430.396	281.44
430.856	292.04
431.315	317.94
431.775	359.64
432.235	376.04
432.694	352.24
433.154	368.64
433.614	392.54
434.073	343.64
434.533	286.94
434.993	280.24
435.452	280.34
435.912	296.14
436.371	288.34
436.83	284.24
437.29	276.44
437.749	250.14
438.209	249.34
438.668	276.24
439.127	287.14
439.587	257.14
440.046	249.74
440.505	259.24
440.964	278.64
441.424	326.74
441.883	317.84
442.342	262.34
442.801	223.04
443.26	222.74
443.719	222.34
444.178	218.34
444.637	209.84
445.096	223.14
445.555	219.44
446.014	221.24
446.473	228.84
446.932	231.44
447.391	219.34
447.849	230.34
448.308	216.54
448.767	219.94
449.226	237.54
449.685	235.04
450.143	244.94
450.602	242.54
451.061	224.14
451.519	234.84
451.978	234.14
452.436	231.14
452.895	239.54
453.353	256.24
453.812	240.54
454.27	240.34
454.729	234.84
455.187	238.24
455.646	242.14
456.104	245.44
456.562	254.84
457.021	268.74
457.479	258.84
457.937	269.54
458.395	269.14
458.854	255.64
459.312	252.64
459.77	278.54
460.228	260.14
460.686	247.54
461.144	248.94
461.602	244.24
462.06	240.64
462.518	256.14
462.976	262.24
463.434	260.54
463.892	258.84
464.35	276.54
464.808	286.24
465.266	265.24
465.724	267.74
466.181	285.64
466.639	271.14
467.097	288.74
467.555	303.74
468.012	305.94
468.47	307.54
468.928	327.84
469.385	343.54
469.843	345.64
470.3	346.34
470.758	360.84
471.215	381.74
471.673	407.94
472.13	408.84
472.588	413.24
473.045	374.34
473.503	380.94
473.96	394.74
474.417	412.34
474.875	442.64
475.332	471.24
475.789	457.44
476.246	469.24
476.704	481.44
477.161	506.44
477.618	525.94
478.075	552.14
478.532	616.14
478.989	696.64
479.446	805.04
479.903	778.34
480.36	819.24
480.817	868.04
481.274	980.94
481.731	1078.74
482.188	1173.24
482.645	1301.14
483.102	1421.94
483.558	1559.64
484.015	1615.04
484.472	1580.04
484.929	1547.44
485.385	1483.94
485.842	1439.04
486.299	1375.44
486.755	1309.34
487.212	1098.84
487.668	934.94
488.125	850.44
488.582	790.44
489.038	746.34
489.494	718.24
489.951	688.64
490.407	674.54
490.864	651.74
491.32	647.14
491.776	651.54
492.233	644.24
492.689	618.74
493.145	611.24
493.602	606.44
494.058	615.94
494.514	624.14
494.97	653.44
495.426	645.34
495.882	630.04
496.338	615.34
496.794	624.84
497.251	626.14
497.707	640.64
498.163	643.74
498.618	642.54
499.074	647.84
499.53	682.54
499.986	687.34
500.442	655.04
500.898	636.94
501.354	621.44
501.809	631.74
502.265	651.44
502.721	660.54
503.177	673.04
503.632	670.84
504.088	679.14
504.543	714.54
504.999	711.94
505.455	650.44
505.91	634.84
506.366	636.44
506.821	630.24
507.277	619.14
507.732	624.54
508.187	620.04
508.643	641.24
509.098	635.14
509.553	659.94
510.009	657.94
510.464	663.24
510.919	689.14
511.375	696.24
511.83	717.14
512.285	721.34
512.74	761.34
513.195	777.14
513.65	771.14
514.105	776.74
514.56	766.74
515.015	791.04
515.47	810.54
515.925	795.34
516.38	790.04
516.835	792.14
517.29	787.54
517.745	772.14
518.2	768.54
518.655	749.74
519.109	737.34
519.564	734.24
520.019	737.04
520.474	728.84
520.928	723.84
521.383	717.44
521.838	711.64
522.292	708.14
522.747	699.34
523.201	700.84
523.656	700.24
524.11	687.34
524.565	686.74
525.019	687.64
525.474	719.84
525.928	705.24
526.382	698.14
526.837	696.44
527.291	705.54
527.745	691.44
528.2	699.84
528.654	693.34
529.108	692.94
529.562	691.84
530.016	698.64
530.47	687.64
530.925	689.94
531.379	698.84
531.833	701.24
532.287	705.74
532.741	709.94
533.195	703.14
533.649	710.04
534.103	732.14
534.556	713.14
535.01	716.24
535.464	706.54
535.918	718.54
536.372	719.64
536.826	722.64
537.279	703.74
537.733	705.74
538.187	715.94
538.64	720.14
539.094	716.94
539.548	725.64
540.001	721.84
540.455	722.54
540.908	725.54
541.362	735.94
541.815	740.64
542.269	753.44
542.722	757.54
543.175	769.34
543.629	763.04
544.082	780.44
544.536	783.74
544.989	776.84
545.442	791.54
545.895	778.54
546.349	783.74
546.802	778.04
547.255	785.34
547.708	794.54
548.161	805.04
548.614	822.84
549.067	820.14
549.52	816.24
549.973	810.24
550.426	800.34
550.879	792.94
551.332	792.94
551.785	807.74
552.238	804.14
552.691	807.74
553.144	822.14
553.596	839.74
554.049	864.44
554.502	886.24
554.955	903.94
555.407	901.64
555.86	900.04
556.313	888.64
556.765	882.44
557.218	876.94
557.67	880.54
558.123	875.34
558.576	870.84
559.028	884.14
559.48	874.24
559.933	861.64
560.385	836.34
560.838	798.84
561.29	779.14
561.742	763.24
562.195	756.54
562.647	760.44
563.099	765.54
563.551	763.64
564.004	780.84
564.456	770.64
564.908	749.94
565.36	736.54
565.812	729.34
566.264	712.04
566.716	709.14
567.168	699.94
567.62	723.84
568.072	694.04
568.524	682.64
568.976	681.94
569.428	659.54
569.88	666.84
570.332	672.54
570.784	672.94
571.235	673.44
571.687	673.54
572.139	687.54
572.59	707.34
573.042	696.74
573.494	701.54
573.945	705.74
574.397	680.54
574.849	685.64
575.3	675.84
575.752	669.74
576.203	660.24
576.655	679.34
577.106	667.14
577.557	662.54
578.009	658.34
578.46	653.24
578.912	651.64
579.363	653.64
579.814	658.54
580.265	652.24
580.717	659.34
581.168	659.14
581.619	674.64
582.07	674.04
582.521	667.44
582.972	660.44
583.423	671.64
583.875	667.64
584.326	677.74
584.777	733.34
585.227	795.44
585.678	888.84
586.129	987.34
586.58	1053.54
587.031	1140.34
587.482	1278.84
587.933	1459.64
588.384	1276.14
588.834	942.14
589.285	788.64
589.736	768.74
590.186	755.34
590.637	752.24
591.088	721.64
591.538	721.44
591.989	711.04
592.439	699.94
592.89	705.64
593.34	695.54
593.791	701.24
594.241	684.74
594.692	692.84
595.142	693.64
595.593	671.44
596.043	688.24
596.493	698.64
596.943	701.24
597.394	698.14
597.844	692.24
598.294	710.94
598.744	731.74
599.195	760.54
599.645	795.54
600.095	832.04
600.545	891.24
600.995	941.94
601.445	988.44
601.895	1053.84
602.345	1116.44
602.795	1081.14
603.245	1036.64
603.695	983.74
604.145	942.24
604.594	886.94
605.044	840.54
605.494	778.24
605.944	738.04
606.393	729.24
606.843	712.14
607.293	716.24
607.743	704.94
608.192	717.64
608.642	737.14
609.091	742.84
609.541	745.44
609.99	741.24
610.44	739.44
610.889	692.64
611.339	677.74
611.788	662.54
612.238	683.24
612.687	697.34
613.136	702.24
613.586	718.84
614.035	709.54
614.484	731.84
614.933	731.34
615.383	725.84
615.832	711.34
616.281	689.64
616.73	657.54
617.179	644.64
617.628	621.44
618.077	612.34
618.526	599.04
618.975	606.84
619.424	596.34
619.873	587.94
620.322	595.14
620.771	589.44
621.22	589.14
621.669	574.24
622.118	565.34
622.567	558.64
623.015	546.14
623.464	542.64
623.913	535.64
624.361	530.74
624.81	534.74
625.259	536.24
625.707	539.34
626.156	534.14
626.604	546.84
627.053	544.84
627.501	546.04
627.95	546.24
628.398	560.24
628.847	552.74
629.295	544.44
629.744	558.54
630.192	549.14
630.64	543.54
631.089	540.04
631.537	554.24
631.985	553.64
632.433	580.34
632.881	583.24
633.33	630.84
633.778	610.34
634.226	535.34
634.674	547.44
635.122	552.94
635.57	567.44
636.018	596.74
636.466	560.14
636.914	533.64
637.362	543.54
637.81	550.04
638.258	555.84
638.705	562.14
639.153	587.04
639.601	590.44
640.049	614.84
640.497	650.74
640.944	660.44
641.392	620.54
641.84	587.34
642.287	556.04
642.735	547.04
643.182	548.94
643.63	549.44
644.078	552.24
644.525	563.24
644.973	568.14
645.42	576.14
645.867	595.94
646.315	613.34
646.762	633.44
647.21	657.94
647.657	689.34
648.104	721.14
648.551	732.74
648.999	797.94
649.446	878.54
649.893	960.74
650.34	1108.64
650.787	1331.64
651.234	1648.54
651.682	2104.44
652.129	2918.24
652.576	4205.64
653.023	6227.64
653.47	8567.44
653.917	10780.44
654.363	12540.84
654.81	13971.04
655.257	13250.44
655.704	8691.24
656.151	5100.84
656.598	3291.74
657.044	2341.64
657.491	1805.14
657.938	1448.34
658.385	1199.54
658.831	1035.44
659.278	923.94
659.724	818.94
660.171	754.94
660.618	688.24
661.064	656.64
661.511	639.64
661.957	622.14
662.404	603.04
662.85	615.54
663.296	599.74
663.743	533.24
664.189	515.44
664.635	506.84
665.082	504.54
665.528	510.64
665.974	490.64
666.42	482.64
666.867	474.84
667.313	475.44
667.759	458.34
668.205	454.34
668.651	453.04
669.097	458.54
669.543	477.54
669.989	443.84
670.435	438.74
670.881	418.64
671.327	425.34
671.773	443.64
672.219	473.74
672.665	510.84
673.11	546.44
673.556	593.04
674.002	624.74
674.448	618.64
674.893	516.34
675.339	450.94
675.785	412.24
676.23	395.04
676.676	375.84
677.122	364.54
677.567	353.14
678.013	347.54
678.458	346.54
678.904	340.04
679.349	327.44
679.794	332.04
680.24	332.54
680.685	327.04
681.131	329.84
681.576	332.54
682.021	335.54
682.466	336.04
682.912	330.04
683.357	338.14
683.802	356.54
684.247	388.04
684.692	423.44
685.137	471.04
685.583	505.24
686.028	526.44
686.473	488.64
686.918	421.74
687.363	388.14
687.807	368.14
688.252	346.04
688.697	335.74
689.142	317.74
689.587	318.04
690.032	310.24
690.477	319.94
690.921	326.04
691.366	368.84
691.811	376.74
692.255	404.14
692.7	435.64
693.145	469.94
693.589	637.74
694.034	1026.54
694.478	1438.74
694.923	1637.24
695.367	2154.24
695.812	1137.54
696.256	466.44
696.701	344.44
697.145	321.34
697.59	317.24
698.034	303.34
698.478	318.44
698.922	300.64
699.367	306.74
699.811	319.14
700.255	331.74
700.699	356.74
701.143	397.04
701.588	446.94
702.032	484.94
702.476	485.74
702.92	465.44
703.364	462.44
703.808	587.24
704.252	959.14
704.696	1348.84
705.14	1581.24
705.584	2031.74
706.027	1004.54
706.471	490.34
706.915	373.04
707.359	332.44
707.803	301.54
708.246	294.84
708.69	291.64
709.134	296.14
709.577	291.04
710.021	296.24
710.465	290.54
710.908	283.74
711.352	281.54
711.795	284.64
712.239	326.24
712.682	359.84
713.126	389.04
713.569	430.74
714.012	348.94
714.456	303.64
714.899	283.14
715.342	256.04
715.786	252.44
716.229	247.44
716.672	246.04
717.115	233.64
717.558	239.54
718.002	233.74
718.445	245.54
718.888	266.24
719.331	271.14
719.774	286.44
720.217	286.94
720.66	272.84
721.103	243.64
721.546	235.54
721.989	232.34
722.432	219.84
722.874	227.84
723.317	214.74
723.76	220.74
724.203	238.14
724.645	292.34
725.088	411.24
725.531	536.74
725.974	615.64
726.416	515.84
726.859	282.14
727.301	233.74
727.744	225.84
728.187	217.84
728.629	223.74
729.071	232.94
729.514	235.74
729.956	257.34
730.399	259.44
730.841	265.54
731.283	256.84
731.726	246.74
732.168	246.14
732.61	245.34
733.053	264.54
733.495	297.94
733.937	319.54
734.379	373.04
734.821	407.54
735.263	499.84
735.705	769.34
736.148	1448.14
736.59	2390.84
737.032	2899.44
737.474	2361.04
737.916	761.94
738.357	399.64
738.799	302.74
739.241	279.54
739.683	260.64
740.125	268.54
740.567	272.44
741.008	292.44
741.45	294.74
741.892	302.14
742.334	320.04
742.775	336.94
743.217	320.74
743.658	252.74
744.1	242.74
744.542	254.04
744.983	289.44
745.425	322.34
745.866	319.64
746.307	266.24
746.749	270.64
747.19	303.24
747.632	413.24
748.073	794.54
748.514	1691.64
748.956	2658.84
749.397	3322.64
749.838	2767.04
750.279	2807.64
750.72	1403.44
751.162	506.34
751.603	294.94
752.044	232.64
752.485	198.74
752.926	197.14
753.367	187.24
753.808	180.84
754.249	177.74
754.69	171.54
755.131	168.04
755.572	166.74
756.013	164.64
756.453	168.04
756.894	174.84
757.335	171.44
757.776	179.34
758.216	183.74
758.657	185.74
759.098	190.94
759.538	209.74
759.979	247.24
760.42	340.54
760.86	635.94
761.301	1637.54
761.741	4033.54
762.182	6100.24
762.622	4299.14
