Data from 20171114-ORNL-Ar_H_NY_Subt18_08-07-56-821.txt Node
Date: Tue Nov 14 08:07:56 EST 2017
User: Ender
Spectrometer: HR+D1039
Trigger mode: 0
Integration Time (sec): 2.730000E-2
Scans to average: 10
Electric dark correction enabled: true
Nonlinearity correction enabled: false
Boxcar width: 0
XAxis mode: Wavelengths
Number of Pixels in Spectrum: 2048
>>>>>Begin Spectral Data<<<<<
187.836	-6.36
188.309	-6.36
188.782	-6.36
189.255	2.14
189.728	-8.06
190.201	8.14
190.674	4.44
191.147	6.14
191.619	-5.96
192.092	-0.56
192.565	4.94
193.038	2.54
193.511	-1.36
193.984	1.94
194.456	-1.46
194.929	3.44
195.402	-8.16
195.874	-1.86
196.347	-6.86
196.82	-11.96
197.292	0.94
197.765	-4.46
198.237	-10.56
198.71	-0.26
199.182	2.14
199.655	-2.36
200.127	-3.76
200.6	-1.36
201.072	-3.46
201.544	-5.06
202.017	-4.26
202.489	0.24
202.961	-3.46
203.433	1.44
203.906	-7.56
204.378	-0.96
204.85	-1.76
205.322	-5.66
205.794	-1.66
206.266	-4.66
206.739	-9.66
207.211	2.84
207.683	-7.36
208.155	-9.86
208.627	-4.56
209.099	-3.46
209.57	-12.16
210.042	-8.16
210.514	-7.06
210.986	-3.06
211.458	-7.96
211.93	-0.06
212.402	4.94
212.873	-4.66
213.345	-7.26
213.817	-17.86
214.288	-11.26
214.76	-10.86
215.232	-2.76
215.703	-3.86
216.175	-0.76
216.646	-3.56
217.118	-7.16
217.589	-4.16
218.061	-2.46
218.532	-3.16
219.004	-4.86
219.475	-3.96
219.946	-8.66
220.418	-8.06
220.889	-2.46
221.36	2.54
221.832	-3.26
222.303	-3.76
222.774	0.54
223.245	-9.96
223.717	-6.46
224.188	-7.16
224.659	-9.16
225.13	-10.16
225.601	-4.06
226.072	-2.96
226.543	-1.36
227.014	-6.16
227.485	-1.06
227.956	-4.26
228.427	-3.76
228.898	-4.66
229.369	1.74
229.839	-1.86
230.31	-4.46
230.781	5.94
231.252	-5.96
231.722	-5.76
232.193	-1.96
232.664	-1.86
233.135	-1.46
233.605	-2.26
234.076	-0.76
234.546	-2.96
235.017	5.74
235.487	4.14
235.958	-0.96
236.428	-3.46
236.899	3.94
237.369	8.14
237.84	-5.16
238.31	2.84
238.78	2.74
239.251	-2.66
239.721	5.34
240.191	-0.66
240.662	-1.16
241.132	2.04
241.602	2.44
242.072	-1.46
242.542	6.74
243.013	-1.86
243.483	1.44
243.953	-2.66
244.423	0.24
244.893	-5.26
245.363	-0.06
245.833	4.44
246.303	-0.66
246.773	6.64
247.243	8.84
247.712	0.94
248.182	9.34
248.652	4.94
249.122	0.24
249.592	9.14
250.061	24.14
250.531	23.04
251.001	16.04
251.471	18.54
251.94	16.04
252.41	3.44
252.879	-0.06
253.349	9.14
253.818	6.84
254.288	3.84
254.757	-1.16
255.227	3.64
255.696	-0.66
256.166	6.34
256.635	2.94
257.105	4.44
257.574	0.64
258.043	3.64
258.513	4.74
258.982	13.44
259.451	10.84
259.92	8.34
260.389	8.34
260.859	11.64
261.328	9.14
261.797	19.74
262.266	8.74
262.735	11.94
263.204	6.54
263.673	-1.06
264.142	0.04
264.611	-2.56
265.08	-1.16
265.549	-3.46
266.018	8.34
266.487	-1.86
266.955	-2.26
267.424	-3.06
267.893	2.24
268.362	-0.06
268.83	0.54
269.299	11.74
269.768	5.44
270.236	3.84
270.705	-0.96
271.174	5.74
271.642	8.94
272.111	3.94
272.579	11.64
273.048	20.94
273.516	23.94
273.985	22.84
274.453	23.44
274.922	14.84
275.39	9.44
275.858	2.74
276.327	3.94
276.795	16.74
277.263	11.04
277.731	29.54
278.2	44.14
278.668	49.64
279.136	39.44
279.604	14.74
280.072	11.84
280.54	7.94
281.008	14.64
281.477	14.94
281.945	10.74
282.413	10.24
282.881	12.54
283.348	4.64
283.816	18.94
284.284	13.64
284.752	17.94
285.22	14.74
285.688	18.44
286.156	17.24
286.623	41.14
287.091	48.64
287.559	29.74
288.026	12.54
288.494	13.64
288.962	5.74
289.429	8.24
289.897	20.44
290.364	8.34
290.832	11.94
291.3	11.24
291.767	13.24
292.234	12.34
292.702	11.74
293.169	11.84
293.637	22.74
294.104	19.14
294.571	10.24
295.039	12.44
295.506	5.54
295.973	15.34
296.44	16.24
296.908	15.54
297.375	16.04
297.842	17.24
298.309	21.24
298.776	15.74
299.243	15.54
299.71	8.44
300.177	18.24
300.644	17.14
301.111	16.84
301.578	20.74
302.045	13.44
302.512	18.84
302.979	23.44
303.446	20.44
303.913	17.14
304.379	13.94
304.846	17.34
305.313	21.04
305.78	20.44
306.246	21.44
306.713	25.04
307.18	25.54
307.646	29.74
308.113	23.84
308.579	21.54
309.046	20.04
309.512	19.74
309.979	20.44
310.445	24.64
310.912	29.54
311.378	25.64
311.845	24.14
312.311	36.04
312.777	27.24
313.244	28.14
313.71	37.44
314.176	30.94
314.642	27.34
315.109	34.04
315.575	27.34
316.041	35.34
316.507	26.04
316.973	34.54
317.439	25.84
317.905	32.84
318.371	38.24
318.837	33.14
319.303	34.14
319.769	28.94
320.235	36.64
320.701	30.44
321.167	35.64
321.633	26.04
322.099	31.84
322.564	39.54
323.03	34.64
323.496	35.84
323.962	32.54
324.427	34.84
324.893	34.64
325.359	33.94
325.824	34.84
326.29	33.34
326.755	32.84
327.221	34.54
327.686	36.44
328.152	37.74
328.617	42.34
329.083	44.64
329.548	49.04
330.014	45.24
330.479	34.94
330.944	35.94
331.41	34.84
331.875	39.14
332.34	40.24
332.805	45.44
333.271	41.34
333.736	41.54
334.201	50.54
334.666	48.64
335.131	50.14
335.596	44.04
336.061	43.34
336.526	36.64
336.991	45.44
337.456	48.74
337.921	45.04
338.386	40.14
338.851	39.14
339.316	43.14
339.781	38.94
340.246	47.54
340.711	44.04
341.175	51.34
341.64	41.64
342.105	44.84
342.569	48.54
343.034	48.84
343.499	48.84
343.963	49.44
344.428	54.74
344.893	56.64
345.357	51.64
345.822	56.24
346.286	61.84
346.751	65.14
347.215	61.14
347.679	66.74
348.144	92.64
348.608	78.84
349.073	64.34
349.537	71.64
350.001	68.24
350.465	83.04
350.93	76.44
351.394	76.74
351.858	66.44
352.322	83.94
352.786	73.74
353.25	92.64
353.715	106.24
354.179	89.64
354.643	121.94
355.107	117.94
355.571	104.94
356.035	91.84
356.498	112.84
356.962	118.14
357.426	129.34
357.89	113.84
358.354	83.54
358.818	75.54
359.281	71.04
359.745	71.94
360.209	65.64
360.673	64.44
361.136	77.84
361.6	75.84
362.064	80.04
362.527	76.74
362.991	83.24
363.454	76.34
363.918	79.34
364.381	72.94
364.845	76.84
365.308	82.14
365.772	81.84
366.235	85.64
366.698	76.74
367.162	79.74
367.625	78.04
368.088	87.44
368.552	87.34
369.015	75.94
369.478	90.54
369.941	92.84
370.404	86.74
370.867	95.44
371.331	107.54
371.794	103.74
372.257	109.14
372.72	114.14
373.183	107.94
373.646	97.64
374.109	101.34
374.572	107.14
375.035	109.54
375.497	104.84
375.96	104.34
376.423	97.44
376.886	104.64
377.349	107.04
377.811	105.24
378.274	99.54
378.737	101.54
379.199	107.74
379.662	105.24
380.125	112.44
380.587	116.74
381.05	109.44
381.512	118.94
381.975	126.94
382.437	126.24
382.9	124.54
383.362	122.24
383.825	136.84
384.287	145.54
384.75	137.44
385.212	135.94
385.674	138.44
386.136	133.44
386.599	122.64
387.061	120.34
387.523	126.24
387.985	131.24
388.447	138.94
388.91	137.44
389.372	155.44
389.834	148.94
390.296	143.94
390.758	151.64
391.22	162.44
391.682	203.94
392.144	298.94
392.606	222.04
393.068	162.14
393.529	162.74
393.991	154.14
394.453	141.54
394.915	148.14
395.377	191.84
395.838	214.74
396.3	147.84
396.762	141.44
397.224	125.64
397.685	129.24
398.147	129.94
398.608	129.14
399.07	125.04
399.531	130.24
399.993	137.44
400.454	146.34
400.916	135.94
401.377	138.94
401.839	143.84
402.3	136.44
402.762	157.24
403.223	178.94
403.684	169.04
404.145	152.34
404.607	156.44
405.068	156.54
405.529	160.04
405.99	184.94
406.451	174.54
406.913	167.44
407.374	153.14
407.835	156.14
408.296	168.44
408.757	166.54
409.218	180.74
409.679	178.74
410.14	171.44
410.601	178.14
411.062	182.74
411.522	189.54
411.983	184.54
412.444	175.44
412.905	178.14
413.366	172.64
413.826	190.44
414.287	205.44
414.748	248.84
415.208	230.94
415.669	202.24
416.13	198.34
416.59	194.84
417.051	200.84
417.511	213.14
417.972	226.74
418.432	227.44
418.893	280.24
419.353	237.04
419.814	187.34
420.274	186.54
420.734	175.84
421.195	193.14
421.655	191.44
422.115	193.74
422.576	183.74
423.036	196.54
423.496	194.34
423.956	208.64
424.416	221.64
424.876	259.74
425.336	255.24
425.797	250.34
426.257	248.64
426.717	240.54
427.177	229.04
427.637	213.94
428.097	229.74
428.556	240.64
429.016	256.84
429.476	258.04
429.936	266.84
430.396	275.14
430.856	280.94
431.315	315.34
431.775	342.34
432.235	370.94
432.694	341.84
433.154	358.74
433.614	383.84
434.073	334.14
434.533	276.94
434.993	263.84
435.452	275.94
435.912	285.14
436.371	280.54
436.83	277.24
437.29	261.24
437.749	242.14
438.209	244.44
438.668	263.24
439.127	276.74
439.587	258.84
440.046	237.44
440.505	257.44
440.964	270.24
441.424	315.54
441.883	304.74
442.342	252.44
442.801	223.24
443.26	214.64
443.719	212.04
444.178	219.44
444.637	202.94
445.096	217.14
445.555	216.34
446.014	211.14
446.473	224.64
446.932	229.84
447.391	216.14
447.849	220.34
448.308	208.64
448.767	213.84
449.226	232.34
449.685	226.54
450.143	245.94
450.602	230.14
451.061	224.84
451.519	223.84
451.978	227.84
452.436	222.54
452.895	235.84
453.353	244.94
453.812	231.84
454.27	230.94
454.729	233.44
455.187	237.34
455.646	242.04
456.104	243.74
456.562	254.64
457.021	262.44
457.479	256.44
457.937	266.44
458.395	256.14
458.854	240.84
459.312	253.84
459.77	268.74
460.228	246.74
460.686	238.64
461.144	237.54
461.602	239.64
462.06	233.04
462.518	246.64
462.976	245.04
463.434	255.54
463.892	258.74
464.35	267.04
464.808	278.64
465.266	260.84
465.724	261.94
466.181	262.24
466.639	259.14
467.097	278.74
467.555	282.94
468.012	297.74
468.47	300.04
468.928	314.54
469.385	329.24
469.843	331.64
470.3	339.94
470.758	351.94
471.215	372.24
471.673	398.34
472.13	396.54
472.588	412.04
473.045	365.04
473.503	373.14
473.96	384.74
474.417	397.14
474.875	413.94
475.332	463.24
475.789	450.94
476.246	451.64
476.704	462.24
477.161	497.94
477.618	503.44
478.075	548.94
478.532	596.44
478.989	671.44
479.446	785.44
479.903	755.84
480.36	793.74
480.817	842.54
481.274	937.74
481.731	1042.34
482.188	1130.54
482.645	1264.04
483.102	1362.84
483.558	1503.94
484.015	1550.24
484.472	1533.24
484.929	1493.04
485.385	1435.34
485.842	1380.14
486.299	1312.14
486.755	1273.74
487.212	1073.54
487.668	902.64
488.125	829.54
488.582	749.94
489.038	722.64
489.494	690.94
489.951	669.34
490.407	653.24
490.864	633.54
491.32	624.54
491.776	616.14
492.233	628.04
492.689	598.44
493.145	580.04
493.602	579.64
494.058	598.04
494.514	604.74
494.97	617.74
495.426	626.04
495.882	600.04
496.338	582.44
496.794	606.64
497.251	599.64
497.707	609.64
498.163	607.74
498.618	619.04
499.074	619.14
499.53	650.64
499.986	650.14
500.442	629.44
500.898	615.84
501.354	607.14
501.809	614.14
502.265	619.64
502.721	639.84
503.177	660.34
503.632	643.74
504.088	663.14
504.543	696.54
504.999	686.94
505.455	635.54
505.91	604.64
506.366	604.04
506.821	605.24
507.277	602.74
507.732	605.34
508.187	605.04
508.643	613.54
509.098	606.64
509.553	634.94
510.009	642.24
510.464	649.14
510.919	668.24
511.375	664.84
511.83	676.34
512.285	702.54
512.74	738.44
513.195	759.74
513.65	743.64
514.105	737.94
514.56	747.54
515.015	774.94
515.47	788.14
515.925	763.84
516.38	757.14
516.835	766.54
517.29	757.14
517.745	758.14
518.2	735.64
518.655	724.44
519.109	710.64
519.564	715.24
520.019	711.34
520.474	694.64
520.928	694.14
521.383	687.74
521.838	684.04
522.292	694.04
522.747	678.44
523.201	673.94
523.656	678.24
524.11	667.24
524.565	670.64
525.019	673.74
525.474	689.24
525.928	681.34
526.382	678.44
526.837	680.04
527.291	685.24
527.745	675.84
528.2	666.04
528.654	675.14
529.108	665.84
529.562	669.04
530.016	666.94
530.47	669.74
530.925	669.04
531.379	672.84
531.833	680.04
532.287	679.14
532.741	668.44
533.195	683.64
533.649	683.74
534.103	691.14
534.556	683.04
535.01	693.84
535.464	682.34
535.918	697.34
536.372	691.44
536.826	689.64
537.279	690.74
537.733	686.84
538.187	693.04
538.64	691.74
539.094	691.34
539.548	700.14
540.001	699.14
540.455	703.04
540.908	716.24
541.362	715.24
541.815	724.34
542.269	734.14
542.722	733.24
543.175	738.74
543.629	752.74
544.082	751.94
544.536	756.64
544.989	760.14
545.442	759.94
545.895	764.04
546.349	762.24
546.802	765.64
547.255	771.14
547.708	779.54
548.161	790.44
548.614	805.14
549.067	805.54
549.52	791.44
549.973	776.84
550.426	773.54
550.879	767.84
551.332	777.74
551.785	773.74
552.238	778.54
552.691	791.44
553.144	809.54
553.596	812.94
554.049	831.84
554.502	868.04
554.955	876.74
555.407	870.94
555.86	857.74
556.313	866.54
556.765	847.24
557.218	854.64
557.67	843.84
558.123	838.94
558.576	849.44
559.028	845.04
559.48	841.94
559.933	844.44
560.385	813.74
560.838	780.04
561.29	762.34
561.742	759.64
562.195	733.44
562.647	743.74
563.099	750.54
563.551	747.64
564.004	756.94
564.456	754.14
564.908	737.64
565.36	728.44
565.812	716.44
566.264	712.14
566.716	707.04
567.168	692.94
567.62	706.24
568.072	679.84
568.524	676.54
568.976	674.54
569.428	659.54
569.88	658.04
570.332	666.14
570.784	664.84
571.235	658.24
571.687	675.94
572.139	679.84
572.59	685.84
573.042	688.24
573.494	685.34
573.945	682.44
574.397	664.54
574.849	665.34
575.3	667.04
575.752	653.84
576.203	659.94
576.655	668.04
577.106	643.94
577.557	642.24
578.009	648.54
578.46	652.14
578.912	644.44
579.363	646.64
579.814	645.44
580.265	642.74
580.717	650.54
581.168	653.84
581.619	651.84
582.07	660.24
582.521	649.44
582.972	651.84
583.423	657.54
583.875	665.84
584.326	685.74
584.777	722.94
585.227	811.44
585.678	907.94
586.129	991.34
586.58	1061.04
587.031	1142.44
587.482	1292.24
587.933	1482.54
588.384	1296.74
588.834	959.34
589.285	782.74
589.736	769.14
590.186	753.24
590.637	757.14
591.088	728.04
591.538	714.04
591.989	711.64
592.439	705.14
592.89	695.54
593.34	689.74
593.791	691.04
594.241	679.34
594.692	697.44
595.142	685.54
595.593	681.24
596.043	679.24
596.493	689.74
596.943	695.04
597.394	715.74
597.844	693.24
598.294	716.54
598.744	733.44
599.195	749.94
599.645	793.94
600.095	830.34
600.545	902.94
600.995	941.94
601.445	995.14
601.895	1051.54
602.345	1095.84
602.795	1080.24
603.245	1031.34
603.695	994.74
604.145	933.54
604.594	884.94
605.044	824.54
605.494	775.34
605.944	724.14
606.393	720.64
606.843	712.44
607.293	713.34
607.743	719.84
608.192	717.74
608.642	743.54
609.091	744.34
609.541	746.94
609.99	751.74
610.44	751.64
610.889	706.04
611.339	684.84
611.788	671.24
612.238	687.74
612.687	699.64
613.136	703.14
613.586	720.44
614.035	731.04
614.484	732.34
614.933	748.04
615.383	740.64
615.832	725.34
616.281	703.54
616.73	673.44
617.179	645.94
617.628	634.34
618.077	615.44
618.526	602.44
618.975	609.34
619.424	601.14
619.873	601.74
620.322	600.04
620.771	595.84
621.22	586.04
621.669	576.34
622.118	573.74
622.567	568.54
623.015	552.64
623.464	551.64
623.913	550.04
624.361	541.74
624.81	541.84
625.259	534.04
625.707	544.04
626.156	542.14
626.604	556.94
627.053	544.94
627.501	553.54
627.95	550.84
628.398	567.04
628.847	559.94
629.295	556.94
629.744	559.44
630.192	551.74
630.64	556.74
631.089	559.94
631.537	572.64
631.985	573.24
632.433	592.04
632.881	602.44
633.33	658.14
633.778	637.74
634.226	560.14
634.674	568.54
635.122	570.94
635.57	588.24
636.018	625.24
636.466	575.34
636.914	551.24
637.362	557.74
637.81	558.54
638.258	574.84
638.705	571.84
639.153	590.54
639.601	592.74
640.049	631.44
640.497	655.54
640.944	681.34
641.392	631.14
641.84	605.14
642.287	571.64
642.735	550.54
643.182	553.84
643.63	565.34
644.078	570.14
644.525	578.94
644.973	585.14
645.42	592.74
645.867	622.44
646.315	629.54
646.762	652.14
647.21	680.24
647.657	694.54
648.104	741.14
648.551	766.64
648.999	830.14
649.446	898.64
649.893	995.84
650.34	1159.04
650.787	1375.64
651.234	1713.44
651.682	2238.54
652.129	3108.54
652.576	4469.84
653.023	6587.54
653.47	8970.84
653.917	11220.74
654.363	12825.14
654.81	14154.64
655.257	13416.04
655.704	8786.84
656.151	5166.24
656.598	3366.04
657.044	2380.44
657.491	1820.24
657.938	1461.74
658.385	1220.64
658.831	1056.34
659.278	938.44
659.724	830.94
660.171	767.64
660.618	703.04
661.064	673.24
661.511	658.24
661.957	644.34
662.404	631.14
662.85	644.14
663.296	619.44
663.743	551.24
664.189	533.34
664.635	523.54
665.082	516.94
665.528	509.14
665.974	503.74
666.42	500.64
666.867	498.34
667.313	483.14
667.759	469.94
668.205	470.94
668.651	469.34
669.097	479.44
669.543	490.84
669.989	466.94
670.435	438.14
670.881	437.04
671.327	436.64
671.773	455.54
672.219	479.74
672.665	538.84
673.11	562.54
673.556	612.34
674.002	649.74
674.448	641.24
674.893	534.94
675.339	470.54
675.785	417.24
676.23	407.94
676.676	378.04
677.122	372.14
677.567	357.44
678.013	362.34
678.458	349.74
678.904	356.84
679.349	334.64
679.794	337.74
680.24	344.34
680.685	339.44
681.131	335.94
681.576	342.34
682.021	344.84
682.466	335.24
682.912	348.14
683.357	346.74
683.802	375.34
684.247	403.24
684.692	449.84
685.137	482.94
685.583	524.14
686.028	544.14
686.473	502.54
686.918	438.74
687.363	403.64
687.807	391.84
688.252	353.24
688.697	341.44
689.142	326.94
689.587	323.34
690.032	312.64
690.477	336.24
690.921	340.44
691.366	379.64
691.811	391.34
692.255	415.24
692.7	450.64
693.145	489.64
693.589	695.44
694.034	1118.74
694.478	1506.24
694.923	1683.94
695.367	2181.84
695.812	1142.04
696.256	486.54
696.701	360.64
697.145	333.94
697.59	324.54
698.034	319.44
698.478	320.14
698.922	319.54
699.367	319.74
699.811	332.24
700.255	348.34
700.699	380.64
701.143	417.24
701.588	470.54
702.032	502.24
702.476	495.64
702.92	478.14
703.364	475.84
703.808	628.94
704.252	1036.84
704.696	1428.44
705.14	1622.04
705.584	2059.84
706.027	1035.84
706.471	515.94
706.915	395.04
707.359	341.44
707.803	308.34
708.246	302.84
708.69	299.64
709.134	301.64
709.577	300.04
710.021	307.14
710.465	305.54
710.908	297.04
711.352	294.74
711.795	309.84
712.239	353.34
712.682	378.24
713.126	410.94
713.569	453.34
714.012	364.64
714.456	321.34
714.899	290.34
715.342	265.64
715.786	254.34
716.229	251.14
716.672	245.24
717.115	248.34
717.558	244.74
718.002	239.64
718.445	251.44
718.888	281.54
719.331	281.34
719.774	303.44
720.217	289.84
720.66	279.04
721.103	264.74
721.546	251.94
721.989	237.94
722.432	230.54
722.874	242.84
723.317	225.34
723.76	229.24
724.203	253.74
724.645	311.14
725.088	442.34
725.531	552.44
725.974	625.34
726.416	533.44
726.859	296.44
727.301	243.84
727.744	240.04
728.187	224.74
728.629	234.14
729.071	242.04
729.514	249.44
729.956	270.44
730.399	275.54
730.841	282.04
731.283	264.54
731.726	257.04
732.168	253.14
732.61	259.14
733.053	281.04
733.495	304.44
733.937	347.84
734.379	387.84
734.821	427.94
735.263	535.04
735.705	834.34
736.148	1567.84
736.59	2524.24
737.032	2922.14
737.474	2379.24
737.916	785.74
738.357	417.74
738.799	326.24
739.241	291.44
739.683	276.04
740.125	288.34
740.567	283.14
741.008	315.54
741.45	309.44
741.892	308.04
742.334	335.64
742.775	348.74
743.217	326.64
743.658	262.74
744.1	252.04
744.542	253.14
744.983	302.14
745.425	330.24
745.866	328.64
746.307	281.04
746.749	275.74
747.19	311.24
747.632	457.34
748.073	889.44
748.514	1843.94
748.956	2777.94
749.397	3468.44
749.838	2878.04
750.279	2833.44
750.72	1454.24
751.162	530.54
751.603	312.04
752.044	246.54
752.485	212.24
752.926	208.14
753.367	197.14
753.808	188.74
754.249	181.44
754.69	185.54
755.131	183.44
755.572	181.94
756.013	170.04
756.453	179.64
756.894	188.54
757.335	189.24
757.776	198.84
758.216	189.44
758.657	191.04
759.098	196.84
759.538	213.14
759.979	252.94
760.42	365.04
760.86	706.54
761.301	1841.74
761.741	4364.64
762.182	6173.74
