Data from 20171114-ORNL-Ar_H_NY_Subt18_08-08-29-306.txt Node
Date: Tue Nov 14 08:08:29 EST 2017
User: Ender
Spectrometer: HR+D1039
Trigger mode: 0
Integration Time (sec): 2.730000E-2
Scans to average: 10
Electric dark correction enabled: true
Nonlinearity correction enabled: false
Boxcar width: 0
XAxis mode: Wavelengths
Number of Pixels in Spectrum: 2048
>>>>>Begin Spectral Data<<<<<
187.836	-1.87
188.309	-1.87
188.782	-1.87
189.255	2.03
189.728	0.13
190.201	2.13
190.674	4.23
191.147	-0.67
191.619	-6.17
192.092	-3.77
192.565	3.23
193.038	1.43
193.511	2.93
193.984	-0.07
194.456	-6.97
194.929	4.83
195.402	-2.37
195.874	0.93
196.347	-1.87
196.82	-6.47
197.292	0.93
197.765	-2.57
198.237	-6.77
198.71	3.23
199.182	-0.47
199.655	-1.77
200.127	2.83
200.6	-6.57
201.072	-3.07
201.544	-11.27
202.017	-3.27
202.489	0.93
202.961	2.23
203.433	-0.67
203.906	-9.67
204.378	-6.97
204.85	-9.47
205.322	-5.37
205.794	-5.57
206.266	-7.37
206.739	-10.57
207.211	0.83
207.683	-3.37
208.155	-6.57
208.627	-7.47
209.099	-7.87
209.57	-6.17
210.042	-4.97
210.514	-2.17
210.986	-4.47
211.458	-9.47
211.93	-3.47
212.402	2.33
212.873	-1.97
213.345	-7.97
213.817	-14.67
214.288	-7.87
214.76	-13.27
215.232	-2.77
215.703	1.23
216.175	-3.57
216.646	-8.77
217.118	-6.87
217.589	-8.57
218.061	-5.37
218.532	-5.57
219.004	-2.47
219.475	-5.67
219.946	-1.27
220.418	-7.87
220.889	-3.07
221.36	-4.57
221.832	-12.57
222.303	-8.47
222.774	3.43
223.245	-8.37
223.717	-7.67
224.188	-9.37
224.659	-4.37
225.13	-10.17
225.601	0.63
226.072	-1.07
226.543	0.93
227.014	-5.37
227.485	-4.77
227.956	-9.07
228.427	-5.07
228.898	1.13
229.369	3.53
229.839	-9.97
230.31	-4.27
230.781	3.63
231.252	-6.07
231.722	-8.87
232.193	-3.97
232.664	-5.67
233.135	-6.07
233.605	-6.07
234.076	-14.77
234.546	-9.77
235.017	0.23
235.487	-3.57
235.958	1.93
236.428	-7.57
236.899	-0.57
237.369	-7.17
237.84	-5.77
238.31	-3.67
238.78	-5.87
239.251	-11.57
239.721	-3.77
240.191	-7.07
240.662	-0.77
241.132	-3.57
241.602	-6.27
242.072	-1.17
242.542	6.33
243.013	-5.17
243.483	4.33
243.953	0.33
244.423	-2.67
244.893	-9.87
245.363	-1.47
245.833	0.13
246.303	-4.87
246.773	3.43
247.243	-5.47
247.712	-5.77
248.182	1.63
248.652	4.43
249.122	-8.47
249.592	-1.37
250.061	0.13
250.531	7.83
251.001	-4.27
251.471	4.93
251.94	10.83
252.41	-0.17
252.879	-6.77
253.349	7.33
253.818	3.03
254.288	4.63
254.757	2.43
255.227	-1.77
255.696	0.33
256.166	0.53
256.635	0.73
257.105	3.63
257.574	5.43
258.043	-1.97
258.513	-1.97
258.982	3.53
259.451	-3.47
259.92	3.73
260.389	-0.97
260.859	11.93
261.328	4.53
261.797	4.43
262.266	5.83
262.735	6.13
263.204	1.33
263.673	-4.27
264.142	4.83
264.611	-4.67
265.08	-2.27
265.549	1.23
266.018	5.63
266.487	-1.67
266.955	0.33
267.424	-1.37
267.893	1.63
268.362	-0.07
268.83	3.63
269.299	6.43
269.768	1.13
270.236	6.43
270.705	0.73
271.174	5.23
271.642	7.63
272.111	2.43
272.579	1.43
273.048	7.73
273.516	-1.27
273.985	8.33
274.453	10.03
274.922	12.73
275.39	4.93
275.858	-0.27
276.327	9.93
276.795	13.83
277.263	0.93
277.731	17.03
278.2	13.43
278.668	6.43
279.136	11.93
279.604	6.63
280.072	8.43
280.54	5.23
281.008	6.53
281.477	13.73
281.945	8.13
282.413	10.43
282.881	11.13
283.348	0.93
283.816	9.93
284.284	9.53
284.752	17.03
285.22	10.13
285.688	9.93
286.156	8.73
286.623	15.03
287.091	5.23
287.559	15.53
288.026	14.43
288.494	12.33
288.962	2.13
289.429	7.63
289.897	12.23
290.364	9.73
290.832	12.23
291.3	12.33
291.767	12.83
292.234	13.43
292.702	7.73
293.169	14.03
293.637	17.13
294.104	17.03
294.571	3.03
295.039	10.73
295.506	13.63
295.973	17.63
296.44	10.83
296.908	12.43
297.375	15.93
297.842	14.93
298.309	17.23
298.776	5.53
299.243	16.63
299.71	13.03
300.177	16.93
300.644	20.53
301.111	14.03
301.578	22.93
302.045	18.73
302.512	24.13
302.979	23.63
303.446	18.03
303.913	15.93
304.379	18.13
304.846	21.13
305.313	19.03
305.78	15.03
306.246	18.13
306.713	25.83
307.18	23.63
307.646	29.63
308.113	23.03
308.579	17.83
309.046	24.43
309.512	21.33
309.979	16.53
310.445	25.83
310.912	25.73
311.378	31.23
311.845	29.43
312.311	29.23
312.777	27.43
313.244	28.13
313.71	34.13
314.176	25.63
314.642	26.23
315.109	27.63
315.575	34.43
316.041	37.93
316.507	25.23
316.973	25.63
317.439	28.03
317.905	30.23
318.371	33.03
318.837	31.13
319.303	33.73
319.769	27.63
320.235	32.13
320.701	33.53
321.167	35.93
321.633	33.03
322.099	34.13
322.564	35.03
323.03	31.63
323.496	35.33
323.962	31.13
324.427	35.33
324.893	40.83
325.359	36.03
325.824	32.13
326.29	40.23
326.755	42.03
327.221	37.93
327.686	39.63
328.152	46.53
328.617	37.73
329.083	44.73
329.548	48.53
330.014	47.83
330.479	38.93
330.944	38.03
331.41	35.33
331.875	38.93
332.34	40.63
332.805	44.23
333.271	39.63
333.736	34.93
334.201	40.33
334.666	42.63
335.131	52.03
335.596	46.73
336.061	48.13
336.526	37.43
336.991	45.43
337.456	51.23
337.921	50.83
338.386	44.33
338.851	39.13
339.316	45.23
339.781	46.73
340.246	52.43
340.711	44.93
341.175	44.23
341.64	38.13
342.105	47.43
342.569	51.23
343.034	59.43
343.499	55.73
343.963	46.93
344.428	59.83
344.893	60.43
345.357	56.33
345.822	57.13
346.286	70.83
346.751	69.73
347.215	62.13
347.679	68.03
348.144	94.13
348.608	80.73
349.073	67.23
349.537	75.93
350.001	74.13
350.465	83.53
350.93	81.83
351.394	84.73
351.858	75.03
352.322	89.73
352.786	81.23
353.25	97.33
353.715	114.53
354.179	102.63
354.643	119.63
355.107	116.63
355.571	97.13
356.035	101.53
356.498	115.03
356.962	117.63
357.426	119.23
357.89	112.33
358.354	90.33
358.818	84.33
359.281	74.13
359.745	75.53
360.209	70.83
360.673	74.73
361.136	82.93
361.6	82.73
362.064	83.73
362.527	83.93
362.991	86.03
363.454	80.53
363.918	76.63
364.381	77.43
364.845	81.43
365.308	83.93
365.772	78.63
366.235	78.43
366.698	76.63
367.162	84.63
367.625	85.43
368.088	87.43
368.552	93.43
369.015	91.73
369.478	91.03
369.941	97.53
370.404	88.83
370.867	92.63
371.331	103.43
371.794	108.13
372.257	100.93
372.72	108.03
373.183	100.63
373.646	93.43
374.109	98.43
374.572	107.73
375.035	102.63
375.497	106.63
375.96	104.93
376.423	106.83
376.886	110.03
377.349	107.93
377.811	97.83
378.274	109.23
378.737	107.93
379.199	107.13
379.662	110.23
380.125	113.83
380.587	110.03
381.05	108.33
381.512	118.53
381.975	119.93
382.437	117.43
382.9	118.33
383.362	121.23
383.825	134.73
384.287	131.23
384.75	123.63
385.212	126.23
385.674	127.33
386.136	130.73
386.599	118.93
387.061	120.23
387.523	121.73
387.985	126.93
388.447	129.23
388.91	121.63
389.372	122.43
389.834	127.83
390.296	130.53
390.758	135.73
391.22	140.23
391.682	152.33
392.144	160.03
392.606	151.73
393.068	145.53
393.529	159.93
393.991	143.33
394.453	130.23
394.915	144.83
395.377	141.23
395.838	142.53
396.3	141.33
396.762	145.03
397.224	134.33
397.685	129.43
398.147	135.23
398.608	136.23
399.07	139.03
399.531	139.63
399.993	144.53
400.454	163.93
400.916	146.83
401.377	148.13
401.839	162.33
402.3	157.13
402.762	170.23
403.223	178.13
403.684	172.03
404.145	158.53
404.607	160.53
405.068	161.83
405.529	171.93
405.99	194.13
406.451	180.33
406.913	180.03
407.374	175.53
407.835	166.93
408.296	170.53
408.757	179.03
409.218	191.83
409.679	182.53
410.14	180.03
410.601	182.33
411.062	179.93
411.522	180.53
411.983	183.03
412.444	185.03
412.905	189.33
413.366	189.73
413.826	205.73
414.287	222.03
414.748	277.93
415.208	264.03
415.669	220.03
416.13	219.83
416.59	219.53
417.051	228.93
417.511	230.73
417.972	252.63
418.432	256.13
418.893	314.43
419.353	266.63
419.814	207.33
420.274	198.93
420.734	197.03
421.195	209.93
421.655	198.83
422.115	213.33
422.576	203.33
423.036	209.53
423.496	223.83
423.956	226.53
424.416	244.23
424.876	271.13
425.336	271.43
425.797	272.03
426.257	268.63
426.717	254.83
427.177	244.43
427.637	229.73
428.097	255.33
428.556	262.33
429.016	280.13
429.476	276.23
429.936	281.23
430.396	284.03
430.856	299.53
431.315	323.73
431.775	352.83
432.235	392.93
432.694	367.03
433.154	377.23
433.614	413.73
434.073	353.03
434.533	301.23
434.993	270.83
435.452	291.83
435.912	304.73
436.371	297.53
436.83	294.73
437.29	275.13
437.749	260.83
438.209	266.23
438.668	293.13
439.127	291.53
439.587	279.63
440.046	252.43
440.505	275.93
440.964	290.43
441.424	342.83
441.883	327.43
442.342	272.13
442.801	240.43
443.26	235.13
443.719	244.33
444.178	232.13
444.637	229.13
445.096	239.83
445.555	235.43
446.014	233.53
446.473	243.13
446.932	254.23
447.391	244.73
447.849	240.93
448.308	230.03
448.767	243.03
449.226	247.23
449.685	246.93
450.143	265.73
450.602	251.73
451.061	243.83
451.519	244.03
451.978	249.13
452.436	249.53
452.895	259.43
453.353	265.53
453.812	257.93
454.27	253.63
454.729	257.43
455.187	258.13
455.646	260.83
456.104	260.33
456.562	285.03
457.021	290.23
457.479	283.13
457.937	291.83
458.395	285.63
458.854	264.03
459.312	264.93
459.77	284.93
460.228	277.23
460.686	262.83
461.144	267.03
461.602	261.23
462.06	265.33
462.518	273.13
462.976	276.73
463.434	276.33
463.892	274.53
464.35	287.63
464.808	307.53
465.266	288.03
465.724	289.83
466.181	296.43
466.639	290.23
467.097	301.83
467.555	312.13
468.012	316.93
468.47	333.53
468.928	342.33
469.385	360.63
469.843	378.13
470.3	379.13
470.758	383.13
471.215	406.03
471.673	441.03
472.13	436.93
472.588	447.33
473.045	399.23
473.503	405.13
473.96	419.93
474.417	428.23
474.875	458.93
475.332	499.93
475.789	480.93
476.246	489.43
476.704	505.23
477.161	530.43
477.618	543.63
478.075	589.03
478.532	646.53
478.989	711.23
479.446	827.73
479.903	781.73
480.36	820.13
480.817	859.13
481.274	946.03
481.731	1046.63
482.188	1128.33
482.645	1239.53
483.102	1336.13
483.558	1465.83
484.015	1488.93
484.472	1464.83
484.929	1418.23
485.385	1396.03
485.842	1357.83
486.299	1320.43
486.755	1279.33
487.212	1089.13
487.668	930.43
488.125	863.93
488.582	797.83
489.038	764.63
489.494	721.83
489.951	711.53
490.407	691.13
490.864	680.83
491.32	666.83
491.776	669.03
492.233	671.83
492.689	642.13
493.145	634.23
493.602	624.73
494.058	637.73
494.514	644.93
494.97	669.23
495.426	674.73
495.882	638.23
496.338	636.63
496.794	649.23
497.251	636.43
497.707	656.43
498.163	652.13
498.618	665.23
499.074	657.53
499.53	701.83
499.986	692.13
500.442	675.23
500.898	650.73
501.354	638.83
501.809	649.63
502.265	651.83
502.721	660.03
503.177	664.33
503.632	670.23
504.088	674.43
504.543	705.73
504.999	716.13
505.455	689.43
505.91	663.43
506.366	662.73
506.821	664.73
507.277	656.73
507.732	662.63
508.187	662.73
508.643	670.33
509.098	673.23
509.553	695.43
510.009	695.43
510.464	704.33
510.919	732.73
511.375	724.43
511.83	735.93
512.285	758.33
512.74	787.63
513.195	816.23
513.65	800.43
514.105	799.13
514.56	810.33
515.015	817.23
515.47	835.23
515.925	805.03
516.38	816.43
516.835	826.23
517.29	814.73
517.745	812.43
518.2	794.43
518.655	780.53
519.109	771.03
519.564	769.63
520.019	757.03
520.474	757.73
520.928	757.33
521.383	750.03
521.838	730.43
522.292	738.73
522.747	751.83
523.201	737.93
523.656	730.73
524.11	731.23
524.565	721.03
525.019	724.13
525.474	731.23
525.928	725.13
526.382	717.63
526.837	738.03
527.291	732.83
527.745	731.83
528.2	723.53
528.654	714.83
529.108	713.23
529.562	716.83
530.016	720.23
530.47	717.13
530.925	710.23
531.379	719.03
531.833	718.13
532.287	729.43
532.741	721.73
533.195	725.33
533.649	735.23
534.103	742.63
534.556	732.33
535.01	735.53
535.464	724.63
535.918	743.53
536.372	743.23
536.826	748.53
537.279	729.53
537.733	745.83
538.187	742.53
538.64	736.33
539.094	749.73
539.548	747.73
540.001	756.13
540.455	752.43
540.908	766.33
541.362	770.73
541.815	788.13
542.269	794.03
542.722	791.73
543.175	801.03
543.629	795.93
544.082	808.33
544.536	813.43
544.989	821.83
545.442	828.23
545.895	831.63
546.349	824.73
546.802	831.03
547.255	834.93
547.708	842.03
548.161	862.33
548.614	860.63
549.067	860.43
549.52	845.83
549.973	840.03
550.426	844.73
550.879	829.03
551.332	834.63
551.785	837.43
552.238	836.33
552.691	854.03
553.144	870.63
553.596	878.73
554.049	907.23
554.502	920.03
554.955	937.53
555.407	940.23
555.86	936.93
556.313	932.53
556.765	921.93
557.218	917.53
557.67	920.93
558.123	910.53
558.576	905.73
559.028	919.43
559.48	913.53
559.933	911.93
560.385	878.73
560.838	849.23
561.29	835.03
561.742	821.03
562.195	803.13
562.647	796.93
563.099	813.13
563.551	811.33
564.004	822.73
564.456	801.43
564.908	788.53
565.36	766.63
565.812	755.13
566.264	746.63
566.716	745.53
567.168	729.93
567.62	733.83
568.072	727.23
568.524	718.93
568.976	716.23
569.428	705.73
569.88	705.13
570.332	722.43
570.784	705.63
571.235	714.93
571.687	729.73
572.139	730.33
572.59	745.63
573.042	742.03
573.494	737.73
573.945	734.43
574.397	715.93
574.849	715.03
575.3	717.93
575.752	714.43
576.203	705.63
576.655	708.23
577.106	707.53
577.557	695.13
578.009	708.13
578.46	688.23
578.912	694.63
579.363	692.23
579.814	698.93
580.265	694.63
580.717	695.13
581.168	697.63
581.619	703.83
582.07	710.43
582.521	709.63
582.972	702.63
583.423	710.13
583.875	703.53
584.326	709.23
584.777	729.63
585.227	748.93
585.678	771.43
586.129	785.63
586.58	809.43
587.031	826.73
587.482	878.43
587.933	908.63
588.384	879.63
588.834	828.83
589.285	791.13
589.736	797.83
590.186	805.43
590.637	800.33
591.088	772.13
591.538	767.73
591.989	759.83
592.439	755.83
592.89	754.33
593.34	731.53
593.791	728.03
594.241	719.63
594.692	738.53
595.142	720.43
595.593	713.43
596.043	721.83
596.493	728.93
596.943	729.13
597.394	755.13
597.844	753.43
598.294	775.93
598.744	789.03
599.195	812.33
599.645	854.03
600.095	897.73
600.545	950.73
600.995	997.33
601.445	1056.03
601.895	1121.33
602.345	1164.13
602.795	1158.03
603.245	1117.33
603.695	1047.73
604.145	996.13
604.594	953.23
605.044	908.63
605.494	831.23
605.944	787.23
606.393	768.43
606.843	756.33
607.293	766.03
607.743	757.83
608.192	764.63
608.642	773.53
609.091	790.13
609.541	788.73
609.99	794.93
610.44	787.93
610.889	748.73
611.339	717.93
611.788	700.53
612.238	724.73
612.687	728.73
613.136	716.93
613.586	740.43
614.035	730.13
614.484	724.23
614.933	733.23
615.383	730.63
615.832	728.93
616.281	724.63
616.73	697.13
617.179	670.93
617.628	668.63
618.077	656.53
618.526	651.83
618.975	639.73
619.424	647.03
619.873	644.43
620.322	640.53
620.771	631.63
621.22	620.83
621.669	616.23
622.118	616.23
622.567	608.73
623.015	584.93
623.464	591.93
623.913	579.03
624.361	571.33
624.81	566.23
625.259	580.33
625.707	575.83
626.156	583.33
626.604	589.83
627.053	591.23
627.501	587.43
627.95	581.53
628.398	608.53
628.847	595.63
629.295	597.23
629.744	597.63
630.192	587.33
630.64	580.53
631.089	567.53
631.537	551.83
631.985	556.23
632.433	553.13
632.881	545.43
633.33	552.13
633.778	553.73
634.226	540.03
634.674	553.03
635.122	557.03
635.57	568.33
636.018	582.03
636.466	572.63
636.914	576.13
637.362	585.23
637.81	595.13
638.258	603.53
638.705	593.13
639.153	646.73
639.601	649.83
640.049	670.13
640.497	699.83
640.944	715.93
641.392	664.83
641.84	636.53
642.287	604.93
642.735	580.63
643.182	582.13
643.63	591.23
644.078	586.53
644.525	596.13
644.973	605.93
645.42	609.83
645.867	630.33
646.315	657.53
646.762	673.53
647.21	710.03
647.657	724.93
648.104	762.83
648.551	775.83
648.999	840.73
649.446	913.03
649.893	998.03
650.34	1144.93
650.787	1350.83
651.234	1673.03
651.682	2163.93
652.129	2937.73
652.576	4154.53
653.023	6057.73
653.47	8158.53
653.917	10101.33
654.363	11554.63
654.81	12703.93
655.257	12039.53
655.704	7990.73
656.151	4844.63
656.598	3169.63
657.044	2279.83
657.491	1785.93
657.938	1441.43
658.385	1212.13
658.831	1063.73
659.278	952.43
659.724	845.23
660.171	781.13
660.618	724.23
661.064	694.73
661.511	676.33
661.957	665.83
662.404	655.83
662.85	667.63
663.296	639.93
663.743	575.83
664.189	550.53
664.635	549.33
665.082	544.83
665.528	540.13
665.974	532.93
666.42	522.93
666.867	525.03
667.313	503.73
667.759	479.03
668.205	476.83
668.651	467.23
669.097	467.23
669.543	455.63
669.989	462.53
670.435	459.63
670.881	460.13
671.327	473.63
671.773	493.73
672.219	520.63
672.665	560.23
673.11	605.03
673.556	648.63
674.002	690.73
674.448	675.33
674.893	564.13
675.339	487.13
675.785	460.03
676.23	438.23
676.676	417.33
677.122	397.63
677.567	386.43
678.013	387.43
678.458	384.83
678.904	379.73
679.349	360.83
679.794	360.23
680.24	351.83
680.685	363.43
681.131	366.03
681.576	372.13
682.021	365.33
682.466	365.23
682.912	364.33
683.357	372.13
683.802	401.93
684.247	432.33
684.692	476.63
685.137	525.43
685.583	554.43
686.028	583.33
686.473	542.93
686.918	462.33
687.363	442.63
687.807	412.13
688.252	390.43
688.697	375.53
689.142	355.83
689.587	347.73
690.032	347.93
690.477	357.03
690.921	378.73
691.366	396.13
691.811	420.83
692.255	456.03
692.7	484.23
693.145	537.83
693.589	751.03
694.034	1217.93
694.478	1639.13
694.923	1808.63
695.367	2345.83
695.812	1246.03
696.256	523.93
696.701	391.63
697.145	358.13
697.59	343.03
698.034	333.03
698.478	337.73
698.922	326.93
699.367	337.93
699.811	342.73
700.255	379.83
700.699	403.03
701.143	454.53
701.588	504.43
702.032	540.43
702.476	543.43
702.92	521.53
703.364	535.73
703.808	685.53
704.252	1133.13
704.696	1543.53
705.14	1737.63
705.584	2199.23
706.027	1120.03
706.471	548.93
706.915	423.63
707.359	367.23
707.803	336.33
708.246	326.23
708.69	331.33
709.134	331.23
709.577	323.13
710.021	329.33
710.465	325.33
710.908	311.73
711.352	313.73
711.795	326.93
712.239	367.03
712.682	406.13
713.126	430.23
713.569	468.53
714.012	371.83
714.456	322.43
714.899	304.43
715.342	282.03
715.786	271.33
716.229	269.43
716.672	267.43
717.115	260.53
717.558	259.73
718.002	264.03
718.445	283.63
718.888	298.13
719.331	310.33
719.774	316.03
720.217	317.23
720.66	291.43
721.103	279.03
721.546	262.93
721.989	257.53
722.432	240.23
722.874	243.03
723.317	244.53
723.76	247.33
724.203	269.13
724.645	331.53
725.088	475.43
725.531	601.83
725.974	660.73
726.416	570.03
726.859	318.13
727.301	257.13
727.744	252.53
728.187	238.13
728.629	249.63
729.071	258.03
729.514	272.63
729.956	282.83
730.399	293.43
730.841	298.43
731.283	281.33
731.726	281.13
732.168	274.23
732.61	274.23
733.053	304.63
733.495	331.33
733.937	372.73
734.379	418.03
734.821	468.73
735.263	581.53
735.705	905.53
736.148	1713.33
736.59	2739.33
737.032	3170.93
737.474	2607.33
737.916	859.23
738.357	455.03
738.799	345.63
739.241	316.43
739.683	300.73
740.125	307.03
740.567	309.83
741.008	331.03
741.45	332.23
741.892	340.43
742.334	367.53
742.775	386.23
743.217	366.23
743.658	295.63
744.1	272.93
744.542	279.73
744.983	334.13
745.425	361.83
745.866	368.63
746.307	294.13
746.749	288.43
747.19	344.43
747.632	493.53
748.073	971.43
748.514	2017.63
748.956	3011.03
749.397	3782.13
749.838	3156.63
750.279	3068.83
750.72	1578.63
751.162	590.23
751.603	342.33
752.044	268.83
752.485	230.83
752.926	226.63
753.367	211.83
753.808	200.73
754.249	202.53
754.69	193.33
755.131	187.33
755.572	189.63
756.013	189.73
756.453	194.93
756.894	189.43
757.335	196.73
757.776	215.93
758.216	208.53
758.657	212.63
759.098	212.33
759.538	228.93
759.979	282.73
760.42	407.53
760.86	773.03
761.301	2037.53
761.741	4755.73
762.182	6628.13
762.622	4710.73
