Data from 20171114-ORNL-Ar_H_NY_Subt18_08-08-06-103.txt Node
Date: Tue Nov 14 08:08:06 EST 2017
User: Ender
Spectrometer: HR+D1039
Trigger mode: 0
Integration Time (sec): 2.730000E-2
Scans to average: 10
Electric dark correction enabled: true
Nonlinearity correction enabled: false
Boxcar width: 0
XAxis mode: Wavelengths
Number of Pixels in Spectrum: 2048
>>>>>Begin Spectral Data<<<<<
187.836	-6.79
188.309	-6.79
188.782	-6.79
189.255	4.21
189.728	-4.99
190.201	3.11
190.674	-4.49
191.147	5.41
191.619	-3.79
192.092	0.21
192.565	7.31
193.038	0.31
193.511	6.01
193.984	-4.59
194.456	1.01
194.929	2.61
195.402	-3.29
195.874	-2.29
196.347	-4.09
196.82	-6.29
197.292	5.71
197.765	4.31
198.237	-4.59
198.71	1.91
199.182	-4.89
199.655	2.61
200.127	6.71
200.6	-6.29
201.072	-3.49
201.544	-13.29
202.017	-1.79
202.489	1.51
202.961	-6.09
203.433	-14.19
203.906	-9.89
204.378	-9.49
204.85	-3.79
205.322	-9.99
205.794	-3.59
206.266	-0.19
206.739	-15.29
207.211	1.81
207.683	-10.29
208.155	-6.69
208.627	-8.19
209.099	-2.49
209.57	-13.49
210.042	-2.99
210.514	0.81
210.986	-3.79
211.458	-4.99
211.93	-4.79
212.402	4.81
212.873	-6.09
213.345	-14.69
213.817	-9.79
214.288	-4.99
214.76	-13.69
215.232	-5.89
215.703	-1.89
216.175	-2.89
216.646	-7.09
217.118	-10.89
217.589	-5.19
218.061	-3.99
218.532	-6.49
219.004	-0.29
219.475	-8.89
219.946	-2.99
220.418	-7.09
220.889	5.61
221.36	5.91
221.832	-3.69
222.303	-7.29
222.774	-4.39
223.245	-14.69
223.717	-11.79
224.188	-3.99
224.659	-4.69
225.13	-6.29
225.601	-2.99
226.072	2.01
226.543	-2.39
227.014	2.31
227.485	0.71
227.956	-6.49
228.427	-0.49
228.898	-1.29
229.369	2.01
229.839	-8.19
230.31	-4.49
230.781	7.91
231.252	-1.09
231.722	-6.19
232.193	-10.39
232.664	2.21
233.135	-1.99
233.605	0.31
234.076	-8.79
234.546	-0.79
235.017	8.31
235.487	-1.79
235.958	-0.09
236.428	-8.19
236.899	1.41
237.369	2.91
237.84	0.41
238.31	2.41
238.78	4.11
239.251	0.11
239.721	-3.29
240.191	9.81
240.662	2.31
241.132	2.81
241.602	-2.59
242.072	0.31
242.542	5.51
243.013	-3.89
243.483	4.31
243.953	1.11
244.423	2.31
244.893	-5.29
245.363	2.71
245.833	2.91
246.303	1.51
246.773	3.41
247.243	1.91
247.712	0.81
248.182	3.11
248.652	9.71
249.122	-2.39
249.592	7.61
250.061	24.11
250.531	32.01
251.001	15.91
251.471	21.41
251.94	17.21
252.41	6.71
252.879	4.01
253.349	12.31
253.818	11.21
254.288	-0.29
254.757	6.61
255.227	1.21
255.696	5.91
256.166	3.71
256.635	2.71
257.105	9.51
257.574	4.31
258.043	14.61
258.513	14.01
258.982	16.91
259.451	4.41
259.92	10.61
260.389	6.11
260.859	8.01
261.328	11.51
261.797	17.81
262.266	5.91
262.735	7.81
263.204	1.21
263.673	-0.19
264.142	7.11
264.611	-3.39
265.08	6.51
265.549	-5.89
266.018	4.91
266.487	4.61
266.955	-1.39
267.424	1.81
267.893	7.51
268.362	0.81
268.83	6.31
269.299	6.51
269.768	1.71
270.236	5.91
270.705	6.81
271.174	3.51
271.642	4.61
272.111	5.81
272.579	14.71
273.048	23.51
273.516	22.61
273.985	26.21
274.453	16.01
274.922	14.11
275.39	8.81
275.858	0.21
276.327	6.81
276.795	17.11
277.263	8.91
277.731	27.51
278.2	50.71
278.668	50.61
279.136	45.31
279.604	17.31
280.072	9.21
280.54	11.51
281.008	12.21
281.477	18.01
281.945	14.71
282.413	13.11
282.881	12.41
283.348	8.51
283.816	10.31
284.284	18.31
284.752	16.21
285.22	12.91
285.688	16.01
286.156	19.41
286.623	41.11
287.091	50.61
287.559	30.41
288.026	17.31
288.494	19.01
288.962	2.11
289.429	11.81
289.897	15.61
290.364	13.51
290.832	14.11
291.3	10.71
291.767	15.21
292.234	14.21
292.702	15.01
293.169	18.21
293.637	17.31
294.104	21.71
294.571	6.51
295.039	11.41
295.506	12.31
295.973	15.71
296.44	8.91
296.908	22.41
297.375	20.01
297.842	20.61
298.309	18.41
298.776	15.71
299.243	16.21
299.71	16.41
300.177	20.71
300.644	21.01
301.111	19.71
301.578	19.91
302.045	13.01
302.512	19.71
302.979	25.91
303.446	24.81
303.913	13.01
304.379	22.11
304.846	25.81
305.313	22.01
305.78	18.11
306.246	24.61
306.713	22.71
307.18	29.31
307.646	24.81
308.113	26.91
308.579	22.01
309.046	28.21
309.512	23.91
309.979	14.11
310.445	27.11
310.912	24.51
311.378	32.71
311.845	27.21
312.311	32.71
312.777	29.91
313.244	26.81
313.71	34.41
314.176	31.01
314.642	26.61
315.109	31.51
315.575	37.01
316.041	37.11
316.507	35.11
316.973	43.51
317.439	33.61
317.905	37.41
318.371	31.31
318.837	38.61
319.303	28.11
319.769	34.91
320.235	32.71
320.701	33.71
321.167	37.11
321.633	34.01
322.099	39.71
322.564	44.51
323.03	41.21
323.496	37.71
323.962	40.91
324.427	33.71
324.893	43.11
325.359	41.41
325.824	39.01
326.29	38.01
326.755	31.01
327.221	35.11
327.686	38.71
328.152	43.71
328.617	41.11
329.083	45.91
329.548	43.21
330.014	43.91
330.479	42.01
330.944	39.91
331.41	44.91
331.875	46.81
332.34	42.21
332.805	37.31
333.271	44.71
333.736	45.41
334.201	50.71
334.666	55.41
335.131	49.01
335.596	50.11
336.061	55.31
336.526	41.81
336.991	48.91
337.456	57.91
337.921	45.41
338.386	42.81
338.851	47.51
339.316	43.31
339.781	51.11
340.246	56.31
340.711	50.71
341.175	44.31
341.64	41.01
342.105	50.81
342.569	52.41
343.034	51.61
343.499	52.81
343.963	53.11
344.428	65.11
344.893	63.81
345.357	55.01
345.822	55.51
346.286	68.11
346.751	76.61
347.215	62.91
347.679	71.11
348.144	95.51
348.608	82.31
349.073	70.01
349.537	69.31
350.001	81.31
350.465	87.11
350.93	82.91
351.394	86.51
351.858	62.01
352.322	88.21
352.786	82.91
353.25	100.01
353.715	108.11
354.179	101.01
354.643	124.31
355.107	121.81
355.571	115.91
356.035	106.51
356.498	122.41
356.962	118.81
357.426	135.31
357.89	115.81
358.354	93.91
358.818	78.71
359.281	78.41
359.745	80.21
360.209	66.81
360.673	81.01
361.136	77.81
361.6	80.21
362.064	81.71
362.527	87.31
362.991	81.71
363.454	77.01
363.918	82.31
364.381	77.61
364.845	84.31
365.308	80.71
365.772	85.51
366.235	85.61
366.698	89.91
367.162	80.21
367.625	81.41
368.088	87.01
368.552	82.01
369.015	91.21
369.478	97.01
369.941	100.31
370.404	95.31
370.867	110.81
371.331	110.51
371.794	121.41
372.257	112.21
372.72	113.31
373.183	108.61
373.646	101.81
374.109	109.11
374.572	117.11
375.035	110.91
375.497	111.71
375.96	103.91
376.423	106.21
376.886	110.91
377.349	115.21
377.811	103.61
378.274	107.81
378.737	104.71
379.199	118.11
379.662	115.31
380.125	124.51
380.587	116.81
381.05	125.01
381.512	130.91
381.975	136.71
382.437	132.81
382.9	124.71
383.362	138.51
383.825	140.11
384.287	150.11
384.75	143.11
385.212	146.91
385.674	148.71
386.136	132.81
386.599	123.61
387.061	128.71
387.523	132.11
387.985	139.61
388.447	149.11
388.91	147.41
389.372	158.11
389.834	161.51
390.296	147.11
390.758	163.11
391.22	176.21
391.682	212.21
392.144	306.11
392.606	238.21
393.068	162.61
393.529	167.81
393.991	157.01
394.453	153.81
394.915	159.61
395.377	196.81
395.838	222.51
396.3	158.31
396.762	145.51
397.224	136.91
397.685	134.91
398.147	130.21
398.608	128.31
399.07	135.61
399.531	135.81
399.993	146.91
400.454	156.61
400.916	145.01
401.377	140.51
401.839	152.71
402.3	155.31
402.762	162.91
403.223	189.61
403.684	170.21
404.145	169.21
404.607	161.31
405.068	164.81
405.529	174.51
405.99	193.41
406.451	181.51
406.913	168.71
407.374	168.21
407.835	159.61
408.296	172.11
408.757	169.51
409.218	192.11
409.679	184.91
410.14	182.71
410.601	185.11
411.062	188.61
411.522	191.41
411.983	198.81
412.444	183.71
412.905	187.21
413.366	188.31
413.826	195.91
414.287	220.61
414.748	266.51
415.208	245.31
415.669	216.71
416.13	208.41
416.59	203.71
417.051	218.71
417.511	223.81
417.972	239.21
418.432	253.81
418.893	300.11
419.353	248.31
419.814	201.31
420.274	188.41
420.734	187.41
421.195	208.41
421.655	203.61
422.115	197.51
422.576	193.41
423.036	200.71
423.496	214.11
423.956	224.51
424.416	234.61
424.876	262.01
425.336	258.01
425.797	270.61
426.257	260.11
426.717	242.11
427.177	238.01
427.637	227.01
428.097	238.31
428.556	244.81
429.016	268.41
429.476	269.01
429.936	290.01
430.396	282.01
430.856	300.51
431.315	318.01
431.775	362.21
432.235	392.41
432.694	360.31
433.154	380.21
433.614	400.11
434.073	352.41
434.533	293.21
434.993	276.11
435.452	289.31
435.912	296.11
436.371	287.51
436.83	288.11
437.29	280.21
437.749	252.81
438.209	252.61
438.668	278.21
439.127	294.11
439.587	272.01
440.046	250.01
440.505	264.01
440.964	282.61
441.424	333.71
441.883	316.21
442.342	259.11
442.801	225.51
443.26	229.41
443.719	224.21
444.178	224.61
444.637	220.31
445.096	227.01
445.555	223.61
446.014	223.41
446.473	227.41
446.932	230.91
447.391	240.61
447.849	225.51
448.308	219.71
448.767	223.91
449.226	240.21
449.685	237.61
450.143	245.91
450.602	240.81
451.061	235.31
451.519	232.71
451.978	237.01
452.436	233.51
452.895	243.81
453.353	254.61
453.812	246.71
454.27	241.31
454.729	250.51
455.187	249.11
455.646	244.31
456.104	250.21
456.562	261.81
457.021	285.01
457.479	260.91
457.937	278.81
458.395	265.81
458.854	252.91
459.312	255.01
459.77	282.11
460.228	258.61
460.686	250.21
461.144	253.51
461.602	247.11
462.06	247.01
462.518	256.31
462.976	261.61
463.434	252.21
463.892	272.31
464.35	278.21
464.808	289.41
465.266	273.11
465.724	260.71
466.181	272.01
466.639	262.31
467.097	296.41
467.555	300.81
468.012	303.21
468.47	311.51
468.928	328.01
469.385	345.81
469.843	347.81
470.3	356.01
470.758	362.81
471.215	389.91
471.673	412.11
472.13	414.31
472.588	421.41
473.045	378.01
473.503	387.11
473.96	400.81
474.417	409.91
474.875	438.21
475.332	476.11
475.789	461.91
476.246	463.81
476.704	487.31
477.161	515.41
477.618	526.11
478.075	568.91
478.532	627.81
478.989	700.71
479.446	813.01
479.903	775.11
480.36	822.21
480.817	863.61
481.274	977.11
481.731	1086.41
482.188	1166.11
482.645	1304.41
483.102	1414.91
483.558	1563.91
484.015	1608.81
484.472	1588.41
484.929	1525.71
485.385	1483.11
485.842	1444.51
486.299	1361.81
486.755	1307.71
487.212	1109.61
487.668	940.21
488.125	849.61
488.582	787.21
489.038	753.41
489.494	713.91
489.951	683.31
490.407	667.01
490.864	653.31
491.32	646.11
491.776	642.11
492.233	647.81
492.689	622.11
493.145	607.71
493.602	607.31
494.058	621.71
494.514	623.01
494.97	639.41
495.426	660.01
495.882	618.41
496.338	611.61
496.794	628.61
497.251	612.31
497.707	632.01
498.163	626.61
498.618	641.01
499.074	643.01
499.53	672.21
499.986	686.11
500.442	644.81
500.898	625.11
501.354	632.81
501.809	640.11
502.265	656.71
502.721	666.31
503.177	695.01
503.632	670.61
504.088	680.81
504.543	712.41
504.999	709.71
505.455	651.91
505.91	635.31
506.366	634.81
506.821	620.51
507.277	619.61
507.732	624.01
508.187	624.01
508.643	635.21
509.098	634.01
509.553	657.41
510.009	658.61
510.464	666.91
510.919	684.11
511.375	694.31
511.83	703.71
512.285	720.91
512.74	753.21
513.195	783.11
513.65	772.01
514.105	773.91
514.56	754.91
515.015	790.41
515.47	802.81
515.925	784.41
516.38	773.51
516.835	792.01
517.29	782.61
517.745	768.51
518.2	766.41
518.655	745.91
519.109	744.61
519.564	738.21
520.019	716.71
520.474	714.61
520.928	715.81
521.383	709.11
521.838	708.11
522.292	710.01
522.747	703.81
523.201	699.21
523.656	694.01
524.11	693.61
524.565	701.61
525.019	684.71
525.474	710.51
525.928	695.21
526.382	688.31
526.837	704.71
527.291	700.71
527.745	689.51
528.2	696.71
528.654	683.21
529.108	677.81
529.562	688.51
530.016	685.11
530.47	696.81
530.925	692.91
531.379	698.41
531.833	697.31
532.287	694.71
532.741	698.31
533.195	700.81
533.649	707.81
534.103	712.31
534.556	702.51
535.01	706.01
535.464	711.11
535.918	726.81
536.372	720.91
536.826	714.81
537.279	706.21
537.733	710.21
538.187	714.71
538.64	711.71
539.094	721.21
539.548	727.91
540.001	721.31
540.455	721.41
540.908	731.51
541.362	728.91
541.815	748.21
542.269	753.31
542.722	755.51
543.175	763.51
543.629	773.41
544.082	785.91
544.536	782.71
544.989	781.81
545.442	790.01
545.895	787.91
546.349	791.31
546.802	799.51
547.255	800.81
547.708	814.31
548.161	812.61
548.614	825.41
549.067	831.81
549.52	812.71
549.973	801.91
550.426	799.11
550.879	790.21
551.332	792.71
551.785	804.11
552.238	804.31
552.691	820.31
553.144	836.61
553.596	852.01
554.049	855.71
554.502	886.81
554.955	913.01
555.407	894.41
555.86	902.91
556.313	889.61
556.765	881.01
557.218	880.21
557.67	875.61
558.123	872.51
558.576	857.91
559.028	870.51
559.48	872.21
559.933	863.41
560.385	835.51
560.838	812.41
561.29	777.81
561.742	783.41
562.195	772.01
562.647	764.31
563.099	776.21
563.551	767.21
564.004	787.61
564.456	769.01
564.908	759.71
565.36	742.01
565.812	742.01
566.264	727.11
566.716	718.21
567.168	717.91
567.62	723.31
568.072	704.81
568.524	692.31
568.976	685.91
569.428	682.91
569.88	684.41
570.332	682.41
570.784	688.71
571.235	684.01
571.687	701.01
572.139	709.21
572.59	711.11
573.042	712.41
573.494	703.11
573.945	708.71
574.397	682.11
574.849	686.61
575.3	691.61
575.752	679.21
576.203	676.41
576.655	689.31
577.106	670.41
577.557	658.81
578.009	672.91
578.46	662.01
578.912	657.61
579.363	664.11
579.814	671.11
580.265	660.11
580.717	656.51
581.168	672.31
581.619	676.01
582.07	681.61
582.521	678.11
582.972	680.41
583.423	670.31
583.875	685.61
584.326	708.31
584.777	754.21
585.227	833.01
585.678	927.51
586.129	1033.01
586.58	1096.71
587.031	1175.71
587.482	1339.81
587.933	1533.31
588.384	1336.91
588.834	997.11
589.285	811.61
589.736	782.31
590.186	775.61
590.637	779.81
591.088	744.41
591.538	743.11
591.989	733.21
592.439	727.21
592.89	727.71
593.34	707.41
593.791	699.71
594.241	706.81
594.692	719.81
595.142	704.11
595.593	702.61
596.043	712.11
596.493	721.81
596.943	719.91
597.394	723.61
597.844	720.21
598.294	727.91
598.744	750.31
599.195	781.71
599.645	818.41
600.095	857.91
600.545	915.51
600.995	975.81
601.445	1023.71
601.895	1087.71
602.345	1137.61
602.795	1102.31
603.245	1059.31
603.695	1016.11
604.145	952.81
604.594	902.61
605.044	864.91
605.494	800.31
605.944	747.91
606.393	743.91
606.843	723.91
607.293	734.01
607.743	729.81
608.192	745.21
608.642	759.21
609.091	772.11
609.541	768.61
609.99	777.11
610.44	775.01
610.889	726.81
611.339	705.61
611.788	682.71
612.238	700.11
612.687	717.91
613.136	733.91
613.586	739.81
614.035	740.51
614.484	776.01
614.933	763.41
615.383	760.11
615.832	735.21
616.281	727.81
616.73	695.51
617.179	661.31
617.628	650.71
618.077	634.51
618.526	626.31
618.975	620.41
619.424	627.81
619.873	617.11
620.322	627.81
620.771	610.61
621.22	604.01
621.669	601.31
622.118	596.91
622.567	586.41
623.015	575.11
623.464	578.71
623.913	559.91
624.361	555.41
624.81	555.11
625.259	557.41
625.707	561.11
626.156	553.31
626.604	564.51
627.053	561.01
627.501	568.61
627.95	572.11
628.398	575.91
628.847	579.31
629.295	575.41
629.744	575.11
630.192	568.21
630.64	579.11
631.089	565.81
631.537	589.71
631.985	593.51
632.433	602.01
632.881	608.01
633.33	670.81
633.778	663.11
634.226	583.01
634.674	580.01
635.122	588.11
635.57	603.81
636.018	637.01
636.466	581.71
636.914	559.21
637.362	573.81
637.81	581.11
638.258	577.51
638.705	580.21
639.153	608.41
639.601	614.61
640.049	645.81
640.497	676.31
640.944	689.81
641.392	650.11
641.84	620.41
642.287	587.21
642.735	571.51
643.182	572.01
643.63	575.91
644.078	579.31
644.525	593.11
644.973	601.51
645.42	613.41
645.867	629.31
646.315	650.81
646.762	668.21
647.21	697.11
647.657	723.31
648.104	757.81
648.551	780.81
648.999	848.21
649.446	918.81
649.893	1025.81
650.34	1167.51
650.787	1417.61
651.234	1757.91
651.682	2307.61
652.129	3165.81
652.576	4573.11
653.023	6771.51
653.47	9233.21
653.917	11454.91
654.363	13134.41
654.81	14449.71
655.257	13741.91
655.704	9004.01
656.151	5294.01
656.598	3431.61
657.044	2425.51
657.491	1853.51
657.938	1496.01
658.385	1258.21
658.831	1084.11
659.278	962.21
659.724	867.71
660.171	788.41
660.618	725.21
661.064	696.81
661.511	670.81
661.957	658.51
662.404	650.91
662.85	658.31
663.296	623.91
663.743	571.31
664.189	536.91
664.635	541.11
665.082	525.11
665.528	530.91
665.974	516.01
666.42	511.61
666.867	513.21
667.313	498.51
667.759	492.31
668.205	478.31
668.651	492.71
669.097	486.41
669.543	504.11
669.989	473.11
670.435	450.01
670.881	454.31
671.327	447.71
671.773	467.21
672.219	486.71
672.665	555.11
673.11	583.61
673.556	617.71
674.002	664.91
674.448	651.41
674.893	544.01
675.339	470.31
675.785	444.71
676.23	414.91
676.676	388.51
677.122	388.81
677.567	376.71
678.013	372.51
678.458	355.71
678.904	354.71
679.349	342.21
679.794	352.71
680.24	360.11
680.685	343.31
681.131	348.41
681.576	346.41
682.021	358.21
682.466	345.41
682.912	351.81
683.357	354.91
683.802	379.81
684.247	409.21
684.692	464.71
685.137	499.41
685.583	535.11
686.028	562.51
686.473	515.41
686.918	451.21
687.363	423.81
687.807	400.51
688.252	362.91
688.697	359.01
689.142	341.61
689.587	334.71
690.032	324.01
690.477	343.81
690.921	353.61
691.366	383.81
691.811	404.31
692.255	427.71
692.7	464.31
693.145	501.11
693.589	718.91
694.034	1148.41
694.478	1540.31
694.923	1712.91
695.367	2234.81
695.812	1190.61
696.256	496.81
696.701	378.11
697.145	347.61
697.59	332.31
698.034	318.81
698.478	333.31
698.922	322.21
699.367	329.31
699.811	342.21
700.255	361.21
700.699	393.51
701.143	429.41
701.588	477.91
702.032	511.01
702.476	509.61
702.92	494.71
703.364	488.41
703.808	648.81
704.252	1059.81
704.696	1470.21
705.14	1662.91
705.584	2109.01
706.027	1058.71
706.471	519.91
706.915	404.31
707.359	348.91
707.803	317.11
708.246	312.31
708.69	313.71
709.134	322.51
709.577	314.11
710.021	320.21
710.465	304.01
710.908	304.11
711.352	304.31
711.795	315.91
712.239	350.01
712.682	386.81
713.126	417.91
713.569	466.21
714.012	369.01
714.456	322.61
714.899	303.41
715.342	275.71
715.786	265.01
716.229	253.81
716.672	257.71
717.115	247.81
717.558	250.61
718.002	247.71
718.445	264.71
718.888	279.11
719.331	295.51
719.774	315.91
720.217	305.91
720.66	293.21
721.103	266.21
721.546	253.11
721.989	248.51
722.432	233.61
722.874	241.21
723.317	227.91
723.76	247.21
724.203	261.51
724.645	328.91
725.088	457.01
725.531	569.41
725.974	639.21
726.416	549.01
726.859	308.01
727.301	244.71
727.744	238.61
728.187	230.91
728.629	239.71
729.071	238.21
729.514	258.71
729.956	273.31
730.399	280.51
730.841	287.81
731.283	263.01
731.726	265.11
732.168	255.61
732.61	268.51
733.053	289.31
733.495	315.71
733.937	351.81
734.379	397.91
734.821	440.51
735.263	548.61
735.705	853.71
736.148	1616.51
736.59	2588.61
737.032	3003.81
737.474	2445.01
737.916	802.91
738.357	422.41
738.799	324.71
739.241	292.81
739.683	288.31
740.125	291.91
740.567	301.91
741.008	316.21
741.45	320.71
741.892	320.31
742.334	346.01
742.775	351.21
743.217	340.71
743.658	269.01
744.1	254.31
744.542	264.01
744.983	306.01
745.425	343.21
745.866	338.61
746.307	280.91
746.749	285.41
747.19	326.41
747.632	467.51
748.073	917.31
748.514	1904.81
748.956	2830.71
749.397	3581.01
749.838	2958.61
750.279	2923.81
750.72	1475.51
751.162	540.61
751.603	319.91
752.044	251.31
752.485	217.61
752.926	209.01
753.367	207.31
753.808	193.21
754.249	193.51
754.69	190.91
755.131	185.51
755.572	181.91
756.013	183.11
756.453	188.81
756.894	190.51
757.335	194.91
757.776	201.71
758.216	203.11
758.657	201.61
759.098	199.11
759.538	227.01
759.979	266.91
760.42	377.51
760.86	720.71
761.301	1896.31
761.741	4473.41
762.182	6313.11
