Data from 20171114-ORNL-Ar_H_NY_Subt18_08-03-32-854.txt Node
Date: Tue Nov 14 08:03:32 EST 2017
User: Ender
Spectrometer: HR+D1039
Trigger mode: 0
Integration Time (sec): 2.730000E-2
Scans to average: 10
Electric dark correction enabled: true
Nonlinearity correction enabled: false
Boxcar width: 0
XAxis mode: Wavelengths
Number of Pixels in Spectrum: 2048
>>>>>Begin Spectral Data<<<<<
187.836	-6.05
188.309	-6.05
188.782	-6.05
189.255	5.55
189.728	-0.15
190.201	5.85
190.674	-3.45
191.147	-0.55
191.619	-9.75
192.092	3.55
192.565	4.45
193.038	0.55
193.511	0.65
193.984	-1.45
194.456	-1.15
194.929	2.95
195.402	0.15
195.874	-1.15
196.347	-1.85
196.82	-9.45
197.292	8.15
197.765	4.05
198.237	-5.05
198.71	2.65
199.182	2.55
199.655	2.65
200.127	-1.85
200.6	-4.45
201.072	-4.25
201.544	-6.35
202.017	-2.05
202.489	1.85
202.961	-4.35
203.433	-3.95
203.906	-3.15
204.378	-5.25
204.85	-7.95
205.322	-9.95
205.794	0.65
206.266	-3.45
206.739	-8.65
207.211	5.95
207.683	-8.15
208.155	-10.65
208.627	-9.35
209.099	-1.75
209.57	-10.85
210.042	-4.25
210.514	-4.45
210.986	-1.45
211.458	-9.35
211.93	-3.75
212.402	3.05
212.873	-10.75
213.345	-14.25
213.817	-9.05
214.288	2.25
214.76	-12.25
215.232	-2.85
215.703	-0.55
216.175	-3.95
216.646	-6.35
217.118	-7.25
217.589	-5.05
218.061	0.35
218.532	-3.85
219.004	-2.85
219.475	-3.45
219.946	-4.95
220.418	-7.05
220.889	1.55
221.36	2.45
221.832	-4.75
222.303	-7.35
222.774	-4.65
223.245	-7.55
223.717	-6.45
224.188	-7.95
224.659	-7.75
225.13	-5.25
225.601	-6.75
226.072	-1.15
226.543	-6.95
227.014	-6.65
227.485	-4.55
227.956	-8.15
228.427	-4.55
228.898	-5.85
229.369	-1.45
229.839	-5.45
230.31	-12.65
230.781	-2.35
231.252	-4.85
231.722	-8.85
232.193	-5.35
232.664	-5.25
233.135	-4.25
233.605	-9.65
234.076	-9.55
234.546	-4.95
235.017	0.35
235.487	-0.35
235.958	0.25
236.428	-7.65
236.899	-2.55
237.369	1.35
237.84	-5.05
238.31	-4.85
238.78	-11.75
239.251	-10.45
239.721	-8.85
240.191	-13.65
240.662	-1.05
241.132	-2.15
241.602	-12.25
242.072	-1.45
242.542	1.45
243.013	-6.25
243.483	0.95
243.953	-1.45
244.423	0.65
244.893	-11.65
245.363	-1.35
245.833	-0.55
246.303	-9.85
246.773	-3.35
247.243	1.05
247.712	-3.75
248.182	1.85
248.652	-0.35
249.122	-8.65
249.592	0.05
250.061	0.65
250.531	3.25
251.001	-8.05
251.471	2.75
251.94	5.35
252.41	-9.15
252.879	-11.85
253.349	7.85
253.818	-1.55
254.288	1.65
254.757	-1.85
255.227	-10.25
255.696	-4.05
256.166	-2.75
256.635	-4.45
257.105	0.75
257.574	-5.55
258.043	-6.25
258.513	-9.95
258.982	0.05
259.451	-7.55
259.92	-6.45
260.389	-7.95
260.859	5.05
261.328	-4.05
261.797	3.45
262.266	-5.95
262.735	4.45
263.204	-0.55
263.673	-2.85
264.142	1.35
264.611	-11.15
265.08	-10.65
265.549	-7.65
266.018	-3.35
266.487	-6.25
266.955	-13.15
267.424	-4.25
267.893	-3.65
268.362	-4.45
268.83	-7.05
269.299	3.15
269.768	-10.95
270.236	0.65
270.705	-10.95
271.174	-7.95
271.642	-8.15
272.111	-7.95
272.579	-7.35
273.048	-6.65
273.516	-6.75
273.985	-1.35
274.453	-3.55
274.922	1.85
275.39	-0.85
275.858	-9.05
276.327	-1.45
276.795	3.95
277.263	-8.45
277.731	8.75
278.2	-4.15
278.668	-7.35
279.136	-0.55
279.604	-4.55
280.072	-4.35
280.54	-4.45
281.008	-5.15
281.477	-3.65
281.945	-5.45
282.413	-2.15
282.881	-2.35
283.348	-8.95
283.816	-6.45
284.284	-5.65
284.752	1.95
285.22	-2.25
285.688	1.25
286.156	-1.35
286.623	4.15
287.091	-2.45
287.559	-1.95
288.026	-0.25
288.494	-2.75
288.962	-11.25
289.429	-9.15
289.897	1.75
290.364	-6.05
290.832	-4.95
291.3	-1.85
291.767	-0.75
292.234	-6.25
292.702	-6.65
293.169	0.75
293.637	8.25
294.104	3.05
294.571	-9.85
295.039	-5.55
295.506	-4.15
295.973	-6.05
296.44	-10.05
296.908	0.75
297.375	-4.85
297.842	-1.45
298.309	-3.85
298.776	-1.85
299.243	-5.15
299.71	-7.15
300.177	-3.65
300.644	4.25
301.111	-5.15
301.578	-1.25
302.045	-7.35
302.512	3.55
302.979	4.15
303.446	-0.65
303.913	-1.45
304.379	-6.25
304.846	1.85
305.313	5.35
305.78	-3.75
306.246	0.25
306.713	-4.35
307.18	-0.45
307.646	-0.75
308.113	-3.65
308.579	-5.85
309.046	0.25
309.512	-5.55
309.979	-3.75
310.445	0.65
310.912	2.95
311.378	3.35
311.845	2.75
312.311	2.65
312.777	-3.25
313.244	3.65
313.71	2.95
314.176	-2.25
314.642	-6.65
315.109	-3.35
315.575	6.45
316.041	0.35
316.507	-3.55
316.973	-0.45
317.439	-5.95
317.905	0.75
318.371	3.15
318.837	-4.45
319.303	-5.35
319.769	-1.85
320.235	-1.65
320.701	5.25
321.167	-0.05
321.633	-4.55
322.099	4.25
322.564	6.75
323.03	2.65
323.496	-0.05
323.962	4.25
324.427	-1.45
324.893	4.25
325.359	2.85
325.824	0.05
326.29	2.85
326.755	-0.05
327.221	0.05
327.686	-1.95
328.152	3.85
328.617	-2.25
329.083	2.65
329.548	9.35
330.014	-1.85
330.479	0.05
330.944	6.05
331.41	6.85
331.875	6.75
332.34	5.65
332.805	0.85
333.271	-0.95
333.736	-6.95
334.201	5.65
334.666	-5.65
335.131	2.85
335.596	5.15
336.061	0.35
336.526	-6.15
336.991	4.25
337.456	10.85
337.921	7.05
338.386	-1.05
338.851	6.85
339.316	8.25
339.781	9.75
340.246	7.45
340.711	4.25
341.175	7.05
341.64	-1.95
342.105	2.05
342.569	4.05
343.034	4.25
343.499	4.95
343.963	0.85
344.428	16.95
344.893	9.35
345.357	8.85
345.822	5.05
346.286	4.45
346.751	8.05
347.215	-0.55
347.679	0.55
348.144	2.85
348.608	8.55
349.073	1.45
349.537	4.45
350.001	1.75
350.465	6.45
350.93	6.95
351.394	14.15
351.858	4.15
352.322	12.15
352.786	12.05
353.25	9.45
353.715	16.75
354.179	15.15
354.643	19.45
355.107	15.95
355.571	17.25
356.035	9.45
356.498	7.15
356.962	4.65
357.426	16.45
357.89	6.55
358.354	13.25
358.818	5.95
359.281	7.65
359.745	6.95
360.209	12.05
360.673	5.95
361.136	12.05
361.6	7.35
362.064	13.55
362.527	10.25
362.991	16.65
363.454	10.75
363.918	0.35
364.381	3.85
364.845	11.75
365.308	12.85
365.772	10.35
366.235	13.25
366.698	7.75
367.162	8.75
367.625	4.35
368.088	11.95
368.552	5.05
369.015	10.75
369.478	12.95
369.941	21.95
370.404	12.75
370.867	15.95
371.331	11.65
371.794	5.55
372.257	11.35
372.72	12.75
373.183	14.65
373.646	5.55
374.109	8.15
374.572	17.25
375.035	8.55
375.497	9.85
375.96	9.45
376.423	12.75
376.886	9.05
377.349	15.75
377.811	9.75
378.274	5.95
378.737	14.85
379.199	12.65
379.662	9.05
380.125	17.25
380.587	12.45
381.05	8.65
381.512	13.55
381.975	14.65
382.437	12.75
382.9	8.55
383.362	8.55
383.825	17.05
384.287	17.95
384.75	10.15
385.212	19.05
385.674	17.35
386.136	21.55
386.599	14.75
387.061	18.75
387.523	8.35
387.985	12.15
388.447	24.55
388.91	18.35
389.372	16.15
389.834	15.75
390.296	15.45
390.758	21.05
391.22	20.85
391.682	19.25
392.144	21.25
392.606	25.25
393.068	16.25
393.529	22.85
393.991	17.15
394.453	13.15
394.915	20.35
395.377	18.45
395.838	17.45
396.3	23.55
396.762	20.65
397.224	11.35
397.685	21.45
398.147	17.55
398.608	13.65
399.07	16.15
399.531	20.55
399.993	16.75
400.454	23.05
400.916	19.75
401.377	21.85
401.839	23.45
402.3	18.05
402.762	23.05
403.223	23.75
403.684	26.45
404.145	18.65
404.607	21.85
405.068	25.55
405.529	18.35
405.99	23.95
406.451	14.95
406.913	26.75
407.374	24.35
407.835	23.55
408.296	25.45
408.757	24.45
409.218	19.55
409.679	21.15
410.14	26.15
410.601	24.95
411.062	30.65
411.522	28.35
411.983	18.35
412.444	23.15
412.905	28.15
413.366	22.85
413.826	39.05
414.287	39.25
414.748	54.85
415.208	49.05
415.669	38.85
416.13	40.45
416.59	42.75
417.051	37.65
417.511	44.05
417.972	49.45
418.432	49.75
418.893	58.85
419.353	53.15
419.814	34.35
420.274	34.75
420.734	30.25
421.195	28.65
421.655	21.85
422.115	34.45
422.576	31.35
423.036	33.45
423.496	33.35
423.956	36.45
424.416	37.15
424.876	49.75
425.336	47.55
425.797	44.55
426.257	41.15
426.717	34.45
427.177	43.15
427.637	29.75
428.097	33.65
428.556	28.45
429.016	39.45
429.476	28.85
429.936	28.55
430.396	32.15
430.856	30.25
431.315	41.55
431.775	40.45
432.235	55.45
432.694	44.65
433.154	47.45
433.614	48.85
434.073	45.25
434.533	37.05
434.993	34.85
435.452	33.05
435.912	35.35
436.371	43.05
436.83	31.55
437.29	37.95
437.749	37.45
438.209	30.85
438.668	36.05
439.127	40.05
439.587	44.25
440.046	30.85
440.505	40.45
440.964	41.75
441.424	41.15
441.883	41.75
442.342	45.85
442.801	32.05
443.26	28.85
443.719	39.05
444.178	41.75
444.637	23.85
445.096	34.65
445.555	35.05
446.014	43.45
446.473	39.45
446.932	40.05
447.391	30.45
447.849	33.65
448.308	27.55
448.767	29.45
449.226	42.25
449.685	44.05
450.143	51.25
450.602	35.95
451.061	35.15
451.519	39.85
451.978	36.55
452.436	37.65
452.895	34.15
453.353	37.45
453.812	39.85
454.27	50.15
454.729	36.35
455.187	32.25
455.646	39.45
456.104	40.75
456.562	34.65
457.021	48.05
457.479	43.35
457.937	48.25
458.395	40.05
458.854	35.85
459.312	39.15
459.77	39.55
460.228	38.25
460.686	32.15
461.144	43.15
461.602	41.05
462.06	34.55
462.518	43.55
462.976	42.55
463.434	41.65
463.892	43.05
464.35	38.55
464.808	46.15
465.266	39.35
465.724	49.35
466.181	47.65
466.639	43.25
467.097	52.15
467.555	49.85
468.012	47.75
468.47	44.45
468.928	47.25
469.385	58.15
469.843	54.35
470.3	54.85
470.758	55.35
471.215	51.65
471.673	60.35
472.13	55.45
472.588	62.05
473.045	53.05
473.503	56.65
473.96	57.65
474.417	58.65
474.875	59.75
475.332	70.15
475.789	66.65
476.246	68.05
476.704	68.25
477.161	65.35
477.618	64.05
478.075	67.65
478.532	79.25
478.989	74.95
479.446	80.25
479.903	82.85
480.36	73.65
480.817	70.85
481.274	77.65
481.731	81.55
482.188	70.75
482.645	80.85
483.102	83.35
483.558	85.95
484.015	86.35
484.472	91.15
484.929	90.25
485.385	88.45
485.842	95.15
486.299	83.75
486.755	106.35
487.212	93.05
487.668	84.75
488.125	84.35
488.582	83.15
489.038	85.15
489.494	76.05
489.951	89.55
490.407	86.45
490.864	80.65
491.32	86.05
491.776	89.15
492.233	90.35
492.689	73.05
493.145	87.95
493.602	78.95
494.058	91.45
494.514	90.25
494.97	94.05
495.426	86.35
495.882	86.35
496.338	84.75
496.794	87.35
497.251	77.65
497.707	92.15
498.163	87.05
498.618	88.75
499.074	96.95
499.53	100.35
499.986	98.55
500.442	85.35
500.898	88.85
501.354	88.55
501.809	93.45
502.265	98.05
502.721	94.55
503.177	92.65
503.632	90.55
504.088	101.55
504.543	106.25
504.999	101.25
505.455	90.15
505.91	90.55
506.366	97.05
506.821	93.15
507.277	91.55
507.732	92.35
508.187	92.05
508.643	91.85
509.098	92.85
509.553	97.75
510.009	99.05
510.464	98.35
510.919	105.55
511.375	98.45
511.83	100.35
512.285	101.35
512.74	111.65
513.195	116.95
513.65	112.55
514.105	114.05
514.56	118.95
515.015	129.05
515.47	129.35
515.925	117.95
516.38	114.45
516.835	125.65
517.29	126.35
517.745	126.35
518.2	117.35
518.655	109.85
519.109	105.85
519.564	106.75
520.019	95.45
520.474	96.65
520.928	97.95
521.383	108.35
521.838	100.05
522.292	102.75
522.747	103.75
523.201	106.45
523.656	109.15
524.11	104.85
524.565	102.05
525.019	92.75
525.474	105.05
525.928	96.25
526.382	89.95
526.837	93.05
527.291	96.55
527.745	91.05
528.2	90.45
528.654	91.95
529.108	89.35
529.562	92.05
530.016	88.55
530.47	84.05
530.925	93.15
531.379	86.25
531.833	91.35
532.287	90.15
532.741	88.65
533.195	84.55
533.649	89.75
534.103	91.75
534.556	86.65
535.01	90.35
535.464	82.05
535.918	104.45
536.372	92.95
536.826	96.25
537.279	93.05
537.733	94.75
538.187	94.85
538.64	86.75
539.094	91.25
539.548	89.65
540.001	92.35
540.455	91.65
540.908	101.85
541.362	94.55
541.815	104.05
542.269	99.75
542.722	97.05
543.175	104.25
543.629	98.15
544.082	108.55
544.536	108.55
544.989	108.25
545.442	110.25
545.895	98.65
546.349	108.35
546.802	103.85
547.255	110.95
547.708	106.05
548.161	112.75
548.614	122.45
549.067	120.15
549.52	114.25
549.973	111.15
550.426	107.15
550.879	98.65
551.332	105.55
551.785	107.45
552.238	101.35
552.691	107.95
553.144	109.65
553.596	114.15
554.049	109.75
554.502	125.35
554.955	136.95
555.407	120.15
555.86	120.65
556.313	118.65
556.765	114.95
557.218	124.95
557.67	118.85
558.123	110.85
558.576	114.05
559.028	114.85
559.48	119.75
559.933	119.85
560.385	110.35
560.838	104.05
561.29	101.65
561.742	97.45
562.195	98.95
562.647	95.25
563.099	104.05
563.551	95.75
564.004	106.45
564.456	98.75
564.908	95.15
565.36	88.85
565.812	94.25
566.264	91.35
566.716	92.65
567.168	88.95
567.62	84.85
568.072	83.95
568.524	88.05
568.976	80.65
569.428	74.25
569.88	84.15
570.332	77.85
570.784	83.15
571.235	72.85
571.687	82.35
572.139	88.85
572.59	83.75
573.042	84.55
573.494	85.85
573.945	88.65
574.397	76.35
574.849	73.95
575.3	76.55
575.752	75.75
576.203	76.95
576.655	79.65
577.106	79.25
577.557	68.45
578.009	76.45
578.46	69.35
578.912	77.65
579.363	78.95
579.814	78.95
580.265	69.95
580.717	72.95
581.168	68.95
581.619	85.45
582.07	79.25
582.521	73.25
582.972	70.85
583.423	71.75
583.875	73.85
584.326	73.95
584.777	79.75
585.227	86.55
585.678	80.45
586.129	78.95
586.58	88.25
587.031	94.55
587.482	96.75
587.933	106.85
588.384	90.15
588.834	90.45
589.285	90.15
589.736	91.85
590.186	94.75
590.637	92.45
591.088	92.25
591.538	94.15
591.989	88.35
592.439	88.35
592.89	85.65
593.34	73.65
593.791	78.05
594.241	78.95
594.692	82.05
595.142	78.75
595.593	77.95
596.043	74.45
596.493	81.95
596.943	79.45
597.394	81.55
597.844	68.85
598.294	78.25
598.744	91.25
599.195	87.25
599.645	103.65
600.095	102.85
600.545	117.45
600.995	127.45
601.445	145.05
601.895	158.65
602.345	170.85
602.795	156.35
603.245	141.55
603.695	126.45
604.145	104.85
604.594	100.25
605.044	91.65
605.494	81.75
605.944	72.55
606.393	72.85
606.843	79.45
607.293	83.45
607.743	77.95
608.192	80.65
608.642	87.05
609.091	79.75
609.541	80.25
609.99	91.85
610.44	88.95
610.889	71.35
611.339	73.65
611.788	67.35
612.238	75.25
612.687	85.55
613.136	78.45
613.586	81.95
614.035	66.85
614.484	72.95
614.933	74.15
615.383	80.55
615.832	79.05
616.281	76.15
616.73	83.15
617.179	80.45
617.628	74.15
618.077	68.15
618.526	66.15
618.975	64.85
619.424	63.25
619.873	58.45
620.322	74.85
620.771	65.75
621.22	63.25
621.669	70.25
622.118	57.85
622.567	58.35
623.015	50.75
623.464	55.25
623.913	57.05
624.361	51.85
624.81	53.65
625.259	50.25
625.707	60.45
626.156	53.35
626.604	64.05
627.053	59.35
627.501	54.65
627.95	57.35
628.398	62.25
628.847	58.95
629.295	60.95
629.744	60.25
630.192	60.85
630.64	58.55
631.089	54.95
631.537	53.65
631.985	48.45
632.433	52.05
632.881	48.55
633.33	48.85
633.778	47.35
634.226	46.55
634.674	49.65
635.122	49.65
635.57	56.05
636.018	54.25
636.466	60.95
636.914	45.65
637.362	58.95
637.81	62.05
638.258	63.25
638.705	54.85
639.153	61.15
639.601	59.95
640.049	64.05
640.497	73.75
640.944	87.85
641.392	57.25
641.84	53.85
642.287	47.75
642.735	40.65
643.182	47.15
643.63	48.55
644.078	44.55
644.525	49.55
644.973	42.95
645.42	42.85
645.867	47.05
646.315	52.85
646.762	50.55
647.21	42.25
647.657	40.75
648.104	48.95
648.551	45.05
648.999	41.15
649.446	44.75
649.893	44.95
650.34	45.05
650.787	44.95
651.234	50.25
651.682	41.25
652.129	45.75
652.576	47.75
653.023	52.85
653.47	64.25
653.917	51.15
654.363	64.65
654.81	58.35
655.257	61.85
655.704	56.65
656.151	43.05
656.598	46.95
657.044	44.75
657.491	42.85
657.938	40.35
658.385	51.25
658.831	46.35
659.278	51.85
659.724	43.35
660.171	45.75
660.618	35.65
661.064	44.15
661.511	38.95
661.957	37.75
662.404	45.45
662.85	47.15
663.296	47.65
663.743	41.75
664.189	37.75
664.635	42.35
665.082	45.65
665.528	43.25
665.974	38.35
666.42	47.45
666.867	45.25
667.313	39.05
667.759	40.65
668.205	37.25
668.651	44.75
669.097	38.95
669.543	27.05
669.989	35.25
670.435	44.95
670.881	38.05
671.327	43.45
671.773	43.05
672.219	47.05
672.665	56.25
673.11	57.45
673.556	64.85
674.002	81.95
674.448	75.45
674.893	55.95
675.339	47.35
675.785	41.55
676.23	44.15
676.676	28.75
677.122	29.05
677.567	37.75
678.013	33.75
678.458	26.95
678.904	29.35
679.349	25.45
679.794	27.35
680.24	29.35
680.685	31.75
681.131	28.55
681.576	35.15
682.021	32.85
682.466	31.65
682.912	23.95
683.357	27.55
683.802	37.85
684.247	47.05
684.692	47.65
685.137	46.25
685.583	67.95
686.028	63.15
686.473	57.75
686.918	38.95
687.363	46.25
687.807	43.15
688.252	26.55
688.697	31.95
689.142	35.05
689.587	31.05
690.032	18.95
690.477	32.25
690.921	29.45
691.366	40.65
691.811	35.15
692.255	44.75
692.7	58.05
693.145	53.75
693.589	75.55
694.034	150.85
694.478	221.75
694.923	271.25
695.367	364.15
695.812	166.45
696.256	65.05
696.701	29.75
697.145	32.95
697.59	27.35
698.034	24.55
698.478	32.95
698.922	28.05
699.367	28.65
699.811	32.75
700.255	38.45
700.699	41.95
701.143	50.95
701.588	58.15
702.032	71.95
702.476	57.65
702.92	46.45
703.364	44.35
703.808	72.95
704.252	139.15
704.696	203.05
705.14	250.15
705.584	340.25
706.027	156.15
706.471	56.85
706.915	36.55
707.359	27.05
707.803	19.85
708.246	27.35
708.69	31.05
709.134	35.95
709.577	37.75
710.021	36.65
710.465	29.25
710.908	27.15
711.352	29.55
711.795	34.75
712.239	38.05
712.682	37.05
713.126	47.55
713.569	60.75
714.012	38.15
714.456	28.55
714.899	24.75
715.342	25.85
715.786	16.65
716.229	23.75
716.672	24.95
717.115	19.85
717.558	23.25
718.002	20.25
718.445	26.55
718.888	30.95
719.331	33.05
719.774	34.05
720.217	31.95
720.66	26.65
721.103	21.65
721.546	20.35
721.989	22.05
722.432	11.05
722.874	20.35
723.317	20.05
723.76	15.25
724.203	26.35
724.645	31.75
725.088	58.05
725.531	66.85
725.974	80.15
726.416	66.45
726.859	32.55
727.301	16.75
727.744	19.95
728.187	20.65
728.629	23.65
729.071	23.45
729.514	28.85
729.956	30.55
730.399	34.85
730.841	37.25
731.283	21.85
731.726	28.65
732.168	24.05
732.61	21.45
733.053	27.75
733.495	28.65
733.937	32.85
734.379	42.45
734.821	50.15
735.263	61.05
735.705	105.75
736.148	212.55
736.59	378.45
737.032	480.75
737.474	379.75
737.916	97.55
738.357	46.85
738.799	30.35
739.241	28.25
739.683	18.55
740.125	24.65
740.567	26.05
741.008	33.35
741.45	33.45
741.892	33.95
742.334	41.15
742.775	32.95
743.217	32.75
743.658	22.65
744.1	20.15
744.542	18.25
744.983	25.05
745.425	24.55
745.866	31.85
746.307	27.35
746.749	32.55
747.19	35.65
747.632	49.35
748.073	103.85
748.514	267.65
748.956	429.95
749.397	525.75
749.838	451.35
750.279	467.75
750.72	209.45
751.162	67.25
751.603	32.95
752.044	26.85
752.485	16.45
752.926	14.05
753.367	16.75
753.808	17.95
754.249	17.75
754.69	12.15
755.131	13.25
755.572	16.25
756.013	13.55
756.453	21.25
756.894	18.65
757.335	13.45
757.776	16.15
758.216	17.25
758.657	13.85
759.098	12.95
759.538	15.15
759.979	18.95
760.42	31.65
760.86	79.45
761.301	243.45
761.741	633.45
762.182	1006.25
762.622	689.85
763.063	175.05
763.503	62.15
763.943	34.55
764.384	27.45
764.824	26.35
765.264	19.55
765.705	22.55
766.145	13.35
766.585	11.15
767.025	11.55
767.465	4.75
767.906	13.25
768.346	21.35
768.786	17.45
769.226	19.15
769.666	34.15
770.106	68.25
770.546	216.15
770.986	419.15
771.426	382.95
771.866	109.35
772.306	37.65
772.745	18.85
773.185	11.65
773.625	14.85
774.065	1.65
774.505	13.85
774.944	14.65
775.384	27.05
775.824	47.85
776.263	50.35
776.703	17.65
777.142	11.25
777.582	18.35
778.021	5.65
778.461	12.15
778.9	19.35
779.34	13.75
779.779	4.15
780.219	0.25
780.658	-0.95
781.097	4.85
781.537	10.05
781.976	8.15
782.415	2.95
782.855	2.25
783.294	5.05
783.733	6.55
784.172	10.45
784.611	4.65
785.05	3.15
785.489	7.45
785.928	12.25
786.367	12.35
786.806	6.05
787.245	12.45
787.684	9.25
788.123	17.25
788.562	9.55
789.001	9.85
