Data from 20171114-ORNL-Ar_H_NY_Subt18_08-06-11-726.txt Node
Date: Tue Nov 14 08:06:11 EST 2017
User: Ender
Spectrometer: HR+D1039
Trigger mode: 0
Integration Time (sec): 2.730000E-2
Scans to average: 10
Electric dark correction enabled: true
Nonlinearity correction enabled: false
Boxcar width: 0
XAxis mode: Wavelengths
Number of Pixels in Spectrum: 2048
>>>>>Begin Spectral Data<<<<<
187.836	-3.06
188.309	-3.06
188.782	-3.06
189.255	0.84
189.728	-1.86
190.201	3.84
190.674	0.94
191.147	1.64
191.619	-4.46
192.092	1.84
192.565	4.04
193.038	-2.26
193.511	-0.66
193.984	7.34
194.456	-4.16
194.929	2.44
195.402	-6.86
195.874	0.44
196.347	-4.36
196.82	-9.86
197.292	-2.36
197.765	2.14
198.237	-5.16
198.71	1.64
199.182	-0.06
199.655	5.54
200.127	2.44
200.6	-5.16
201.072	4.54
201.544	-5.16
202.017	-8.36
202.489	1.54
202.961	3.24
203.433	-1.56
203.906	-1.66
204.378	-2.56
204.85	-7.16
205.322	-7.96
205.794	-0.56
206.266	-1.96
206.739	-7.06
207.211	1.44
207.683	-6.96
208.155	-2.56
208.627	-3.76
209.099	-2.66
209.57	-7.86
210.042	0.94
210.514	4.04
210.986	2.64
211.458	-6.16
211.93	-2.86
212.402	2.44
212.873	-8.66
213.345	-2.36
213.817	-12.06
214.288	-5.56
214.76	-9.46
215.232	4.04
215.703	-1.46
216.175	-4.56
216.646	-3.36
217.118	-2.76
217.589	-4.56
218.061	-1.16
218.532	-3.66
219.004	0.84
219.475	-0.36
219.946	-3.36
220.418	-8.26
220.889	2.04
221.36	-1.86
221.832	0.94
222.303	-10.16
222.774	0.84
223.245	-12.16
223.717	-2.76
224.188	-2.06
224.659	-3.26
225.13	-7.66
225.601	3.34
226.072	6.74
226.543	-1.26
227.014	3.74
227.485	3.94
227.956	-2.96
228.427	-2.86
228.898	6.64
229.369	5.24
229.839	-3.76
230.31	-1.16
230.781	5.14
231.252	-7.56
231.722	-5.46
232.193	-7.66
232.664	-2.86
233.135	1.64
233.605	-0.56
234.076	-2.46
234.546	2.14
235.017	0.44
235.487	3.04
235.958	-0.16
236.428	-0.56
236.899	4.44
237.369	0.04
237.84	-0.76
238.31	10.34
238.78	5.24
239.251	2.74
239.721	-0.46
240.191	-3.36
240.662	-0.86
241.132	1.54
241.602	-0.76
242.072	4.34
242.542	6.44
243.013	-0.46
243.483	5.14
243.953	4.44
244.423	3.64
244.893	0.04
245.363	3.24
245.833	5.44
246.303	-3.86
246.773	7.14
247.243	5.84
247.712	5.34
248.182	8.74
248.652	10.64
249.122	-4.66
249.592	14.04
250.061	18.84
250.531	33.24
251.001	18.84
251.471	21.04
251.94	19.64
252.41	6.44
252.879	9.04
253.349	13.34
253.818	13.04
254.288	1.94
254.757	6.94
255.227	2.04
255.696	0.84
256.166	10.34
256.635	4.04
257.105	10.24
257.574	7.74
258.043	12.44
258.513	8.84
258.982	12.34
259.451	8.64
259.92	16.64
260.389	11.04
260.859	18.54
261.328	10.14
261.797	18.24
262.266	8.34
262.735	14.34
263.204	8.14
263.673	1.04
264.142	10.44
264.611	1.64
265.08	0.14
265.549	4.44
266.018	9.54
266.487	-0.66
266.955	-3.36
267.424	-5.96
267.893	11.84
268.362	1.64
268.83	-1.26
269.299	19.74
269.768	10.64
270.236	8.84
270.705	10.54
271.174	12.84
271.642	8.94
272.111	12.14
272.579	15.64
273.048	20.64
273.516	37.84
273.985	28.14
274.453	29.44
274.922	16.34
275.39	10.74
275.858	4.34
276.327	16.24
276.795	19.44
277.263	9.24
277.731	31.94
278.2	51.44
278.668	60.84
279.136	51.84
279.604	18.74
280.072	16.84
280.54	16.24
281.008	12.64
281.477	17.34
281.945	9.34
282.413	21.04
282.881	20.44
283.348	13.74
283.816	16.74
284.284	19.24
284.752	21.94
285.22	20.94
285.688	17.24
286.156	25.84
286.623	46.84
287.091	59.04
287.559	36.84
288.026	19.84
288.494	15.54
288.962	3.84
289.429	16.64
289.897	20.04
290.364	21.34
290.832	21.14
291.3	10.74
291.767	20.24
292.234	22.34
292.702	15.14
293.169	12.74
293.637	20.44
294.104	24.74
294.571	8.34
295.039	14.54
295.506	12.54
295.973	21.94
296.44	18.24
296.908	20.64
297.375	18.54
297.842	21.04
298.309	16.44
298.776	16.84
299.243	25.34
299.71	16.34
300.177	26.54
300.644	21.54
301.111	25.34
301.578	26.94
302.045	19.74
302.512	24.54
302.979	19.74
303.446	27.24
303.913	21.44
304.379	20.44
304.846	34.04
305.313	29.04
305.78	26.14
306.246	26.94
306.713	30.94
307.18	28.04
307.646	27.04
308.113	31.84
308.579	29.94
309.046	26.04
309.512	30.44
309.979	22.14
310.445	29.54
310.912	33.04
311.378	35.34
311.845	29.34
312.311	31.54
312.777	35.14
313.244	28.74
313.71	38.64
314.176	34.34
314.642	31.64
315.109	31.64
315.575	32.64
316.041	41.34
316.507	32.14
316.973	44.34
317.439	32.54
317.905	43.14
318.371	39.04
318.837	39.84
319.303	36.94
319.769	36.24
320.235	37.04
320.701	43.34
321.167	40.34
321.633	33.54
322.099	42.94
322.564	46.24
323.03	45.74
323.496	40.94
323.962	42.14
324.427	37.64
324.893	37.74
325.359	48.64
325.824	39.34
326.29	40.34
326.755	44.24
327.221	44.84
327.686	40.04
328.152	46.74
328.617	50.44
329.083	50.04
329.548	55.04
330.014	50.74
330.479	40.54
330.944	48.74
331.41	45.84
331.875	48.74
332.34	46.94
332.805	47.34
333.271	48.04
333.736	45.44
334.201	53.04
334.666	52.84
335.131	58.64
335.596	56.44
336.061	53.64
336.526	46.64
336.991	50.84
337.456	53.14
337.921	49.94
338.386	51.54
338.851	54.54
339.316	49.14
339.781	51.84
340.246	50.24
340.711	47.84
341.175	48.74
341.64	48.64
342.105	57.54
342.569	59.64
343.034	56.94
343.499	63.74
343.963	59.14
344.428	64.44
344.893	66.04
345.357	66.04
345.822	62.74
346.286	76.54
346.751	74.94
347.215	71.54
347.679	80.74
348.144	99.34
348.608	83.84
349.073	71.74
349.537	78.64
350.001	80.24
350.465	92.34
350.93	83.54
351.394	88.94
351.858	73.24
352.322	86.14
352.786	88.94
353.25	103.64
353.715	115.14
354.179	99.94
354.643	119.34
355.107	130.84
355.571	110.24
356.035	110.94
356.498	120.54
356.962	124.14
357.426	139.04
357.89	117.04
358.354	94.24
358.818	88.14
359.281	82.44
359.745	79.64
360.209	78.84
360.673	80.14
361.136	80.34
361.6	88.54
362.064	84.34
362.527	81.44
362.991	90.24
363.454	77.14
363.918	79.14
364.381	81.74
364.845	83.64
365.308	89.84
365.772	89.04
366.235	86.74
366.698	80.24
367.162	90.64
367.625	94.44
368.088	94.14
368.552	88.74
369.015	91.54
369.478	103.24
369.941	103.24
370.404	103.84
370.867	107.94
371.331	117.44
371.794	120.64
372.257	114.54
372.72	116.34
373.183	104.94
373.646	109.24
374.109	102.14
374.572	116.14
375.035	115.24
375.497	111.64
375.96	105.64
376.423	108.14
376.886	118.34
377.349	120.04
377.811	107.34
378.274	109.14
378.737	107.44
379.199	113.34
379.662	117.04
380.125	125.14
380.587	117.44
381.05	123.14
381.512	134.94
381.975	137.84
382.437	132.24
382.9	134.14
383.362	137.24
383.825	142.14
384.287	148.64
384.75	144.54
385.212	142.84
385.674	141.44
386.136	138.54
386.599	128.84
387.061	130.24
387.523	131.94
387.985	144.64
388.447	152.04
388.91	146.24
389.372	163.74
389.834	158.54
390.296	150.04
390.758	156.24
391.22	169.04
391.682	217.94
392.144	296.94
392.606	236.94
393.068	175.04
393.529	173.74
393.991	147.34
394.453	145.34
394.915	160.04
395.377	191.64
395.838	214.04
396.3	155.74
396.762	151.74
397.224	129.34
397.685	136.64
398.147	141.04
398.608	133.84
399.07	131.54
399.531	135.94
399.993	149.24
400.454	159.54
400.916	155.74
401.377	152.64
401.839	151.04
402.3	154.44
402.762	166.24
403.223	180.54
403.684	176.24
404.145	162.24
404.607	162.94
405.068	168.94
405.529	176.14
405.99	194.64
406.451	177.24
406.913	181.34
407.374	164.14
407.835	164.04
408.296	170.24
408.757	176.44
409.218	191.74
409.679	189.54
410.14	184.34
410.601	180.44
411.062	185.64
411.522	193.84
411.983	194.64
412.444	185.44
412.905	180.54
413.366	185.44
413.826	202.14
414.287	228.04
414.748	267.54
415.208	250.14
415.669	221.84
416.13	211.44
416.59	208.34
417.051	216.74
417.511	221.44
417.972	233.24
418.432	254.24
418.893	289.34
419.353	255.64
419.814	209.94
420.274	188.24
420.734	191.74
421.195	203.64
421.655	206.54
422.115	201.24
422.576	200.34
423.036	203.84
423.496	212.54
423.956	224.74
424.416	231.84
424.876	269.64
425.336	267.54
425.797	265.24
426.257	266.94
426.717	247.94
427.177	235.44
427.637	229.74
428.097	240.44
428.556	260.04
429.016	277.44
429.476	274.24
429.936	289.34
430.396	285.94
430.856	301.24
431.315	320.04
431.775	363.24
432.235	387.54
432.694	363.54
433.154	366.94
433.614	400.94
434.073	347.44
434.533	296.74
434.993	280.34
435.452	294.74
435.912	304.14
436.371	297.34
436.83	291.24
437.29	275.24
437.749	251.74
438.209	251.04
438.668	282.14
439.127	295.84
439.587	272.24
440.046	258.24
440.505	270.24
440.964	288.84
441.424	336.34
441.883	316.24
442.342	266.04
442.801	232.34
443.26	233.84
443.719	221.04
444.178	220.74
444.637	213.14
445.096	223.54
445.555	225.04
446.014	228.84
446.473	229.04
446.932	234.94
447.391	227.34
447.849	234.24
448.308	221.94
448.767	228.14
449.226	238.64
449.685	243.44
450.143	257.04
450.602	249.84
451.061	230.34
451.519	242.74
451.978	237.04
452.436	241.74
452.895	245.44
453.353	257.94
453.812	256.84
454.27	248.94
454.729	253.84
455.187	249.54
455.646	251.84
456.104	251.34
456.562	271.14
457.021	268.64
457.479	265.14
457.937	288.14
458.395	276.24
458.854	261.44
459.312	258.24
459.77	275.04
460.228	263.84
460.686	251.04
461.144	256.44
461.602	249.74
462.06	250.54
462.518	261.84
462.976	263.44
463.434	265.34
463.892	270.14
464.35	275.34
464.808	304.64
465.266	272.64
465.724	272.04
466.181	279.54
466.639	276.34
467.097	298.24
467.555	310.94
468.012	310.84
468.47	318.14
468.928	338.64
469.385	357.64
469.843	355.14
470.3	352.84
470.758	371.54
471.215	393.64
471.673	420.94
472.13	408.94
472.588	430.24
473.045	380.24
473.503	389.24
473.96	406.44
474.417	414.04
474.875	440.64
475.332	479.64
475.789	472.24
476.246	482.84
476.704	500.34
477.161	513.74
477.618	522.54
478.075	576.64
478.532	627.54
478.989	710.44
479.446	820.54
479.903	787.04
480.36	812.84
480.817	875.34
481.274	978.54
481.731	1080.64
482.188	1175.54
482.645	1310.44
483.102	1431.64
483.558	1572.64
484.015	1622.44
484.472	1599.24
484.929	1539.84
485.385	1488.34
485.842	1439.34
486.299	1392.44
486.755	1323.44
487.212	1116.44
487.668	947.84
488.125	871.64
488.582	788.94
489.038	763.54
489.494	722.54
489.951	707.54
490.407	676.94
490.864	659.04
491.32	652.84
491.776	654.74
492.233	666.54
492.689	628.84
493.145	620.44
493.602	613.04
494.058	622.64
494.514	634.04
494.97	645.94
495.426	663.84
495.882	640.14
496.338	630.04
496.794	633.54
497.251	629.34
497.707	643.74
498.163	651.84
498.618	648.14
499.074	658.44
499.53	692.74
499.986	697.84
500.442	670.94
500.898	651.04
501.354	634.64
501.809	644.04
502.265	654.94
502.721	684.24
503.177	693.84
503.632	680.84
504.088	695.64
504.543	732.34
504.999	725.64
505.455	674.54
505.91	647.74
506.366	651.34
506.821	634.54
507.277	642.24
507.732	649.14
508.187	626.84
508.643	639.74
509.098	656.84
509.553	672.24
510.009	686.14
510.464	675.44
510.919	698.14
511.375	703.54
511.83	729.64
512.285	746.04
512.74	773.04
513.195	802.44
513.65	782.24
514.105	775.04
514.56	784.04
515.015	809.34
515.47	820.04
515.925	809.44
516.38	797.44
516.835	814.14
517.29	802.54
517.745	794.94
518.2	777.54
518.655	764.34
519.109	759.44
519.564	764.54
520.019	747.04
520.474	738.34
520.928	740.24
521.383	734.14
521.838	727.04
522.292	728.44
522.747	713.64
523.201	714.04
523.656	704.24
524.11	715.74
524.565	709.64
525.019	705.34
525.474	714.54
525.928	709.44
526.382	713.94
526.837	712.34
527.291	716.24
527.745	707.94
528.2	709.84
528.654	700.14
529.108	702.34
529.562	695.54
530.016	700.14
530.47	704.04
530.925	703.24
531.379	715.94
531.833	714.94
532.287	715.84
532.741	712.14
533.195	716.74
533.649	723.54
534.103	731.34
534.556	719.64
535.01	722.44
535.464	728.34
535.918	733.94
536.372	740.84
536.826	735.74
537.279	722.34
537.733	724.94
538.187	723.44
538.64	724.44
539.094	734.94
539.548	747.84
540.001	738.24
540.455	732.34
540.908	741.04
541.362	746.84
541.815	755.94
542.269	769.04
542.722	764.34
543.175	782.64
543.629	792.64
544.082	793.24
544.536	808.24
544.989	789.24
545.442	811.64
545.895	794.44
546.349	804.64
546.802	808.24
547.255	818.74
547.708	820.34
548.161	822.94
548.614	831.44
549.067	847.64
549.52	835.04
549.973	827.04
550.426	814.44
550.879	806.24
551.332	808.94
551.785	820.74
552.238	818.34
552.691	826.34
553.144	851.94
553.596	867.04
554.049	876.04
554.502	907.64
554.955	932.74
555.407	930.54
555.86	914.74
556.313	906.64
556.765	901.94
557.218	907.74
557.67	895.54
558.123	888.94
558.576	890.34
559.028	889.74
559.48	894.84
559.933	883.24
560.385	857.44
560.838	826.94
561.29	791.54
561.742	797.14
562.195	772.24
562.647	779.14
563.099	780.84
563.551	780.94
564.004	799.54
564.456	784.54
564.908	774.44
565.36	746.04
565.812	751.94
566.264	739.34
566.716	744.04
567.168	722.34
567.62	728.34
568.072	717.14
568.524	714.24
568.976	706.84
569.428	681.64
569.88	687.44
570.332	693.64
570.784	687.44
571.235	685.84
571.687	705.04
572.139	711.24
572.59	723.64
573.042	736.94
573.494	727.74
573.945	725.84
574.397	700.84
574.849	698.84
575.3	705.74
575.752	703.44
576.203	684.14
576.655	685.14
577.106	684.94
577.557	676.24
578.009	672.04
578.46	674.24
578.912	683.44
579.363	680.04
579.814	675.74
580.265	662.94
580.717	678.24
581.168	683.14
581.619	689.64
582.07	691.34
582.521	674.34
582.972	683.54
583.423	683.14
583.875	693.64
584.326	713.94
584.777	749.44
585.227	829.34
585.678	915.54
586.129	1001.84
586.58	1067.44
587.031	1146.34
587.482	1288.74
587.933	1452.84
588.384	1291.74
588.834	975.94
589.285	801.34
589.736	786.04
590.186	779.74
590.637	770.74
591.088	768.44
591.538	751.84
591.989	739.84
592.439	735.64
592.89	733.04
593.34	720.44
593.791	721.54
594.241	715.34
594.692	721.64
595.142	712.74
595.593	713.64
596.043	722.94
596.493	718.94
596.943	718.24
597.394	731.74
597.844	714.44
598.294	731.44
598.744	755.74
599.195	767.94
599.645	817.44
600.095	856.04
600.545	918.04
600.995	982.74
601.445	1027.24
601.895	1091.44
602.345	1137.04
602.795	1123.14
603.245	1071.84
603.695	1019.14
604.145	956.44
604.594	907.64
605.044	864.64
605.494	804.64
605.944	759.24
606.393	744.74
606.843	736.64
607.293	743.84
607.743	731.74
608.192	748.74
608.642	763.24
609.091	775.54
609.541	771.04
609.99	779.44
610.44	767.04
610.889	720.84
611.339	706.14
611.788	690.24
612.238	712.94
612.687	721.34
613.136	725.34
613.586	743.24
614.035	739.74
614.484	760.64
614.933	754.04
615.383	765.54
615.832	746.04
616.281	725.34
616.73	685.14
617.179	670.34
617.628	655.84
618.077	644.24
618.526	626.84
618.975	615.84
619.424	619.94
619.873	617.54
620.322	624.14
620.771	617.24
621.22	617.24
621.669	597.14
622.118	587.54
622.567	594.94
623.015	580.54
623.464	579.64
623.913	560.64
624.361	556.94
624.81	561.34
625.259	563.64
625.707	553.14
626.156	558.94
626.604	565.64
627.053	561.04
627.501	565.74
627.95	572.24
628.398	578.84
628.847	569.24
629.295	576.14
629.744	580.94
630.192	570.24
630.64	578.14
631.089	566.74
631.537	582.44
631.985	585.94
632.433	609.64
632.881	607.84
633.33	658.54
633.778	630.64
634.226	568.24
634.674	579.44
635.122	583.94
635.57	599.94
636.018	636.64
636.466	587.74
636.914	570.94
637.362	578.54
637.81	576.04
638.258	579.94
638.705	583.04
639.153	602.64
639.601	623.24
640.049	651.94
640.497	667.94
640.944	689.14
641.392	639.84
641.84	616.04
642.287	593.14
642.735	571.04
643.182	574.24
643.63	577.84
644.078	578.04
644.525	598.94
644.973	599.44
645.42	608.24
645.867	620.04
646.315	644.04
646.762	669.14
647.21	697.24
647.657	698.94
648.104	743.54
648.551	773.64
648.999	836.94
649.446	918.14
649.893	1014.84
650.34	1166.74
650.787	1383.44
651.234	1714.54
651.682	2244.44
652.129	3070.24
652.576	4378.94
653.023	6504.54
653.47	8921.74
653.917	11163.94
654.363	12869.34
654.81	14302.94
655.257	13585.84
655.704	8875.44
656.151	5250.34
656.598	3399.14
657.044	2417.04
657.491	1855.34
657.938	1494.54
658.385	1253.74
658.831	1083.54
659.278	970.94
659.724	858.64
660.171	791.54
660.618	730.74
661.064	688.74
661.511	670.84
661.957	662.14
662.404	642.24
662.85	652.54
663.296	625.64
663.743	552.44
664.189	535.04
664.635	533.84
665.082	524.64
665.528	528.54
665.974	514.34
666.42	511.54
666.867	507.94
667.313	488.74
667.759	481.04
668.205	474.14
668.651	482.34
669.097	483.04
669.543	491.84
669.989	461.14
670.435	448.74
670.881	445.74
671.327	453.14
671.773	464.44
672.219	500.44
672.665	544.24
673.11	580.54
673.556	626.74
674.002	673.54
674.448	652.94
674.893	540.14
675.339	485.14
675.785	439.94
676.23	411.24
676.676	391.54
677.122	380.24
677.567	369.74
678.013	363.64
678.458	363.24
678.904	366.54
679.349	352.64
679.794	351.24
680.24	348.84
680.685	344.54
681.131	347.64
681.576	355.24
682.021	357.04
682.466	351.64
682.912	339.64
683.357	355.64
683.802	374.94
684.247	409.94
684.692	453.74
685.137	482.34
685.583	524.84
686.028	559.14
686.473	514.74
686.918	438.44
687.363	412.24
687.807	394.64
688.252	366.94
688.697	352.44
689.142	338.64
689.587	328.44
690.032	329.34
690.477	343.74
690.921	350.84
691.366	378.84
691.811	400.64
692.255	428.54
692.7	453.04
693.145	487.14
693.589	692.84
694.034	1108.34
694.478	1514.04
694.923	1721.64
695.367	2255.94
695.812	1173.54
696.256	486.64
696.701	366.34
697.145	341.44
697.59	325.84
698.034	319.04
698.478	329.04
698.922	320.34
699.367	316.44
699.811	333.44
700.255	350.84
700.699	383.54
701.143	421.74
701.588	465.64
702.032	511.54
702.476	514.04
702.92	488.44
703.364	498.64
703.808	635.24
704.252	1014.14
704.696	1420.74
705.14	1652.14
705.584	2083.34
706.027	1048.54
706.471	514.54
706.915	392.04
707.359	351.14
707.803	306.64
708.246	306.64
708.69	316.04
709.134	311.54
709.577	308.34
710.021	309.84
710.465	310.74
710.908	295.34
711.352	297.14
711.795	307.14
712.239	341.84
712.682	384.84
713.126	419.74
713.569	461.34
714.012	368.94
714.456	313.64
714.899	294.94
715.342	280.94
715.786	260.84
716.229	257.54
716.672	250.24
717.115	249.44
717.558	250.04
718.002	248.94
718.445	266.84
718.888	284.44
719.331	292.04
719.774	299.54
720.217	301.54
720.66	285.64
721.103	272.54
721.546	258.84
721.989	242.34
722.432	234.84
722.874	239.64
723.317	225.34
723.76	237.14
724.203	257.34
724.645	324.44
725.088	441.24
725.531	559.84
725.974	639.84
726.416	541.54
726.859	302.14
727.301	238.54
727.744	231.44
728.187	229.64
728.629	236.84
729.071	239.84
729.514	255.14
729.956	266.14
730.399	286.64
730.841	288.34
731.283	277.54
731.726	265.34
732.168	257.24
732.61	264.04
733.053	285.64
733.495	309.94
733.937	350.14
734.379	395.34
734.821	433.14
735.263	533.04
735.705	819.34
736.148	1544.94
736.59	2546.04
737.032	3014.94
737.474	2454.14
737.916	800.54
738.357	415.44
738.799	321.54
739.241	298.74
739.683	279.74
740.125	291.84
740.567	290.54
741.008	316.24
741.45	307.94
741.892	316.44
742.334	346.84
742.775	361.74
743.217	336.24
743.658	266.14
744.1	244.54
744.542	258.84
744.983	308.34
745.425	336.84
745.866	344.34
746.307	275.54
746.749	280.74
747.19	320.94
747.632	441.24
748.073	862.94
748.514	1818.14
748.956	2798.44
749.397	3493.44
749.838	2912.74
750.279	2898.94
750.72	1467.44
751.162	541.04
751.603	315.94
752.044	251.34
752.485	210.94
752.926	210.74
753.367	205.14
753.808	193.84
754.249	188.74
754.69	183.74
755.131	181.64
755.572	178.24
756.013	178.24
756.453	179.14
756.894	187.54
757.335	187.84
757.776	189.34
758.216	191.84
758.657	196.24
759.098	200.14
759.538	223.04
759.979	269.34
760.42	362.24
760.86	684.94
761.301	1756.94
761.741	4331.44
762.182	6311.84
