Data from 20171114-ORNL-Ar_H_NY_Subt18_08-08-40-771.txt Node
Date: Tue Nov 14 08:08:40 EST 2017
User: Ender
Spectrometer: HR+D1039
Trigger mode: 0
Integration Time (sec): 2.730000E-2
Scans to average: 10
Electric dark correction enabled: true
Nonlinearity correction enabled: false
Boxcar width: 0
XAxis mode: Wavelengths
Number of Pixels in Spectrum: 2048
>>>>>Begin Spectral Data<<<<<
187.836	-2.04
188.309	-2.04
188.782	-2.04
189.255	4.06
189.728	2.46
190.201	3.66
190.674	1.56
191.147	1.16
191.619	-9.34
192.092	1.86
192.565	0.66
193.038	0.76
193.511	-0.44
193.984	-6.34
194.456	-0.94
194.929	1.96
195.402	-2.54
195.874	3.46
196.347	-0.44
196.82	-0.54
197.292	11.16
197.765	1.26
198.237	-7.14
198.71	2.36
199.182	-4.44
199.655	4.06
200.127	2.76
200.6	-3.14
201.072	-0.04
201.544	-3.04
202.017	-0.24
202.489	2.46
202.961	-1.84
203.433	1.46
203.906	-10.64
204.378	-10.04
204.85	-2.44
205.322	-7.34
205.794	-3.04
206.266	-4.64
206.739	-7.14
207.211	3.66
207.683	-5.94
208.155	-3.74
208.627	-4.94
209.099	-8.94
209.57	-7.84
210.042	0.16
210.514	-4.14
210.986	-3.04
211.458	-11.84
211.93	1.66
212.402	-0.84
212.873	-9.44
213.345	-6.24
213.817	-10.84
214.288	-4.94
214.76	-13.14
215.232	-1.94
215.703	-3.44
216.175	-2.74
216.646	-5.54
217.118	-4.34
217.589	-1.54
218.061	-3.24
218.532	-3.34
219.004	-4.94
219.475	-0.84
219.946	-1.34
220.418	-5.54
220.889	2.66
221.36	1.66
221.832	-8.04
222.303	-5.24
222.774	0.86
223.245	-12.24
223.717	-4.24
224.188	-7.54
224.659	-9.84
225.13	-8.64
225.601	-4.24
226.072	-0.14
226.543	-3.84
227.014	0.16
227.485	-0.84
227.956	-9.04
228.427	-4.34
228.898	1.46
229.369	10.16
229.839	1.96
230.31	-1.84
230.781	-2.14
231.252	-0.44
231.722	-6.34
232.193	-0.84
232.664	-3.34
233.135	-5.44
233.605	-3.74
234.076	-5.54
234.546	-6.14
235.017	4.06
235.487	-1.54
235.958	-5.84
236.428	-3.94
236.899	-3.04
237.369	0.96
237.84	-7.34
238.31	-0.44
238.78	-7.54
239.251	-5.94
239.721	-4.34
240.191	-5.94
240.662	-3.94
241.132	-2.04
241.602	-2.64
242.072	-2.74
242.542	1.26
243.013	-8.94
243.483	0.16
243.953	1.46
244.423	-3.54
244.893	-2.34
245.363	4.36
245.833	-2.04
246.303	-7.44
246.773	6.86
247.243	-1.54
247.712	-1.64
248.182	4.96
248.652	-0.04
249.122	-3.64
249.592	-3.64
250.061	4.96
250.531	3.06
251.001	0.96
251.471	4.16
251.94	6.06
252.41	-3.24
252.879	-5.34
253.349	5.76
253.818	3.86
254.288	0.36
254.757	-1.74
255.227	0.76
255.696	-2.04
256.166	0.06
256.635	2.86
257.105	6.96
257.574	-0.84
258.043	0.56
258.513	-7.84
258.982	4.06
259.451	1.36
259.92	2.26
260.389	-1.34
260.859	5.56
261.328	1.86
261.797	0.36
262.266	0.16
262.735	10.66
263.204	6.06
263.673	1.66
264.142	3.06
264.611	-0.44
265.08	-0.44
265.549	-3.54
266.018	-0.44
266.487	-1.54
266.955	-7.94
267.424	0.66
267.893	6.86
268.362	-1.94
268.83	2.66
269.299	8.26
269.768	-0.54
270.236	2.36
270.705	-4.64
271.174	4.36
271.642	5.46
272.111	2.86
272.579	5.96
273.048	6.66
273.516	1.16
273.985	7.36
274.453	9.06
274.922	9.76
275.39	10.26
275.858	1.56
276.327	12.46
276.795	21.26
277.263	3.36
277.731	13.16
278.2	16.46
278.668	12.36
279.136	20.36
279.604	7.06
280.072	7.56
280.54	7.96
281.008	-0.44
281.477	12.46
281.945	4.66
282.413	8.96
282.881	6.76
283.348	-0.44
283.816	9.06
284.284	7.36
284.752	17.46
285.22	9.76
285.688	11.26
286.156	9.26
286.623	16.96
287.091	8.66
287.559	10.66
288.026	13.16
288.494	10.96
288.962	-0.24
289.429	0.26
289.897	9.96
290.364	6.46
290.832	14.16
291.3	9.26
291.767	12.66
292.234	14.16
292.702	3.56
293.169	17.16
293.637	19.46
294.104	20.16
294.571	4.66
295.039	11.66
295.506	9.86
295.973	10.26
296.44	17.76
296.908	11.46
297.375	10.16
297.842	13.26
298.309	13.16
298.776	8.16
299.243	21.66
299.71	10.66
300.177	14.66
300.644	17.16
301.111	19.06
301.578	15.86
302.045	11.96
302.512	24.26
302.979	19.16
303.446	17.06
303.913	10.76
304.379	12.36
304.846	23.56
305.313	18.36
305.78	21.26
306.246	18.26
306.713	17.46
307.18	18.06
307.646	19.36
308.113	23.66
308.579	17.66
309.046	20.06
309.512	24.06
309.979	15.86
310.445	24.26
310.912	25.06
311.378	27.56
311.845	34.36
312.311	23.26
312.777	29.86
313.244	26.76
313.71	27.46
314.176	20.06
314.642	22.36
315.109	26.96
315.575	28.86
316.041	36.56
316.507	25.36
316.973	29.66
317.439	23.66
317.905	26.86
318.371	27.36
318.837	26.16
319.303	30.86
319.769	29.26
320.235	34.16
320.701	29.46
321.167	28.76
321.633	30.16
322.099	34.76
322.564	34.66
323.03	27.16
323.496	32.76
323.962	29.66
324.427	31.36
324.893	41.76
325.359	29.46
325.824	33.36
326.29	31.76
326.755	33.76
327.221	30.36
327.686	34.36
328.152	43.06
328.617	32.76
329.083	35.36
329.548	40.26
330.014	39.16
330.479	39.66
330.944	39.86
331.41	31.06
331.875	43.16
332.34	32.96
332.805	38.96
333.271	41.36
333.736	37.06
334.201	41.36
334.666	40.06
335.131	49.76
335.596	45.96
336.061	41.06
336.526	35.06
336.991	41.36
337.456	44.96
337.921	43.16
338.386	42.26
338.851	44.76
339.316	43.66
339.781	42.26
340.246	50.86
340.711	47.16
341.175	50.06
341.64	42.76
342.105	49.46
342.569	48.06
343.034	46.66
343.499	50.56
343.963	50.96
344.428	59.36
344.893	56.36
345.357	56.76
345.822	51.96
346.286	61.66
346.751	65.16
347.215	58.16
347.679	67.06
348.144	83.06
348.608	73.96
349.073	65.76
349.537	66.16
350.001	72.26
350.465	84.56
350.93	72.76
351.394	76.16
351.858	64.76
352.322	77.86
352.786	73.46
353.25	90.26
353.715	101.56
354.179	88.86
354.643	109.86
355.107	114.56
355.571	93.46
356.035	94.96
356.498	101.16
356.962	109.66
357.426	117.46
357.89	104.46
358.354	82.06
358.818	75.16
359.281	72.86
359.745	65.86
360.209	76.26
360.673	70.36
361.136	72.96
361.6	73.76
362.064	78.36
362.527	72.86
362.991	83.96
363.454	81.96
363.918	77.46
364.381	76.46
364.845	78.46
365.308	82.26
365.772	79.06
366.235	81.36
366.698	74.26
367.162	79.96
367.625	74.36
368.088	81.66
368.552	83.36
369.015	82.66
369.478	87.66
369.941	96.46
370.404	86.86
370.867	92.06
371.331	101.66
371.794	98.76
372.257	94.16
372.72	103.16
373.183	102.26
373.646	100.96
374.109	98.06
374.572	96.36
375.035	102.16
375.497	105.76
375.96	102.36
376.423	96.36
376.886	111.96
377.349	106.96
377.811	93.66
378.274	98.76
378.737	93.76
379.199	99.36
379.662	99.46
380.125	106.16
380.587	107.06
381.05	104.96
381.512	113.56
381.975	118.06
382.437	107.96
382.9	115.76
383.362	114.66
383.825	122.26
384.287	124.46
384.75	116.96
385.212	123.96
385.674	124.46
386.136	134.96
386.599	114.26
387.061	121.46
387.523	123.66
387.985	125.56
388.447	131.86
388.91	121.16
389.372	128.46
389.834	128.26
390.296	129.36
390.758	134.36
391.22	142.06
391.682	149.86
392.144	167.86
392.606	151.66
393.068	143.46
393.529	152.06
393.991	143.96
394.453	129.56
394.915	135.76
395.377	141.46
395.838	146.46
396.3	135.46
396.762	141.36
397.224	128.16
397.685	130.06
398.147	129.26
398.608	136.66
399.07	130.56
399.531	139.26
399.993	148.36
400.454	153.46
400.916	151.96
401.377	145.06
401.839	150.36
402.3	157.96
402.762	168.26
403.223	180.66
403.684	174.86
404.145	163.56
404.607	157.06
405.068	160.56
405.529	169.36
405.99	186.66
406.451	175.16
406.913	175.26
407.374	164.06
407.835	167.56
408.296	163.46
408.757	170.86
409.218	187.96
409.679	180.16
410.14	177.76
410.601	174.76
411.062	188.06
411.522	181.76
411.983	184.26
412.444	179.06
412.905	179.86
413.366	188.66
413.826	199.46
414.287	220.26
414.748	270.76
415.208	256.66
415.669	224.26
416.13	215.76
416.59	205.36
417.051	218.56
417.511	223.06
417.972	249.26
418.432	253.96
418.893	302.06
419.353	258.66
419.814	206.46
420.274	190.06
420.734	187.96
421.195	203.06
421.655	198.36
422.115	205.36
422.576	200.56
423.036	207.46
423.496	214.16
423.956	225.36
424.416	243.66
424.876	277.46
425.336	271.56
425.797	273.76
426.257	263.36
426.717	241.46
427.177	240.26
427.637	220.86
428.097	238.86
428.556	250.56
429.016	270.66
429.476	263.56
429.936	272.66
430.396	282.16
430.856	288.66
431.315	309.56
431.775	346.56
432.235	379.76
432.694	356.56
433.154	361.16
433.614	396.16
434.073	335.46
434.533	295.06
434.993	266.06
435.452	281.26
435.912	296.46
436.371	287.26
436.83	290.66
437.29	271.56
437.749	253.76
438.209	258.36
438.668	282.86
439.127	287.46
439.587	266.36
440.046	259.26
440.505	264.76
440.964	285.86
441.424	324.56
441.883	313.06
442.342	277.96
442.801	235.16
443.26	231.46
443.719	237.56
444.178	232.26
444.637	219.86
445.096	241.56
445.555	240.96
446.014	235.16
446.473	244.76
446.932	247.56
447.391	244.06
447.849	238.76
448.308	233.76
448.767	230.66
449.226	248.26
449.685	250.86
450.143	258.76
450.602	250.96
451.061	242.96
451.519	247.86
451.978	242.86
452.436	250.26
452.895	246.76
453.353	270.06
453.812	252.96
454.27	253.06
454.729	249.06
455.187	257.86
455.646	260.06
456.104	272.16
456.562	277.06
457.021	279.06
457.479	272.06
457.937	289.46
458.395	278.76
458.854	263.26
459.312	269.36
459.77	290.76
460.228	267.26
460.686	251.16
461.144	260.76
461.602	257.06
462.06	257.76
462.518	275.26
462.976	264.76
463.434	276.06
463.892	278.16
464.35	289.16
464.808	302.46
465.266	283.06
465.724	286.96
466.181	287.86
466.639	280.46
467.097	306.96
467.555	313.66
468.012	317.36
468.47	328.36
468.928	344.06
469.385	352.56
469.843	367.26
470.3	371.96
470.758	374.56
471.215	401.76
471.673	427.26
472.13	421.56
472.588	434.96
473.045	392.76
473.503	401.26
473.96	409.16
474.417	419.36
474.875	452.56
475.332	491.66
475.789	488.26
476.246	481.96
476.704	497.36
477.161	528.36
477.618	536.36
478.075	580.36
478.532	637.66
478.989	705.26
479.446	813.96
479.903	775.76
480.36	809.76
480.817	864.46
481.274	951.56
481.731	1027.86
482.188	1120.06
482.645	1246.86
483.102	1328.16
483.558	1463.36
484.015	1492.46
484.472	1472.96
484.929	1426.26
485.385	1392.56
485.842	1359.66
486.299	1311.66
486.755	1254.66
487.212	1084.66
487.668	914.06
488.125	848.66
488.582	793.06
489.038	757.26
489.494	725.06
489.951	696.56
490.407	690.06
490.864	655.36
491.32	672.56
491.776	668.46
492.233	664.06
492.689	643.16
493.145	626.96
493.602	620.06
494.058	640.16
494.514	637.16
494.97	660.46
495.426	677.46
495.882	643.36
496.338	641.06
496.794	641.66
497.251	642.96
497.707	650.06
498.163	663.16
498.618	657.36
499.074	661.66
499.53	697.76
499.986	686.96
500.442	664.76
500.898	646.86
501.354	637.46
501.809	651.06
502.265	648.16
502.721	660.46
503.177	668.26
503.632	673.46
504.088	677.16
504.543	701.06
504.999	719.76
505.455	681.56
505.91	667.36
506.366	659.96
506.821	663.36
507.277	666.96
507.732	665.06
508.187	669.96
508.643	675.16
509.098	671.86
509.553	690.06
510.009	691.56
510.464	709.16
510.919	718.36
511.375	731.96
511.83	738.46
512.285	749.06
512.74	789.06
513.195	814.36
513.65	802.86
514.105	796.86
514.56	784.66
515.015	821.76
515.47	830.86
515.925	813.26
516.38	809.06
516.835	824.56
517.29	815.06
517.745	809.86
518.2	801.06
518.655	782.36
519.109	783.26
519.564	771.36
520.019	764.46
520.474	755.86
520.928	766.26
521.383	757.86
521.838	745.06
522.292	742.06
522.747	740.46
523.201	746.86
523.656	734.16
524.11	731.36
524.565	728.16
525.019	722.66
525.474	720.86
525.928	731.96
526.382	728.96
526.837	732.86
527.291	742.06
527.745	728.26
528.2	735.26
528.654	711.36
529.108	725.16
529.562	720.56
530.016	729.46
530.47	719.36
530.925	714.76
531.379	724.96
531.833	730.76
532.287	725.06
532.741	728.26
533.195	735.36
533.649	754.06
534.103	749.16
534.556	731.26
535.01	742.66
535.464	733.06
535.918	744.86
536.372	756.66
536.826	749.06
537.279	730.56
537.733	747.56
538.187	746.66
538.64	744.16
539.094	747.96
539.548	762.76
540.001	749.16
540.455	756.56
540.908	769.36
541.362	763.56
541.815	789.46
542.269	793.16
542.722	797.36
543.175	797.36
543.629	805.46
544.082	827.06
544.536	829.46
544.989	829.16
545.442	832.36
545.895	824.36
546.349	836.26
546.802	836.96
547.255	837.16
547.708	850.26
548.161	856.36
548.614	860.86
549.067	856.96
549.52	856.96
549.973	844.26
550.426	852.76
550.879	833.26
551.332	841.56
551.785	846.76
552.238	852.46
552.691	866.66
553.144	868.16
553.596	897.56
554.049	910.06
554.502	935.46
554.955	955.86
555.407	952.26
555.86	952.36
556.313	943.76
556.765	926.36
557.218	928.66
557.67	924.56
558.123	921.66
558.576	919.36
559.028	914.86
559.48	925.06
559.933	917.36
560.385	883.16
560.838	856.16
561.29	839.46
561.742	841.06
562.195	808.66
562.647	803.66
563.099	820.06
563.551	815.26
564.004	816.66
564.456	818.86
564.908	800.76
565.36	778.16
565.812	757.06
566.264	751.16
566.716	754.86
567.168	747.56
567.62	748.76
568.072	738.96
568.524	729.66
568.976	724.06
569.428	713.36
569.88	712.36
570.332	721.36
570.784	723.46
571.235	716.06
571.687	739.86
572.139	740.36
572.59	751.36
573.042	753.36
573.494	741.96
573.945	742.06
574.397	719.46
574.849	729.66
575.3	731.36
575.752	726.66
576.203	713.76
576.655	721.96
577.106	703.66
577.557	700.36
578.009	715.56
578.46	701.46
578.912	699.16
579.363	710.36
579.814	705.06
580.265	698.46
580.717	709.16
581.168	710.96
581.619	709.96
582.07	714.46
582.521	704.36
582.972	704.36
583.423	702.16
583.875	705.76
584.326	718.56
584.777	744.56
585.227	764.96
585.678	793.96
586.129	816.76
586.58	851.46
587.031	876.76
587.482	918.46
587.933	976.26
588.384	928.06
588.834	845.36
589.285	823.76
589.736	807.56
590.186	806.86
590.637	809.66
591.088	793.56
591.538	778.26
591.989	768.36
592.439	762.06
592.89	767.36
593.34	749.26
593.791	740.16
594.241	733.66
594.692	735.06
595.142	731.56
595.593	724.96
596.043	738.36
596.493	742.86
596.943	746.36
597.394	760.06
597.844	753.26
598.294	765.16
598.744	797.16
599.195	812.76
599.645	863.76
600.095	905.66
600.545	959.46
600.995	1015.76
601.445	1082.06
601.895	1148.06
602.345	1203.46
602.795	1173.96
603.245	1123.76
603.695	1064.46
604.145	1008.26
604.594	965.46
605.044	907.46
605.494	841.26
605.944	802.46
606.393	788.16
606.843	767.06
607.293	771.56
607.743	772.46
608.192	776.36
608.642	793.86
609.091	798.56
609.541	786.96
609.99	812.16
610.44	805.96
610.889	749.76
611.339	725.66
611.788	714.06
612.238	724.76
612.687	735.46
613.136	740.26
613.586	753.56
614.035	732.96
614.484	757.06
614.933	755.86
615.383	751.76
615.832	743.96
616.281	738.36
616.73	705.06
617.179	691.46
617.628	677.86
618.077	665.66
618.526	649.16
618.975	651.96
619.424	645.26
619.873	639.26
620.322	657.26
620.771	635.96
621.22	638.66
621.669	629.56
622.118	621.86
622.567	605.96
623.015	598.96
623.464	600.96
623.913	586.06
624.361	582.26
624.81	589.86
625.259	580.36
625.707	581.96
626.156	581.16
626.604	593.26
627.053	599.96
627.501	598.46
627.95	598.46
628.398	618.66
628.847	603.16
629.295	601.56
629.744	612.96
630.192	602.26
630.64	591.76
631.089	568.06
631.537	574.46
631.985	562.26
632.433	573.76
632.881	563.36
633.33	566.86
633.778	564.26
634.226	547.86
634.674	568.36
635.122	563.76
635.57	579.86
636.018	597.26
636.466	600.16
636.914	593.26
637.362	605.26
637.81	611.86
638.258	614.36
638.705	611.06
639.153	649.76
639.601	660.36
640.049	682.46
640.497	708.16
640.944	725.26
641.392	682.36
641.84	638.86
642.287	614.96
642.735	591.66
643.182	598.16
643.63	594.96
644.078	600.66
644.525	608.56
644.973	610.66
645.42	620.26
645.867	642.76
646.315	666.66
646.762	696.06
647.21	717.06
647.657	737.36
648.104	779.26
648.551	782.56
648.999	857.36
649.446	929.26
649.893	1020.26
650.34	1181.86
650.787	1385.76
651.234	1709.76
651.682	2216.96
652.129	3010.76
652.576	4288.46
653.023	6242.56
653.47	8394.06
653.917	10408.26
654.363	11890.96
654.81	12993.76
655.257	12328.76
655.704	8217.16
656.151	4916.36
656.598	3277.16
657.044	2336.46
657.491	1803.06
657.938	1447.06
658.385	1236.56
658.831	1088.76
659.278	970.76
659.724	865.06
660.171	805.76
660.618	738.56
661.064	710.26
661.511	686.96
661.957	674.96
662.404	664.86
662.85	673.76
663.296	654.36
663.743	589.66
664.189	563.86
664.635	563.56
665.082	557.56
665.528	556.06
665.974	541.06
666.42	536.16
666.867	525.26
667.313	513.46
667.759	498.96
668.205	479.46
668.651	479.86
669.097	477.56
669.543	476.16
669.989	470.76
670.435	474.46
670.881	471.66
671.327	474.96
671.773	494.76
672.219	521.76
672.665	587.06
673.11	622.16
673.556	664.96
674.002	709.36
674.448	692.56
674.893	584.06
675.339	510.66
675.785	472.56
676.23	456.16
676.676	418.06
677.122	411.66
677.567	402.36
678.013	386.26
678.458	381.46
678.904	381.56
679.349	367.96
679.794	382.36
680.24	373.96
680.685	370.56
681.131	376.86
681.576	368.86
682.021	382.46
682.466	374.16
682.912	367.66
683.357	371.96
683.802	411.56
684.247	444.16
684.692	483.26
685.137	528.86
685.583	574.96
686.028	593.36
686.473	547.66
686.918	467.06
687.363	443.36
687.807	420.56
688.252	391.16
688.697	374.36
689.142	364.36
689.587	357.46
690.032	347.86
690.477	375.86
690.921	375.76
691.366	411.46
691.811	433.66
692.255	458.06
692.7	493.16
693.145	542.86
693.589	768.06
694.034	1237.96
694.478	1683.56
694.923	1847.66
695.367	2388.86
695.812	1278.46
696.256	530.26
696.701	399.66
697.145	369.96
697.59	351.06
698.034	344.66
698.478	355.26
698.922	339.36
699.367	344.56
699.811	358.76
700.255	380.76
700.699	406.76
701.143	449.56
701.588	511.16
702.032	541.96
702.476	546.76
702.92	527.16
703.364	534.16
703.808	702.86
704.252	1137.76
704.696	1585.86
705.14	1760.06
705.584	2264.56
706.027	1145.06
706.471	571.26
706.915	429.16
707.359	380.86
707.803	347.26
708.246	332.36
708.69	340.66
709.134	340.46
709.577	331.86
710.021	341.96
710.465	328.56
710.908	318.36
711.352	314.46
711.795	334.66
712.239	382.06
712.682	418.36
713.126	443.96
713.569	479.96
714.012	379.46
714.456	332.76
714.899	309.86
715.342	290.36
715.786	281.16
716.229	276.66
716.672	276.36
717.115	257.56
717.558	262.36
718.002	270.66
718.445	280.46
718.888	301.56
719.331	319.56
719.774	326.06
720.217	327.66
720.66	300.16
721.103	280.06
721.546	275.46
721.989	269.86
722.432	252.86
722.874	252.36
723.317	248.76
723.76	253.76
724.203	280.26
724.645	347.76
725.088	478.06
725.531	606.76
725.974	679.16
726.416	582.96
726.859	333.06
727.301	265.66
727.744	251.96
728.187	245.36
728.629	255.66
729.071	258.36
729.514	277.86
729.956	290.16
730.399	301.96
730.841	305.76
731.283	293.46
731.726	290.26
732.168	280.86
732.61	289.36
733.053	315.76
733.495	344.96
733.937	380.66
734.379	439.46
734.821	473.96
735.263	599.86
735.705	932.26
736.148	1757.16
736.59	2817.96
737.032	3235.26
737.474	2643.96
737.916	876.86
738.357	462.56
738.799	349.66
739.241	314.76
739.683	307.96
740.125	317.06
740.567	320.46
741.008	345.06
741.45	341.86
741.892	343.76
742.334	372.96
742.775	389.56
743.217	368.16
743.658	296.36
744.1	275.06
744.542	283.46
744.983	331.86
745.425	367.26
745.866	367.06
746.307	300.96
746.749	299.46
747.19	345.46
747.632	505.76
748.073	996.76
748.514	2067.56
748.956	3080.26
749.397	3869.66
749.838	3228.46
750.279	3142.76
750.72	1608.96
751.162	592.96
751.603	353.46
752.044	268.06
752.485	226.06
752.926	224.76
753.367	219.56
753.808	211.16
754.249	203.36
754.69	202.96
755.131	190.86
755.572	191.96
756.013	193.56
756.453	194.76
756.894	200.96
757.335	201.96
757.776	206.76
758.216	212.66
758.657	214.76
759.098	216.86
759.538	239.76
759.979	289.76
760.42	415.86
760.86	791.66
761.301	2075.76
761.741	4898.26
762.182	6764.46
762.622	4804.66
763.063	1426.86
