Data from 20171114-ORNL-Ar_H_NY_Subt18_08-07-44-265.txt Node
Date: Tue Nov 14 08:07:44 EST 2017
User: Ender
Spectrometer: HR+D1039
Trigger mode: 0
Integration Time (sec): 2.730000E-2
Scans to average: 10
Electric dark correction enabled: true
Nonlinearity correction enabled: false
Boxcar width: 0
XAxis mode: Wavelengths
Number of Pixels in Spectrum: 2048
>>>>>Begin Spectral Data<<<<<
187.836	-0.56
188.309	-0.56
188.782	-0.56
189.255	4.64
189.728	2.04
190.201	0.04
190.674	-1.66
191.147	1.64
191.619	-8.66
192.092	1.24
192.565	5.14
193.038	3.54
193.511	1.44
193.984	3.14
194.456	-3.96
194.929	0.04
195.402	-5.56
195.874	-2.46
196.347	0.54
196.82	-8.16
197.292	7.64
197.765	-2.06
198.237	-3.66
198.71	2.14
199.182	-3.56
199.655	6.94
200.127	3.34
200.6	-5.46
201.072	-2.56
201.544	-6.06
202.017	-2.96
202.489	3.84
202.961	-0.06
203.433	-2.96
203.906	-4.66
204.378	-9.96
204.85	-4.36
205.322	-8.26
205.794	-2.06
206.266	-0.26
206.739	-13.66
207.211	-2.46
207.683	-7.46
208.155	-5.16
208.627	-2.76
209.099	-5.06
209.57	-6.26
210.042	-6.76
210.514	-5.66
210.986	-3.26
211.458	-7.76
211.93	-9.56
212.402	-0.36
212.873	-1.36
213.345	-9.06
213.817	-11.56
214.288	-6.06
214.76	-10.76
215.232	0.74
215.703	-5.76
216.175	1.54
216.646	-1.56
217.118	-2.76
217.589	-3.46
218.061	0.94
218.532	-8.66
219.004	-5.76
219.475	-4.36
219.946	-3.16
220.418	-5.26
220.889	4.84
221.36	2.34
221.832	-2.06
222.303	-11.36
222.774	3.64
223.245	-9.16
223.717	-9.26
224.188	1.14
224.659	-7.36
225.13	-3.86
225.601	-11.96
226.072	6.74
226.543	-4.86
227.014	5.64
227.485	-11.26
227.956	-8.46
228.427	-2.96
228.898	-3.76
229.369	4.44
229.839	-3.96
230.31	-3.26
230.781	0.94
231.252	1.04
231.722	1.44
232.193	-2.26
232.664	1.04
233.135	4.24
233.605	3.94
234.076	-14.96
234.546	-2.96
235.017	0.64
235.487	-3.86
235.958	0.04
236.428	-0.76
236.899	3.04
237.369	2.44
237.84	-5.26
238.31	6.34
238.78	5.64
239.251	-7.06
239.721	-3.46
240.191	2.34
240.662	1.24
241.132	1.74
241.602	-5.56
242.072	2.44
242.542	7.64
243.013	0.84
243.483	3.54
243.953	1.34
244.423	-4.06
244.893	0.14
245.363	4.24
245.833	0.74
246.303	-3.06
246.773	5.24
247.243	0.94
247.712	0.64
248.182	5.44
248.652	2.74
249.122	-8.96
249.592	5.94
250.061	17.14
250.531	26.04
251.001	6.14
251.471	17.64
251.94	12.54
252.41	3.44
252.879	1.04
253.349	3.94
253.818	8.34
254.288	4.14
254.757	3.34
255.227	2.34
255.696	5.14
256.166	10.14
256.635	13.74
257.105	10.64
257.574	3.64
258.043	7.34
258.513	5.24
258.982	9.54
259.451	3.24
259.92	9.04
260.389	5.34
260.859	21.44
261.328	4.64
261.797	15.54
262.266	10.74
262.735	9.44
263.204	7.24
263.673	-2.16
264.142	8.94
264.611	-3.26
265.08	-0.86
265.549	0.74
266.018	1.54
266.487	-6.46
266.955	-3.86
267.424	0.24
267.893	5.14
268.362	6.24
268.83	1.54
269.299	15.14
269.768	-1.46
270.236	3.54
270.705	-2.26
271.174	7.34
271.642	5.14
272.111	6.14
272.579	17.34
273.048	13.74
273.516	19.14
273.985	22.04
274.453	21.54
274.922	19.54
275.39	13.04
275.858	1.04
276.327	10.14
276.795	18.64
277.263	8.74
277.731	29.54
278.2	42.74
278.668	49.44
279.136	39.54
279.604	11.74
280.072	12.54
280.54	5.64
281.008	8.34
281.477	11.74
281.945	13.54
282.413	14.34
282.881	9.94
283.348	1.14
283.816	11.04
284.284	8.24
284.752	15.44
285.22	11.14
285.688	13.94
286.156	10.04
286.623	37.24
287.091	42.54
287.559	20.64
288.026	10.34
288.494	7.04
288.962	6.24
289.429	8.94
289.897	20.74
290.364	12.94
290.832	12.94
291.3	11.64
291.767	14.24
292.234	9.04
292.702	14.24
293.169	14.84
293.637	20.14
294.104	15.34
294.571	12.24
295.039	11.54
295.506	8.44
295.973	14.24
296.44	9.64
296.908	18.74
297.375	15.64
297.842	16.14
298.309	9.54
298.776	9.24
299.243	16.04
299.71	8.04
300.177	20.64
300.644	20.14
301.111	18.74
301.578	20.44
302.045	15.44
302.512	15.04
302.979	23.44
303.446	18.04
303.913	16.04
304.379	16.84
304.846	28.84
305.313	19.84
305.78	20.14
306.246	19.94
306.713	20.74
307.18	18.74
307.646	25.14
308.113	24.14
308.579	17.54
309.046	17.34
309.512	27.14
309.979	17.64
310.445	23.44
310.912	25.94
311.378	24.14
311.845	24.64
312.311	27.34
312.777	26.04
313.244	27.64
313.71	38.04
314.176	26.74
314.642	34.54
315.109	30.54
315.575	31.54
316.041	34.34
316.507	31.64
316.973	40.74
317.439	27.44
317.905	29.64
318.371	33.04
318.837	26.84
319.303	31.64
319.769	25.84
320.235	29.04
320.701	35.14
321.167	33.44
321.633	28.34
322.099	34.14
322.564	39.04
323.03	31.94
323.496	37.24
323.962	36.04
324.427	29.84
324.893	40.04
325.359	30.84
325.824	31.94
326.29	34.84
326.755	34.84
327.221	33.14
327.686	34.14
328.152	40.24
328.617	29.64
329.083	39.64
329.548	44.84
330.014	44.94
330.479	30.34
330.944	38.44
331.41	37.54
331.875	39.14
332.34	38.34
332.805	41.94
333.271	39.24
333.736	39.54
334.201	48.74
334.666	47.04
335.131	45.84
335.596	40.14
336.061	40.24
336.526	38.04
336.991	36.54
337.456	54.64
337.921	43.84
338.386	42.54
338.851	36.74
339.316	41.04
339.781	39.74
340.246	45.74
340.711	42.64
341.175	42.54
341.64	43.94
342.105	44.44
342.569	45.64
343.034	51.64
343.499	46.44
343.963	41.04
344.428	61.94
344.893	57.14
345.357	54.94
345.822	55.04
346.286	57.44
346.751	68.94
347.215	60.24
347.679	64.84
348.144	86.04
348.608	71.64
349.073	62.74
349.537	73.14
350.001	67.84
350.465	76.74
350.93	72.74
351.394	71.64
351.858	65.14
352.322	76.24
352.786	73.64
353.25	91.84
353.715	102.34
354.179	93.24
354.643	112.24
355.107	114.34
355.571	93.14
356.035	97.04
356.498	110.74
356.962	108.94
357.426	121.14
357.89	104.64
358.354	76.84
358.818	73.54
359.281	72.94
359.745	74.24
360.209	69.24
360.673	65.84
361.136	72.64
361.6	76.44
362.064	76.64
362.527	80.54
362.991	80.54
363.454	75.74
363.918	69.94
364.381	73.94
364.845	74.24
365.308	78.34
365.772	76.94
366.235	79.04
366.698	74.24
367.162	75.64
367.625	84.04
368.088	79.24
368.552	85.34
369.015	77.24
369.478	88.44
369.941	87.64
370.404	91.64
370.867	99.84
371.331	92.84
371.794	103.44
372.257	101.24
372.72	108.74
373.183	98.44
373.646	92.64
374.109	98.64
374.572	93.74
375.035	95.84
375.497	101.34
375.96	100.24
376.423	90.24
376.886	102.94
377.349	101.24
377.811	90.94
378.274	101.44
378.737	99.44
379.199	106.84
379.662	100.54
380.125	108.94
380.587	103.94
381.05	113.04
381.512	114.54
381.975	122.54
382.437	120.84
382.9	117.34
383.362	120.24
383.825	127.44
384.287	129.04
384.75	128.54
385.212	127.74
385.674	126.14
386.136	129.14
386.599	122.04
387.061	120.54
387.523	120.54
387.985	125.14
388.447	138.94
388.91	133.34
389.372	152.64
389.834	138.04
390.296	136.74
390.758	146.14
391.22	160.14
391.682	194.94
392.144	273.14
392.606	214.34
393.068	151.24
393.529	156.64
393.991	139.84
394.453	141.24
394.915	147.74
395.377	190.04
395.838	200.24
396.3	145.64
396.762	132.44
397.224	127.74
397.685	120.74
398.147	124.24
398.608	120.14
399.07	121.74
399.531	124.54
399.993	133.54
400.454	142.34
400.916	131.94
401.377	124.74
401.839	134.04
402.3	143.34
402.762	151.04
403.223	169.64
403.684	164.54
404.145	149.24
404.607	151.14
405.068	150.44
405.529	165.74
405.99	180.04
406.451	167.64
406.913	159.44
407.374	158.04
407.835	148.74
408.296	155.74
408.757	160.74
409.218	182.24
409.679	171.44
410.14	165.44
410.601	172.54
411.062	173.34
411.522	182.84
411.983	174.64
412.444	160.64
412.905	173.64
413.366	174.44
413.826	182.94
414.287	205.64
414.748	248.94
415.208	230.94
415.669	199.44
416.13	199.44
416.59	197.14
417.051	203.14
417.511	209.84
417.972	220.24
418.432	237.94
418.893	272.34
419.353	237.84
419.814	186.04
420.274	171.84
420.734	167.74
421.195	178.74
421.655	194.24
422.115	188.44
422.576	176.74
423.036	182.54
423.496	194.14
423.956	207.64
424.416	214.04
424.876	253.44
425.336	248.34
425.797	249.34
426.257	241.74
426.717	225.14
427.177	223.64
427.637	214.44
428.097	224.94
428.556	233.44
429.016	255.34
429.476	245.14
429.936	257.24
430.396	265.34
430.856	275.04
431.315	302.84
431.775	325.94
432.235	363.84
432.694	334.84
433.154	345.04
433.614	371.14
434.073	324.34
434.533	268.14
434.993	257.04
435.452	269.34
435.912	282.54
436.371	275.64
436.83	269.14
437.29	257.64
437.749	238.74
438.209	232.64
438.668	256.44
439.127	275.44
439.587	251.04
440.046	233.54
440.505	245.24
440.964	263.34
441.424	311.04
441.883	301.64
442.342	246.74
442.801	214.84
443.26	212.54
443.719	207.14
444.178	206.84
444.637	202.84
445.096	215.34
445.555	221.74
446.014	218.44
446.473	222.34
446.932	223.64
447.391	217.24
447.849	216.44
448.308	212.14
448.767	208.24
449.226	229.64
449.685	230.74
450.143	239.94
450.602	227.84
451.061	212.34
451.519	215.54
451.978	218.44
452.436	224.34
452.895	234.44
453.353	244.34
453.812	229.54
454.27	227.04
454.729	229.64
455.187	225.44
455.646	236.24
456.104	231.04
456.562	247.44
457.021	258.64
457.479	251.74
457.937	263.24
458.395	254.24
458.854	234.24
459.312	245.74
459.77	261.94
460.228	245.64
460.686	239.94
461.144	236.34
461.602	238.24
462.06	229.44
462.518	239.14
462.976	239.64
463.434	246.24
463.892	244.94
464.35	261.54
464.808	278.54
465.266	258.34
465.724	261.84
466.181	265.04
466.639	264.14
467.097	274.24
467.555	290.64
468.012	295.04
468.47	299.64
468.928	317.74
469.385	322.04
469.843	333.74
470.3	341.14
470.758	351.94
471.215	368.54
471.673	397.04
472.13	390.44
472.588	400.44
473.045	362.64
473.503	358.14
473.96	377.34
474.417	390.14
474.875	412.54
475.332	452.54
475.789	443.64
476.246	444.14
476.704	460.24
477.161	483.34
477.618	495.74
478.075	544.84
478.532	585.54
478.989	677.74
479.446	774.44
479.903	733.54
480.36	771.64
480.817	824.14
481.274	909.24
481.731	1017.84
482.188	1110.64
482.645	1230.84
483.102	1332.84
483.558	1450.34
484.015	1521.24
484.472	1489.24
484.929	1445.54
485.385	1394.34
485.842	1359.94
486.299	1287.64
486.755	1240.04
487.212	1042.94
487.668	880.74
488.125	816.54
488.582	744.84
489.038	717.74
489.494	679.94
489.951	660.04
490.407	637.44
490.864	614.24
491.32	613.24
491.776	612.64
492.233	630.24
492.689	582.54
493.145	580.64
493.602	570.34
494.058	592.84
494.514	588.54
494.97	615.74
495.426	621.34
495.882	595.54
496.338	587.64
496.794	600.04
497.251	592.74
497.707	610.34
498.163	604.94
498.618	616.94
499.074	628.24
499.53	649.74
499.986	650.34
500.442	628.94
500.898	614.24
501.354	600.64
501.809	615.64
502.265	620.74
502.721	636.04
503.177	646.64
503.632	640.74
504.088	648.44
504.543	683.64
504.999	678.54
505.455	633.24
505.91	608.54
506.366	610.64
506.821	604.74
507.277	592.84
507.732	601.94
508.187	606.24
508.643	610.84
509.098	617.04
509.553	625.94
510.009	645.74
510.464	644.24
510.919	659.14
511.375	668.34
511.83	688.94
512.285	695.34
512.74	725.74
513.195	746.94
513.65	739.14
514.105	733.04
514.56	746.84
515.015	764.04
515.47	776.94
515.925	763.54
516.38	753.84
516.835	758.44
517.29	763.64
517.745	754.14
518.2	731.84
518.655	720.64
519.109	715.64
519.564	710.94
520.019	705.14
520.474	694.24
520.928	693.94
521.383	688.94
521.838	679.34
522.292	681.74
522.747	701.14
523.201	684.04
523.656	671.04
524.11	679.84
524.565	668.54
525.019	668.44
525.474	678.54
525.928	670.04
526.382	669.24
526.837	671.44
527.291	679.54
527.745	667.74
528.2	682.24
528.654	662.04
529.108	665.14
529.562	667.84
530.016	652.14
530.47	666.54
530.925	668.04
531.379	677.94
531.833	676.74
532.287	679.14
532.741	675.14
533.195	670.64
533.649	690.74
534.103	695.74
534.556	679.24
535.01	680.04
535.464	679.24
535.918	681.64
536.372	693.84
536.826	692.84
537.279	683.04
537.733	685.04
538.187	692.44
538.64	693.54
539.094	698.44
539.548	707.24
540.001	701.44
540.455	700.34
540.908	705.34
541.362	717.34
541.815	736.24
542.269	731.44
542.722	730.84
543.175	748.24
543.629	746.74
544.082	765.44
544.536	758.44
544.989	746.94
545.442	766.74
545.895	766.44
546.349	766.24
546.802	764.24
547.255	768.74
547.708	779.74
548.161	794.84
548.614	793.84
549.067	806.24
549.52	792.44
549.973	783.94
550.426	781.44
550.879	766.14
551.332	773.34
551.785	780.84
552.238	785.04
552.691	798.54
553.144	810.44
553.596	818.24
554.049	824.74
554.502	864.14
554.955	876.64
555.407	879.24
555.86	875.44
556.313	859.14
556.765	851.84
557.218	849.24
557.67	853.94
558.123	842.74
558.576	842.84
559.028	839.74
559.48	856.44
559.933	849.04
560.385	808.64
560.838	783.74
561.29	761.64
561.742	762.94
562.195	743.84
562.647	741.84
563.099	767.24
563.551	748.94
564.004	760.04
564.456	751.84
564.908	737.64
565.36	727.24
565.812	708.34
566.264	700.24
566.716	706.24
567.168	696.04
567.62	708.84
568.072	685.04
568.524	678.14
568.976	680.44
569.428	668.54
569.88	654.04
570.332	666.64
570.784	663.84
571.235	660.04
571.687	669.54
572.139	681.34
572.59	687.94
573.042	687.54
573.494	687.14
573.945	688.34
574.397	669.74
574.849	670.14
575.3	666.34
575.752	664.74
576.203	665.64
576.655	658.74
577.106	645.84
577.557	654.04
578.009	649.54
578.46	637.94
578.912	644.94
579.363	645.24
579.814	649.44
580.265	648.34
580.717	651.84
581.168	647.54
581.619	658.94
582.07	659.54
582.521	644.14
582.972	648.84
583.423	659.04
583.875	656.14
584.326	687.54
584.777	719.94
585.227	801.14
585.678	881.34
586.129	961.34
586.58	1019.84
587.031	1107.04
587.482	1243.24
587.933	1423.54
588.384	1225.24
588.834	928.04
589.285	790.54
589.736	762.54
590.186	752.94
590.637	747.14
591.088	731.64
591.538	727.14
591.989	712.44
592.439	705.64
592.89	708.54
593.34	690.84
593.791	689.64
594.241	685.64
594.692	689.04
595.142	685.04
595.593	679.84
596.043	691.04
596.493	685.64
596.943	705.74
597.394	701.14
597.844	704.84
598.294	707.44
598.744	731.14
599.195	763.34
599.645	802.44
600.095	837.24
600.545	892.44
600.995	939.04
601.445	992.64
601.895	1067.34
602.345	1106.14
602.795	1082.04
603.245	1035.04
603.695	985.14
604.145	919.44
604.594	893.14
605.044	843.04
605.494	789.84
605.944	728.64
606.393	721.14
606.843	703.54
607.293	714.64
607.743	710.04
608.192	723.84
608.642	734.34
609.091	755.44
609.541	749.34
609.99	755.04
610.44	747.04
610.889	706.14
611.339	682.54
611.788	668.24
612.238	679.04
612.687	704.84
613.136	699.64
613.586	718.44
614.035	711.44
614.484	731.24
614.933	738.34
615.383	731.04
615.832	716.44
616.281	708.74
616.73	668.54
617.179	654.94
617.628	645.24
618.077	623.44
618.526	611.54
618.975	603.04
619.424	601.24
619.873	596.34
620.322	590.64
620.771	590.84
621.22	584.34
621.669	583.74
622.118	574.24
622.567	576.34
623.015	553.24
623.464	557.54
623.913	557.44
624.361	548.14
624.81	548.84
625.259	546.24
625.707	544.84
626.156	542.74
626.604	551.14
627.053	549.44
627.501	552.54
627.95	554.24
628.398	566.64
628.847	564.74
629.295	551.44
629.744	567.94
630.192	551.94
630.64	557.84
631.089	552.14
631.537	565.04
631.985	574.84
632.433	584.44
632.881	580.84
633.33	642.44
633.778	628.04
634.226	558.14
634.674	564.24
635.122	563.54
635.57	588.04
636.018	608.74
636.466	564.74
636.914	548.74
637.362	560.34
637.81	568.74
638.258	566.34
638.705	560.74
639.153	596.54
639.601	603.34
640.049	630.54
640.497	652.84
640.944	682.04
641.392	627.74
641.84	601.44
642.287	574.04
642.735	559.14
643.182	558.54
643.63	569.64
644.078	557.94
644.525	570.64
644.973	579.84
645.42	599.14
645.867	609.94
646.315	627.54
646.762	647.64
647.21	677.94
647.657	696.54
648.104	729.44
648.551	754.54
648.999	826.14
649.446	898.64
649.893	985.04
650.34	1142.14
650.787	1362.74
651.234	1697.34
651.682	2225.74
652.129	3035.74
652.576	4365.24
653.023	6430.24
653.47	8778.44
653.917	10912.74
654.363	12498.34
654.81	13810.34
655.257	13097.84
655.704	8585.84
656.151	5078.44
656.598	3312.24
657.044	2356.64
657.491	1813.54
657.938	1431.14
658.385	1205.44
658.831	1046.24
659.278	930.74
659.724	827.64
660.171	774.84
660.618	708.44
661.064	679.34
661.511	658.74
661.957	633.54
662.404	631.84
662.85	639.64
663.296	616.64
663.743	555.14
664.189	523.74
664.635	524.74
665.082	512.94
665.528	516.74
665.974	507.94
666.42	500.24
666.867	501.24
667.313	485.84
667.759	466.44
668.205	460.34
668.651	469.64
669.097	470.44
669.543	485.64
669.989	455.44
670.435	432.94
670.881	431.64
671.327	434.94
671.773	464.54
672.219	489.34
672.665	531.14
673.11	574.54
673.556	611.84
674.002	650.04
674.448	640.54
674.893	533.14
675.339	459.54
675.785	430.44
676.23	415.74
676.676	383.14
677.122	373.84
677.567	357.34
678.013	348.74
678.458	349.64
678.904	351.34
679.349	342.04
679.794	347.84
680.24	344.54
680.685	346.94
681.131	339.64
681.576	347.04
682.021	354.04
682.466	335.84
682.912	335.14
683.357	347.24
683.802	372.24
684.247	404.64
684.692	445.34
685.137	491.94
685.583	522.74
686.028	547.94
686.473	506.14
686.918	442.54
687.363	402.34
687.807	386.74
688.252	357.44
688.697	344.24
689.142	331.04
689.587	323.54
690.032	318.44
690.477	337.84
690.921	349.14
691.366	371.44
691.811	391.34
692.255	412.44
692.7	454.14
693.145	506.64
693.589	693.94
694.034	1129.94
694.478	1515.74
694.923	1683.14
695.367	2182.34
695.812	1168.94
696.256	482.94
696.701	363.74
697.145	332.84
697.59	321.44
698.034	317.24
698.478	328.14
698.922	317.14
699.367	323.44
699.811	335.24
700.255	355.04
700.699	379.44
701.143	419.94
701.588	480.14
702.032	506.44
702.476	491.34
702.92	489.24
703.364	476.44
703.808	640.44
704.252	1032.74
704.696	1422.44
705.14	1622.64
705.584	2072.74
706.027	1037.24
706.471	508.74
706.915	386.44
707.359	342.64
707.803	318.24
708.246	309.44
708.69	305.44
709.134	305.84
709.577	306.64
710.021	312.74
710.465	301.44
710.908	290.04
711.352	297.24
711.795	307.14
712.239	352.54
712.682	383.14
713.126	406.44
713.569	458.74
714.012	368.94
714.456	316.94
714.899	294.44
715.342	273.04
715.786	253.14
716.229	258.54
716.672	249.04
717.115	241.14
717.558	240.34
718.002	243.54
718.445	262.64
718.888	277.94
719.331	287.14
719.774	295.24
720.217	306.54
720.66	273.04
721.103	264.74
721.546	251.54
721.989	244.34
722.432	225.94
722.874	237.54
723.317	223.64
723.76	234.34
724.203	251.44
724.645	313.54
725.088	448.04
725.531	561.14
725.974	635.44
726.416	530.34
726.859	306.74
727.301	250.14
727.744	233.14
728.187	229.44
728.629	236.04
729.071	237.64
729.514	265.14
729.956	269.84
730.399	281.14
730.841	283.14
731.283	275.84
731.726	264.74
732.168	261.04
732.61	258.94
733.053	279.04
733.495	311.74
733.937	339.24
734.379	398.44
734.821	427.74
735.263	541.94
735.705	846.94
736.148	1574.44
736.59	2531.44
737.032	2950.54
737.474	2408.24
737.916	790.74
738.357	416.44
738.799	321.54
739.241	293.94
739.683	276.04
740.125	281.44
740.567	292.34
741.008	305.74
741.45	303.74
741.892	309.34
742.334	339.34
742.775	348.44
743.217	331.94
743.658	266.94
744.1	251.04
744.542	257.04
744.983	307.04
745.425	332.24
745.866	335.34
746.307	283.94
746.749	274.64
747.19	315.84
747.632	449.84
748.073	880.94
748.514	1844.94
748.956	2784.94
749.397	3492.34
749.838	2912.84
750.279	2864.74
750.72	1449.74
751.162	548.34
751.603	314.74
752.044	248.54
752.485	211.94
752.926	210.64
753.367	203.94
753.808	192.74
754.249	192.14
754.69	186.04
755.131	181.54
755.572	176.24
756.013	182.14
756.453	179.44
756.894	182.44
757.335	194.44
757.776	190.84
758.216	189.84
758.657	195.34
759.098	202.54
759.538	224.54
759.979	258.34
760.42	376.24
760.86	711.14
761.301	1831.94
761.741	4378.24
762.182	6214.84
762.622	4347.24
763.063	1283.34
