Data from 20171114-ORNL-Ar_H_NY_Subt18_08-06-18-550.txt Node
Date: Tue Nov 14 08:06:18 EST 2017
User: Ender
Spectrometer: HR+D1039
Trigger mode: 0
Integration Time (sec): 2.730000E-2
Scans to average: 10
Electric dark correction enabled: true
Nonlinearity correction enabled: false
Boxcar width: 0
XAxis mode: Wavelengths
Number of Pixels in Spectrum: 2048
>>>>>Begin Spectral Data<<<<<
187.836	1.76
188.309	1.76
188.782	1.76
189.255	-1.34
189.728	-2.74
190.201	6.26
190.674	2.66
191.147	4.66
191.619	-7.14
192.092	-5.24
192.565	5.06
193.038	-0.24
193.511	-0.84
193.984	-3.44
194.456	-0.74
194.929	2.76
195.402	-0.74
195.874	-0.64
196.347	0.26
196.82	-9.64
197.292	7.46
197.765	1.36
198.237	-6.84
198.71	0.76
199.182	-0.24
199.655	3.66
200.127	3.86
200.6	-4.04
201.072	-3.54
201.544	-1.84
202.017	-0.64
202.489	9.26
202.961	-5.74
203.433	-3.94
203.906	-2.44
204.378	-8.14
204.85	-3.54
205.322	-5.74
205.794	-2.74
206.266	-9.84
206.739	-5.34
207.211	4.96
207.683	-6.84
208.155	-1.34
208.627	-4.94
209.099	3.36
209.57	-4.84
210.042	-4.14
210.514	-3.74
210.986	-0.24
211.458	-5.34
211.93	-5.04
212.402	0.56
212.873	-12.34
213.345	-11.14
213.817	-6.14
214.288	-10.64
214.76	-14.64
215.232	-3.54
215.703	-4.14
216.175	-4.04
216.646	-1.94
217.118	-6.24
217.589	-2.14
218.061	-1.64
218.532	-7.44
219.004	-4.74
219.475	-1.34
219.946	-3.04
220.418	-13.64
220.889	5.76
221.36	-0.34
221.832	-3.64
222.303	-8.14
222.774	5.06
223.245	-17.74
223.717	-8.34
224.188	-5.94
224.659	-8.84
225.13	-8.54
225.601	-7.84
226.072	-2.54
226.543	-3.44
227.014	-0.84
227.485	-2.74
227.956	-8.44
228.427	-5.44
228.898	0.66
229.369	7.86
229.839	-1.14
230.31	-10.84
230.781	1.46
231.252	-2.44
231.722	4.56
232.193	-5.84
232.664	0.96
233.135	-0.84
233.605	-5.94
234.076	-12.64
234.546	-1.64
235.017	9.06
235.487	0.86
235.958	-2.84
236.428	-2.04
236.899	6.46
237.369	-0.34
237.84	-5.14
238.31	10.86
238.78	6.86
239.251	0.26
239.721	0.76
240.191	-2.74
240.662	0.56
241.132	6.96
241.602	-1.84
242.072	-1.24
242.542	5.06
243.013	2.26
243.483	4.16
243.953	-1.34
244.423	-0.34
244.893	-3.54
245.363	5.26
245.833	2.36
246.303	-3.44
246.773	1.56
247.243	-0.64
247.712	1.96
248.182	10.66
248.652	4.26
249.122	-3.94
249.592	8.16
250.061	26.86
250.531	29.36
251.001	11.36
251.471	16.16
251.94	20.16
252.41	10.46
252.879	1.96
253.349	11.26
253.818	9.76
254.288	10.46
254.757	1.36
255.227	-1.44
255.696	1.76
256.166	7.46
256.635	5.56
257.105	9.36
257.574	3.56
258.043	8.56
258.513	9.86
258.982	14.76
259.451	8.36
259.92	15.86
260.389	12.26
260.859	14.76
261.328	9.16
261.797	13.66
262.266	2.96
262.735	10.06
263.204	0.66
263.673	-2.04
264.142	6.16
264.611	-2.74
265.08	0.46
265.549	-1.84
266.018	12.66
266.487	-5.34
266.955	3.76
267.424	5.06
267.893	6.46
268.362	4.56
268.83	1.46
269.299	11.86
269.768	6.56
270.236	6.96
270.705	4.26
271.174	4.86
271.642	7.46
272.111	8.26
272.579	14.76
273.048	26.96
273.516	29.56
273.985	27.16
274.453	30.06
274.922	14.86
275.39	16.76
275.858	5.36
276.327	13.26
276.795	21.36
277.263	10.46
277.731	28.66
278.2	52.66
278.668	63.86
279.136	50.26
279.604	16.96
280.072	11.46
280.54	9.96
281.008	6.96
281.477	11.56
281.945	17.26
282.413	13.46
282.881	22.36
283.348	4.86
283.816	14.96
284.284	14.96
284.752	22.96
285.22	5.96
285.688	17.66
286.156	22.26
286.623	45.36
287.091	60.36
287.559	28.86
288.026	18.86
288.494	17.76
288.962	7.36
289.429	9.76
289.897	21.76
290.364	11.06
290.832	18.76
291.3	13.16
291.767	10.36
292.234	11.06
292.702	11.26
293.169	17.56
293.637	19.16
294.104	19.16
294.571	13.56
295.039	17.36
295.506	8.66
295.973	24.66
296.44	19.56
296.908	23.66
297.375	17.46
297.842	18.16
298.309	16.16
298.776	10.96
299.243	25.66
299.71	14.36
300.177	21.06
300.644	23.86
301.111	18.16
301.578	21.36
302.045	12.06
302.512	23.16
302.979	22.36
303.446	24.46
303.913	18.06
304.379	13.16
304.846	27.46
305.313	26.46
305.78	23.16
306.246	24.46
306.713	24.46
307.18	28.06
307.646	29.16
308.113	29.86
308.579	24.46
309.046	23.36
309.512	27.66
309.979	24.96
310.445	32.56
310.912	33.46
311.378	32.86
311.845	28.16
312.311	31.56
312.777	30.96
313.244	33.56
313.71	38.36
314.176	28.76
314.642	31.26
315.109	33.76
315.575	31.86
316.041	41.56
316.507	31.96
316.973	41.86
317.439	33.06
317.905	31.86
318.371	35.06
318.837	34.06
319.303	37.16
319.769	36.76
320.235	37.26
320.701	34.66
321.167	33.66
321.633	36.96
322.099	37.96
322.564	41.66
323.03	36.96
323.496	43.36
323.962	40.96
324.427	34.36
324.893	41.26
325.359	39.16
325.824	41.96
326.29	39.86
326.755	33.86
327.221	40.06
327.686	43.46
328.152	50.56
328.617	41.56
329.083	50.06
329.548	53.26
330.014	48.86
330.479	41.76
330.944	53.76
331.41	45.96
331.875	47.86
332.34	48.46
332.805	41.46
333.271	49.06
333.736	51.36
334.201	53.36
334.666	55.16
335.131	53.76
335.596	53.56
336.061	52.06
336.526	43.06
336.991	55.66
337.456	47.96
337.921	43.66
338.386	47.46
338.851	51.56
339.316	42.46
339.781	44.16
340.246	52.56
340.711	47.46
341.175	54.16
341.64	49.46
342.105	53.26
342.569	55.36
343.034	63.96
343.499	58.36
343.963	52.76
344.428	64.66
344.893	65.26
345.357	67.96
345.822	59.66
346.286	69.26
346.751	76.36
347.215	71.76
347.679	71.26
348.144	98.96
348.608	79.36
349.073	69.16
349.537	73.76
350.001	79.26
350.465	85.46
350.93	79.56
351.394	77.36
351.858	74.06
352.322	95.66
352.786	88.86
353.25	101.06
353.715	114.66
354.179	104.16
354.643	121.06
355.107	122.86
355.571	115.46
356.035	108.66
356.498	120.96
356.962	124.46
357.426	132.16
357.89	118.46
358.354	94.36
358.818	86.86
359.281	84.76
359.745	79.06
360.209	80.36
360.673	69.36
361.136	77.96
361.6	85.16
362.064	86.66
362.527	85.26
362.991	92.36
363.454	82.96
363.918	82.16
364.381	81.16
364.845	78.16
365.308	85.66
365.772	89.06
366.235	84.66
366.698	84.36
367.162	88.16
367.625	90.36
368.088	91.36
368.552	90.76
369.015	87.76
369.478	104.56
369.941	100.86
370.404	101.56
370.867	107.36
371.331	110.06
371.794	119.86
372.257	114.86
372.72	122.16
373.183	107.46
373.646	108.96
374.109	110.56
374.572	111.96
375.035	109.76
375.497	108.06
375.96	104.46
376.423	99.76
376.886	116.76
377.349	112.86
377.811	108.76
378.274	106.76
378.737	110.56
379.199	113.06
379.662	116.76
380.125	117.76
380.587	125.36
381.05	126.86
381.512	136.06
381.975	131.96
382.437	127.66
382.9	132.46
383.362	138.56
383.825	138.36
384.287	152.86
384.75	139.36
385.212	145.06
385.674	134.26
386.136	136.36
386.599	132.46
387.061	125.46
387.523	133.86
387.985	138.06
388.447	148.36
388.91	141.06
389.372	164.56
389.834	154.66
390.296	152.06
390.758	154.56
391.22	170.56
391.682	211.56
392.144	299.96
392.606	236.16
393.068	172.06
393.529	170.06
393.991	159.86
394.453	151.66
394.915	159.96
395.377	199.86
395.838	218.06
396.3	166.46
396.762	146.86
397.224	135.76
397.685	136.06
398.147	132.36
398.608	133.26
399.07	127.06
399.531	136.46
399.993	147.76
400.454	152.96
400.916	149.16
401.377	152.46
401.839	156.86
402.3	153.36
402.762	167.56
403.223	182.26
403.684	179.06
404.145	168.96
404.607	165.06
405.068	169.46
405.529	178.16
405.99	194.96
406.451	177.46
406.913	179.16
407.374	169.16
407.835	174.76
408.296	171.36
408.757	187.16
409.218	191.36
409.679	191.26
410.14	188.46
410.601	186.06
411.062	184.36
411.522	199.96
411.983	192.36
412.444	176.86
412.905	185.76
413.366	186.86
413.826	196.56
414.287	218.46
414.748	265.06
415.208	252.56
415.669	213.16
416.13	210.26
416.59	210.26
417.051	219.26
417.511	220.86
417.972	243.16
418.432	252.06
418.893	293.96
419.353	255.56
419.814	200.96
420.274	186.26
420.734	178.96
421.195	200.26
421.655	199.26
422.115	198.36
422.576	197.36
423.036	201.96
423.496	206.96
423.956	215.16
424.416	242.06
424.876	263.16
425.336	265.16
425.797	265.66
426.257	267.66
426.717	240.26
427.177	246.66
427.637	231.06
428.097	240.66
428.556	261.96
429.016	276.76
429.476	269.66
429.936	282.16
430.396	285.26
430.856	294.06
431.315	328.26
431.775	363.06
432.235	396.36
432.694	360.46
433.154	380.66
433.614	401.06
434.073	345.76
434.533	293.86
434.993	278.86
435.452	294.86
435.912	304.86
436.371	302.66
436.83	289.76
437.29	279.56
437.749	259.76
438.209	254.16
438.668	280.76
439.127	297.06
439.587	277.46
440.046	251.76
440.505	270.66
440.964	285.46
441.424	327.16
441.883	328.26
442.342	273.36
442.801	234.86
443.26	225.06
443.719	236.46
444.178	226.16
444.637	221.96
445.096	226.46
445.555	230.16
446.014	229.46
446.473	231.36
446.932	239.46
447.391	228.96
447.849	239.26
448.308	226.86
448.767	226.06
449.226	239.86
449.685	238.16
450.143	253.96
450.602	242.46
451.061	225.96
451.519	235.66
451.978	238.76
452.436	245.26
452.895	251.66
453.353	256.56
453.812	248.16
454.27	245.26
454.729	246.66
455.187	246.26
455.646	251.36
456.104	246.46
456.562	263.86
457.021	271.06
457.479	265.26
457.937	283.16
458.395	272.86
458.854	260.16
459.312	259.66
459.77	277.56
460.228	260.26
460.686	248.26
461.144	254.76
461.602	246.66
462.06	247.36
462.518	260.06
462.976	255.76
463.434	265.46
463.892	272.36
464.35	284.86
464.808	302.36
465.266	272.06
465.724	270.36
466.181	278.46
466.639	278.26
467.097	293.86
467.555	302.96
468.012	307.26
468.47	319.06
468.928	343.16
469.385	349.16
469.843	354.76
470.3	365.06
470.758	374.06
471.215	395.46
471.673	427.96
472.13	413.46
472.588	428.86
473.045	379.86
473.503	386.56
473.96	405.56
474.417	412.76
474.875	442.46
475.332	486.26
475.789	478.76
476.246	481.26
476.704	497.56
477.161	521.66
477.618	538.66
478.075	572.06
478.532	640.76
478.989	710.96
479.446	834.46
479.903	795.86
480.36	833.66
480.817	896.86
481.274	1004.76
481.731	1115.66
482.188	1212.66
482.645	1347.96
483.102	1452.16
483.558	1587.46
484.015	1663.06
484.472	1627.96
484.929	1566.46
485.385	1527.26
485.842	1485.86
486.299	1419.36
486.755	1340.16
487.212	1125.26
487.668	964.36
488.125	887.36
488.582	807.26
489.038	762.86
489.494	729.96
489.951	697.46
490.407	681.66
490.864	665.26
491.32	664.16
491.776	652.76
492.233	655.26
492.689	630.06
493.145	620.16
493.602	610.96
494.058	635.96
494.514	622.76
494.97	662.66
495.426	657.96
495.882	635.36
496.338	623.66
496.794	644.16
497.251	628.56
497.707	653.36
498.163	650.86
498.618	653.86
499.074	652.66
499.53	690.56
499.986	693.86
500.442	673.76
500.898	648.06
501.354	647.76
501.809	657.46
502.265	659.86
502.721	683.76
503.177	687.56
503.632	683.26
504.088	697.66
504.543	728.86
504.999	729.96
505.455	676.76
505.91	647.36
506.366	650.56
506.821	640.76
507.277	646.06
507.732	635.36
508.187	648.06
508.643	647.36
509.098	642.56
509.553	665.66
510.009	673.26
510.464	689.76
510.919	709.46
511.375	706.46
511.83	722.26
512.285	737.26
512.74	765.86
513.195	800.96
513.65	787.06
514.105	784.96
514.56	799.86
515.015	799.66
515.47	832.66
515.925	819.66
516.38	812.46
516.835	814.76
517.29	801.46
517.745	795.56
518.2	773.66
518.655	759.16
519.109	752.76
519.564	752.26
520.019	740.16
520.474	742.56
520.928	736.66
521.383	734.76
521.838	735.66
522.292	733.06
522.747	730.96
523.201	718.06
523.656	709.56
524.11	703.46
524.565	704.86
525.019	701.66
525.474	719.06
525.928	718.86
526.382	710.36
526.837	719.86
527.291	709.96
527.745	715.56
528.2	701.56
528.654	702.46
529.108	706.96
529.562	703.86
530.016	703.06
530.47	704.06
530.925	710.06
531.379	711.96
531.833	739.96
532.287	715.36
532.741	720.96
533.195	725.16
533.649	728.56
534.103	733.56
534.556	733.26
535.01	728.66
535.464	724.96
535.918	747.06
536.372	740.46
536.826	742.96
537.279	714.86
537.733	730.86
538.187	714.16
538.64	731.56
539.094	751.16
539.548	742.06
540.001	738.16
540.455	737.66
540.908	749.16
541.362	753.16
541.815	760.26
542.269	774.26
542.722	769.96
543.175	786.06
543.629	793.36
544.082	808.16
544.536	802.56
544.989	801.56
545.442	805.86
545.895	811.66
546.349	805.16
546.802	804.46
547.255	804.56
547.708	823.26
548.161	826.46
548.614	837.66
549.067	841.56
549.52	828.36
549.973	823.26
550.426	821.36
550.879	807.26
551.332	809.66
551.785	825.56
552.238	821.36
552.691	830.26
553.144	841.56
553.596	852.46
554.049	874.16
554.502	911.46
554.955	926.76
555.407	925.06
555.86	907.26
556.313	915.96
556.765	900.96
557.218	898.66
557.67	899.56
558.123	903.96
558.576	893.26
559.028	897.76
559.48	897.76
559.933	898.56
560.385	854.96
560.838	826.56
561.29	796.16
561.742	800.56
562.195	783.06
562.647	775.06
563.099	777.66
563.551	783.76
564.004	793.06
564.456	784.16
564.908	775.66
565.36	760.76
565.812	743.36
566.264	738.36
566.716	743.96
567.168	730.46
567.62	735.86
568.072	710.76
568.524	711.16
568.976	702.26
569.428	688.06
569.88	691.76
570.332	697.76
570.784	690.56
571.235	693.56
571.687	701.36
572.139	709.16
572.59	715.66
573.042	721.76
573.494	720.36
573.945	709.56
574.397	697.46
574.849	702.46
575.3	698.86
575.752	698.16
576.203	687.16
576.655	697.86
577.106	692.36
577.557	672.96
578.009	679.36
578.46	688.06
578.912	675.46
579.363	677.06
579.814	685.26
580.265	676.16
580.717	676.96
581.168	684.96
581.619	690.76
582.07	695.06
582.521	681.16
582.972	689.46
583.423	697.26
583.875	705.86
584.326	711.96
584.777	755.36
585.227	845.66
585.678	935.86
586.129	1028.46
586.58	1088.16
587.031	1173.86
587.482	1338.86
587.933	1517.36
588.384	1329.06
588.834	992.16
589.285	809.86
589.736	791.86
590.186	788.96
590.637	783.46
591.088	753.66
591.538	747.06
591.989	738.46
592.439	738.76
592.89	723.66
593.34	724.36
593.791	725.06
594.241	726.26
594.692	725.06
595.142	717.56
595.593	713.56
596.043	717.46
596.493	725.46
596.943	724.46
597.394	728.06
597.844	724.16
598.294	731.96
598.744	755.46
599.195	783.26
599.645	824.26
600.095	862.56
600.545	922.06
600.995	976.36
601.445	1036.66
601.895	1095.96
602.345	1140.06
602.795	1127.96
603.245	1074.76
603.695	1023.36
604.145	972.86
604.594	923.86
605.044	869.36
605.494	813.36
605.944	767.56
606.393	752.66
606.843	730.56
607.293	740.26
607.743	743.16
608.192	746.26
608.642	771.46
609.091	780.46
609.541	790.36
609.99	781.36
610.44	777.66
610.889	733.36
611.339	714.16
611.788	692.16
612.238	714.46
612.687	735.36
613.136	731.26
613.586	743.76
614.035	745.96
614.484	763.96
614.933	770.56
615.383	760.26
615.832	750.66
616.281	745.26
616.73	698.36
617.179	669.66
617.628	658.86
618.077	647.46
618.526	639.36
618.975	627.06
619.424	618.46
619.873	620.46
620.322	621.26
620.771	607.06
621.22	616.86
621.669	600.96
622.118	601.96
622.567	584.56
623.015	575.96
623.464	573.06
623.913	561.26
624.361	560.56
624.81	552.56
625.259	559.66
625.707	560.76
626.156	557.46
626.604	579.76
627.053	563.96
627.501	566.06
627.95	577.76
628.398	584.66
628.847	569.56
629.295	573.16
629.744	585.76
630.192	577.56
630.64	575.26
631.089	562.46
631.537	589.76
631.985	591.96
632.433	603.46
632.881	614.66
633.33	660.06
633.778	647.66
634.226	576.46
634.674	581.76
635.122	585.96
635.57	600.96
636.018	634.16
636.466	589.66
636.914	565.56
637.362	563.76
637.81	582.06
638.258	586.06
638.705	572.06
639.153	607.66
639.601	616.06
640.049	640.86
640.497	674.36
640.944	700.06
641.392	650.96
641.84	618.56
642.287	592.56
642.735	571.26
643.182	585.36
643.63	575.86
644.078	591.36
644.525	598.96
644.973	604.86
645.42	611.46
645.867	632.96
646.315	646.36
646.762	677.16
647.21	699.16
647.657	718.56
648.104	755.86
648.551	783.96
648.999	849.36
649.446	928.26
649.893	1020.46
650.34	1163.16
650.787	1423.36
651.234	1743.16
651.682	2288.06
652.129	3140.16
652.576	4539.06
653.023	6712.26
653.47	9185.06
653.917	11523.26
654.363	13271.36
654.81	14654.66
655.257	13981.56
655.704	9166.76
656.151	5407.06
656.598	3497.86
657.044	2462.76
657.491	1894.86
657.938	1503.86
658.385	1266.86
658.831	1102.66
659.278	976.06
659.724	869.06
660.171	795.46
660.618	730.76
661.064	700.66
661.511	678.26
661.957	659.36
662.404	654.46
662.85	658.46
663.296	625.86
663.743	565.76
664.189	542.36
664.635	540.96
665.082	530.66
665.528	533.16
665.974	518.26
666.42	504.16
666.867	509.66
667.313	489.56
667.759	482.86
668.205	481.36
668.651	487.86
669.097	484.86
669.543	499.66
669.989	474.96
670.435	454.76
670.881	454.46
671.327	451.16
671.773	480.36
672.219	491.56
672.665	544.86
673.11	570.16
673.556	626.76
674.002	664.46
674.448	664.56
674.893	547.26
675.339	473.96
675.785	434.46
676.23	416.46
676.676	395.66
677.122	386.16
677.567	384.06
678.013	375.96
678.458	361.56
678.904	354.86
679.349	348.96
679.794	358.16
680.24	356.96
680.685	347.46
681.131	344.46
681.576	349.06
682.021	356.86
682.466	347.66
682.912	343.56
683.357	355.26
683.802	379.36
684.247	408.26
684.692	449.96
685.137	497.56
685.583	537.26
686.028	567.56
686.473	507.76
686.918	437.76
687.363	412.66
687.807	391.66
688.252	358.06
688.697	356.96
689.142	334.86
689.587	339.16
690.032	329.36
690.477	343.36
690.921	360.66
691.366	385.56
691.811	406.96
692.255	425.96
692.7	464.16
693.145	493.86
693.589	688.16
694.034	1120.26
694.478	1529.56
694.923	1739.36
695.367	2279.86
695.812	1192.76
696.256	496.76
696.701	370.86
697.145	339.06
697.59	326.26
698.034	322.26
698.478	329.76
698.922	333.06
699.367	334.36
699.811	342.36
700.255	358.66
700.699	394.96
701.143	433.36
701.588	476.36
702.032	509.86
702.476	509.26
702.92	490.86
703.364	489.26
703.808	628.76
704.252	1018.76
704.696	1455.06
705.14	1669.26
705.584	2130.76
706.027	1059.56
706.471	513.26
706.915	387.86
707.359	343.46
707.803	327.66
708.246	312.06
708.69	315.46
709.134	318.86
709.577	305.16
710.021	319.96
710.465	313.66
710.908	299.86
711.352	298.36
711.795	318.06
712.239	352.16
712.682	380.06
713.126	413.16
713.569	461.66
714.012	371.46
714.456	329.96
714.899	298.96
715.342	279.26
715.786	267.86
716.229	254.96
716.672	257.26
717.115	246.16
717.558	247.76
718.002	241.66
718.445	260.66
718.888	288.26
719.331	293.36
719.774	320.56
720.217	300.46
720.66	286.96
721.103	260.16
721.546	265.86
721.989	251.46
722.432	229.56
722.874	236.06
723.317	231.36
723.76	237.56
724.203	259.06
724.645	322.86
725.088	439.16
725.531	570.96
725.974	654.36
726.416	547.56
726.859	307.56
727.301	237.16
727.744	234.46
728.187	228.46
728.629	236.56
729.071	233.76
729.514	244.86
729.956	260.86
730.399	291.36
730.841	287.56
731.283	270.76
731.726	265.06
732.168	251.06
732.61	267.66
733.053	285.26
733.495	313.56
733.937	347.26
734.379	401.46
734.821	440.96
735.263	532.66
735.705	830.76
736.148	1561.96
736.59	2565.76
737.032	3051.06
737.474	2470.56
737.916	800.16
738.357	431.96
738.799	327.96
739.241	295.36
739.683	281.26
740.125	290.56
740.567	293.66
741.008	318.16
741.45	319.16
741.892	314.36
742.334	345.96
742.775	360.06
743.217	333.16
743.658	267.36
744.1	253.36
744.542	258.26
744.983	306.46
745.425	343.76
745.866	331.06
746.307	282.56
746.749	280.46
747.19	325.36
747.632	453.36
748.073	870.16
748.514	1844.36
748.956	2833.26
749.397	3557.86
749.838	2941.06
750.279	2954.76
750.72	1485.66
751.162	547.86
751.603	318.86
752.044	249.66
752.485	222.26
752.926	211.46
753.367	201.26
753.808	194.86
754.249	193.06
754.69	185.56
755.131	184.16
755.572	180.06
756.013	179.06
756.453	184.26
756.894	191.06
757.335	189.66
757.776	194.76
758.216	201.46
758.657	194.96
759.098	202.06
759.538	227.86
759.979	263.46
760.42	368.96
760.86	697.26
761.301	1785.36
761.741	4353.96
762.182	6390.06
