Data from 20171114-ORNL-Ar_H_NY_Subt18_08-05-16-039.txt Node
Date: Tue Nov 14 08:05:16 EST 2017
User: Ender
Spectrometer: HR+D1039
Trigger mode: 0
Integration Time (sec): 2.730000E-2
Scans to average: 10
Electric dark correction enabled: true
Nonlinearity correction enabled: false
Boxcar width: 0
XAxis mode: Wavelengths
Number of Pixels in Spectrum: 2048
>>>>>Begin Spectral Data<<<<<
187.836	-2.36
188.309	-2.36
188.782	-2.36
189.255	-1.16
189.728	3.44
190.201	10.04
190.674	-1.56
191.147	2.44
191.619	-11.76
192.092	0.94
192.565	8.44
193.038	-0.26
193.511	3.74
193.984	-0.56
194.456	-5.06
194.929	2.84
195.402	-1.16
195.874	-7.96
196.347	-6.96
196.82	-7.86
197.292	1.44
197.765	-3.36
198.237	-10.66
198.71	-0.76
199.182	-2.86
199.655	3.34
200.127	0.34
200.6	-3.76
201.072	1.64
201.544	-4.66
202.017	-1.96
202.489	2.44
202.961	0.74
203.433	-6.06
203.906	-9.56
204.378	-5.96
204.85	-5.46
205.322	-8.16
205.794	-0.26
206.266	-5.46
206.739	-13.16
207.211	3.74
207.683	-4.16
208.155	-3.06
208.627	-7.26
209.099	-6.56
209.57	-7.96
210.042	-3.46
210.514	-2.36
210.986	-2.36
211.458	-5.56
211.93	-8.16
212.402	-3.86
212.873	-8.56
213.345	-15.96
213.817	-14.56
214.288	-5.76
214.76	-18.06
215.232	-4.16
215.703	-3.76
216.175	-0.26
216.646	-2.66
217.118	-8.66
217.589	-5.96
218.061	-5.66
218.532	-8.46
219.004	-0.26
219.475	-7.46
219.946	-7.16
220.418	-10.26
220.889	6.64
221.36	-3.36
221.832	-7.06
222.303	-4.06
222.774	0.74
223.245	-8.26
223.717	-6.86
224.188	-4.76
224.659	-9.96
225.13	-7.66
225.601	-6.96
226.072	2.34
226.543	-1.96
227.014	1.54
227.485	-1.46
227.956	-8.36
228.427	-0.66
228.898	-0.96
229.369	1.14
229.839	-4.76
230.31	-3.46
230.781	6.94
231.252	-1.36
231.722	-2.36
232.193	-5.56
232.664	4.74
233.135	1.94
233.605	-0.96
234.076	-5.26
234.546	1.94
235.017	-0.26
235.487	-0.46
235.958	4.34
236.428	-4.96
236.899	9.94
237.369	-0.56
237.84	-2.36
238.31	11.24
238.78	3.04
239.251	-0.36
239.721	-0.26
240.191	2.14
240.662	-0.26
241.132	-1.96
241.602	-4.06
242.072	-0.16
242.542	5.34
243.013	1.64
243.483	3.44
243.953	5.24
244.423	2.14
244.893	0.84
245.363	0.84
245.833	-1.26
246.303	-4.16
246.773	8.34
247.243	4.64
247.712	5.14
248.182	8.44
248.652	4.14
249.122	-0.46
249.592	15.04
250.061	23.94
250.531	33.34
251.001	14.44
251.471	20.34
251.94	15.94
252.41	7.84
252.879	-2.76
253.349	11.44
253.818	14.34
254.288	3.74
254.757	3.44
255.227	-1.36
255.696	2.94
256.166	11.34
256.635	10.24
257.105	9.84
257.574	6.64
258.043	8.14
258.513	12.14
258.982	17.94
259.451	9.34
259.92	13.04
260.389	9.44
260.859	18.94
261.328	14.14
261.797	20.54
262.266	12.54
262.735	7.34
263.204	8.04
263.673	7.74
264.142	6.44
264.611	-4.36
265.08	2.34
265.549	-0.36
266.018	8.24
266.487	-3.76
266.955	-7.26
267.424	6.54
267.893	8.14
268.362	8.44
268.83	4.94
269.299	15.24
269.768	2.54
270.236	7.04
270.705	3.54
271.174	9.64
271.642	5.34
272.111	9.84
272.579	23.14
273.048	17.14
273.516	34.14
273.985	31.84
274.453	29.14
274.922	27.94
275.39	12.94
275.858	10.34
276.327	15.74
276.795	20.24
277.263	11.34
277.731	33.44
278.2	56.74
278.668	64.14
279.136	61.24
279.604	24.74
280.072	26.24
280.54	13.24
281.008	14.24
281.477	15.84
281.945	14.04
282.413	12.84
282.881	13.24
283.348	11.54
283.816	22.74
284.284	19.04
284.752	19.04
285.22	17.84
285.688	17.64
286.156	23.74
286.623	48.14
287.091	52.04
287.559	32.74
288.026	14.44
288.494	12.94
288.962	7.64
289.429	14.84
289.897	14.14
290.364	16.34
290.832	14.84
291.3	17.94
291.767	26.24
292.234	20.04
292.702	14.44
293.169	17.74
293.637	24.64
294.104	22.14
294.571	11.24
295.039	18.04
295.506	16.84
295.973	20.84
296.44	20.44
296.908	17.14
297.375	23.54
297.842	22.24
298.309	16.44
298.776	14.74
299.243	18.84
299.71	13.94
300.177	24.84
300.644	26.14
301.111	26.14
301.578	24.14
302.045	22.14
302.512	21.74
302.979	29.04
303.446	22.84
303.913	24.94
304.379	26.14
304.846	27.94
305.313	29.54
305.78	26.44
306.246	27.94
306.713	28.14
307.18	25.34
307.646	26.94
308.113	31.04
308.579	27.04
309.046	25.44
309.512	29.54
309.979	16.14
310.445	28.14
310.912	29.24
311.378	35.14
311.845	33.34
312.311	28.94
312.777	31.44
313.244	30.84
313.71	42.04
314.176	31.74
314.642	32.04
315.109	33.44
315.575	40.64
316.041	38.34
316.507	39.94
316.973	34.04
317.439	33.24
317.905	42.74
318.371	33.14
318.837	40.84
319.303	33.44
319.769	36.74
320.235	35.44
320.701	43.74
321.167	42.74
321.633	39.04
322.099	44.84
322.564	45.64
323.03	42.74
323.496	40.04
323.962	46.94
324.427	38.64
324.893	49.14
325.359	37.44
325.824	41.14
326.29	32.64
326.755	43.44
327.221	37.34
327.686	44.34
328.152	52.14
328.617	40.74
329.083	47.24
329.548	49.94
330.014	50.84
330.479	43.84
330.944	45.64
331.41	45.54
331.875	47.64
332.34	49.04
332.805	40.34
333.271	52.64
333.736	43.74
334.201	45.14
334.666	51.54
335.131	50.84
335.596	54.74
336.061	53.74
336.526	45.14
336.991	48.04
337.456	57.14
337.921	47.34
338.386	48.44
338.851	45.84
339.316	52.54
339.781	41.54
340.246	52.94
340.711	49.34
341.175	51.54
341.64	45.04
342.105	52.24
342.569	58.64
343.034	53.54
343.499	55.84
343.963	55.94
344.428	61.14
344.893	58.84
345.357	61.24
345.822	64.64
346.286	65.94
346.751	73.54
347.215	65.74
347.679	75.94
348.144	102.74
348.608	88.84
349.073	71.34
349.537	84.34
350.001	81.94
350.465	89.74
350.93	82.14
351.394	82.24
351.858	79.84
352.322	93.34
352.786	83.54
353.25	104.74
353.715	110.14
354.179	101.54
354.643	123.74
355.107	136.14
355.571	107.14
356.035	101.74
356.498	119.64
356.962	129.64
357.426	131.64
357.89	120.24
358.354	92.44
358.818	83.54
359.281	83.24
359.745	78.44
360.209	80.04
360.673	75.74
361.136	82.44
361.6	79.34
362.064	86.54
362.527	82.24
362.991	85.14
363.454	85.44
363.918	77.84
364.381	83.14
364.845	79.74
365.308	82.94
365.772	87.24
366.235	85.34
366.698	82.54
367.162	83.54
367.625	83.74
368.088	81.74
368.552	97.24
369.015	87.34
369.478	100.94
369.941	106.34
370.404	95.04
370.867	107.24
371.331	106.84
371.794	120.74
372.257	117.44
372.72	115.24
373.183	110.44
373.646	99.74
374.109	98.34
374.572	108.54
375.035	110.54
375.497	107.94
375.96	105.74
376.423	102.84
376.886	116.14
377.349	109.04
377.811	101.64
378.274	102.04
378.737	112.14
379.199	108.14
379.662	113.54
380.125	118.04
380.587	124.34
381.05	121.04
381.512	125.04
381.975	134.54
382.437	130.44
382.9	133.34
383.362	134.34
383.825	143.54
384.287	151.24
384.75	138.64
385.212	138.44
385.674	130.64
386.136	138.74
386.599	125.54
387.061	128.44
387.523	129.14
387.985	128.14
388.447	140.14
388.91	143.04
389.372	152.84
389.834	147.44
390.296	146.24
390.758	149.64
391.22	167.34
391.682	203.54
392.144	293.54
392.606	230.04
393.068	167.64
393.529	173.44
393.991	152.84
394.453	143.04
394.915	157.84
395.377	190.74
395.838	214.24
396.3	155.84
396.762	144.44
397.224	132.44
397.685	120.04
398.147	127.84
398.608	135.84
399.07	128.84
399.531	134.74
399.993	137.84
400.454	151.74
400.916	149.74
401.377	142.94
401.839	143.24
402.3	146.94
402.762	164.34
403.223	178.04
403.684	167.14
404.145	157.74
404.607	159.54
405.068	162.64
405.529	166.84
405.99	189.14
406.451	169.64
406.913	170.94
407.374	158.44
407.835	159.64
408.296	162.34
408.757	172.64
409.218	180.44
409.679	181.14
410.14	174.44
410.601	177.14
411.062	182.04
411.522	186.74
411.983	185.54
412.444	176.64
412.905	183.84
413.366	175.44
413.826	191.24
414.287	212.84
414.748	258.04
415.208	250.84
415.669	202.34
416.13	206.44
416.59	201.24
417.051	205.24
417.511	214.04
417.972	239.74
418.432	246.34
418.893	285.44
419.353	247.44
419.814	197.74
420.274	182.54
420.734	174.14
421.195	193.14
421.655	193.14
422.115	196.04
422.576	188.54
423.036	189.84
423.496	196.54
423.956	211.44
424.416	236.54
424.876	263.14
425.336	258.74
425.797	266.64
426.257	252.54
426.717	238.04
427.177	227.34
427.637	222.64
428.097	229.74
428.556	241.34
429.016	261.84
429.476	258.54
429.936	273.44
430.396	279.34
430.856	293.34
431.315	310.44
431.775	353.64
432.235	375.54
432.694	344.04
433.154	352.54
433.614	391.54
434.073	325.84
434.533	273.84
434.993	264.74
435.452	278.54
435.912	293.64
436.371	287.24
436.83	283.64
437.29	265.44
437.749	239.24
438.209	246.14
438.668	267.74
439.127	282.74
439.587	260.34
440.046	251.14
440.505	258.54
440.964	275.74
441.424	321.24
441.883	310.04
442.342	258.04
442.801	222.04
443.26	213.34
443.719	216.64
444.178	217.94
444.637	206.34
445.096	217.84
445.555	214.14
446.014	220.24
446.473	223.54
446.932	224.74
447.391	223.64
447.849	225.54
448.308	218.64
448.767	220.34
449.226	236.34
449.685	229.44
450.143	243.74
450.602	232.94
451.061	224.84
451.519	227.84
451.978	231.14
452.436	232.94
452.895	237.14
453.353	246.04
453.812	241.64
454.27	238.04
454.729	234.54
455.187	237.24
455.646	248.64
456.104	250.34
456.562	255.94
457.021	265.54
457.479	261.74
457.937	269.44
458.395	255.84
458.854	245.44
459.312	255.24
459.77	273.24
460.228	255.04
460.686	232.24
461.144	248.54
461.602	239.64
462.06	241.64
462.518	249.84
462.976	253.14
463.434	255.94
463.892	257.14
464.35	277.04
464.808	276.94
465.266	261.94
465.724	270.94
466.181	269.94
466.639	266.94
467.097	283.54
467.555	292.54
468.012	297.04
468.47	312.34
468.928	323.54
469.385	335.34
469.843	353.74
470.3	347.04
470.758	356.44
471.215	377.24
471.673	406.04
472.13	405.14
472.588	412.44
473.045	368.74
473.503	372.04
473.96	395.74
474.417	403.94
474.875	435.54
475.332	470.94
475.789	456.14
476.246	462.84
476.704	485.24
477.161	504.04
477.618	518.44
478.075	553.44
478.532	606.14
478.989	689.04
479.446	806.44
479.903	776.24
480.36	813.74
480.817	869.34
481.274	965.84
481.731	1076.14
482.188	1169.54
482.645	1303.94
483.102	1413.94
483.558	1559.94
484.015	1613.74
484.472	1579.24
484.929	1531.14
485.385	1494.44
485.842	1429.74
486.299	1371.24
486.755	1284.34
487.212	1087.64
487.668	915.24
488.125	858.84
488.582	777.14
489.038	751.04
489.494	718.34
489.951	689.54
490.407	674.24
490.864	645.44
491.32	645.34
491.776	639.44
492.233	639.54
492.689	603.14
493.145	596.54
493.602	599.14
494.058	610.64
494.514	609.24
494.97	636.44
495.426	642.64
495.882	620.44
496.338	617.54
496.794	623.24
497.251	623.14
497.707	633.34
498.163	637.74
498.618	652.14
499.074	642.94
499.53	672.64
499.986	667.54
500.442	651.74
500.898	631.54
501.354	627.34
501.809	632.44
502.265	636.34
502.721	663.04
503.177	673.94
503.632	661.34
504.088	681.74
504.543	696.64
504.999	704.74
505.455	668.64
505.91	628.24
506.366	629.64
506.821	623.74
507.277	624.84
507.732	628.94
508.187	611.24
508.643	625.04
509.098	625.04
509.553	656.14
510.009	651.14
510.464	667.84
510.919	679.44
511.375	692.04
511.83	710.94
512.285	717.14
512.74	771.74
513.195	784.14
513.65	765.54
514.105	767.64
514.56	780.54
515.015	793.84
515.47	806.94
515.925	788.74
516.38	787.94
516.835	783.64
517.29	779.84
517.745	778.74
518.2	758.84
518.655	739.64
519.109	738.54
519.564	737.14
520.019	724.84
520.474	724.14
520.928	716.44
521.383	712.74
521.838	713.64
522.292	711.04
522.747	706.84
523.201	694.34
523.656	698.34
524.11	692.34
524.565	687.84
525.019	687.44
525.474	696.04
525.928	697.94
526.382	692.54
526.837	702.14
527.291	693.84
527.745	690.74
528.2	701.54
528.654	684.74
529.108	681.84
529.562	689.94
530.016	681.24
530.47	695.24
530.925	685.44
531.379	691.94
531.833	703.24
532.287	704.74
532.741	693.94
533.195	704.34
533.649	709.74
534.103	721.24
534.556	704.44
535.01	715.24
535.464	711.14
535.918	713.64
536.372	719.94
536.826	717.04
537.279	701.44
537.733	709.34
538.187	712.64
538.64	709.74
539.094	720.24
539.548	726.64
540.001	721.54
540.455	721.94
540.908	718.14
541.362	730.94
541.815	738.14
542.269	749.74
542.722	753.54
543.175	768.94
543.629	767.14
544.082	785.84
544.536	775.54
544.989	770.34
545.442	785.44
545.895	774.64
546.349	781.34
546.802	781.54
547.255	787.24
547.708	801.54
548.161	815.84
548.614	810.24
549.067	824.64
549.52	817.64
549.973	799.64
550.426	797.24
550.879	781.24
551.332	788.84
551.785	799.94
552.238	788.74
552.691	812.74
553.144	819.54
553.596	841.64
554.049	848.94
554.502	878.74
554.955	898.44
555.407	910.84
555.86	890.84
556.313	889.44
556.765	868.34
557.218	874.94
557.67	872.84
558.123	870.24
558.576	872.44
559.028	867.34
559.48	884.24
559.933	870.14
560.385	827.44
560.838	791.54
561.29	768.94
561.742	767.04
562.195	753.54
562.647	758.94
563.099	765.84
563.551	764.64
564.004	774.94
564.456	768.24
564.908	753.24
565.36	743.94
565.812	730.54
566.264	718.04
566.716	720.24
567.168	703.44
567.62	705.54
568.072	689.54
568.524	679.64
568.976	677.24
569.428	662.34
569.88	655.04
570.332	672.54
570.784	674.44
571.235	673.04
571.687	677.94
572.139	692.84
572.59	700.14
573.042	689.24
573.494	701.04
573.945	693.94
574.397	675.64
574.849	677.04
575.3	678.64
575.752	669.44
576.203	674.34
576.655	675.34
577.106	662.74
577.557	655.54
578.009	656.34
578.46	654.64
578.912	662.44
579.363	658.24
579.814	650.34
580.265	650.14
580.717	656.74
581.168	664.34
581.619	662.04
582.07	673.24
582.521	659.64
582.972	660.44
583.423	660.34
583.875	662.44
584.326	688.04
584.777	732.24
585.227	787.44
585.678	895.54
586.129	991.44
586.58	1055.14
587.031	1144.34
587.482	1298.14
587.933	1495.74
588.384	1289.84
588.834	946.14
589.285	778.04
589.736	768.94
590.186	753.34
590.637	738.24
591.088	728.34
591.538	706.64
591.989	710.04
592.439	708.84
592.89	702.64
593.34	685.94
593.791	688.54
594.241	686.64
594.692	699.04
595.142	692.24
595.593	689.64
596.043	683.64
596.493	697.64
596.943	697.04
597.394	696.64
597.844	698.74
598.294	705.24
598.744	730.34
599.195	755.74
599.645	799.14
600.095	816.64
600.545	889.94
600.995	930.54
601.445	999.74
601.895	1060.74
602.345	1104.84
602.795	1078.04
603.245	1045.84
603.695	978.14
604.145	929.34
604.594	882.14
605.044	843.44
605.494	778.44
605.944	729.34
606.393	710.54
606.843	704.84
607.293	715.84
607.743	704.64
608.192	715.04
608.642	728.74
609.091	734.94
609.541	744.74
609.99	750.54
610.44	740.44
610.889	693.44
611.339	676.14
611.788	653.94
612.238	667.64
612.687	691.34
613.136	691.94
613.586	717.64
614.035	711.64
614.484	730.54
614.933	732.84
615.383	728.44
615.832	712.24
616.281	698.14
616.73	662.24
617.179	634.24
617.628	626.04
618.077	609.84
618.526	582.14
618.975	596.04
619.424	591.44
619.873	592.54
620.322	595.34
620.771	588.84
621.22	581.54
621.669	573.24
622.118	565.84
622.567	551.04
623.015	549.84
623.464	550.74
623.913	541.74
624.361	529.34
624.81	530.14
625.259	527.74
625.707	535.44
626.156	536.54
626.604	542.84
627.053	537.44
627.501	538.84
627.95	531.24
628.398	553.14
628.847	543.14
629.295	551.44
629.744	551.24
630.192	547.64
630.64	551.44
631.089	540.64
631.537	544.74
631.985	570.04
632.433	570.84
632.881	578.04
633.33	626.34
633.778	613.24
634.226	542.14
634.674	538.14
635.122	546.64
635.57	571.04
636.018	591.64
636.466	551.94
636.914	540.24
637.362	555.34
637.81	546.84
638.258	560.04
638.705	557.24
639.153	573.54
639.601	584.54
640.049	611.64
640.497	639.94
640.944	648.94
641.392	616.04
641.84	585.54
642.287	562.64
642.735	539.14
643.182	546.24
643.63	545.74
644.078	558.84
644.525	567.14
644.973	571.54
645.42	570.14
645.867	589.44
646.315	616.24
646.762	628.44
647.21	662.34
647.657	680.04
648.104	719.64
648.551	731.94
648.999	797.94
649.446	882.14
649.893	962.64
650.34	1103.44
650.787	1315.54
651.234	1629.14
651.682	2119.84
652.129	2920.24
652.576	4195.64
653.023	6199.64
653.47	8532.84
653.917	10767.54
654.363	12509.84
654.81	13950.84
655.257	13285.84
655.704	8650.24
656.151	5084.64
656.598	3281.84
657.044	2339.04
657.491	1786.64
657.938	1429.04
658.385	1197.44
658.831	1036.84
659.278	926.34
659.724	805.74
660.171	741.54
660.618	685.44
661.064	657.04
661.511	631.44
661.957	623.94
662.404	613.84
662.85	620.44
663.296	586.04
663.743	530.94
664.189	509.84
664.635	499.24
665.082	499.04
665.528	499.74
665.974	488.14
666.42	482.84
666.867	481.04
667.313	457.74
667.759	454.44
668.205	451.54
668.651	464.14
669.097	455.84
669.543	468.44
669.989	447.84
670.435	425.14
670.881	422.04
671.327	428.04
671.773	441.04
672.219	467.34
672.665	506.24
673.11	545.04
673.556	585.64
674.002	628.94
674.448	618.74
674.893	518.44
675.339	449.94
675.785	408.84
676.23	390.04
676.676	360.84
677.122	357.54
677.567	348.64
678.013	352.94
678.458	339.54
678.904	338.54
679.349	326.14
679.794	334.94
680.24	325.64
680.685	329.94
681.131	325.34
681.576	327.74
682.021	336.44
682.466	327.84
682.912	328.84
683.357	326.24
683.802	355.84
684.247	384.14
684.692	430.04
685.137	463.04
685.583	503.24
686.028	518.04
686.473	487.14
686.918	422.04
687.363	386.44
687.807	373.54
688.252	348.24
688.697	327.94
689.142	320.54
689.587	314.94
690.032	302.04
690.477	325.54
690.921	327.74
691.366	356.54
691.811	376.64
692.255	402.34
692.7	429.64
693.145	467.04
693.589	634.24
694.034	1028.84
694.478	1417.24
694.923	1630.44
695.367	2156.94
695.812	1129.74
696.256	464.34
696.701	348.84
697.145	323.14
697.59	300.24
698.034	307.14
698.478	307.64
698.922	303.74
699.367	308.64
699.811	311.14
700.255	332.64
700.699	356.34
701.143	399.24
701.588	450.14
702.032	481.54
702.476	480.14
702.92	460.54
703.364	457.14
703.808	583.04
704.252	947.44
704.696	1353.74
705.14	1583.34
705.584	2011.64
706.027	996.34
706.471	490.44
706.915	367.94
707.359	329.04
707.803	301.44
708.246	287.14
708.69	289.14
709.134	289.84
709.577	287.94
710.021	291.54
710.465	279.44
710.908	279.34
711.352	270.84
711.795	292.84
712.239	321.04
712.682	358.94
713.126	387.94
713.569	439.04
714.012	350.14
714.456	303.24
714.899	281.84
715.342	256.84
715.786	246.84
716.229	235.14
716.672	234.64
717.115	226.94
717.558	234.84
718.002	235.24
718.445	244.34
718.888	265.24
719.331	268.14
719.774	279.54
720.217	284.54
720.66	271.34
721.103	245.64
721.546	239.44
721.989	232.74
722.432	214.04
722.874	222.14
723.317	213.74
723.76	216.74
724.203	244.84
724.645	288.54
725.088	410.24
725.531	527.04
725.974	608.54
726.416	515.94
726.859	285.34
727.301	232.84
727.744	216.84
728.187	218.14
728.629	217.24
729.071	222.74
729.514	237.24
729.956	253.64
730.399	258.94
730.841	263.44
731.283	248.94
731.726	244.34
732.168	237.94
732.61	246.04
733.053	263.24
733.495	292.14
733.937	328.04
734.379	368.44
734.821	398.14
735.263	496.44
735.705	759.54
736.148	1428.84
736.59	2381.04
737.032	2876.64
737.474	2338.64
737.916	751.34
738.357	394.04
738.799	298.04
739.241	269.64
739.683	267.64
740.125	272.54
740.567	279.44
741.008	294.44
741.45	287.94
741.892	290.84
742.334	319.24
742.775	339.04
743.217	313.54
743.658	247.84
744.1	230.24
744.542	243.64
744.983	281.24
745.425	320.94
745.866	320.04
746.307	265.14
746.749	266.54
747.19	290.74
747.632	409.34
748.073	794.14
748.514	1689.14
748.956	2646.94
749.397	3302.14
749.838	2747.04
750.279	2800.44
750.72	1406.74
751.162	510.54
751.603	296.24
752.044	234.14
752.485	204.24
752.926	191.44
753.367	189.84
753.808	187.34
754.249	176.44
754.69	181.34
755.131	164.04
755.572	166.64
756.013	162.84
756.453	168.84
756.894	182.34
757.335	168.14
757.776	174.54
758.216	180.84
758.657	180.34
759.098	183.74
759.538	208.34
759.979	241.44
760.42	328.54
760.86	636.94
761.301	1621.14
761.741	4020.74
