Data from 20171114-ORNL-Ar_H_NY_Subt18_08-05-37-604.txt Node
Date: Tue Nov 14 08:05:37 EST 2017
User: Ender
Spectrometer: HR+D1039
Trigger mode: 0
Integration Time (sec): 2.730000E-2
Scans to average: 10
Electric dark correction enabled: true
Nonlinearity correction enabled: false
Boxcar width: 0
XAxis mode: Wavelengths
Number of Pixels in Spectrum: 2048
>>>>>Begin Spectral Data<<<<<
187.836	-3.14
188.309	-3.14
188.782	-3.14
189.255	0.06
189.728	3.36
190.201	4.46
190.674	-0.64
191.147	2.26
191.619	-9.14
192.092	-0.94
192.565	6.06
193.038	-3.24
193.511	2.16
193.984	-4.14
194.456	-2.64
194.929	3.06
195.402	-0.04
195.874	2.46
196.347	2.26
196.82	-2.54
197.292	2.96
197.765	-3.84
198.237	-7.74
198.71	4.76
199.182	-2.14
199.655	-2.14
200.127	-0.34
200.6	2.76
201.072	-4.04
201.544	-3.74
202.017	-0.94
202.489	1.26
202.961	-0.04
203.433	1.86
203.906	-2.54
204.378	-3.44
204.85	-4.64
205.322	-9.44
205.794	-4.34
206.266	-2.14
206.739	-5.24
207.211	0.16
207.683	-5.14
208.155	-2.34
208.627	-4.94
209.099	-3.94
209.57	-4.04
210.042	5.66
210.514	-2.84
210.986	0.76
211.458	-2.54
211.93	-3.24
212.402	4.96
212.873	-8.74
213.345	-9.04
213.817	-11.54
214.288	-9.64
214.76	-13.14
215.232	-3.24
215.703	-3.14
216.175	-2.74
216.646	1.26
217.118	-8.84
217.589	1.26
218.061	-1.24
218.532	-0.54
219.004	-3.74
219.475	-5.84
219.946	-6.34
220.418	-4.24
220.889	-1.34
221.36	-2.64
221.832	-6.74
222.303	0.06
222.774	1.16
223.245	-11.34
223.717	-7.14
224.188	-1.54
224.659	-7.64
225.13	-4.04
225.601	-1.64
226.072	1.76
226.543	0.16
227.014	8.76
227.485	1.56
227.956	-2.24
228.427	-1.94
228.898	1.76
229.369	4.86
229.839	-6.84
230.31	-7.44
230.781	3.66
231.252	-4.24
231.722	-3.34
232.193	-0.84
232.664	3.26
233.135	2.86
233.605	-1.94
234.076	-5.64
234.546	6.76
235.017	7.46
235.487	1.06
235.958	3.56
236.428	-1.94
236.899	8.56
237.369	4.76
237.84	-3.94
238.31	8.66
238.78	5.66
239.251	3.56
239.721	3.96
240.191	0.96
240.662	1.36
241.132	0.06
241.602	4.06
242.072	7.86
242.542	7.06
243.013	0.36
243.483	7.56
243.953	4.76
244.423	-0.24
244.893	-2.04
245.363	2.36
245.833	3.16
246.303	-7.24
246.773	6.36
247.243	5.56
247.712	5.76
248.182	12.66
248.652	10.36
249.122	2.36
249.592	9.36
250.061	19.76
250.531	35.06
251.001	16.06
251.471	24.16
251.94	19.96
252.41	13.86
252.879	3.66
253.349	14.46
253.818	11.76
254.288	5.36
254.757	1.96
255.227	4.26
255.696	4.26
256.166	7.56
256.635	11.96
257.105	10.16
257.574	5.66
258.043	10.06
258.513	7.06
258.982	22.36
259.451	8.76
259.92	9.96
260.389	9.26
260.859	23.26
261.328	12.56
261.797	20.66
262.266	10.66
262.735	15.86
263.204	7.16
263.673	2.36
264.142	7.06
264.611	-3.04
265.08	2.56
265.549	-0.54
266.018	8.26
266.487	3.56
266.955	-2.14
267.424	1.46
267.893	7.86
268.362	8.06
268.83	7.26
269.299	14.66
269.768	7.06
270.236	15.36
270.705	4.36
271.174	6.06
271.642	10.66
272.111	15.66
272.579	15.56
273.048	24.46
273.516	26.06
273.985	23.26
274.453	21.16
274.922	19.56
275.39	16.96
275.858	7.16
276.327	10.16
276.795	14.96
277.263	13.26
277.731	34.66
278.2	56.06
278.668	63.96
279.136	52.96
279.604	21.96
280.072	16.66
280.54	13.76
281.008	12.56
281.477	17.66
281.945	11.36
282.413	16.36
282.881	18.26
283.348	7.46
283.816	14.26
284.284	11.76
284.752	20.46
285.22	12.86
285.688	16.76
286.156	24.46
286.623	44.56
287.091	60.36
287.559	30.96
288.026	15.96
288.494	21.36
288.962	8.06
289.429	11.86
289.897	22.26
290.364	22.76
290.832	18.86
291.3	19.96
291.767	23.56
292.234	22.56
292.702	15.76
293.169	20.96
293.637	22.36
294.104	18.86
294.571	14.36
295.039	14.66
295.506	18.16
295.973	15.06
296.44	16.36
296.908	28.76
297.375	19.96
297.842	23.86
298.309	19.06
298.776	24.16
299.243	24.86
299.71	17.76
300.177	25.16
300.644	28.06
301.111	22.26
301.578	29.06
302.045	21.46
302.512	29.76
302.979	24.96
303.446	25.46
303.913	24.16
304.379	22.26
304.846	29.56
305.313	24.06
305.78	23.66
306.246	25.56
306.713	32.36
307.18	32.36
307.646	29.76
308.113	32.66
308.579	26.36
309.046	29.36
309.512	24.66
309.979	22.36
310.445	28.06
310.912	33.26
311.378	36.16
311.845	31.76
312.311	34.46
312.777	28.96
313.244	31.66
313.71	36.26
314.176	31.46
314.642	39.46
315.109	34.16
315.575	42.06
316.041	42.76
316.507	34.26
316.973	43.76
317.439	40.26
317.905	41.46
318.371	42.36
318.837	39.16
319.303	31.16
319.769	37.56
320.235	39.26
320.701	43.76
321.167	39.06
321.633	40.16
322.099	43.86
322.564	48.66
323.03	47.06
323.496	43.76
323.962	44.76
324.427	37.46
324.893	45.16
325.359	39.36
325.824	42.76
326.29	39.06
326.755	41.96
327.221	38.76
327.686	39.86
328.152	50.26
328.617	49.36
329.083	52.76
329.548	53.76
330.014	56.36
330.479	41.16
330.944	47.96
331.41	50.96
331.875	50.46
332.34	45.76
332.805	47.56
333.271	43.86
333.736	40.96
334.201	56.16
334.666	54.56
335.131	55.26
335.596	57.76
336.061	47.66
336.526	44.76
336.991	52.06
337.456	63.66
337.921	48.76
338.386	46.16
338.851	49.66
339.316	44.36
339.781	51.56
340.246	54.26
340.711	46.26
341.175	49.46
341.64	49.26
342.105	55.36
342.569	57.96
343.034	51.36
343.499	58.76
343.963	55.86
344.428	67.26
344.893	63.56
345.357	66.06
345.822	66.96
346.286	65.96
346.751	76.46
347.215	71.56
347.679	73.66
348.144	101.86
348.608	87.96
349.073	69.86
349.537	72.76
350.001	80.86
350.465	89.06
350.93	85.26
351.394	86.86
351.858	74.36
352.322	90.86
352.786	87.46
353.25	112.16
353.715	113.26
354.179	104.86
354.643	124.36
355.107	123.46
355.571	110.46
356.035	107.26
356.498	126.26
356.962	123.26
357.426	134.76
357.89	120.26
358.354	100.06
358.818	91.76
359.281	85.26
359.745	75.46
360.209	82.06
360.673	73.86
361.136	78.86
361.6	90.96
362.064	90.86
362.527	90.96
362.991	96.56
363.454	85.26
363.918	80.66
364.381	77.06
364.845	84.96
365.308	90.86
365.772	82.26
366.235	86.96
366.698	86.96
367.162	90.46
367.625	90.26
368.088	86.56
368.552	89.46
369.015	92.16
369.478	95.16
369.941	101.46
370.404	100.56
370.867	106.76
371.331	108.66
371.794	119.66
372.257	115.26
372.72	121.86
373.183	112.66
373.646	106.86
374.109	102.76
374.572	111.06
375.035	107.86
375.497	107.96
375.96	103.16
376.423	104.86
376.886	110.16
377.349	110.26
377.811	107.96
378.274	107.76
378.737	107.06
379.199	115.96
379.662	112.06
380.125	121.76
380.587	119.16
381.05	128.36
381.512	128.46
381.975	136.56
382.437	125.96
382.9	120.46
383.362	135.06
383.825	139.06
384.287	146.86
384.75	140.86
385.212	148.26
385.674	143.26
386.136	132.36
386.599	123.66
387.061	127.06
387.523	128.56
387.985	134.96
388.447	141.16
388.91	148.76
389.372	156.86
389.834	151.56
390.296	146.76
390.758	149.26
391.22	168.56
391.682	208.36
392.144	301.46
392.606	236.26
393.068	167.96
393.529	169.26
393.991	157.66
394.453	149.86
394.915	153.66
395.377	190.56
395.838	217.56
396.3	155.46
396.762	140.66
397.224	137.96
397.685	131.56
398.147	135.66
398.608	125.46
399.07	124.86
399.531	139.66
399.993	145.96
400.454	156.76
400.916	155.56
401.377	145.66
401.839	155.66
402.3	154.36
402.762	167.76
403.223	176.96
403.684	175.26
404.145	163.26
404.607	168.76
405.068	163.86
405.529	168.16
405.99	194.66
406.451	179.76
406.913	171.56
407.374	168.16
407.835	171.16
408.296	173.86
408.757	172.56
409.218	188.86
409.679	181.46
410.14	164.76
410.601	175.26
411.062	185.56
411.522	193.36
411.983	192.66
412.444	176.86
412.905	182.36
413.366	185.76
413.826	194.46
414.287	215.06
414.748	270.06
415.208	247.76
415.669	210.06
416.13	204.26
416.59	205.56
417.051	214.96
417.511	223.66
417.972	235.06
418.432	245.26
418.893	293.16
419.353	245.66
419.814	199.56
420.274	184.86
420.734	184.36
421.195	206.36
421.655	205.06
422.115	193.96
422.576	193.36
423.036	193.26
423.496	208.86
423.956	219.16
424.416	234.96
424.876	255.46
425.336	259.96
425.797	254.16
426.257	255.16
426.717	245.96
427.177	242.06
427.637	222.56
428.097	239.86
428.556	249.16
429.016	273.46
429.476	263.86
429.936	280.16
430.396	278.56
430.856	298.86
431.315	309.86
431.775	358.26
432.235	372.56
432.694	362.36
433.154	370.76
433.614	402.06
434.073	342.26
434.533	292.66
434.993	281.36
435.452	286.96
435.912	302.06
436.371	290.96
436.83	283.46
437.29	269.96
437.749	248.26
438.209	249.96
438.668	275.46
439.127	293.26
439.587	269.96
440.046	253.16
440.505	269.16
440.964	284.26
441.424	329.96
441.883	329.96
442.342	259.56
442.801	228.86
443.26	218.36
443.719	217.56
444.178	214.76
444.637	211.96
445.096	221.16
445.555	225.06
446.014	225.26
446.473	224.16
446.932	237.86
447.391	227.26
447.849	224.46
448.308	222.16
448.767	225.16
449.226	238.96
449.685	237.16
450.143	252.16
450.602	246.36
451.061	230.36
451.519	241.06
451.978	235.86
452.436	239.16
452.895	246.96
453.353	257.86
453.812	247.16
454.27	249.06
454.729	241.16
455.187	240.76
455.646	244.76
456.104	248.86
456.562	260.26
457.021	271.86
457.479	259.26
457.937	265.66
458.395	260.66
458.854	250.56
459.312	263.46
459.77	271.76
460.228	252.96
460.686	238.26
461.144	251.16
461.602	246.16
462.06	245.46
462.518	260.06
462.976	258.36
463.434	265.56
463.892	263.46
464.35	279.06
464.808	298.26
465.266	265.76
465.724	274.36
466.181	276.86
466.639	274.26
467.097	295.96
467.555	309.46
468.012	303.06
468.47	314.56
468.928	332.56
469.385	343.86
469.843	350.86
470.3	356.66
470.758	364.36
471.215	388.56
471.673	413.56
472.13	423.26
472.588	417.56
473.045	375.36
473.503	382.66
473.96	396.66
474.417	409.36
474.875	437.76
475.332	478.56
475.789	466.66
476.246	473.56
476.704	496.96
477.161	518.26
477.618	525.36
478.075	569.86
478.532	631.86
478.989	700.76
479.446	819.26
479.903	779.66
480.36	810.46
480.817	874.76
481.274	979.16
481.731	1086.16
482.188	1174.66
482.645	1301.96
483.102	1417.86
483.558	1551.26
484.015	1615.96
484.472	1588.66
484.929	1541.86
485.385	1482.96
485.842	1447.66
486.299	1375.86
486.755	1315.96
487.212	1099.36
487.668	924.56
488.125	871.26
488.582	786.66
489.038	759.86
489.494	731.36
489.951	699.96
490.407	672.46
490.864	671.16
491.32	656.66
491.776	663.16
492.233	649.46
492.689	621.86
493.145	609.26
493.602	612.36
494.058	623.56
494.514	620.26
494.97	647.76
495.426	665.26
495.882	623.66
496.338	626.66
496.794	638.76
497.251	632.36
497.707	639.36
498.163	651.56
498.618	661.26
499.074	661.66
499.53	695.76
499.986	688.36
500.442	662.26
500.898	641.96
501.354	646.56
501.809	648.26
502.265	647.16
502.721	666.66
503.177	682.26
503.632	673.76
504.088	680.36
504.543	719.56
504.999	718.26
505.455	675.76
505.91	644.26
506.366	655.26
506.821	627.36
507.277	623.46
507.732	630.46
508.187	637.56
508.643	640.56
509.098	644.86
509.553	666.66
510.009	668.46
510.464	668.76
510.919	706.36
511.375	710.56
511.83	714.26
512.285	736.86
512.74	769.16
513.195	796.66
513.65	781.16
514.105	775.26
514.56	796.16
515.015	801.76
515.47	826.26
515.925	802.66
516.38	806.96
516.835	802.86
517.29	795.96
517.745	778.96
518.2	771.86
518.655	761.36
519.109	754.26
519.564	754.66
520.019	736.96
520.474	730.36
520.928	730.66
521.383	728.16
521.838	726.56
522.292	724.26
522.747	721.46
523.201	712.36
523.656	713.66
524.11	700.06
524.565	701.26
525.019	689.76
525.474	714.16
525.928	708.56
526.382	700.26
526.837	709.56
527.291	702.26
527.745	699.46
528.2	707.16
528.654	703.46
529.108	689.16
529.562	694.96
530.016	698.56
530.47	697.36
530.925	710.46
531.379	709.86
531.833	717.06
532.287	719.16
532.741	708.26
533.195	714.36
533.649	723.66
534.103	729.26
534.556	725.46
535.01	725.76
535.464	722.96
535.918	732.66
536.372	727.86
536.826	732.86
537.279	723.16
537.733	727.36
538.187	727.86
538.64	719.66
539.094	733.36
539.548	734.16
540.001	733.86
540.455	727.76
540.908	736.86
541.362	744.36
541.815	748.56
542.269	771.16
542.722	764.96
543.175	782.96
543.629	783.16
544.082	797.96
544.536	791.36
544.989	799.56
545.442	801.66
545.895	796.56
546.349	793.16
546.802	794.66
547.255	800.06
547.708	807.66
548.161	818.46
548.614	829.26
549.067	837.56
549.52	834.06
549.973	815.36
550.426	819.36
550.879	816.06
551.332	813.36
551.785	824.06
552.238	818.96
552.691	833.76
553.144	839.76
553.596	851.46
554.049	877.96
554.502	902.76
554.955	925.46
555.407	911.46
555.86	917.56
556.313	896.86
556.765	885.46
557.218	897.46
557.67	898.36
558.123	885.06
558.576	887.96
559.028	891.66
559.48	885.86
559.933	881.66
560.385	849.86
560.838	802.56
561.29	792.16
561.742	782.26
562.195	770.16
562.647	769.06
563.099	786.86
563.551	784.76
564.004	794.36
564.456	777.96
564.908	769.86
565.36	753.06
565.812	739.36
566.264	737.66
566.716	727.46
567.168	717.36
567.62	730.66
568.072	704.36
568.524	699.66
568.976	692.46
569.428	680.26
569.88	677.56
570.332	687.26
570.784	689.56
571.235	685.16
571.687	698.06
572.139	710.56
572.59	713.16
573.042	714.56
573.494	721.06
573.945	712.86
574.397	693.56
574.849	694.16
575.3	701.26
575.752	677.56
576.203	684.96
576.655	698.86
577.106	674.06
577.557	676.06
578.009	668.26
578.46	674.06
578.912	650.06
579.363	673.96
579.814	675.06
580.265	662.66
580.717	668.56
581.168	673.26
581.619	685.76
582.07	684.16
582.521	678.26
582.972	673.86
583.423	678.06
583.875	689.46
584.326	697.16
584.777	733.46
585.227	813.86
585.678	896.46
586.129	981.46
586.58	1057.86
587.031	1142.96
587.482	1277.96
587.933	1456.16
588.384	1269.66
588.834	967.86
589.285	803.86
589.736	772.76
590.186	769.36
590.637	757.86
591.088	743.36
591.538	745.26
591.989	729.56
592.439	724.16
592.89	723.76
593.34	704.96
593.791	710.66
594.241	700.86
594.692	713.86
595.142	698.76
595.593	697.76
596.043	705.56
596.493	716.76
596.943	710.46
597.394	723.76
597.844	703.36
598.294	720.46
598.744	753.66
599.195	765.16
599.645	805.86
600.095	850.96
600.545	906.56
600.995	955.36
601.445	1021.06
601.895	1086.76
602.345	1122.56
602.795	1104.06
603.245	1063.16
603.695	1013.06
604.145	953.46
604.594	911.96
605.044	857.36
605.494	791.46
605.944	754.16
606.393	740.16
606.843	717.36
607.293	724.06
607.743	724.56
608.192	738.06
608.642	750.56
609.091	750.96
609.541	761.46
609.99	761.66
610.44	766.46
610.889	719.76
611.339	704.76
611.788	684.26
612.238	696.06
612.687	714.16
613.136	713.26
613.586	727.56
614.035	729.26
614.484	742.06
614.933	752.26
615.383	740.66
615.832	737.56
616.281	720.56
616.73	677.86
617.179	662.16
617.628	644.16
618.077	625.96
618.526	619.86
618.975	614.96
619.424	607.36
619.873	604.66
620.322	608.66
620.771	600.56
621.22	598.36
621.669	588.16
622.118	574.86
622.567	577.16
623.015	564.96
623.464	561.96
623.913	557.66
624.361	550.26
624.81	559.06
625.259	546.76
625.707	548.76
626.156	554.46
626.604	563.46
627.053	555.76
627.501	563.76
627.95	558.26
628.398	563.76
628.847	567.56
629.295	560.56
629.744	569.66
630.192	560.56
630.64	557.86
631.089	548.16
631.537	572.36
631.985	583.66
632.433	600.16
632.881	594.76
633.33	652.46
633.778	615.36
634.226	543.56
634.674	569.86
635.122	573.66
635.57	573.86
636.018	610.46
636.466	559.96
636.914	548.56
637.362	563.36
637.81	559.56
638.258	560.96
638.705	562.66
639.153	596.66
639.601	595.06
640.049	623.36
640.497	661.86
640.944	685.86
641.392	628.76
641.84	599.46
642.287	577.16
642.735	563.56
643.182	564.96
643.63	566.36
644.078	568.16
644.525	582.26
644.973	580.66
645.42	591.86
645.867	605.86
646.315	627.96
646.762	637.96
647.21	684.56
647.657	699.66
648.104	731.56
648.551	751.66
648.999	832.46
649.446	887.16
649.893	985.86
650.34	1135.76
650.787	1351.76
651.234	1672.86
651.682	2178.96
652.129	2979.76
652.576	4313.06
653.023	6355.96
653.47	8735.86
653.917	10918.76
654.363	12688.96
654.81	14067.36
655.257	13407.26
655.704	8775.56
656.151	5181.06
656.598	3360.76
657.044	2380.26
657.491	1831.36
657.938	1463.56
658.385	1227.46
658.831	1058.16
659.278	940.66
659.724	834.96
660.171	763.26
660.618	708.46
661.064	672.36
661.511	652.86
661.957	643.56
662.404	630.96
662.85	638.16
663.296	604.76
663.743	547.36
664.189	525.56
664.635	522.16
665.082	518.36
665.528	516.16
665.974	506.66
666.42	499.86
666.867	491.26
667.313	473.36
667.759	456.76
668.205	463.16
668.651	472.76
669.097	467.76
669.543	487.96
669.989	454.66
670.435	449.06
670.881	429.46
671.327	431.96
671.773	455.26
672.219	474.16
672.665	534.66
673.11	564.36
673.556	614.36
674.002	648.86
674.448	636.86
674.893	525.96
675.339	450.66
675.785	430.06
676.23	410.06
676.676	383.26
677.122	374.36
677.567	357.76
678.013	353.76
678.458	346.36
678.904	349.36
679.349	331.06
679.794	340.66
680.24	337.46
680.685	340.46
681.131	334.86
681.576	334.76
682.021	343.26
682.466	341.76
682.912	325.16
683.357	344.46
683.802	364.76
684.247	389.56
684.692	438.26
685.137	486.96
685.583	513.36
686.028	551.76
686.473	502.06
686.918	428.96
687.363	394.76
687.807	375.96
688.252	355.76
688.697	352.86
689.142	325.06
689.587	314.96
690.032	318.76
690.477	330.16
690.921	332.56
691.366	363.26
691.811	378.96
692.255	421.46
692.7	443.66
693.145	484.66
693.589	664.86
694.034	1082.06
694.478	1476.06
694.923	1681.36
695.367	2194.66
695.812	1155.96
696.256	487.46
696.701	354.36
697.145	332.46
697.59	321.46
698.034	312.76
698.478	321.36
698.922	317.26
699.367	315.66
699.811	323.16
700.255	345.36
700.699	368.86
701.143	413.06
701.588	457.76
702.032	503.86
702.476	495.26
702.92	470.16
703.364	473.66
703.808	602.56
704.252	984.16
704.696	1401.46
705.14	1617.86
705.584	2081.06
706.027	1040.56
706.471	500.06
706.915	386.96
707.359	337.26
707.803	308.66
708.246	295.36
708.69	298.76
709.134	298.56
709.577	299.76
710.021	306.26
710.465	291.26
710.908	282.96
711.352	288.86
711.795	305.06
712.239	338.86
712.682	369.96
713.126	404.36
713.569	443.56
714.012	356.16
714.456	313.76
714.899	287.66
715.342	262.06
715.786	251.86
716.229	249.76
716.672	245.96
717.115	243.76
717.558	235.46
718.002	242.56
718.445	252.06
718.888	277.36
719.331	280.66
719.774	298.86
720.217	297.66
720.66	280.86
721.103	260.96
721.546	245.56
721.989	239.76
722.432	221.76
722.874	227.56
723.317	223.16
723.76	228.06
724.203	242.96
724.645	302.76
725.088	418.96
725.531	532.06
725.974	630.46
726.416	524.56
726.859	299.26
727.301	237.76
727.744	234.96
728.187	229.06
728.629	238.06
729.071	239.06
729.514	245.96
729.956	248.96
730.399	273.36
730.841	285.36
731.283	264.96
731.726	260.16
732.168	253.66
732.61	257.56
733.053	274.36
733.495	298.46
733.937	337.56
734.379	386.06
734.821	413.36
735.263	524.86
735.705	789.36
736.148	1486.16
736.59	2451.66
737.032	2954.06
737.474	2397.76
737.916	773.66
738.357	410.26
738.799	311.56
739.241	289.46
739.683	272.76
740.125	278.36
740.567	282.06
741.008	300.16
741.45	303.96
741.892	299.86
742.334	332.86
742.775	344.06
743.217	328.66
743.658	257.36
744.1	244.86
744.542	252.16
744.983	294.16
745.425	325.06
745.866	333.96
746.307	265.36
746.749	277.46
747.19	315.16
747.632	433.66
748.073	824.36
748.514	1753.86
748.956	2743.46
749.397	3413.46
749.838	2830.06
750.279	2888.76
750.72	1455.26
751.162	524.66
751.603	302.06
752.044	237.26
752.485	210.86
752.926	204.86
753.367	197.56
753.808	192.06
754.249	184.46
754.69	183.26
755.131	175.46
755.572	177.26
756.013	168.06
756.453	185.76
756.894	184.36
757.335	190.56
757.776	186.36
758.216	186.36
758.657	184.96
759.098	192.16
759.538	211.36
759.979	258.36
760.42	359.26
760.86	655.36
761.301	1689.16
761.741	4169.66
762.182	6212.36
762.622	4411.66
