Data from 20171114-ORNL-Ar_H_NY_Subt18_08-03-10-197.txt Node
Date: Tue Nov 14 08:03:10 EST 2017
User: Ender
Spectrometer: HR+D1039
Trigger mode: 0
Integration Time (sec): 2.730000E-2
Scans to average: 10
Electric dark correction enabled: true
Nonlinearity correction enabled: false
Boxcar width: 0
XAxis mode: Wavelengths
Number of Pixels in Spectrum: 2048
>>>>>Begin Spectral Data<<<<<
187.836	-6.09
188.309	-6.09
188.782	-6.09
189.255	0.11
189.728	-3.89
190.201	5.31
190.674	3.31
191.147	4.21
191.619	-9.19
192.092	-0.39
192.565	6.21
193.038	0.71
193.511	-4.79
193.984	0.41
194.456	1.71
194.929	2.31
195.402	4.61
195.874	-4.59
196.347	-0.89
196.82	-8.79
197.292	5.91
197.765	-1.19
198.237	-1.89
198.71	-2.79
199.182	-7.29
199.655	-2.19
200.127	-4.59
200.6	-3.79
201.072	-3.69
201.544	-5.89
202.017	-7.79
202.489	6.31
202.961	-0.79
203.433	-1.99
203.906	-1.99
204.378	-5.69
204.85	-5.89
205.322	-9.59
205.794	-2.09
206.266	-3.09
206.739	-5.49
207.211	-4.09
207.683	-9.79
208.155	-3.59
208.627	-1.39
209.099	-5.49
209.57	-12.19
210.042	-1.39
210.514	-2.99
210.986	-3.89
211.458	-3.09
211.93	4.31
212.402	2.51
212.873	-1.99
213.345	-7.79
213.817	-15.39
214.288	-1.49
214.76	-11.59
215.232	-2.79
215.703	-2.69
216.175	-2.49
216.646	-4.39
217.118	-10.49
217.589	-11.19
218.061	-0.49
218.532	-6.59
219.004	-5.79
219.475	-5.49
219.946	-8.79
220.418	-7.69
220.889	-4.89
221.36	-0.29
221.832	-2.59
222.303	-11.69
222.774	-4.89
223.245	-15.59
223.717	-8.29
224.188	-12.29
224.659	-9.59
225.13	-12.99
225.601	2.91
226.072	0.31
226.543	-7.99
227.014	-3.79
227.485	-7.49
227.956	-5.99
228.427	-6.29
228.898	1.51
229.369	-2.39
229.839	-12.79
230.31	-7.49
230.781	-3.69
231.252	-6.89
231.722	-7.79
232.193	-6.09
232.664	-6.29
233.135	-3.09
233.605	-2.79
234.076	-9.09
234.546	-7.59
235.017	-4.59
235.487	-0.99
235.958	-0.19
236.428	-5.69
236.899	-8.89
237.369	-5.39
237.84	-9.09
238.31	1.31
238.78	-4.79
239.251	-10.09
239.721	-9.69
240.191	-9.89
240.662	-9.49
241.132	-5.39
241.602	-9.79
242.072	-8.79
242.542	1.31
243.013	-10.59
243.483	0.11
243.953	-2.99
244.423	-6.89
244.893	-6.79
245.363	-8.19
245.833	-4.99
246.303	-9.59
246.773	-2.89
247.243	-6.39
247.712	-3.89
248.182	-2.99
248.652	1.11
249.122	-14.59
249.592	-11.19
250.061	3.41
250.531	0.71
251.001	-11.09
251.471	-0.49
251.94	5.81
252.41	-4.09
252.879	-7.89
253.349	2.61
253.818	-1.19
254.288	1.31
254.757	-5.39
255.227	-9.59
255.696	-8.89
256.166	1.91
256.635	-6.09
257.105	-8.89
257.574	-9.59
258.043	-4.99
258.513	-10.29
258.982	-6.59
259.451	-7.29
259.92	-5.59
260.389	-8.19
260.859	4.31
261.328	-7.29
261.797	-1.39
262.266	-6.69
262.735	4.61
263.204	-0.09
263.673	-2.29
264.142	-1.19
264.611	-15.89
265.08	-9.39
265.549	-11.09
266.018	-6.99
266.487	-17.09
266.955	-11.59
267.424	-17.69
267.893	-7.39
268.362	-10.49
268.83	-4.79
269.299	-0.19
269.768	-2.09
270.236	-5.59
270.705	-9.39
271.174	-8.49
271.642	-8.49
272.111	-6.19
272.579	-7.09
273.048	-5.49
273.516	-13.79
273.985	-3.39
274.453	-1.39
274.922	0.31
275.39	-6.79
275.858	-7.99
276.327	1.11
276.795	-1.49
277.263	-7.69
277.731	2.51
278.2	-2.69
278.668	-9.99
279.136	-4.69
279.604	-7.89
280.072	-2.89
280.54	-4.99
281.008	-10.59
281.477	-3.29
281.945	-8.09
282.413	-5.49
282.881	0.31
283.348	-10.59
283.816	-3.49
284.284	-3.49
284.752	1.91
285.22	-13.49
285.688	-2.19
286.156	-5.39
286.623	-2.69
287.091	-6.39
287.559	-7.79
288.026	-2.79
288.494	-2.69
288.962	-9.69
289.429	-11.89
289.897	-1.49
290.364	-2.49
290.832	-0.89
291.3	-6.89
291.767	-3.89
292.234	-6.79
292.702	-11.29
293.169	-6.19
293.637	-1.19
294.104	-0.09
294.571	-10.89
295.039	-8.89
295.506	-13.89
295.973	-2.39
296.44	-7.89
296.908	-13.69
297.375	-4.09
297.842	-8.69
298.309	-0.69
298.776	-13.09
299.243	-2.89
299.71	-13.59
300.177	1.21
300.644	-5.69
301.111	-2.69
301.578	-6.59
302.045	-10.59
302.512	-8.19
302.979	-3.09
303.446	-5.49
303.913	-6.79
304.379	-8.49
304.846	3.51
305.313	-5.89
305.78	-6.29
306.246	-8.49
306.713	-5.29
307.18	-5.89
307.646	-2.29
308.113	-7.89
308.579	-6.69
309.046	-4.49
309.512	-11.69
309.979	-16.69
310.445	-2.59
310.912	0.01
311.378	3.31
311.845	-2.49
312.311	0.81
312.777	-1.99
313.244	-3.89
313.71	1.81
314.176	-5.89
314.642	-6.69
315.109	-6.39
315.575	-7.99
316.041	-1.99
316.507	-8.49
316.973	-1.09
317.439	-3.69
317.905	1.91
318.371	2.01
318.837	-0.99
319.303	-2.69
319.769	-4.79
320.235	-5.69
320.701	-8.29
321.167	-4.39
321.633	-16.59
322.099	-3.89
322.564	1.81
323.03	-0.99
323.496	-3.89
323.962	0.61
324.427	-1.79
324.893	1.31
325.359	0.31
325.824	-3.89
326.29	-4.49
326.755	-6.19
327.221	-5.39
327.686	-6.19
328.152	0.51
328.617	-6.09
329.083	-1.89
329.548	1.01
330.014	-6.09
330.479	-9.89
330.944	-9.39
331.41	-10.79
331.875	-0.79
332.34	-4.59
332.805	-4.49
333.271	-4.39
333.736	-9.49
334.201	-9.09
334.666	-0.09
335.131	-2.59
335.596	1.31
336.061	-0.69
336.526	-12.79
336.991	-3.39
337.456	1.91
337.921	-3.49
338.386	-11.19
338.851	-8.09
339.316	-3.39
339.781	0.21
340.246	2.81
340.711	-3.69
341.175	-0.79
341.64	-2.99
342.105	-2.19
342.569	-5.09
343.034	-6.89
343.499	-10.29
343.963	-3.69
344.428	1.81
344.893	-2.89
345.357	-5.19
345.822	-2.89
346.286	-7.99
346.751	-4.29
347.215	-6.29
347.679	-9.79
348.144	-3.59
348.608	2.11
349.073	-4.39
349.537	-3.99
350.001	-9.69
350.465	7.81
350.93	-4.79
351.394	-5.89
351.858	-11.19
352.322	9.11
352.786	-5.69
353.25	0.51
353.715	-2.29
354.179	-4.59
354.643	1.11
355.107	-7.79
355.571	-0.29
356.035	-7.19
356.498	-3.39
356.962	-7.29
357.426	-0.59
357.89	-1.59
358.354	-5.99
358.818	1.41
359.281	-8.09
359.745	-5.79
360.209	-8.89
360.673	-4.39
361.136	-6.99
361.6	0.01
362.064	-4.99
362.527	-3.69
362.991	2.11
363.454	-12.09
363.918	-12.39
364.381	-15.19
364.845	-6.79
365.308	-4.59
365.772	-4.59
366.235	-7.19
366.698	-7.89
367.162	-10.69
367.625	-14.99
368.088	-7.69
368.552	-9.39
369.015	-2.99
369.478	2.41
369.941	8.81
370.404	-6.09
370.867	-0.29
371.331	-8.29
371.794	-6.29
372.257	-9.99
372.72	0.91
373.183	1.11
373.646	-9.59
374.109	-6.89
374.572	-7.89
375.035	-4.19
375.497	-9.09
375.96	3.51
376.423	-10.69
376.886	-5.49
377.349	-4.29
377.811	-9.69
378.274	-2.99
378.737	-9.39
379.199	-6.19
379.662	-5.29
380.125	-3.39
380.587	-13.29
381.05	-9.89
381.512	-3.09
381.975	1.01
382.437	-1.89
382.9	-10.89
383.362	-6.39
383.825	-7.79
384.287	-9.09
384.75	-8.29
385.212	1.01
385.674	-7.69
386.136	-3.09
386.599	-3.99
387.061	-3.49
387.523	-5.69
387.985	-5.49
388.447	4.51
388.91	-4.99
389.372	-2.69
389.834	-0.49
390.296	-4.89
390.758	-1.29
391.22	-3.79
391.682	-4.49
392.144	-1.19
392.606	1.11
393.068	-5.69
393.529	3.21
393.991	-8.89
394.453	-8.49
394.915	-4.19
395.377	-2.99
395.838	1.21
396.3	-3.89
396.762	-0.59
397.224	-4.99
397.685	-0.39
398.147	-4.09
398.608	-8.09
399.07	-5.79
399.531	-4.59
399.993	0.11
400.454	2.81
400.916	0.81
401.377	-1.39
401.839	-3.49
402.3	-11.09
402.762	-4.69
403.223	-4.59
403.684	-3.89
404.145	-7.39
404.607	-6.69
405.068	1.11
405.529	-11.99
405.99	-7.79
406.451	-13.69
406.913	0.31
407.374	-4.19
407.835	-3.79
408.296	-0.69
408.757	-6.89
409.218	-3.19
409.679	-7.39
410.14	3.41
410.601	-2.69
411.062	3.71
411.522	-3.99
411.983	-11.99
412.444	-10.09
412.905	-4.99
413.366	-9.09
413.826	-8.49
414.287	-0.09
414.748	-6.19
415.208	-3.19
415.669	-4.09
416.13	-2.89
416.59	-9.09
417.051	0.11
417.511	-0.39
417.972	-7.89
418.432	-4.19
418.893	4.11
419.353	0.71
419.814	3.61
420.274	2.01
420.734	-5.19
421.195	-7.39
421.655	-6.59
422.115	-5.39
422.576	-1.39
423.036	0.81
423.496	-2.69
423.956	-3.19
424.416	-5.69
424.876	-2.79
425.336	-7.49
425.797	-4.99
426.257	-2.49
426.717	-4.49
427.177	4.31
427.637	-3.79
428.097	-3.09
428.556	-14.99
429.016	-4.29
429.476	-12.19
429.936	-0.29
430.396	-7.59
430.856	-1.59
431.315	0.51
431.775	-2.79
432.235	-2.59
432.694	-10.29
433.154	1.51
433.614	-2.49
434.073	-1.59
434.533	-0.29
434.993	-6.39
435.452	-2.59
435.912	-2.49
436.371	-3.19
436.83	-2.39
437.29	5.61
437.749	-6.99
438.209	-8.39
438.668	-2.09
439.127	1.41
439.587	1.81
440.046	-2.19
440.505	-5.69
440.964	-4.59
441.424	-3.09
441.883	-7.89
442.342	-1.69
442.801	-8.89
443.26	-4.89
443.719	1.51
444.178	-2.19
444.637	-15.29
445.096	-3.59
445.555	-1.79
446.014	-5.29
446.473	-2.99
446.932	-2.39
447.391	-4.79
447.849	-1.29
448.308	-9.39
448.767	-7.09
449.226	-6.09
449.685	-2.59
450.143	2.81
450.602	-6.69
451.061	-9.49
451.519	-7.89
451.978	-7.49
452.436	-2.09
452.895	-11.39
453.353	-0.99
453.812	-7.59
454.27	3.01
454.729	2.01
455.187	-3.49
455.646	1.11
456.104	-6.59
456.562	-5.29
457.021	-9.09
457.479	0.61
457.937	-10.59
458.395	-1.79
458.854	-7.49
459.312	-1.69
459.77	-9.19
460.228	-6.39
460.686	-9.59
461.144	1.81
461.602	-1.99
462.06	-7.49
462.518	0.61
462.976	-2.89
463.434	-10.49
463.892	-3.19
464.35	-4.29
464.808	-0.79
465.266	-4.19
465.724	-5.49
466.181	-1.69
466.639	2.31
467.097	-3.79
467.555	-4.29
468.012	-0.99
468.47	0.51
468.928	0.71
469.385	4.91
469.843	-3.09
470.3	-4.89
470.758	-0.49
471.215	-7.99
471.673	-1.59
472.13	-3.39
472.588	-5.29
473.045	-4.39
473.503	3.61
473.96	-6.49
474.417	-5.69
474.875	-0.19
475.332	3.81
475.789	0.41
476.246	-5.39
476.704	-4.59
477.161	-10.29
477.618	-13.79
478.075	0.41
478.532	-1.39
478.989	-3.69
479.446	-5.19
479.903	8.71
480.36	3.31
480.817	-8.69
481.274	-3.39
481.731	-4.09
482.188	-4.89
482.645	-4.89
483.102	1.31
483.558	-8.09
484.015	-0.19
484.472	-2.29
484.929	-2.39
485.385	-2.89
485.842	-0.49
486.299	-6.49
486.755	4.31
487.212	-4.79
487.668	-11.69
488.125	-2.09
488.582	-3.89
489.038	4.41
489.494	-4.99
489.951	-9.19
490.407	5.01
490.864	-4.59
491.32	0.51
491.776	-4.59
492.233	-2.99
492.689	-14.99
493.145	-8.29
493.602	-2.69
494.058	-4.29
494.514	1.91
494.97	4.31
495.426	-4.79
495.882	-7.59
496.338	-1.69
496.794	0.71
497.251	-5.09
497.707	-1.49
498.163	-5.99
498.618	-3.09
499.074	-0.39
499.53	0.61
499.986	-8.09
500.442	-8.99
500.898	-6.19
501.354	-8.09
501.809	-2.29
502.265	-1.29
502.721	3.01
503.177	0.51
503.632	-0.39
504.088	0.21
504.543	4.31
504.999	-8.19
505.455	-10.79
505.91	-9.79
506.366	0.01
506.821	-7.69
507.277	-6.39
507.732	-9.49
508.187	-11.49
508.643	-5.09
509.098	-9.29
509.553	1.31
510.009	-1.09
510.464	-5.49
510.919	-5.39
511.375	-5.09
511.83	-6.09
512.285	-4.69
512.74	0.91
513.195	2.61
513.65	-3.89
514.105	-1.99
514.56	-6.99
515.015	0.61
515.47	2.31
515.925	-7.19
516.38	0.21
516.835	6.31
517.29	-1.39
517.745	2.31
518.2	-2.79
518.655	-5.59
519.109	-0.59
519.564	3.31
520.019	-3.79
520.474	-15.59
520.928	-5.09
521.383	-6.29
521.838	-5.99
522.292	-6.49
522.747	5.51
523.201	-1.19
523.656	0.21
524.11	1.51
524.565	-2.29
525.019	-10.89
525.474	-6.39
525.928	-4.69
526.382	-8.69
526.837	-0.69
527.291	-0.79
527.745	-2.09
528.2	-1.99
528.654	-10.29
529.108	-10.29
529.562	-7.99
530.016	-8.49
530.47	-6.69
530.925	-5.79
531.379	-3.79
531.833	-5.19
532.287	-4.39
532.741	-6.09
533.195	-4.19
533.649	-6.89
534.103	3.71
534.556	-12.69
535.01	-5.29
535.464	-4.69
535.918	-0.79
536.372	-3.39
536.826	-1.79
537.279	-6.69
537.733	-7.69
538.187	-6.09
538.64	-7.89
539.094	-8.29
539.548	-8.09
540.001	-4.89
540.455	-10.29
540.908	-2.89
541.362	-6.09
541.815	-5.59
542.269	5.21
542.722	-5.89
543.175	-5.99
543.629	-6.19
544.082	2.61
544.536	-10.79
544.989	-5.29
545.442	-4.29
545.895	-1.39
546.349	-6.19
546.802	-11.09
547.255	-1.59
547.708	-8.29
548.161	-8.29
548.614	-13.29
549.067	0.11
549.52	-1.39
549.973	5.31
550.426	-5.79
550.879	-8.19
551.332	-5.19
551.785	-3.09
552.238	-7.89
552.691	-5.69
553.144	1.11
553.596	-7.89
554.049	-11.59
554.502	-3.59
554.955	-8.49
555.407	-6.69
555.86	-9.99
556.313	-6.19
556.765	-5.69
557.218	3.21
557.67	-3.49
558.123	-11.69
558.576	-7.69
559.028	-3.99
559.48	-1.29
559.933	-3.39
560.385	-5.19
560.838	-1.69
561.29	-8.99
561.742	-3.79
562.195	-4.49
562.647	-6.39
563.099	3.51
563.551	-0.49
564.004	0.31
564.456	-5.69
564.908	-1.29
565.36	-4.49
565.812	-7.59
566.264	-8.79
566.716	-1.09
567.168	-2.59
567.62	-2.79
568.072	-10.59
568.524	-2.79
568.976	-2.79
569.428	2.21
569.88	-8.49
570.332	-8.19
570.784	-4.69
571.235	-7.59
571.687	-10.19
572.139	-4.49
572.59	2.31
573.042	-7.89
573.494	-6.99
573.945	-2.79
574.397	-6.79
574.849	-5.49
575.3	-4.89
575.752	-3.39
576.203	-0.59
576.655	-7.29
577.106	-8.09
577.557	-8.79
578.009	-3.19
578.46	-6.29
578.912	-1.89
579.363	-6.29
579.814	-7.19
580.265	-9.89
580.717	-11.59
581.168	-7.39
581.619	-1.99
582.07	-4.29
582.521	-3.29
582.972	-13.49
583.423	-5.89
583.875	-6.89
584.326	-5.09
584.777	-5.99
585.227	0.61
585.678	-5.99
586.129	-7.99
586.58	-1.39
587.031	-4.69
587.482	-1.99
587.933	-3.69
588.384	-5.49
588.834	-5.79
589.285	-4.39
589.736	2.41
590.186	-4.19
590.637	0.11
591.088	-6.79
591.538	-1.89
591.989	0.91
592.439	3.51
592.89	2.71
593.34	-4.09
593.791	-8.29
594.241	-9.39
594.692	-1.59
595.142	-9.09
595.593	-8.09
596.043	-5.39
596.493	-5.49
596.943	-3.09
597.394	-4.59
597.844	-10.29
598.294	-10.69
598.744	-0.09
599.195	-8.09
599.645	-4.29
600.095	-8.79
600.545	-6.69
600.995	-10.89
601.445	-0.39
601.895	-11.69
602.345	-1.39
602.795	-5.79
603.245	-9.69
603.695	-4.79
604.145	-9.89
604.594	-5.69
605.044	-5.29
605.494	-8.49
605.944	-6.69
606.393	-5.19
606.843	-2.49
607.293	2.01
607.743	-8.79
608.192	-7.99
608.642	-6.69
609.091	-8.19
609.541	1.91
609.99	-3.69
610.44	6.51
610.889	-4.49
611.339	-12.69
611.788	-10.99
612.238	-3.29
612.687	-0.29
613.136	0.41
613.586	-3.89
614.035	-7.69
614.484	-10.69
614.933	-13.79
615.383	-6.99
615.832	-3.59
616.281	1.21
616.73	1.61
617.179	-2.99
617.628	1.11
618.077	-2.49
618.526	-5.99
618.975	0.01
619.424	-2.59
619.873	-7.59
620.322	-3.49
620.771	-3.59
621.22	-1.19
621.669	0.91
622.118	-6.79
622.567	-5.99
623.015	-11.99
623.464	-3.39
623.913	-5.19
624.361	-9.69
624.81	-9.09
625.259	-5.09
625.707	-0.89
626.156	-9.09
626.604	1.01
627.053	-6.49
627.501	-9.49
627.95	-7.29
628.398	-12.39
628.847	-10.69
629.295	-6.19
629.744	-4.59
630.192	4.81
630.64	0.11
631.089	-7.59
631.537	-9.29
631.985	-2.39
632.433	-3.19
632.881	-1.79
633.33	-2.89
633.778	-8.49
634.226	-6.79
634.674	-3.19
635.122	-4.19
635.57	-7.19
636.018	-6.09
636.466	-1.69
636.914	-5.49
637.362	-3.59
637.81	0.61
638.258	0.11
638.705	-12.99
639.153	-1.29
639.601	-9.19
640.049	-13.19
640.497	-7.29
640.944	1.71
641.392	-10.29
641.84	-5.59
642.287	-10.59
642.735	-12.79
643.182	-4.09
643.63	-5.09
644.078	-12.59
644.525	-1.89
644.973	-3.39
645.42	-8.99
645.867	-7.39
646.315	-1.19
646.762	-7.89
647.21	-1.69
647.657	-11.89
648.104	-1.09
648.551	-1.89
648.999	-3.69
649.446	-1.49
649.893	-5.89
650.34	-3.79
650.787	-11.09
651.234	3.01
651.682	-6.19
652.129	-5.99
652.576	-13.69
653.023	1.31
653.47	8.21
653.917	-5.79
654.363	-2.49
654.81	-1.99
655.257	-10.79
655.704	-2.79
656.151	-7.49
656.598	-4.09
657.044	-2.89
657.491	-4.09
657.938	-5.69
658.385	-2.39
658.831	-4.49
659.278	0.11
659.724	-9.29
660.171	3.41
660.618	-1.19
661.064	0.71
661.511	-3.19
661.957	1.21
662.404	-7.59
662.85	4.61
663.296	-4.89
663.743	-2.99
664.189	-4.49
664.635	-1.69
665.082	-3.49
665.528	-2.69
665.974	-1.99
666.42	-11.29
666.867	5.11
667.313	-6.19
667.759	5.31
668.205	-1.39
668.651	1.91
669.097	-7.79
669.543	-13.29
669.989	-7.49
670.435	-8.29
670.881	-6.39
671.327	-4.09
671.773	-0.69
672.219	-2.99
672.665	-1.59
673.11	-8.69
673.556	-8.89
674.002	-3.69
674.448	-12.59
674.893	0.11
675.339	-5.19
675.785	1.31
676.23	-5.09
676.676	-7.59
677.122	-5.59
677.567	-0.89
678.013	1.91
678.458	-4.09
678.904	-1.39
679.349	-9.19
679.794	-1.99
680.24	-0.29
680.685	-2.99
681.131	-11.59
681.576	-3.99
682.021	-3.89
682.466	-9.49
682.912	-7.89
683.357	-12.09
683.802	-2.19
684.247	-5.69
684.692	-3.59
685.137	-9.39
685.583	-3.79
686.028	-4.79
686.473	-3.49
686.918	-3.99
687.363	-6.09
687.807	-3.89
688.252	-6.99
688.697	-2.39
689.142	-0.79
689.587	-4.59
690.032	-9.99
690.477	-6.79
690.921	-8.99
691.366	2.91
691.811	-3.69
692.255	-3.79
692.7	1.91
693.145	0.41
693.589	-3.99
694.034	0.31
694.478	1.61
694.923	5.51
695.367	-2.49
695.812	0.21
696.256	-0.29
696.701	-2.19
697.145	-1.19
697.59	-7.49
698.034	-5.49
698.478	-1.69
698.922	-4.19
699.367	-1.19
699.811	-5.59
700.255	1.11
700.699	-0.49
701.143	-9.59
701.588	-7.39
702.032	-7.19
702.476	-3.39
702.92	-2.59
703.364	-4.69
703.808	0.01
704.252	-0.19
704.696	-9.09
705.14	-9.79
705.584	-2.19
706.027	-1.49
706.471	-7.79
706.915	-6.79
707.359	-10.39
707.803	-13.79
708.246	-8.19
708.69	0.41
709.134	1.41
709.577	-1.09
710.021	3.41
710.465	-3.89
710.908	-3.99
711.352	-3.59
711.795	-4.99
712.239	-1.49
712.682	-10.39
713.126	-10.19
713.569	-4.69
714.012	0.71
714.456	-4.39
714.899	-0.69
715.342	-9.59
715.786	-8.19
716.229	-1.89
716.672	2.11
717.115	-3.49
717.558	-3.59
718.002	-6.79
718.445	-4.99
718.888	2.01
719.331	-0.99
719.774	-3.09
720.217	-3.49
720.66	-4.39
721.103	-7.19
721.546	-0.49
721.989	0.21
722.432	-9.89
722.874	-1.49
723.317	-10.99
723.76	-12.49
724.203	-0.59
724.645	4.51
725.088	1.01
725.531	-6.59
725.974	-13.69
726.416	-7.59
726.859	-7.19
727.301	-8.99
727.744	-2.09
728.187	-6.79
728.629	-0.29
729.071	-3.79
729.514	2.11
729.956	-3.79
730.399	-6.79
730.841	-2.99
731.283	-5.79
731.726	-3.59
732.168	-0.79
732.61	-9.39
733.053	-4.69
733.495	-9.79
733.937	-11.59
734.379	-9.19
734.821	-11.29
735.263	-2.59
735.705	-5.39
736.148	-4.69
736.59	-2.09
737.032	-10.19
737.474	-6.19
737.916	-8.99
738.357	-7.29
738.799	-4.79
739.241	-4.49
739.683	-6.89
740.125	1.11
740.567	-1.89
741.008	-2.89
741.45	4.51
741.892	2.41
742.334	-2.59
742.775	-3.69
743.217	-0.69
743.658	-8.29
744.1	-8.19
744.542	-13.39
744.983	-4.29
745.425	-6.59
745.866	-7.69
746.307	4.61
746.749	-5.09
747.19	-4.69
747.632	-6.69
748.073	-10.39
748.514	-9.69
748.956	-7.09
749.397	-6.59
749.838	0.81
750.279	-4.79
750.72	-5.29
751.162	2.01
751.603	-8.29
752.044	-2.39
752.485	-14.59
752.926	-5.59
753.367	-2.49
753.808	-7.09
754.249	-5.19
754.69	-8.89
755.131	-5.59
755.572	-0.19
756.013	-5.89
756.453	-2.19
756.894	-0.59
757.335	-9.29
757.776	-3.49
758.216	-2.29
758.657	-4.19
759.098	-7.69
759.538	-7.29
759.979	-5.39
760.42	-12.49
760.86	-13.39
761.301	-0.99
761.741	-7.19
762.182	-3.89
762.622	-2.59
763.063	-7.09
763.503	-11.09
763.943	-7.79
764.384	-2.99
764.824	-3.59
765.264	-4.89
765.705	-1.59
766.145	-10.79
766.585	-13.89
767.025	-7.99
767.465	-13.99
767.906	-2.09
768.346	3.31
768.786	-3.09
769.226	-3.69
769.666	-1.09
770.106	-9.89
770.546	-7.19
770.986	-8.59
771.426	-6.39
771.866	-2.89
772.306	-4.99
772.745	-3.29
773.185	-11.69
773.625	-3.89
774.065	-6.69
774.505	-4.99
774.944	-1.39
775.384	-11.09
775.824	-5.39
776.263	-4.89
776.703	-7.19
777.142	0.51
777.582	-3.89
778.021	-7.19
778.461	-4.09
778.9	1.31
779.34	-1.59
779.779	-9.69
780.219	-12.29
780.658	-10.09
781.097	-4.29
781.537	2.21
781.976	-8.99
782.415	-4.09
782.855	-10.79
783.294	-9.89
783.733	-2.09
784.172	-2.89
784.611	-10.09
785.05	-3.79
785.489	-5.49
785.928	-2.99
786.367	-2.49
786.806	-4.29
787.245	-6.79
787.684	-5.19
788.123	4.01
788.562	-6.99
789.001	-5.39
789.44	-4.89
789.879	-6.29
790.317	-7.79
