Data from 20171114-ORNL-Ar_H_NY_Subt18_08-06-52-399.txt Node
Date: Tue Nov 14 08:06:52 EST 2017
User: Ender
Spectrometer: HR+D1039
Trigger mode: 0
Integration Time (sec): 2.730000E-2
Scans to average: 10
Electric dark correction enabled: true
Nonlinearity correction enabled: false
Boxcar width: 0
XAxis mode: Wavelengths
Number of Pixels in Spectrum: 2048
>>>>>Begin Spectral Data<<<<<
187.836	-7.78
188.309	-7.78
188.782	-7.78
189.255	0.92
189.728	-4.48
190.201	5.82
190.674	3.12
191.147	1.52
191.619	-3.68
192.092	3.22
192.565	4.62
193.038	-1.68
193.511	-0.28
193.984	4.72
194.456	-0.98
194.929	-3.38
195.402	-2.18
195.874	0.42
196.347	-4.88
196.82	-11.58
197.292	2.02
197.765	-1.78
198.237	-6.78
198.71	8.92
199.182	-4.78
199.655	4.62
200.127	5.62
200.6	-3.78
201.072	-2.98
201.544	-5.28
202.017	1.32
202.489	2.42
202.961	-6.98
203.433	-7.08
203.906	-5.68
204.378	-5.78
204.85	-6.48
205.322	-6.58
205.794	-2.08
206.266	-5.68
206.739	-11.08
207.211	-0.68
207.683	-13.08
208.155	-5.38
208.627	-11.08
209.099	-0.38
209.57	-6.18
210.042	-10.08
210.514	-6.08
210.986	-4.68
211.458	-12.18
211.93	-3.88
212.402	2.62
212.873	-7.68
213.345	-5.28
213.817	-12.38
214.288	-4.38
214.76	-7.08
215.232	-5.58
215.703	-3.98
216.175	-0.78
216.646	-2.38
217.118	-8.38
217.589	-8.58
218.061	3.22
218.532	-6.48
219.004	-4.08
219.475	-7.08
219.946	-6.58
220.418	-9.18
220.889	-2.38
221.36	1.52
221.832	-4.28
222.303	-4.88
222.774	1.12
223.245	-6.98
223.717	-9.98
224.188	-10.28
224.659	-9.38
225.13	-5.38
225.601	-2.88
226.072	-0.68
226.543	1.62
227.014	-9.48
227.485	-3.88
227.956	-3.18
228.427	-2.18
228.898	2.32
229.369	6.12
229.839	-6.48
230.31	-7.78
230.781	-4.58
231.252	-2.08
231.722	-0.28
232.193	0.42
232.664	-1.68
233.135	-8.48
233.605	-7.18
234.076	-9.18
234.546	-5.38
235.017	0.82
235.487	-5.38
235.958	-7.58
236.428	-4.28
236.899	-2.28
237.369	-8.08
237.84	-0.28
238.31	-3.58
238.78	-2.28
239.251	-10.48
239.721	-8.08
240.191	-3.48
240.662	-4.48
241.132	0.52
241.602	-5.68
242.072	-8.08
242.542	1.42
243.013	-4.28
243.483	-0.08
243.953	-2.28
244.423	3.02
244.893	-7.28
245.363	-4.18
245.833	7.02
246.303	-6.68
246.773	-0.98
247.243	0.32
247.712	-2.78
248.182	0.42
248.652	1.02
249.122	-9.38
249.592	0.82
250.061	4.22
250.531	8.02
251.001	-2.28
251.471	7.32
251.94	1.32
252.41	-7.88
252.879	-11.78
253.349	5.82
253.818	10.12
254.288	1.72
254.757	0.62
255.227	-0.88
255.696	-0.88
256.166	3.12
256.635	2.12
257.105	1.22
257.574	-4.98
258.043	-2.88
258.513	-12.38
258.982	9.22
259.451	-3.48
259.92	7.12
260.389	1.62
260.859	5.62
261.328	1.52
261.797	0.62
262.266	0.52
262.735	6.12
263.204	2.22
263.673	-4.88
264.142	4.02
264.611	-3.58
265.08	-2.18
265.549	-0.18
266.018	5.62
266.487	-8.48
266.955	-5.38
267.424	-1.88
267.893	9.22
268.362	6.22
268.83	5.12
269.299	-1.08
269.768	-3.08
270.236	4.02
270.705	1.82
271.174	0.72
271.642	3.12
272.111	5.32
272.579	0.62
273.048	2.52
273.516	3.52
273.985	3.62
274.453	9.42
274.922	12.52
275.39	3.02
275.858	-1.28
276.327	7.52
276.795	13.22
277.263	4.82
277.731	10.72
278.2	11.52
278.668	0.52
279.136	9.92
279.604	3.32
280.072	6.52
280.54	4.72
281.008	4.32
281.477	6.32
281.945	7.82
282.413	6.62
282.881	11.32
283.348	-0.28
283.816	13.92
284.284	11.42
284.752	19.92
285.22	12.72
285.688	7.62
286.156	11.22
286.623	18.32
287.091	9.92
287.559	13.72
288.026	14.52
288.494	11.22
288.962	0.02
289.429	11.32
289.897	15.82
290.364	12.42
290.832	14.82
291.3	12.42
291.767	14.92
292.234	13.22
292.702	10.22
293.169	9.32
293.637	20.52
294.104	15.22
294.571	1.82
295.039	12.12
295.506	11.92
295.973	15.42
296.44	11.52
296.908	13.12
297.375	9.72
297.842	13.32
298.309	11.92
298.776	12.72
299.243	13.22
299.71	7.82
300.177	13.12
300.644	14.72
301.111	10.62
301.578	20.72
302.045	15.62
302.512	20.52
302.979	21.42
303.446	21.32
303.913	16.22
304.379	15.22
304.846	25.52
305.313	18.02
305.78	18.52
306.246	19.62
306.713	19.72
307.18	24.72
307.646	20.12
308.113	26.92
308.579	16.02
309.046	16.42
309.512	26.72
309.979	13.42
310.445	25.12
310.912	25.92
311.378	22.42
311.845	24.32
312.311	27.52
312.777	30.22
313.244	20.92
313.71	35.12
314.176	27.32
314.642	29.92
315.109	22.62
315.575	32.72
316.041	31.52
316.507	28.82
316.973	32.72
317.439	26.42
317.905	24.52
318.371	28.32
318.837	32.22
319.303	31.02
319.769	31.72
320.235	26.02
320.701	32.72
321.167	26.62
321.633	32.52
322.099	33.72
322.564	41.32
323.03	32.32
323.496	34.82
323.962	37.02
324.427	28.72
324.893	40.52
325.359	29.92
325.824	32.22
326.29	30.02
326.755	31.22
327.221	33.22
327.686	33.72
328.152	36.22
328.617	39.62
329.083	43.02
329.548	47.22
330.014	45.12
330.479	37.82
330.944	40.22
331.41	40.52
331.875	43.02
332.34	44.92
332.805	36.92
333.271	42.52
333.736	36.72
334.201	45.32
334.666	45.72
335.131	47.82
335.596	44.02
336.061	52.22
336.526	38.32
336.991	44.42
337.456	53.02
337.921	46.02
338.386	43.72
338.851	38.02
339.316	43.92
339.781	45.12
340.246	42.32
340.711	48.12
341.175	46.32
341.64	40.22
342.105	47.82
342.569	50.52
343.034	50.52
343.499	47.92
343.963	45.22
344.428	60.42
344.893	62.12
345.357	58.62
345.822	60.22
346.286	60.22
346.751	70.12
347.215	62.42
347.679	61.32
348.144	88.12
348.608	77.22
349.073	63.12
349.537	70.82
350.001	65.32
350.465	84.02
350.93	74.32
351.394	73.22
351.858	68.52
352.322	78.62
352.786	74.22
353.25	94.42
353.715	98.92
354.179	91.82
354.643	107.92
355.107	113.22
355.571	92.12
356.035	91.32
356.498	104.72
356.962	107.52
357.426	111.32
357.89	101.22
358.354	86.12
358.818	75.22
359.281	75.82
359.745	72.42
360.209	70.82
360.673	74.52
361.136	71.72
361.6	83.92
362.064	75.82
362.527	81.42
362.991	84.92
363.454	75.52
363.918	70.02
364.381	71.12
364.845	76.22
365.308	78.32
365.772	76.22
366.235	80.32
366.698	79.22
367.162	79.52
367.625	79.72
368.088	78.32
368.552	81.02
369.015	87.42
369.478	88.52
369.941	96.42
370.404	94.72
370.867	97.82
371.331	94.02
371.794	101.82
372.257	87.32
372.72	101.32
373.183	93.52
373.646	89.62
374.109	94.32
374.572	97.22
375.035	100.52
375.497	96.12
375.96	100.22
376.423	106.52
376.886	108.52
377.349	107.12
377.811	102.72
378.274	102.72
378.737	97.32
379.199	110.42
379.662	102.22
380.125	104.62
380.587	106.12
381.05	101.22
381.512	115.72
381.975	124.02
382.437	118.02
382.9	111.02
383.362	121.52
383.825	121.22
384.287	120.72
384.75	117.92
385.212	128.22
385.674	127.82
386.136	127.62
386.599	125.92
387.061	114.92
387.523	112.02
387.985	124.32
388.447	128.72
388.91	121.52
389.372	131.22
389.834	130.32
390.296	120.52
390.758	127.82
391.22	129.82
391.682	138.92
392.144	145.22
392.606	138.72
393.068	140.32
393.529	149.02
393.991	134.72
394.453	129.62
394.915	130.32
395.377	135.92
395.838	140.92
396.3	133.92
396.762	141.22
397.224	129.52
397.685	128.32
398.147	137.72
398.608	124.12
399.07	131.12
399.531	143.02
399.993	149.82
400.454	157.72
400.916	145.12
401.377	147.62
401.839	150.92
402.3	157.32
402.762	163.52
403.223	170.82
403.684	163.62
404.145	164.02
404.607	167.22
405.068	158.22
405.529	162.92
405.99	189.12
406.451	179.92
406.913	178.62
407.374	168.42
407.835	165.02
408.296	170.12
408.757	167.32
409.218	186.32
409.679	172.92
410.14	172.22
410.601	172.32
411.062	183.82
411.522	174.92
411.983	177.32
412.444	172.32
412.905	181.82
413.366	186.32
413.826	192.02
414.287	229.32
414.748	268.52
415.208	251.02
415.669	218.32
416.13	210.32
416.59	206.42
417.051	222.82
417.511	225.72
417.972	248.12
418.432	257.42
418.893	289.22
419.353	261.42
419.814	206.72
420.274	187.92
420.734	192.02
421.195	200.12
421.655	192.52
422.115	194.82
422.576	205.72
423.036	205.82
423.496	209.72
423.956	218.32
424.416	238.72
424.876	276.52
425.336	268.42
425.797	276.72
426.257	265.22
426.717	242.52
427.177	236.92
427.637	223.52
428.097	241.62
428.556	252.92
429.016	272.02
429.476	264.12
429.936	280.52
430.396	278.42
430.856	299.82
431.315	317.52
431.775	345.22
432.235	384.72
432.694	353.42
433.154	356.92
433.614	385.22
434.073	340.32
434.533	292.62
434.993	275.12
435.452	284.52
435.912	296.92
436.371	293.82
436.83	285.62
437.29	263.92
437.749	253.02
438.209	258.02
438.668	275.02
439.127	296.92
439.587	275.12
440.046	249.92
440.505	266.72
440.964	286.22
441.424	325.32
441.883	318.12
442.342	272.02
442.801	232.72
443.26	234.22
443.719	239.42
444.178	231.72
444.637	214.92
445.096	226.72
445.555	232.02
446.014	235.12
446.473	239.82
446.932	250.52
447.391	242.02
447.849	244.52
448.308	232.62
448.767	232.82
449.226	252.02
449.685	249.62
450.143	263.12
450.602	254.22
451.061	243.92
451.519	254.92
451.978	249.92
452.436	248.12
452.895	249.72
453.353	263.12
453.812	252.52
454.27	252.22
454.729	257.42
455.187	254.02
455.646	261.12
456.104	256.52
456.562	278.62
457.021	285.02
457.479	277.42
457.937	289.82
458.395	273.22
458.854	260.62
459.312	268.22
459.77	286.02
460.228	269.22
460.686	259.82
461.144	267.42
461.602	265.42
462.06	260.52
462.518	269.22
462.976	273.62
463.434	269.82
463.892	277.42
464.35	287.72
464.808	300.32
465.266	288.82
465.724	285.02
466.181	283.92
466.639	293.12
467.097	309.42
467.555	327.72
468.012	323.52
468.47	321.62
468.928	346.62
469.385	362.42
469.843	365.52
470.3	361.72
470.758	389.22
471.215	410.12
471.673	437.62
472.13	424.52
472.588	438.22
473.045	401.52
473.503	399.12
473.96	414.42
474.417	424.42
474.875	458.52
475.332	501.12
475.789	487.82
476.246	496.42
476.704	503.62
477.161	527.32
477.618	551.32
478.075	582.32
478.532	642.32
478.989	707.92
479.446	819.92
479.903	790.32
480.36	816.72
480.817	850.52
481.274	958.32
481.731	1052.92
482.188	1130.02
482.645	1255.53
483.102	1344.72
483.558	1477.32
484.015	1509.93
484.472	1477.22
484.929	1436.92
485.385	1389.02
485.842	1362.32
486.299	1321.72
486.755	1270.83
487.212	1080.02
487.668	925.62
488.125	864.82
488.582	793.02
489.038	763.22
489.494	731.32
489.951	708.92
490.407	700.32
490.864	679.82
491.32	681.42
491.776	662.02
492.233	677.02
492.689	645.82
493.145	643.52
493.602	642.22
494.058	654.12
494.514	645.42
494.97	670.82
495.426	685.52
495.882	661.52
496.338	640.22
496.794	658.32
497.251	650.82
497.707	662.42
498.163	666.12
498.618	687.82
499.074	678.52
499.53	718.62
499.986	698.02
500.442	678.52
500.898	663.62
501.354	649.92
501.809	661.72
502.265	653.72
502.721	666.72
503.177	664.52
503.632	674.42
504.088	679.52
504.543	706.82
504.999	729.12
505.455	696.12
505.91	667.72
506.366	674.42
506.821	675.32
507.277	673.92
507.732	670.62
508.187	666.62
508.643	671.02
509.098	680.32
509.553	690.22
510.009	705.72
510.464	720.62
510.919	731.92
511.375	740.22
511.83	745.02
512.285	757.52
512.74	809.02
513.195	829.12
513.65	815.52
514.105	806.32
514.56	811.42
515.015	836.52
515.47	837.92
515.925	829.32
516.38	822.72
516.835	841.92
517.29	824.32
517.745	824.42
518.2	805.92
518.655	796.12
519.109	785.32
519.564	787.72
520.019	776.52
520.474	774.62
520.928	772.82
521.383	761.92
521.838	760.42
522.292	746.22
522.747	748.52
523.201	751.62
523.656	741.72
524.11	734.02
524.565	738.72
525.019	731.72
525.474	728.22
525.928	745.72
526.382	741.92
526.837	737.02
527.291	754.02
527.745	753.42
528.2	739.82
528.654	734.12
529.108	733.72
529.562	720.92
530.016	733.52
530.47	734.52
530.925	735.32
531.379	721.22
531.833	739.22
532.287	732.92
532.741	740.72
533.195	739.72
533.649	754.02
534.103	756.52
534.556	744.32
535.01	747.22
535.464	747.32
535.918	763.32
536.372	769.52
536.826	756.82
537.279	746.32
537.733	756.72
538.187	753.72
538.64	750.72
539.094	771.82
539.548	777.52
540.001	766.42
540.455	761.52
540.908	768.02
541.362	782.42
541.815	785.42
542.269	802.72
542.722	808.32
543.175	806.72
543.629	816.42
544.082	834.52
544.536	829.52
544.989	842.12
545.442	847.72
545.895	842.32
546.349	849.72
546.802	835.62
547.255	845.62
547.708	849.82
548.161	866.52
548.614	865.12
549.067	879.42
549.52	867.72
549.973	861.72
550.426	866.32
550.879	850.02
551.332	854.32
551.785	853.32
552.238	860.52
552.691	873.22
553.144	888.62
553.596	908.32
554.049	909.92
554.502	959.92
554.955	972.42
555.407	969.12
555.86	962.62
556.313	947.73
556.765	937.72
557.218	937.52
557.67	937.32
558.123	922.02
558.576	937.02
559.028	927.72
559.48	930.82
559.933	927.82
560.385	888.52
560.838	870.02
561.29	833.52
561.742	830.22
562.195	820.22
562.647	816.72
563.099	828.42
563.551	825.12
564.004	828.82
564.456	811.22
564.908	809.42
565.36	783.92
565.812	777.02
566.264	756.72
566.716	772.52
567.168	734.72
567.62	740.42
568.072	741.12
568.524	737.42
568.976	728.92
569.428	712.42
569.88	720.62
570.332	720.72
570.784	714.02
571.235	723.62
571.687	743.02
572.139	744.32
572.59	755.62
573.042	763.02
573.494	758.92
573.945	752.62
574.397	722.72
574.849	739.62
575.3	720.92
575.752	727.32
576.203	722.22
576.655	733.52
577.106	716.42
577.557	706.92
578.009	716.02
578.46	704.22
578.912	706.12
579.363	703.02
579.814	715.22
580.265	696.32
580.717	710.62
581.168	710.92
581.619	708.22
582.07	717.42
582.521	719.02
582.972	711.82
583.423	721.12
583.875	715.12
584.326	723.22
584.777	742.22
585.227	751.12
585.678	774.82
586.129	787.92
586.58	801.02
587.031	823.02
587.482	861.32
587.933	868.22
588.384	847.42
588.834	826.92
589.285	808.32
589.736	801.92
590.186	804.52
590.637	802.42
591.088	781.52
591.538	770.62
591.989	783.12
592.439	768.52
592.89	758.02
593.34	742.82
593.791	745.72
594.241	732.62
594.692	735.42
595.142	733.22
595.593	728.62
596.043	741.22
596.493	740.42
596.943	741.12
597.394	760.92
597.844	759.62
598.294	772.62
598.744	801.32
599.195	827.02
599.645	861.62
600.095	911.72
600.545	961.82
600.995	1017.62
601.445	1072.92
601.895	1148.12
602.345	1198.02
602.795	1170.82
603.245	1124.52
603.695	1074.52
604.145	1014.12
604.594	960.52
605.044	906.42
605.494	849.12
605.944	803.02
606.393	779.72
606.843	760.42
607.293	763.42
607.743	758.42
608.192	782.62
608.642	785.42
609.091	803.82
609.541	801.82
609.99	800.82
610.44	802.42
610.889	754.02
611.339	724.92
611.788	709.62
612.238	723.42
612.687	740.72
613.136	731.02
613.586	736.82
614.035	723.82
614.484	744.52
614.933	737.32
615.383	741.42
615.832	737.42
616.281	737.62
616.73	699.92
617.179	690.42
617.628	677.22
618.077	651.62
618.526	650.92
618.975	643.72
619.424	650.72
619.873	641.62
620.322	646.52
620.771	645.52
621.22	628.22
621.669	625.72
622.118	608.72
622.567	609.92
623.015	591.62
623.464	598.42
623.913	583.02
624.361	579.92
624.81	570.12
625.259	585.32
625.707	581.12
626.156	579.02
626.604	587.52
627.053	595.42
627.501	586.32
627.95	599.52
628.398	608.12
628.847	587.82
629.295	593.22
629.744	610.12
630.192	589.52
630.64	587.42
631.089	574.12
631.537	556.42
631.985	547.82
632.433	560.22
632.881	556.12
633.33	549.42
633.778	537.72
634.226	548.72
634.674	560.02
635.122	567.32
635.57	576.42
636.018	589.92
636.466	593.62
636.914	587.32
637.362	597.82
637.81	597.92
638.258	611.82
638.705	607.52
639.153	637.92
639.601	643.92
640.049	666.22
640.497	689.82
640.944	722.12
641.392	668.32
641.84	645.42
642.287	612.92
642.735	591.72
643.182	584.82
643.63	582.82
644.078	572.92
644.525	594.72
644.973	595.92
645.42	617.12
645.867	636.62
646.315	663.92
646.762	677.42
647.21	704.62
647.657	726.62
648.104	765.22
648.551	779.72
648.999	835.72
649.446	911.12
649.893	991.42
650.34	1143.22
650.787	1357.52
651.234	1664.03
651.682	2155.22
652.129	2898.72
652.576	4102.32
653.023	5998.52
653.47	8122.12
653.917	10084.23
654.363	11622.73
654.81	12837.02
655.257	12159.52
655.704	8039.22
656.151	4852.22
656.598	3194.53
657.044	2286.72
657.491	1779.72
657.938	1435.62
658.385	1222.02
658.831	1072.92
659.278	955.92
659.724	853.52
660.171	789.12
660.618	732.42
661.064	695.32
661.511	685.62
661.957	672.52
662.404	658.52
662.85	670.62
663.296	646.72
663.743	578.02
664.189	558.32
664.635	546.92
665.082	536.92
665.528	546.92
665.974	539.12
666.42	536.82
666.867	533.32
667.313	511.32
667.759	488.52
668.205	472.32
668.651	477.12
669.097	471.02
669.543	457.72
669.989	464.42
670.435	467.42
670.881	458.22
671.327	479.12
671.773	495.42
672.219	524.72
672.665	566.52
673.11	608.02
673.556	652.52
674.002	702.12
674.448	685.42
674.893	577.62
675.339	499.32
675.785	459.82
676.23	437.02
676.676	413.32
677.122	406.72
677.567	391.22
678.013	389.82
678.458	375.92
678.904	387.02
679.349	372.72
679.794	367.52
680.24	370.42
680.685	370.02
681.131	366.42
681.576	359.52
682.021	369.32
682.466	368.92
682.912	359.52
683.357	368.22
683.802	400.12
684.247	433.42
684.692	476.12
685.137	519.52
685.583	562.22
686.028	587.22
686.473	545.42
686.918	462.82
687.363	440.52
687.807	410.02
688.252	384.02
688.697	370.92
689.142	359.12
689.587	350.92
690.032	336.42
690.477	356.82
690.921	363.12
691.366	395.72
691.811	415.62
692.255	448.52
692.7	478.42
693.145	518.72
693.589	739.72
694.034	1202.53
694.478	1626.92
694.923	1820.62
695.367	2388.53
695.812	1255.53
696.256	523.42
696.701	388.22
697.145	358.52
697.59	349.02
698.034	334.22
698.478	341.52
698.922	336.52
699.367	335.92
699.811	348.22
700.255	364.62
700.699	396.82
701.143	435.92
701.588	500.12
702.032	537.92
702.476	539.12
702.92	512.72
703.364	525.92
703.808	679.42
704.252	1103.42
704.696	1542.33
705.14	1770.42
705.584	2262.12
706.027	1114.02
706.471	547.52
706.915	420.82
707.359	372.02
707.803	332.02
708.246	328.82
708.69	331.02
709.134	326.02
709.577	320.32
710.021	326.52
710.465	318.42
710.908	310.32
711.352	313.02
711.795	322.02
712.239	367.82
712.682	390.82
713.126	432.02
713.569	475.52
714.012	379.02
714.456	316.72
714.899	304.42
715.342	283.42
715.786	276.02
716.229	268.12
716.672	268.82
717.115	260.62
717.558	258.12
718.002	263.82
718.445	273.62
718.888	296.92
719.331	314.62
719.774	322.42
720.217	317.82
720.66	294.82
721.103	277.52
721.546	268.32
721.989	258.32
722.432	238.32
722.874	247.12
723.317	235.62
723.76	243.22
724.203	270.72
724.645	326.62
725.088	464.62
725.531	588.92
725.974	684.22
726.416	578.62
726.859	316.92
727.301	259.52
727.744	247.32
728.187	247.22
728.629	242.92
729.071	256.92
729.514	268.32
729.956	287.22
730.399	299.32
730.841	301.52
731.283	287.22
731.726	274.32
732.168	270.32
732.61	280.52
733.053	304.32
733.495	329.82
733.937	368.42
734.379	423.32
734.821	461.02
735.263	571.22
735.705	883.92
736.148	1686.32
736.59	2734.72
737.032	3216.62
737.474	2617.12
737.916	861.72
738.357	460.12
738.799	348.22
739.241	311.42
739.683	300.62
740.125	308.02
740.567	310.72
741.008	326.02
741.45	325.22
741.892	331.12
742.334	367.72
742.775	383.22
743.217	365.92
743.658	288.32
744.1	269.72
744.542	271.52
744.983	328.52
745.425	369.52
745.866	358.02
746.307	297.42
746.749	290.62
747.19	341.72
747.632	474.42
748.073	939.82
748.514	2001.12
748.956	3030.03
749.397	3783.92
749.838	3155.73
750.279	3141.82
750.72	1592.62
751.162	579.22
751.603	336.92
752.044	265.12
752.485	226.12
752.926	227.22
753.367	210.92
753.808	198.72
754.249	201.52
754.69	197.32
755.131	191.92
755.572	187.42
756.013	191.62
756.453	191.42
756.894	200.32
757.335	198.52
757.776	200.72
758.216	203.42
758.657	208.72
759.098	212.62
759.538	237.62
759.979	276.52
760.42	395.02
760.86	744.82
761.301	1945.32
761.741	4698.52
762.182	6775.92
762.622	4810.52
