Data from 20171114-ORNL-Ar_H_NY_Subt18_08-07-41-808.txt Node
Date: Tue Nov 14 08:07:41 EST 2017
User: Ender
Spectrometer: HR+D1039
Trigger mode: 0
Integration Time (sec): 2.730000E-2
Scans to average: 10
Electric dark correction enabled: true
Nonlinearity correction enabled: false
Boxcar width: 0
XAxis mode: Wavelengths
Number of Pixels in Spectrum: 2048
>>>>>Begin Spectral Data<<<<<
187.836	-2.78
188.309	-2.78
188.782	-2.78
189.255	4.32
189.728	-1.08
190.201	9.92
190.674	-3.08
191.147	3.22
191.619	-6.58
192.092	0.82
192.565	-0.38
193.038	0.92
193.511	-0.48
193.984	0.52
194.456	-0.18
194.929	-1.98
195.402	0.12
195.874	-3.38
196.347	3.92
196.82	-7.28
197.292	6.72
197.765	-0.98
198.237	-3.88
198.71	3.92
199.182	-3.28
199.655	1.42
200.127	1.92
200.6	-4.18
201.072	-1.88
201.544	-4.48
202.017	-0.68
202.489	2.62
202.961	-6.18
203.433	-1.08
203.906	-1.48
204.378	-4.88
204.85	-1.78
205.322	-8.08
205.794	-0.58
206.266	-2.08
206.739	-12.28
207.211	-1.08
207.683	-11.27
208.155	-0.58
208.627	-1.28
209.099	-0.38
209.57	-9.77
210.042	-4.28
210.514	-2.27
210.986	0.22
211.458	-6.88
211.93	0.52
212.402	1.72
212.873	1.02
213.345	-3.68
213.817	-8.68
214.288	-6.48
214.76	-13.78
215.232	-1.18
215.703	-8.08
216.175	-8.08
216.646	-4.68
217.118	-9.68
217.589	-2.27
218.061	-3.08
218.532	-4.48
219.004	-3.48
219.475	-1.88
219.946	3.22
220.418	-1.77
220.889	-1.78
221.36	4.73
221.832	1.92
222.303	-7.78
222.774	1.12
223.245	-9.38
223.717	-3.98
224.188	-1.58
224.659	-3.98
225.13	-1.58
225.601	-3.98
226.072	2.32
226.543	-5.08
227.014	-3.18
227.485	-0.58
227.956	-7.18
228.427	3.12
228.898	1.52
229.369	1.52
229.839	-0.28
230.31	-2.78
230.781	-1.48
231.252	-2.58
231.722	-3.08
232.193	-8.27
232.664	-0.08
233.135	-1.38
233.605	-3.77
234.076	-4.68
234.546	5.72
235.017	2.12
235.487	2.82
235.958	-0.88
236.428	-6.88
236.899	-0.77
237.369	0.12
237.84	3.72
238.31	7.32
238.78	6.52
239.251	-0.68
239.721	0.62
240.191	4.12
240.662	-0.48
241.132	-1.18
241.602	-2.48
242.072	1.32
242.542	11.22
243.013	2.72
243.483	3.82
243.953	0.62
244.423	0.23
244.893	0.02
245.363	4.02
245.833	5.02
246.303	1.62
246.773	4.42
247.243	1.12
247.712	0.92
248.182	11.82
248.652	4.72
249.122	1.02
249.592	12.42
250.061	14.82
250.531	27.82
251.001	15.23
251.471	11.72
251.94	15.32
252.41	5.12
252.879	2.12
253.349	16.02
253.818	10.52
254.288	8.52
254.757	5.52
255.227	4.23
255.696	1.42
256.166	4.62
256.635	8.42
257.105	4.42
257.574	4.22
258.043	5.92
258.513	7.72
258.982	17.02
259.451	10.52
259.92	17.72
260.389	6.42
260.859	14.32
261.328	7.92
261.797	17.02
262.266	9.52
262.735	13.02
263.204	0.62
263.673	2.82
264.142	7.32
264.611	-5.68
265.08	-0.78
265.549	1.32
266.018	8.92
266.487	-0.58
266.955	-1.78
267.424	-2.08
267.893	4.32
268.362	2.92
268.83	5.22
269.299	7.73
269.768	2.42
270.236	3.42
270.705	6.72
271.174	2.23
271.642	10.42
272.111	6.92
272.579	18.12
273.048	13.62
273.516	22.92
273.985	26.52
274.453	18.12
274.922	13.62
275.39	11.22
275.858	1.82
276.327	11.82
276.795	11.82
277.263	10.52
277.731	25.02
278.2	47.92
278.668	45.72
279.136	40.02
279.604	11.92
280.072	8.32
280.54	10.52
281.008	7.42
281.477	17.42
281.945	7.92
282.413	7.92
282.881	13.22
283.348	6.52
283.816	13.32
284.284	10.02
284.752	19.82
285.22	12.42
285.688	14.92
286.156	15.02
286.623	40.32
287.091	46.32
287.559	28.12
288.026	12.92
288.494	10.02
288.962	9.02
289.429	10.32
289.897	11.73
290.364	7.62
290.832	14.62
291.3	13.92
291.767	17.82
292.234	14.62
292.702	7.32
293.169	8.23
293.637	28.32
294.104	22.12
294.571	8.12
295.039	12.62
295.506	11.82
295.973	18.52
296.44	13.22
296.908	14.82
297.375	20.22
297.842	18.62
298.309	23.82
298.776	13.62
299.243	12.72
299.71	17.72
300.177	17.52
300.644	15.92
301.111	19.42
301.578	20.32
302.045	9.22
302.512	26.12
302.979	21.82
303.446	19.32
303.913	14.02
304.379	14.32
304.846	24.82
305.313	21.82
305.78	21.52
306.246	30.22
306.713	17.32
307.18	25.62
307.646	24.92
308.113	29.72
308.579	16.62
309.046	19.92
309.512	23.52
309.979	16.42
310.445	20.62
310.912	22.22
311.378	28.02
311.845	28.73
312.311	28.12
312.777	27.02
313.244	31.12
313.71	31.52
314.176	21.52
314.642	23.62
315.109	24.72
315.575	34.22
316.041	35.82
316.507	29.42
316.973	31.92
317.439	33.12
317.905	32.42
318.371	31.02
318.837	30.42
319.303	36.02
319.769	30.52
320.235	30.02
320.701	32.62
321.167	37.92
321.633	35.52
322.099	34.22
322.564	41.92
323.03	38.02
323.496	35.72
323.962	34.32
324.427	32.12
324.893	41.62
325.359	32.02
325.824	30.92
326.29	33.32
326.755	30.22
327.221	34.12
327.686	40.42
328.152	40.73
328.617	40.32
329.083	41.92
329.548	47.82
330.014	44.42
330.479	36.12
330.944	35.52
331.41	39.32
331.875	44.42
332.34	35.02
332.805	41.12
333.271	44.02
333.736	42.12
334.201	48.42
334.666	48.72
335.131	52.52
335.596	46.92
336.061	46.22
336.526	40.32
336.991	37.32
337.456	56.02
337.921	49.42
338.386	45.32
338.851	39.42
339.316	44.72
339.781	40.92
340.246	50.32
340.711	43.32
341.175	47.72
341.64	42.22
342.105	49.52
342.569	52.12
343.034	59.32
343.499	50.82
343.963	47.32
344.428	61.23
344.893	53.62
345.357	52.52
345.822	61.42
346.286	61.32
346.751	65.92
347.215	56.22
347.679	65.92
348.144	89.92
348.608	76.32
349.073	63.72
349.537	65.42
350.001	73.52
350.465	78.12
350.93	75.32
351.394	67.12
351.858	68.73
352.322	77.82
352.786	74.02
353.25	92.62
353.715	97.52
354.179	86.32
354.643	112.73
355.107	106.82
355.571	96.72
356.035	99.62
356.498	111.92
356.962	106.92
357.426	111.32
357.89	105.92
358.354	81.72
358.818	75.52
359.281	74.92
359.745	71.52
360.209	71.62
360.673	70.52
361.136	74.23
361.6	73.92
362.064	76.62
362.527	72.82
362.991	80.02
363.454	71.82
363.918	70.82
364.381	70.72
364.845	79.72
365.308	79.22
365.772	85.22
366.235	81.32
366.698	78.62
367.162	78.22
367.625	77.92
368.088	83.92
368.552	82.32
369.015	80.02
369.478	92.22
369.941	88.32
370.404	90.82
370.867	97.82
371.331	100.82
371.794	104.82
372.257	103.82
372.72	106.02
373.183	108.52
373.646	91.92
374.109	97.62
374.572	105.42
375.035	100.22
375.497	101.52
375.96	103.72
376.423	99.82
376.886	109.02
377.349	110.42
377.811	95.62
378.274	98.42
378.737	101.22
379.199	101.52
379.662	107.42
380.125	120.73
380.587	111.62
381.05	118.92
381.512	114.82
381.975	127.02
382.437	122.72
382.9	120.12
383.362	125.42
383.825	127.82
384.287	141.72
384.75	123.52
385.212	126.62
385.674	131.62
386.136	130.32
386.599	109.42
387.061	126.12
387.523	121.12
387.985	130.62
388.447	136.52
388.91	134.12
389.372	147.73
389.834	145.22
390.296	145.62
390.758	152.82
391.22	161.92
391.682	197.32
392.144	282.33
392.606	224.72
393.068	156.73
393.529	161.72
393.991	149.42
394.453	145.92
394.915	147.82
395.377	182.42
395.838	206.32
396.3	148.82
396.762	136.73
397.224	130.62
397.685	123.02
398.147	126.52
398.608	123.82
399.07	123.72
399.531	126.82
399.993	136.12
400.454	148.42
400.916	139.92
401.377	136.42
401.839	151.82
402.3	150.02
402.762	162.92
403.223	169.82
403.684	165.82
404.145	153.72
404.607	151.52
405.068	163.92
405.529	156.82
405.99	182.22
406.451	168.32
406.913	174.12
407.374	157.52
407.835	160.22
408.296	155.23
408.757	166.22
409.218	175.32
409.679	174.12
410.14	170.62
410.601	168.02
411.062	178.62
411.522	178.72
411.983	179.52
412.444	164.52
412.905	171.52
413.366	174.32
413.826	178.92
414.287	200.33
414.748	249.52
415.208	241.72
415.669	204.92
416.13	198.62
416.59	192.42
417.051	207.23
417.511	216.32
417.972	227.32
418.432	234.12
418.893	279.42
419.353	244.32
419.814	189.22
420.274	183.12
420.734	182.42
421.195	196.32
421.655	195.62
422.115	190.52
422.576	184.42
423.036	189.62
423.496	195.02
423.956	207.23
424.416	219.82
424.876	262.82
425.336	246.42
425.797	252.42
426.257	248.42
426.717	224.43
427.177	228.22
427.637	216.73
428.097	231.32
428.556	234.02
429.016	261.42
429.476	251.62
429.936	268.12
430.396	272.82
430.856	277.92
431.315	305.12
431.775	334.22
432.235	363.42
432.694	331.52
433.154	345.33
433.614	384.32
434.073	325.73
434.533	280.73
434.993	262.02
435.452	273.52
435.912	287.92
436.371	280.82
436.83	282.93
437.29	258.12
437.749	239.52
438.209	234.92
438.668	254.02
439.127	274.42
439.587	252.32
440.046	237.83
440.505	245.62
440.964	264.02
441.424	305.92
441.883	297.62
442.342	240.82
442.801	215.72
443.26	213.62
443.719	212.72
444.178	212.12
444.637	203.82
445.096	211.92
445.555	214.22
446.014	221.42
446.473	217.72
446.932	229.82
447.391	218.92
447.849	227.92
448.308	211.12
448.767	209.52
449.226	224.02
449.685	226.22
450.143	237.92
450.602	224.72
451.061	218.62
451.519	229.62
451.978	218.02
452.436	227.22
452.895	233.62
453.353	244.42
453.812	239.82
454.27	235.52
454.729	234.23
455.187	235.02
455.646	232.62
456.104	239.12
456.562	248.92
457.021	255.02
457.479	255.22
457.937	271.02
458.395	251.42
458.854	241.33
459.312	238.52
459.77	267.33
460.228	241.82
460.686	238.92
461.144	237.72
461.602	229.42
462.06	234.12
462.518	240.92
462.976	242.92
463.434	245.33
463.892	248.02
464.35	262.42
464.808	284.02
465.266	254.12
465.724	258.73
466.181	266.52
466.639	269.22
467.097	277.52
467.555	291.33
468.012	294.52
468.47	304.12
468.928	314.52
469.385	324.12
469.843	332.22
470.3	337.93
470.758	347.22
471.215	371.72
471.673	392.02
472.13	398.12
472.588	409.62
473.045	362.12
473.503	367.23
473.96	386.22
474.417	378.72
474.875	415.42
475.332	465.62
475.789	440.02
476.246	450.32
476.704	478.23
477.161	493.33
477.618	509.42
478.075	539.12
478.532	605.92
478.989	673.12
479.446	773.93
479.903	741.93
480.36	778.02
480.817	842.82
481.274	930.82
481.731	1026.82
482.188	1126.72
482.645	1255.92
483.102	1366.22
483.558	1487.82
484.015	1527.22
484.472	1518.22
484.929	1474.42
485.385	1412.32
485.842	1386.02
486.299	1326.02
486.755	1263.62
487.212	1054.62
487.668	897.12
488.125	823.72
488.582	750.52
489.038	724.42
489.494	685.92
489.951	665.22
490.407	645.62
490.864	627.02
491.32	619.22
491.776	624.83
492.233	620.32
492.689	586.92
493.145	580.42
493.602	583.52
494.058	593.02
494.514	596.52
494.97	620.32
495.426	621.52
495.882	595.52
496.338	602.52
496.794	614.42
497.251	601.12
497.707	614.52
498.163	620.62
498.618	619.92
499.074	625.52
499.53	662.73
499.986	661.22
500.442	639.12
500.898	610.23
501.354	602.42
501.809	613.42
502.265	624.42
502.721	638.82
503.177	648.73
503.632	646.02
504.088	655.52
504.543	689.82
504.999	682.42
505.455	636.12
505.91	612.83
506.366	618.42
506.821	607.82
507.277	606.72
507.732	612.52
508.187	607.62
508.643	622.92
509.098	616.92
509.553	634.92
510.009	648.52
510.464	647.22
510.919	665.92
511.375	671.12
511.83	679.52
512.285	702.52
512.74	742.83
513.195	772.52
513.65	746.23
514.105	754.02
514.56	757.82
515.015	763.93
515.47	784.12
515.925	767.02
516.38	769.42
516.835	768.92
517.29	769.12
517.745	757.02
518.2	743.42
518.655	715.52
519.109	731.23
519.564	718.52
520.019	718.32
520.474	699.12
520.928	708.32
521.383	698.62
521.838	695.52
522.292	691.02
522.747	704.12
523.201	694.12
523.656	674.33
524.11	685.93
524.565	667.42
525.019	668.02
525.474	683.32
525.928	684.52
526.382	682.22
526.837	686.83
527.291	684.92
527.745	676.42
528.2	685.92
528.654	688.02
529.108	670.42
529.562	668.52
530.016	672.73
530.47	670.02
530.925	672.72
531.379	670.42
531.833	689.32
532.287	681.72
532.741	688.82
533.195	684.32
533.649	691.92
534.103	706.02
534.556	697.02
535.01	694.62
535.464	683.32
535.918	701.12
536.372	703.23
536.826	707.92
537.279	687.82
537.733	691.72
538.187	697.62
538.64	697.42
539.094	709.52
539.548	707.92
540.001	704.72
540.455	720.42
540.908	710.02
541.362	721.02
541.815	727.62
542.269	736.42
542.722	746.32
543.175	758.62
543.629	751.32
544.082	774.32
544.536	772.02
544.989	764.93
545.442	775.52
545.895	763.22
546.349	763.62
546.802	767.52
547.255	779.22
547.708	778.62
548.161	796.92
548.614	796.22
549.067	797.12
549.52	800.92
549.973	795.52
550.426	791.62
550.879	773.32
551.332	775.52
551.785	779.02
552.238	780.12
552.691	796.32
553.144	812.92
553.596	824.52
554.049	835.62
554.502	878.82
554.955	893.72
555.407	883.52
555.86	883.32
556.313	882.62
556.765	864.02
557.218	869.12
557.67	863.02
558.123	866.82
558.576	851.32
559.028	853.02
559.48	868.02
559.933	854.02
560.385	827.02
560.838	790.22
561.29	768.32
561.742	770.43
562.195	746.92
562.647	755.43
563.099	758.02
563.551	754.33
564.004	769.82
564.456	760.52
564.908	749.82
565.36	733.52
565.812	721.92
566.264	706.52
566.716	715.23
567.168	697.42
567.62	713.42
568.072	695.42
568.524	686.62
568.976	678.82
569.428	667.52
569.88	664.12
570.332	666.93
570.784	671.92
571.235	674.82
571.687	679.83
572.139	689.12
572.59	699.42
573.042	703.62
573.494	696.32
573.945	686.92
574.397	673.62
574.849	678.62
575.3	679.52
575.752	669.72
576.203	663.32
576.655	670.02
577.106	655.83
577.557	656.82
578.009	659.02
578.46	663.23
578.912	643.62
579.363	649.22
579.814	654.42
580.265	645.12
580.717	661.92
581.168	648.32
581.619	677.82
582.07	663.82
582.521	658.72
582.972	653.92
583.423	671.23
583.875	671.92
584.326	691.92
584.777	731.12
585.227	814.12
585.678	893.92
586.129	981.12
586.58	1042.33
587.031	1132.62
587.482	1282.62
587.933	1458.62
588.384	1277.32
588.834	945.73
589.285	793.62
589.736	771.72
590.186	763.02
590.637	750.92
591.088	728.73
591.538	728.02
591.989	731.33
592.439	725.12
592.89	713.72
593.34	705.32
593.791	700.62
594.241	691.62
594.692	693.52
595.142	690.83
595.593	692.62
596.043	695.62
596.493	704.42
596.943	707.02
597.394	714.92
597.844	706.33
598.294	722.43
598.744	747.72
599.195	767.42
599.645	801.52
600.095	843.52
600.545	893.32
600.995	948.12
601.445	1001.22
601.895	1071.23
602.345	1115.02
602.795	1093.72
603.245	1043.53
603.695	997.22
604.145	948.52
604.594	888.93
605.044	840.72
605.494	778.23
605.944	736.02
606.393	734.52
606.843	721.92
607.293	726.12
607.743	725.52
608.192	734.72
608.642	749.22
609.091	757.93
609.541	759.72
609.99	764.02
610.44	764.93
610.889	722.62
611.339	692.02
611.788	680.32
612.238	691.32
612.687	706.22
613.136	714.52
613.586	728.23
614.035	720.82
614.484	754.92
614.933	748.82
615.383	743.22
615.832	713.52
616.281	719.43
616.73	680.22
617.179	658.32
617.628	643.12
618.077	626.42
618.526	616.62
618.975	613.82
619.424	609.92
619.873	611.32
620.322	611.02
620.771	595.83
621.22	596.72
621.669	586.62
622.118	588.02
622.567	578.23
623.015	570.72
623.464	561.12
623.913	548.82
624.361	546.12
624.81	537.62
625.259	548.02
625.707	554.82
626.156	545.22
626.604	565.12
627.053	562.52
627.501	558.82
627.95	558.02
628.398	578.72
628.847	562.23
629.295	564.33
629.744	569.42
630.192	553.02
630.64	563.02
631.089	559.82
631.537	573.02
631.985	580.52
632.433	591.02
632.881	609.32
633.33	640.92
633.778	633.32
634.226	563.12
634.674	568.02
635.122	571.92
635.57	590.72
636.018	626.02
636.466	574.72
636.914	546.52
637.362	561.93
637.81	570.82
638.258	567.62
638.705	577.52
639.153	603.52
639.601	614.02
640.049	632.22
640.497	658.92
640.944	682.02
641.392	641.32
641.84	603.92
642.287	573.42
642.735	569.52
643.182	573.23
643.63	562.22
644.078	563.52
644.525	590.12
644.973	585.02
645.42	601.02
645.867	615.33
646.315	635.73
646.762	658.52
647.21	691.12
647.657	711.32
648.104	740.82
648.551	766.72
648.999	829.62
649.446	912.42
649.893	1002.03
650.34	1160.03
650.787	1383.22
651.234	1718.62
651.682	2243.22
652.129	3087.52
652.576	4463.03
653.023	6533.73
653.47	8970.23
653.917	11138.83
654.363	12802.23
654.81	14120.83
655.257	13452.62
655.704	8754.52
656.151	5176.32
656.598	3375.33
657.044	2385.12
657.491	1836.22
657.938	1462.72
658.385	1224.52
658.831	1073.92
659.278	949.22
659.724	843.42
660.171	771.42
660.618	723.82
661.064	683.32
661.511	668.33
661.957	652.23
662.404	628.22
662.85	647.32
663.296	613.42
663.743	555.52
664.189	533.32
664.635	529.92
665.082	522.92
665.528	520.82
665.974	507.42
666.42	510.52
666.867	499.32
667.313	490.02
667.759	480.62
668.205	470.42
668.651	482.02
669.097	481.32
669.543	494.32
669.989	462.42
670.435	435.93
670.881	445.93
671.327	446.12
671.773	466.42
672.219	486.52
672.665	543.92
673.11	585.82
673.556	619.12
674.002	652.92
674.448	645.12
674.893	547.22
675.339	464.42
675.785	439.72
676.23	419.42
676.676	386.72
677.122	377.42
677.567	368.82
678.013	367.62
678.458	360.12
678.904	364.62
679.349	340.83
679.794	351.33
680.24	348.23
680.685	348.32
681.131	340.92
681.576	340.02
682.021	356.42
682.466	343.02
682.912	347.42
683.357	345.42
683.802	377.62
684.247	408.02
684.692	453.92
685.137	488.82
685.583	534.92
686.028	551.72
686.473	506.23
686.918	439.32
687.363	411.32
687.807	383.42
688.252	371.12
688.697	352.32
689.142	338.02
689.587	329.62
690.032	328.92
690.477	341.02
690.921	349.92
691.366	380.82
691.811	393.23
692.255	423.52
692.7	457.42
693.145	494.43
693.589	689.82
694.034	1119.62
694.478	1513.83
694.923	1692.62
695.367	2226.32
695.812	1179.42
696.256	497.42
696.701	368.92
697.145	335.12
697.59	327.72
698.034	317.72
698.478	325.32
698.922	331.52
699.367	323.52
699.811	336.12
700.255	345.43
700.699	384.22
701.143	422.82
701.588	475.42
702.032	515.12
702.476	507.62
702.92	483.93
703.364	496.92
703.808	646.12
704.252	1045.22
704.696	1440.52
705.14	1643.92
705.584	2085.92
706.027	1054.33
706.471	516.12
706.915	380.12
707.359	344.42
707.803	304.52
708.246	312.62
708.69	300.32
709.134	306.62
709.577	312.83
710.021	317.42
710.465	301.02
710.908	301.52
711.352	296.62
711.795	310.72
712.239	349.42
712.682	378.82
713.126	412.92
713.569	463.42
714.012	369.12
714.456	323.32
714.899	295.72
715.342	271.12
715.786	259.83
716.229	258.73
716.672	258.12
717.115	248.02
717.558	252.43
718.002	252.42
718.445	261.02
718.888	290.73
719.331	296.32
719.774	306.92
720.217	300.72
720.66	284.12
721.103	269.42
721.546	251.43
721.989	244.42
722.432	231.92
722.874	232.82
723.317	229.62
723.76	231.22
724.203	259.02
724.645	318.02
725.088	447.62
725.531	572.12
725.974	637.72
726.416	540.82
726.859	299.12
727.301	242.52
727.744	235.93
728.187	236.62
728.629	234.42
729.071	243.62
729.514	247.82
729.956	267.62
730.399	287.72
730.841	288.52
731.283	272.93
731.726	262.62
732.168	265.02
732.61	271.02
733.053	283.02
733.495	313.93
733.937	352.62
734.379	397.22
734.821	431.52
735.263	533.82
735.705	834.82
736.148	1587.62
736.59	2573.43
737.032	2989.52
737.474	2418.52
737.916	796.42
738.357	428.32
738.799	324.12
739.241	292.82
739.683	278.92
740.125	286.12
740.567	290.82
741.008	309.02
741.45	314.62
741.892	314.92
742.334	351.93
742.775	354.82
743.217	335.22
743.658	268.12
744.1	252.73
744.542	258.22
744.983	314.52
745.425	336.62
745.866	339.42
746.307	288.42
746.749	284.62
747.19	319.73
747.632	450.93
748.073	899.23
748.514	1855.22
748.956	2816.82
749.397	3529.02
749.838	2936.72
750.279	2892.92
750.72	1460.72
751.162	540.33
751.603	320.52
752.044	250.82
752.485	214.83
752.926	216.23
753.367	203.42
753.808	189.52
754.249	187.52
754.69	190.12
755.131	183.22
755.572	176.02
756.013	183.82
756.453	185.32
756.894	185.12
757.335	185.73
757.776	191.02
758.216	191.62
758.657	198.62
759.098	203.62
759.538	229.33
759.979	264.32
760.42	379.02
760.86	715.12
761.301	1847.32
761.741	4417.62
762.182	6227.12
762.622	4403.93
763.063	1293.12
