Data from 20171114-ORNL-Ar_H_NY_Subt18_08-04-27-449.txt Node
Date: Tue Nov 14 08:04:27 EST 2017
User: Ender
Spectrometer: HR+D1039
Trigger mode: 0
Integration Time (sec): 2.730000E-2
Scans to average: 10
Electric dark correction enabled: true
Nonlinearity correction enabled: false
Boxcar width: 0
XAxis mode: Wavelengths
Number of Pixels in Spectrum: 2048
>>>>>Begin Spectral Data<<<<<
187.836	-3.97
188.309	-3.97
188.782	-3.97
189.255	6.83
189.728	3.03
190.201	2.93
190.674	-2.17
191.147	3.23
191.619	-5.97
192.092	1.73
192.565	-0.97
193.038	-0.47
193.511	3.13
193.984	-0.97
194.456	-0.27
194.929	-0.27
195.402	-1.77
195.874	-4.07
196.347	0.63
196.82	-6.47
197.292	2.03
197.765	2.33
198.237	-9.97
198.71	-1.37
199.182	-3.07
199.655	2.83
200.127	4.43
200.6	1.33
201.072	0.33
201.544	-1.67
202.017	-6.77
202.489	1.13
202.961	-0.87
203.433	-5.47
203.906	-6.57
204.378	-7.67
204.85	0.03
205.322	-4.77
205.794	-0.37
206.266	-0.27
206.739	-3.17
207.211	-2.67
207.683	-7.97
208.155	-5.07
208.627	-9.07
209.099	-0.37
209.57	-10.37
210.042	-6.07
210.514	-2.27
210.986	-0.77
211.458	-5.27
211.93	-4.97
212.402	-0.47
212.873	-0.87
213.345	-2.77
213.817	-14.07
214.288	-6.77
214.76	-13.27
215.232	-3.47
215.703	-3.67
216.175	-11.17
216.646	0.33
217.118	-3.07
217.589	-4.87
218.061	-0.47
218.532	-7.87
219.004	-2.87
219.475	-7.27
219.946	0.03
220.418	-1.07
220.889	0.23
221.36	-2.57
221.832	-2.97
222.303	-11.87
222.774	4.73
223.245	-8.27
223.717	-11.47
224.188	-1.67
224.659	-1.07
225.13	-7.67
225.601	-4.27
226.072	3.73
226.543	-6.07
227.014	-3.37
227.485	2.33
227.956	-7.27
228.427	-5.37
228.898	-2.17
229.369	-0.27
229.839	-1.27
230.31	-3.97
230.781	4.83
231.252	0.53
231.722	-5.87
232.193	-1.97
232.664	2.03
233.135	5.03
233.605	-3.47
234.076	-5.67
234.546	4.03
235.017	3.63
235.487	7.13
235.958	3.13
236.428	-1.27
236.899	3.93
237.369	8.13
237.84	5.63
238.31	1.43
238.78	0.13
239.251	3.13
239.721	4.93
240.191	4.83
240.662	1.73
241.132	0.23
241.602	-1.37
242.072	0.13
242.542	9.13
243.013	2.73
243.483	4.93
243.953	6.23
244.423	0.13
244.893	3.23
245.363	2.93
245.833	2.63
246.303	-2.37
246.773	5.03
247.243	4.03
247.712	6.63
248.182	8.63
248.652	6.93
249.122	3.53
249.592	13.13
250.061	28.63
250.531	31.93
251.001	20.13
251.471	24.63
251.94	23.03
252.41	14.33
252.879	0.23
253.349	15.13
253.818	9.03
254.288	3.93
254.757	7.13
255.227	6.03
255.696	4.03
256.166	5.23
256.635	14.73
257.105	13.23
257.574	14.33
258.043	12.33
258.513	15.53
258.982	21.53
259.451	12.13
259.92	16.73
260.389	10.63
260.859	22.63
261.328	15.23
261.797	23.43
262.266	12.73
262.735	17.63
263.204	2.73
263.673	2.83
264.142	7.43
264.611	0.83
265.08	5.73
265.549	4.93
266.018	11.53
266.487	3.33
266.955	1.43
267.424	6.23
267.893	8.83
268.362	4.53
268.83	6.23
269.299	18.23
269.768	6.93
270.236	5.63
270.705	4.73
271.174	16.63
271.642	10.53
272.111	8.33
272.579	11.03
273.048	22.83
273.516	31.63
273.985	27.13
274.453	26.03
274.922	16.23
275.39	16.53
275.858	5.23
276.327	17.73
276.795	20.63
277.263	19.23
277.731	40.23
278.2	58.73
278.668	64.33
279.136	51.03
279.604	18.73
280.072	19.63
280.54	13.03
281.008	13.13
281.477	17.13
281.945	17.03
282.413	14.23
282.881	17.23
283.348	13.03
283.816	13.83
284.284	20.33
284.752	24.23
285.22	18.03
285.688	18.93
286.156	19.63
286.623	49.73
287.091	57.33
287.559	31.53
288.026	19.33
288.494	14.03
288.962	8.23
289.429	16.33
289.897	15.93
290.364	13.93
290.832	19.43
291.3	19.83
291.767	14.83
292.234	15.43
292.702	21.03
293.169	22.93
293.637	20.73
294.104	17.63
294.571	4.53
295.039	12.83
295.506	15.63
295.973	21.33
296.44	14.13
296.908	20.13
297.375	18.63
297.842	18.43
298.309	20.83
298.776	14.63
299.243	26.83
299.71	18.23
300.177	20.73
300.644	20.03
301.111	18.63
301.578	26.93
302.045	20.13
302.512	26.23
302.979	25.73
303.446	24.73
303.913	20.63
304.379	18.43
304.846	32.63
305.313	23.53
305.78	23.33
306.246	32.93
306.713	31.23
307.18	25.93
307.646	26.93
308.113	25.83
308.579	26.13
309.046	23.63
309.512	30.83
309.979	22.73
310.445	28.93
310.912	26.03
311.378	33.33
311.845	31.53
312.311	32.13
312.777	30.03
313.244	33.93
313.71	36.83
314.176	31.83
314.642	33.83
315.109	33.33
315.575	38.13
316.041	40.53
316.507	34.33
316.973	36.63
317.439	31.23
317.905	41.43
318.371	31.83
318.837	33.13
319.303	32.33
319.769	32.83
320.235	31.43
320.701	39.13
321.167	33.83
321.633	38.63
322.099	40.83
322.564	38.13
323.03	42.43
323.496	43.93
323.962	40.43
324.427	42.63
324.893	40.93
325.359	46.73
325.824	44.03
326.29	41.13
326.755	47.53
327.221	37.53
327.686	38.13
328.152	46.73
328.617	42.93
329.083	47.23
329.548	52.03
330.014	44.83
330.479	37.13
330.944	41.03
331.41	45.83
331.875	51.03
332.34	43.13
332.805	46.93
333.271	49.93
333.736	44.23
334.201	49.53
334.666	56.23
335.131	50.23
335.596	49.33
336.061	49.43
336.526	42.03
336.991	45.23
337.456	55.23
337.921	51.93
338.386	48.63
338.851	49.13
339.316	48.53
339.781	47.03
340.246	51.83
340.711	45.03
341.175	50.03
341.64	47.83
342.105	50.93
342.569	51.13
343.034	50.33
343.499	56.63
343.963	52.33
344.428	63.53
344.893	59.13
345.357	58.93
345.822	57.83
346.286	65.93
346.751	66.93
347.215	67.93
347.679	65.53
348.144	91.63
348.608	84.33
349.073	60.33
349.537	74.03
350.001	77.23
350.465	87.03
350.93	76.43
351.394	82.83
351.858	76.03
352.322	86.63
352.786	80.33
353.25	93.73
353.715	100.43
354.179	96.03
354.643	107.13
355.107	114.93
355.571	101.43
356.035	95.73
356.498	105.73
356.962	119.13
357.426	124.53
357.89	113.43
358.354	88.43
358.818	73.83
359.281	74.43
359.745	76.03
360.209	75.03
360.673	75.93
361.136	74.13
361.6	78.23
362.064	81.13
362.527	76.33
362.991	87.73
363.454	76.03
363.918	73.33
364.381	70.43
364.845	82.73
365.308	79.43
365.772	84.53
366.235	84.13
366.698	79.93
367.162	81.43
367.625	75.33
368.088	81.93
368.552	81.13
369.015	76.13
369.478	90.53
369.941	102.63
370.404	90.03
370.867	96.63
371.331	104.13
371.794	101.93
372.257	102.33
372.72	97.13
373.183	107.43
373.646	99.33
374.109	102.53
374.572	98.03
375.035	98.33
375.497	92.93
375.96	92.53
376.423	90.93
376.886	105.53
377.349	95.63
377.811	103.33
378.274	95.93
378.737	98.63
379.199	101.63
379.662	102.33
380.125	106.83
380.587	112.13
381.05	118.83
381.512	113.53
381.975	120.03
382.437	121.43
382.9	113.73
383.362	121.23
383.825	132.73
384.287	133.73
384.75	133.23
385.212	132.83
385.674	127.43
386.136	126.83
386.599	110.23
387.061	115.43
387.523	116.83
387.985	126.13
388.447	136.03
388.91	140.63
389.372	148.13
389.834	139.23
390.296	134.33
390.758	141.73
391.22	157.83
391.682	196.13
392.144	271.03
392.606	214.33
393.068	156.03
393.529	154.33
393.991	138.33
394.453	141.03
394.915	148.43
395.377	173.73
395.838	196.83
396.3	144.53
396.762	131.33
397.224	118.83
397.685	115.63
398.147	115.63
398.608	118.43
399.07	120.73
399.531	122.53
399.993	121.03
400.454	142.93
400.916	135.53
401.377	132.03
401.839	142.73
402.3	135.43
402.762	157.43
403.223	160.13
403.684	155.93
404.145	147.03
404.607	145.83
405.068	144.73
405.529	150.43
405.99	165.13
406.451	158.03
406.913	154.53
407.374	143.33
407.835	137.63
408.296	148.93
408.757	157.03
409.218	164.73
409.679	164.13
410.14	152.73
410.601	157.93
411.062	166.23
411.522	178.33
411.983	168.13
412.444	154.33
412.905	167.43
413.366	163.23
413.826	176.43
414.287	188.93
414.748	240.23
415.208	219.73
415.669	193.43
416.13	188.03
416.59	188.13
417.051	195.63
417.511	200.13
417.972	213.53
418.432	221.63
418.893	269.63
419.353	227.33
419.814	180.93
420.274	161.33
420.734	163.33
421.195	174.53
421.655	178.83
422.115	169.83
422.576	166.23
423.036	181.23
423.496	187.43
423.956	203.43
424.416	204.83
424.876	247.13
425.336	233.63
425.797	236.83
426.257	229.13
426.717	213.13
427.177	211.63
427.637	202.33
428.097	210.53
428.556	216.53
429.016	243.43
429.476	236.73
429.936	246.83
430.396	245.83
430.856	263.63
431.315	274.03
431.775	309.03
432.235	347.83
432.694	310.83
433.154	322.83
433.614	347.03
434.073	302.93
434.533	258.43
434.993	242.63
435.452	258.73
435.912	259.93
436.371	264.53
436.83	258.03
437.29	245.33
437.749	225.53
438.209	213.03
438.668	244.13
439.127	255.33
439.587	236.73
440.046	220.13
440.505	230.73
440.964	251.43
441.424	287.43
441.883	278.53
442.342	229.03
442.801	203.93
443.26	196.43
443.719	195.53
444.178	198.93
444.637	186.13
445.096	197.73
445.555	199.73
446.014	202.03
446.473	201.43
446.932	199.33
447.391	191.03
447.849	205.73
448.308	201.63
448.767	202.33
449.226	214.53
449.685	214.83
450.143	223.73
450.602	215.93
451.061	205.53
451.519	214.13
451.978	213.43
452.436	212.53
452.895	213.73
453.353	226.43
453.812	215.73
454.27	214.43
454.729	215.33
455.187	216.93
455.646	218.43
456.104	228.93
456.562	234.63
457.021	233.33
457.479	225.83
457.937	244.23
458.395	238.83
458.854	224.33
459.312	224.83
459.77	239.73
460.228	223.23
460.686	219.63
461.144	226.03
461.602	224.53
462.06	216.33
462.518	227.03
462.976	230.53
463.434	233.03
463.892	240.73
464.35	238.73
464.808	258.93
465.266	235.63
465.724	241.83
466.181	246.63
466.639	248.33
467.097	263.63
467.555	273.83
468.012	273.83
468.47	276.33
468.928	298.83
469.385	312.13
469.843	314.63
470.3	314.03
470.758	324.63
471.215	340.83
471.673	364.83
472.13	364.53
472.588	367.23
473.045	326.03
473.503	335.43
473.96	346.53
474.417	359.33
474.875	388.33
475.332	427.93
475.789	408.43
476.246	422.03
476.704	426.03
477.161	453.33
477.618	469.63
478.075	503.33
478.532	541.03
478.989	624.03
479.446	715.73
479.903	702.23
480.36	739.83
480.817	794.53
481.274	887.63
481.731	983.53
482.188	1067.43
482.645	1198.53
483.102	1287.93
483.558	1412.33
484.015	1470.83
484.472	1463.33
484.929	1408.23
485.385	1352.63
485.842	1322.13
486.299	1258.33
486.755	1179.03
487.212	989.83
487.668	830.43
488.125	776.03
488.582	712.73
489.038	686.43
489.494	643.93
489.951	624.73
490.407	617.23
490.864	585.33
491.32	576.83
491.776	578.23
492.233	576.83
492.689	551.13
493.145	551.03
493.602	530.83
494.058	553.33
494.514	549.53
494.97	577.33
495.426	587.53
495.882	560.03
496.338	561.83
496.794	583.63
497.251	556.13
497.707	577.13
498.163	573.53
498.618	579.43
499.074	590.33
499.53	611.83
499.986	615.13
500.442	582.13
500.898	567.73
501.354	556.93
501.809	568.73
502.265	574.13
502.721	601.33
503.177	598.63
503.632	592.93
504.088	609.53
504.543	633.83
504.999	641.53
505.455	594.83
505.91	576.43
506.366	566.73
506.821	574.83
507.277	570.33
507.732	557.23
508.187	556.03
508.643	563.63
509.098	576.33
509.553	586.63
510.009	590.43
510.464	599.63
510.919	626.63
511.375	624.03
511.83	634.53
512.285	640.73
512.74	692.03
513.195	709.63
513.65	694.93
514.105	697.63
514.56	710.13
515.015	725.23
515.47	732.13
515.925	724.13
516.38	718.63
516.835	712.43
517.29	710.13
517.745	705.53
518.2	682.73
518.655	678.63
519.109	688.23
519.564	663.33
520.019	666.13
520.474	664.63
520.928	666.63
521.383	655.33
521.838	647.63
522.292	648.33
522.747	643.73
523.201	637.53
523.656	621.63
524.11	626.13
524.565	619.33
525.019	619.53
525.474	634.93
525.928	629.13
526.382	620.63
526.837	617.03
527.291	631.73
527.745	628.63
528.2	631.83
528.654	609.73
529.108	623.83
529.562	616.93
530.016	622.83
530.47	622.93
530.925	611.03
531.379	631.23
531.833	640.23
532.287	634.23
532.741	642.53
533.195	638.33
533.649	636.23
534.103	646.83
534.556	633.63
535.01	646.83
535.464	637.53
535.918	656.43
536.372	643.13
536.826	648.83
537.279	638.53
537.733	635.13
538.187	648.83
538.64	634.83
539.094	641.53
539.548	656.73
540.001	636.73
540.455	648.23
540.908	650.23
541.362	655.63
541.815	666.73
542.269	673.43
542.722	669.23
543.175	677.63
543.629	689.13
544.082	705.93
544.536	703.93
544.989	697.13
545.442	702.63
545.895	700.83
546.349	702.93
546.802	699.83
547.255	709.63
547.708	719.03
548.161	727.03
548.614	737.73
549.067	744.73
549.52	725.83
549.973	731.03
550.426	720.23
550.879	707.13
551.332	710.33
551.785	715.83
552.238	723.83
552.691	728.43
553.144	743.83
553.596	746.33
554.049	776.33
554.502	793.63
554.955	804.43
555.407	813.33
555.86	803.33
556.313	791.53
556.765	791.83
557.218	784.83
557.67	784.23
558.123	782.73
558.576	773.53
559.028	782.23
559.48	784.13
559.933	772.83
560.385	747.63
560.838	726.73
561.29	698.43
561.742	687.93
562.195	671.83
562.647	664.43
563.099	686.83
563.551	684.03
564.004	687.63
564.456	678.13
564.908	668.93
565.36	659.43
565.812	645.93
566.264	640.03
566.716	642.53
567.168	632.03
567.62	630.53
568.072	625.73
568.524	609.43
568.976	608.13
569.428	588.23
569.88	586.53
570.332	593.13
570.784	593.83
571.235	594.73
571.687	613.63
572.139	617.03
572.59	627.63
573.042	628.23
573.494	618.73
573.945	614.83
574.397	607.23
574.849	609.53
575.3	611.33
575.752	591.73
576.203	599.83
576.655	608.33
577.106	583.23
577.557	578.33
578.009	585.23
578.46	581.93
578.912	569.43
579.363	581.03
579.814	582.63
580.265	587.23
580.717	579.93
581.168	579.83
581.619	587.53
582.07	597.63
582.521	581.63
582.972	588.53
583.423	597.23
583.875	589.73
584.326	604.03
584.777	645.93
585.227	718.43
585.678	798.93
586.129	896.33
586.58	954.13
587.031	1042.93
587.482	1197.43
587.933	1374.03
588.384	1170.13
588.834	858.93
589.285	702.03
589.736	674.13
590.186	677.33
590.637	662.93
591.088	645.83
591.538	634.03
591.989	642.43
592.439	631.23
592.89	625.03
593.34	613.83
593.791	609.73
594.241	615.73
594.692	604.63
595.142	604.93
595.593	590.03
596.043	608.53
596.493	613.43
596.943	613.93
597.394	623.13
597.844	611.23
598.294	624.33
598.744	645.93
599.195	665.43
599.645	692.03
600.095	738.13
600.545	785.83
600.995	825.33
601.445	876.63
601.895	932.43
602.345	979.73
602.795	947.13
603.245	925.43
603.695	874.73
604.145	828.03
604.594	775.53
605.044	744.73
605.494	684.23
605.944	649.43
606.393	638.73
606.843	617.33
607.293	630.73
607.743	619.93
608.192	638.33
608.642	644.43
609.091	648.63
609.541	645.23
609.99	656.43
610.44	658.63
610.889	613.23
611.339	602.23
611.788	586.63
612.238	590.53
612.687	619.43
613.136	612.53
613.586	636.23
614.035	632.53
614.484	643.73
614.933	644.43
615.383	641.43
615.832	634.53
616.281	619.83
616.73	585.03
617.179	565.73
617.628	557.63
618.077	533.93
618.526	523.13
618.975	518.83
619.424	521.93
619.873	509.23
620.322	529.53
620.771	511.13
621.22	510.23
621.669	496.93
622.118	495.73
622.567	489.23
623.015	483.83
623.464	483.53
623.913	475.93
624.361	468.23
624.81	463.83
625.259	468.53
625.707	474.73
626.156	474.03
626.604	482.53
627.053	476.03
627.501	482.23
627.95	477.63
628.398	482.73
628.847	476.03
629.295	485.23
629.744	485.93
630.192	485.23
630.64	476.33
631.089	470.93
631.537	483.53
631.985	496.43
632.433	504.53
632.881	505.63
633.33	555.23
633.778	533.43
634.226	466.73
634.674	489.33
635.122	479.53
635.57	509.73
636.018	530.33
636.466	495.13
636.914	464.43
637.362	480.63
637.81	481.43
638.258	485.33
638.705	496.03
639.153	514.83
639.601	509.83
640.049	535.53
640.497	561.03
640.944	577.93
641.392	539.43
641.84	510.13
642.287	491.63
642.735	471.03
643.182	477.03
643.63	480.43
644.078	487.93
644.525	494.73
644.973	495.43
645.42	512.63
645.867	515.23
646.315	531.63
646.762	547.33
647.21	581.03
647.657	589.83
648.104	627.53
648.551	642.93
648.999	700.03
649.446	761.83
649.893	834.73
650.34	969.33
650.787	1155.93
651.234	1431.73
651.682	1859.83
652.129	2539.73
652.576	3651.33
653.023	5427.83
653.47	7549.83
653.917	9521.23
654.363	11197.53
654.81	12524.63
655.257	11939.03
655.704	7715.13
656.151	4528.33
656.598	2924.43
657.044	2067.43
657.491	1582.33
657.938	1266.43
658.385	1051.83
658.831	916.33
659.278	806.23
659.724	728.83
660.171	653.33
660.618	596.33
661.064	571.23
661.511	545.13
661.957	537.23
662.404	533.53
662.85	529.03
663.296	509.23
663.743	468.93
664.189	451.33
664.635	436.43
665.082	435.23
665.528	441.83
665.974	422.33
666.42	413.93
666.867	415.33
667.313	411.83
667.759	404.63
668.205	396.23
668.651	400.73
669.097	406.33
669.543	416.33
669.989	386.73
670.435	369.73
670.881	361.43
671.327	373.83
671.773	386.33
672.219	399.53
672.665	448.03
673.11	472.33
673.556	512.83
674.002	554.93
674.448	535.83
674.893	448.03
675.339	391.43
675.785	362.93
676.23	339.03
676.676	317.43
677.122	309.53
677.567	301.43
678.013	295.63
678.458	295.63
678.904	295.93
679.349	281.63
679.794	290.03
680.24	290.63
680.685	286.03
681.131	290.03
681.576	289.83
682.021	288.63
682.466	289.03
682.912	282.73
683.357	281.73
683.802	308.83
684.247	333.03
684.692	374.83
685.137	406.43
685.583	439.53
686.028	466.13
686.473	422.23
686.918	364.83
687.363	338.93
687.807	313.33
688.252	294.23
688.697	289.93
689.142	271.73
689.587	272.73
690.032	263.73
690.477	273.23
690.921	286.33
691.366	305.23
691.811	322.83
692.255	346.83
692.7	375.53
693.145	410.73
693.589	558.73
694.034	889.83
694.478	1250.43
694.923	1442.03
695.367	1905.93
695.812	983.13
696.256	412.83
696.701	310.63
697.145	285.83
697.59	270.93
698.034	260.03
698.478	270.33
698.922	267.13
699.367	272.43
699.811	279.93
700.255	285.53
700.699	313.73
701.143	350.53
701.588	393.13
702.032	419.43
702.476	429.53
702.92	396.23
703.364	394.53
703.808	502.63
704.252	824.03
704.696	1169.23
705.14	1387.03
705.584	1781.63
706.027	875.63
706.471	430.33
706.915	327.23
707.359	281.03
707.803	261.13
708.246	249.63
708.69	254.23
709.134	250.33
709.577	251.03
710.021	260.73
710.465	251.33
710.908	243.53
711.352	241.63
711.795	253.33
712.239	281.03
712.682	301.73
713.126	341.53
713.569	391.23
714.012	303.73
714.456	267.13
714.899	237.13
715.342	225.33
715.786	217.03
716.229	203.03
716.672	208.83
717.115	202.93
717.558	197.73
718.002	201.83
718.445	214.13
718.888	233.43
719.331	236.23
719.774	253.03
720.217	243.93
720.66	224.93
721.103	218.53
721.546	210.63
721.989	201.33
722.432	186.83
722.874	199.13
723.317	182.33
723.76	187.83
724.203	210.73
724.645	247.93
725.088	351.33
725.531	464.83
725.974	539.03
726.416	453.23
726.859	251.93
727.301	196.83
727.744	188.73
728.187	183.13
728.629	191.63
729.071	198.13
729.514	211.23
729.956	218.53
730.399	229.73
730.841	234.73
731.283	217.03
731.726	214.33
732.168	215.33
732.61	215.63
733.053	232.73
733.495	252.13
733.937	278.23
734.379	320.93
734.821	349.13
735.263	442.03
735.705	647.83
736.148	1228.93
736.59	2062.03
737.032	2559.93
737.474	2079.03
737.916	661.53
738.357	348.83
738.799	260.13
739.241	235.83
739.683	234.13
740.125	238.13
740.567	242.23
741.008	263.33
741.45	256.53
741.892	256.83
742.334	285.43
742.775	288.83
743.217	284.23
743.658	220.33
744.1	199.43
744.542	215.63
744.983	250.93
745.425	274.33
745.866	284.63
746.307	227.63
746.749	227.23
747.19	252.63
747.632	351.33
748.073	684.03
748.514	1461.53
748.956	2321.53
749.397	2899.93
749.838	2417.33
750.279	2481.83
750.72	1237.83
751.162	452.43
751.603	261.03
752.044	203.53
752.485	174.13
752.926	172.53
753.367	164.43
753.808	157.63
754.249	155.13
754.69	147.13
755.131	150.43
755.572	152.93
756.013	146.23
756.453	142.53
756.894	154.73
757.335	153.63
757.776	153.73
758.216	157.83
758.657	158.33
759.098	157.03
759.538	181.13
759.979	214.33
760.42	299.23
760.86	555.13
761.301	1412.63
761.741	3542.83
762.182	5466.93
762.622	3820.43
763.063	1080.03
