Data from 20171114-ORNL-Ar_H_NY_Subt18_08-07-16-967.txt Node
Date: Tue Nov 14 08:07:16 EST 2017
User: Ender
Spectrometer: HR+D1039
Trigger mode: 0
Integration Time (sec): 2.730000E-2
Scans to average: 10
Electric dark correction enabled: true
Nonlinearity correction enabled: false
Boxcar width: 0
XAxis mode: Wavelengths
Number of Pixels in Spectrum: 2048
>>>>>Begin Spectral Data<<<<<
187.836	-6.52
188.309	-6.52
188.782	-6.52
189.255	-0.32
189.728	-2.02
190.201	2.58
190.674	0.38
191.147	4.48
191.619	-0.52
192.092	1.08
192.565	3.88
193.038	-1.22
193.511	-0.22
193.984	4.88
194.456	-2.02
194.929	-1.62
195.402	0.98
195.874	-3.82
196.347	-0.52
196.82	-5.52
197.292	8.68
197.765	-2.12
198.237	-0.62
198.71	3.58
199.182	0.38
199.655	2.88
200.127	-2.12
200.6	-4.52
201.072	-5.82
201.544	-7.82
202.017	-3.92
202.489	1.58
202.961	-1.52
203.433	-0.62
203.906	-7.72
204.378	-6.62
204.85	-5.02
205.322	-13.12
205.794	-4.42
206.266	-3.42
206.739	-12.32
207.211	-6.62
207.683	-12.12
208.155	-4.72
208.627	-5.42
209.099	-8.32
209.57	-7.52
210.042	-7.22
210.514	-6.62
210.986	-3.92
211.458	-9.12
211.93	-4.82
212.402	3.28
212.873	-4.42
213.345	-17.12
213.817	-14.52
214.288	-11.52
214.76	-8.02
215.232	-1.12
215.703	-9.02
216.175	-10.72
216.646	-6.22
217.118	-9.32
217.589	-0.32
218.061	-0.92
218.532	-5.32
219.004	-0.82
219.475	-6.62
219.946	-0.62
220.418	-7.92
220.889	-0.02
221.36	1.78
221.832	-5.72
222.303	-5.22
222.774	-4.12
223.245	-8.12
223.717	-6.02
224.188	-5.72
224.659	-10.72
225.13	-7.52
225.601	-2.92
226.072	-0.72
226.543	-0.42
227.014	-0.42
227.485	-7.82
227.956	-13.02
228.427	-3.62
228.898	0.08
229.369	6.68
229.839	-5.52
230.31	-9.62
230.781	3.88
231.252	-6.92
231.722	-5.82
232.193	-2.72
232.664	-2.82
233.135	-3.92
233.605	-8.02
234.076	-7.12
234.546	-3.72
235.017	-4.02
235.487	-3.22
235.958	-4.52
236.428	-4.52
236.899	-0.82
237.369	-0.82
237.84	-7.82
238.31	4.18
238.78	-4.72
239.251	-11.62
239.721	-7.82
240.191	-6.42
240.662	-7.42
241.132	-4.92
241.602	-8.52
242.072	-1.32
242.542	0.48
243.013	-1.62
243.483	1.58
243.953	-7.22
244.423	-3.92
244.893	-2.92
245.363	-5.52
245.833	-7.02
246.303	-9.82
246.773	2.78
247.243	0.78
247.712	-3.32
248.182	1.28
248.652	0.58
249.122	-16.72
249.592	-6.32
250.061	-5.72
250.531	3.78
251.001	-4.32
251.471	4.48
251.94	4.18
252.41	-1.92
252.879	-2.12
253.349	5.88
253.818	9.58
254.288	2.38
254.757	-2.02
255.227	-10.12
255.696	-4.32
256.166	3.38
256.635	5.88
257.105	4.08
257.574	0.68
258.043	-0.52
258.513	-7.02
258.982	-7.02
259.451	-5.92
259.92	-0.02
260.389	0.58
260.859	3.78
261.328	-0.62
261.797	-2.92
262.266	-0.62
262.735	9.08
263.204	4.58
263.673	-1.32
264.142	2.08
264.611	-10.22
265.08	-3.52
265.549	-4.82
266.018	1.98
266.487	-5.52
266.955	-8.82
267.424	-6.82
267.893	-1.32
268.362	-8.62
268.83	0.28
269.299	3.08
269.768	1.48
270.236	1.58
270.705	-3.32
271.174	-5.82
271.642	-7.22
272.111	-0.72
272.579	1.58
273.048	3.28
273.516	1.48
273.985	-0.62
274.453	3.98
274.922	9.18
275.39	2.18
275.858	-5.42
276.327	7.38
276.795	10.58
277.263	1.58
277.731	9.18
278.2	2.28
278.668	2.28
279.136	5.58
279.604	1.08
280.072	6.88
280.54	2.78
281.008	-1.62
281.477	10.68
281.945	8.38
282.413	12.78
282.881	7.18
283.348	0.98
283.816	6.38
284.284	7.78
284.752	14.08
285.22	8.68
285.688	5.48
286.156	4.88
286.623	16.58
287.091	0.08
287.559	8.98
288.026	0.88
288.494	8.48
288.962	-4.32
289.429	4.18
289.897	12.28
290.364	4.28
290.832	13.18
291.3	11.98
291.767	10.58
292.234	8.48
292.702	6.48
293.169	12.18
293.637	13.48
294.104	14.88
294.571	2.38
295.039	0.08
295.506	9.28
295.973	10.78
296.44	9.48
296.908	7.78
297.375	8.58
297.842	14.58
298.309	8.98
298.776	4.48
299.243	17.48
299.71	9.58
300.177	14.78
300.644	16.18
301.111	18.38
301.578	16.58
302.045	2.88
302.512	16.28
302.979	13.78
303.446	11.98
303.913	3.68
304.379	6.98
304.846	17.88
305.313	15.38
305.78	6.48
306.246	18.48
306.713	20.38
307.18	16.38
307.646	14.08
308.113	14.68
308.579	18.78
309.046	12.48
309.512	17.78
309.979	12.68
310.445	17.78
310.912	20.78
311.378	26.78
311.845	24.38
312.311	18.08
312.777	19.98
313.244	18.38
313.71	28.38
314.176	26.28
314.642	18.48
315.109	18.68
315.575	26.58
316.041	33.88
316.507	16.28
316.973	25.58
317.439	18.48
317.905	22.38
318.371	26.48
318.837	27.58
319.303	21.18
319.769	30.58
320.235	26.38
320.701	28.48
321.167	31.78
321.633	22.78
322.099	33.78
322.564	27.08
323.03	26.08
323.496	24.08
323.962	31.28
324.427	24.38
324.893	35.38
325.359	25.18
325.824	22.18
326.29	34.88
326.755	25.88
327.221	30.58
327.686	28.68
328.152	37.78
328.617	32.18
329.083	34.98
329.548	45.28
330.014	39.88
330.479	27.38
330.944	28.68
331.41	36.48
331.875	34.38
332.34	33.38
332.805	36.58
333.271	34.08
333.736	30.68
334.201	41.38
334.666	42.68
335.131	43.78
335.596	47.98
336.061	39.18
336.526	31.88
336.991	34.78
337.456	49.98
337.921	38.18
338.386	36.88
338.851	35.28
339.316	36.58
339.781	37.18
340.246	47.78
340.711	37.68
341.175	45.58
341.64	36.68
342.105	44.98
342.569	43.58
343.034	46.58
343.499	38.78
343.963	42.78
344.428	51.88
344.893	51.18
345.357	45.78
345.822	48.28
346.286	56.88
346.751	57.08
347.215	51.78
347.679	58.28
348.144	80.78
348.608	65.48
349.073	49.48
349.537	60.78
350.001	55.98
350.465	77.98
350.93	65.58
351.394	67.48
351.858	54.48
352.322	72.28
352.786	66.98
353.25	81.68
353.715	87.58
354.179	79.98
354.643	96.18
355.107	94.38
355.571	86.28
356.035	86.08
356.498	90.18
356.962	87.08
357.426	100.18
357.89	87.78
358.354	73.78
358.818	69.68
359.281	65.18
359.745	68.08
360.209	68.28
360.673	64.38
361.136	69.18
361.6	77.08
362.064	66.28
362.527	67.28
362.991	84.28
363.454	66.48
363.918	61.08
364.381	60.98
364.845	68.98
365.308	72.58
365.772	77.58
366.235	71.78
366.698	74.58
367.162	74.08
367.625	70.18
368.088	75.88
368.552	75.28
369.015	72.98
369.478	79.88
369.941	82.08
370.404	77.58
370.867	82.98
371.331	84.88
371.794	92.28
372.257	81.58
372.72	91.78
373.183	91.98
373.646	88.48
374.109	86.68
374.572	87.88
375.035	88.78
375.497	93.98
375.96	96.48
376.423	88.78
376.886	98.58
377.349	89.88
377.811	87.58
378.274	92.68
378.737	89.18
379.199	97.68
379.662	93.58
380.125	97.28
380.587	97.28
381.05	99.38
381.512	101.98
381.975	108.48
382.437	110.48
382.9	105.78
383.362	114.08
383.825	121.58
384.287	110.58
384.75	110.98
385.212	110.38
385.674	117.38
386.136	113.28
386.599	112.08
387.061	106.38
387.523	107.48
387.985	110.68
388.447	116.98
388.91	118.28
389.372	118.88
389.834	114.68
390.296	114.98
390.758	117.18
391.22	120.98
391.682	132.48
392.144	133.48
392.606	135.08
393.068	128.28
393.529	138.28
393.991	131.28
394.453	122.68
394.915	124.38
395.377	123.08
395.838	124.58
396.3	129.68
396.762	132.78
397.224	129.28
397.685	127.08
398.147	124.88
398.608	121.38
399.07	120.98
399.531	125.68
399.993	133.78
400.454	147.58
400.916	138.48
401.377	136.08
401.839	151.08
402.3	144.28
402.762	157.48
403.223	171.08
403.684	161.98
404.145	152.88
404.607	148.48
405.068	156.78
405.529	158.48
405.99	164.48
406.451	161.88
406.913	163.28
407.374	153.78
407.835	147.78
408.296	160.28
408.757	161.98
409.218	176.68
409.679	166.48
410.14	162.88
410.601	159.68
411.062	170.48
411.522	168.08
411.983	166.68
412.444	166.18
412.905	176.28
413.366	182.88
413.826	183.88
414.287	212.18
414.748	257.98
415.208	244.28
415.669	210.28
416.13	202.28
416.59	198.18
417.051	207.48
417.511	219.58
417.972	233.18
418.432	247.78
418.893	291.48
419.353	246.68
419.814	200.88
420.274	182.98
420.734	170.18
421.195	190.28
421.655	182.98
422.115	191.98
422.576	191.98
423.036	195.18
423.496	212.18
423.956	213.58
424.416	228.48
424.876	267.48
425.336	259.28
425.797	260.68
426.257	243.98
426.717	240.68
427.177	234.68
427.637	217.28
428.097	231.98
428.556	238.88
429.016	264.68
429.476	251.08
429.936	265.18
430.396	265.18
430.856	282.58
431.315	296.48
431.775	332.58
432.235	367.68
432.694	337.58
433.154	339.38
433.614	371.78
434.073	325.28
434.533	270.18
434.993	261.28
435.452	272.88
435.912	282.68
436.371	275.58
436.83	271.38
437.29	249.68
437.749	239.28
438.209	240.48
438.668	267.28
439.127	280.28
439.587	258.08
440.046	242.68
440.505	253.38
440.964	275.98
441.424	308.98
441.883	303.18
442.342	263.38
442.801	231.88
443.26	227.68
443.719	225.18
444.178	220.78
444.637	208.68
445.096	224.78
445.555	234.48
446.014	225.48
446.473	229.98
446.932	233.78
447.391	223.88
447.849	226.28
448.308	220.08
448.767	225.48
449.226	238.48
449.685	237.78
450.143	254.68
450.602	237.88
451.061	232.58
451.519	241.88
451.978	233.38
452.436	240.58
452.895	249.28
453.353	251.88
453.812	244.48
454.27	246.28
454.729	241.58
455.187	243.88
455.646	250.38
456.104	250.18
456.562	261.58
457.021	268.48
457.479	267.08
457.937	274.58
458.395	270.78
458.854	249.48
459.312	262.48
459.77	272.48
460.228	256.98
460.686	252.78
461.144	252.08
461.602	255.48
462.06	255.28
462.518	257.88
462.976	268.88
463.434	262.48
463.892	269.78
464.35	281.18
464.808	296.78
465.266	273.78
465.724	275.58
466.181	286.38
466.639	280.08
467.097	306.28
467.555	307.18
468.012	308.68
468.47	319.38
468.928	339.58
469.385	344.98
469.843	350.98
470.3	347.28
470.758	361.28
471.215	392.78
471.673	416.68
472.13	413.78
472.588	418.78
473.045	382.08
473.503	389.58
473.96	403.28
474.417	410.08
474.875	433.38
475.332	474.98
475.789	460.48
476.246	472.08
476.704	492.18
477.161	507.58
477.618	517.88
478.075	557.38
478.532	615.58
478.989	685.98
479.446	789.98
479.903	751.98
480.36	786.88
480.817	834.88
481.274	927.38
481.731	1019.68
482.188	1100.68
482.645	1207.48
483.102	1302.48
483.558	1403.58
484.015	1467.88
484.472	1438.38
484.929	1393.98
485.385	1344.98
485.842	1320.48
486.299	1265.28
486.755	1227.18
487.212	1045.68
487.668	902.48
488.125	833.68
488.582	776.78
489.038	747.98
489.494	710.68
489.951	680.68
490.407	672.28
490.864	655.18
491.32	657.18
491.776	660.48
492.233	651.38
492.689	623.08
493.145	621.28
493.602	610.08
494.058	618.88
494.514	623.18
494.97	653.28
495.426	654.48
495.882	631.88
496.338	622.38
496.794	631.68
497.251	633.48
497.707	642.38
498.163	646.38
498.618	646.78
499.074	662.88
499.53	683.98
499.986	683.98
500.442	659.38
500.898	635.28
501.354	618.58
501.809	624.98
502.265	644.38
502.721	630.48
503.177	660.78
503.632	663.18
504.088	663.68
504.543	690.58
504.999	705.08
505.455	666.48
505.91	657.88
506.366	652.18
506.821	652.48
507.277	647.08
507.732	641.88
508.187	642.78
508.643	658.58
509.098	660.28
509.553	678.98
510.009	691.68
510.464	682.68
510.919	714.28
511.375	721.88
511.83	730.38
512.285	735.28
512.74	775.18
513.195	803.28
513.65	787.78
514.105	788.68
514.56	787.18
515.015	800.38
515.47	822.38
515.925	809.08
516.38	807.58
516.835	810.78
517.29	799.78
517.745	795.38
518.2	789.68
518.655	778.18
519.109	766.78
519.564	756.08
520.019	752.18
520.474	742.58
520.928	738.98
521.383	730.08
521.838	728.08
522.292	735.28
522.747	731.38
523.201	728.88
523.656	712.28
524.11	713.88
524.565	714.68
525.019	709.98
525.474	718.38
525.928	715.28
526.382	724.38
526.837	714.78
527.291	724.88
527.745	715.18
528.2	718.88
528.654	712.38
529.108	715.48
529.562	710.38
530.016	712.68
530.47	712.48
530.925	718.38
531.379	710.48
531.833	719.08
532.287	721.18
532.741	724.38
533.195	716.28
533.649	731.78
534.103	735.18
534.556	728.58
535.01	731.28
535.464	725.48
535.918	732.18
536.372	742.58
536.826	741.78
537.279	715.58
537.733	725.98
538.187	733.78
538.64	731.58
539.094	749.88
539.548	751.38
540.001	735.38
540.455	734.18
540.908	746.48
541.362	757.08
541.815	770.38
542.269	782.58
542.722	783.18
543.175	783.78
543.629	801.58
544.082	810.98
544.536	809.28
544.989	811.98
545.442	820.68
545.895	828.98
546.349	821.18
546.802	822.18
547.255	821.18
547.708	827.08
548.161	840.88
548.614	841.88
549.067	848.78
549.52	845.78
549.973	832.78
550.426	842.08
550.879	830.78
551.332	819.08
551.785	836.98
552.238	832.08
552.691	860.48
553.144	851.98
553.596	866.08
554.049	894.68
554.502	927.28
554.955	949.38
555.407	938.98
555.86	938.98
556.313	920.88
556.765	913.28
557.218	906.28
557.67	913.08
558.123	907.38
558.576	900.18
559.028	908.88
559.48	911.28
559.933	907.98
560.385	866.98
560.838	840.88
561.29	824.68
561.742	827.58
562.195	791.68
562.647	786.28
563.099	805.58
563.551	789.98
564.004	813.28
564.456	804.48
564.908	780.78
565.36	765.58
565.812	745.78
566.264	736.28
566.716	737.48
567.168	729.58
567.62	733.68
568.072	721.58
568.524	714.98
568.976	711.98
569.428	689.38
569.88	701.78
570.332	701.48
570.784	721.88
571.235	714.18
571.687	725.08
572.139	736.98
572.59	725.68
573.042	736.48
573.494	734.28
573.945	725.88
574.397	709.28
574.849	715.58
575.3	711.18
575.752	702.38
576.203	698.48
576.655	707.48
577.106	691.18
577.557	683.58
578.009	686.98
578.46	681.78
578.912	675.78
579.363	689.38
579.814	690.98
580.265	696.38
580.717	692.08
581.168	697.08
581.619	703.38
582.07	696.68
582.521	696.48
582.972	686.58
583.423	707.08
583.875	696.18
584.326	700.58
584.777	718.28
585.227	726.18
585.678	731.18
586.129	751.28
586.58	755.78
587.031	785.28
587.482	810.78
587.933	825.28
588.384	805.78
588.834	799.58
589.285	789.88
589.736	798.58
590.186	785.18
590.637	775.28
591.088	770.48
591.538	763.38
591.989	752.28
592.439	743.28
592.89	735.98
593.34	721.08
593.791	729.18
594.241	717.98
594.692	711.98
595.142	724.08
595.593	707.58
596.043	723.48
596.493	729.68
596.943	724.58
597.394	751.68
597.844	723.48
598.294	750.78
598.744	777.78
599.195	805.58
599.645	840.88
600.095	881.28
600.545	957.78
600.995	998.18
601.445	1053.68
601.895	1117.28
602.345	1166.78
602.795	1154.88
603.245	1095.78
603.695	1041.48
604.145	992.68
604.594	940.18
605.044	887.18
605.494	827.28
605.944	774.78
606.393	760.38
606.843	741.18
607.293	749.48
607.743	737.78
608.192	758.38
608.642	774.08
609.091	777.98
609.541	778.88
609.99	779.38
610.44	764.18
610.889	728.98
611.339	713.78
611.788	694.18
612.238	714.58
612.687	714.28
613.136	711.98
613.586	720.18
614.035	711.38
614.484	724.08
614.933	715.38
615.383	720.08
615.832	719.48
616.281	721.38
616.73	678.78
617.179	672.78
617.628	642.18
618.077	646.98
618.526	634.98
618.975	622.68
619.424	621.58
619.873	618.28
620.322	618.88
620.771	627.58
621.22	622.48
621.669	604.48
622.118	592.68
622.567	587.58
623.015	581.68
623.464	581.48
623.913	579.08
624.361	560.58
624.81	560.48
625.259	562.18
625.707	564.48
626.156	569.98
626.604	575.38
627.053	566.08
627.501	578.18
627.95	580.28
628.398	587.28
628.847	579.58
629.295	584.78
629.744	586.88
630.192	571.98
630.64	578.18
631.089	559.18
631.537	559.18
631.985	547.88
632.433	542.58
632.881	532.48
633.33	535.88
633.778	539.38
634.226	535.78
634.674	539.68
635.122	539.58
635.57	558.38
636.018	558.68
636.466	561.98
636.914	572.58
637.362	581.78
637.81	587.98
638.258	582.18
638.705	584.08
639.153	610.58
639.601	623.58
640.049	661.68
640.497	684.48
640.944	704.38
641.392	651.28
641.84	620.18
642.287	594.98
642.735	578.48
643.182	575.28
643.63	573.48
644.078	571.68
644.525	575.98
644.973	589.38
645.42	597.58
645.867	633.48
646.315	635.98
646.762	668.08
647.21	692.38
647.657	716.78
648.104	745.68
648.551	752.08
648.999	807.68
649.446	885.28
649.893	967.18
650.34	1115.48
650.787	1322.28
651.234	1633.78
651.682	2086.18
652.129	2830.18
652.576	4036.88
653.023	5874.18
653.47	7943.88
653.917	9871.88
654.363	11362.78
654.81	12551.38
655.257	11862.18
655.704	7857.88
656.151	4758.48
656.598	3114.38
657.044	2238.68
657.491	1734.78
657.938	1406.58
658.385	1179.28
658.831	1040.48
659.278	948.58
659.724	832.08
660.171	756.38
660.618	714.28
661.064	674.48
661.511	659.08
661.957	652.98
662.404	636.18
662.85	650.28
663.296	624.18
663.743	566.28
664.189	543.28
664.635	539.68
665.082	525.88
665.528	536.98
665.974	523.58
666.42	522.58
666.867	518.18
667.313	489.18
667.759	478.18
668.205	454.18
668.651	453.38
669.097	454.58
669.543	451.68
669.989	442.48
670.435	455.68
670.881	455.58
671.327	463.08
671.773	489.58
672.219	506.78
672.665	549.58
673.11	599.68
673.556	644.98
674.002	690.58
674.448	667.18
674.893	564.98
675.339	491.28
675.785	453.98
676.23	430.18
676.676	401.08
677.122	393.58
677.567	378.38
678.013	370.28
678.458	366.28
678.904	369.98
679.349	349.48
679.794	358.28
680.24	357.88
680.685	356.28
681.131	357.38
681.576	362.58
682.021	363.18
682.466	363.98
682.912	352.88
683.357	358.18
683.802	387.28
684.247	413.18
684.692	465.98
685.137	510.68
685.583	546.28
686.028	567.68
686.473	526.68
686.918	456.88
687.363	422.18
687.807	398.68
688.252	373.08
688.697	353.48
689.142	341.88
689.587	339.58
690.032	328.48
690.477	354.68
690.921	360.18
691.366	385.18
691.811	414.78
692.255	430.28
692.7	471.68
693.145	527.28
693.589	715.08
694.034	1175.68
694.478	1600.98
694.923	1803.88
695.367	2322.48
695.812	1235.58
696.256	510.98
696.701	378.18
697.145	348.38
697.59	335.78
698.034	324.28
698.478	336.48
698.922	333.18
699.367	329.78
699.811	336.88
700.255	360.68
700.699	392.38
701.143	430.28
701.588	488.48
702.032	526.68
702.476	517.88
702.92	503.68
703.364	513.08
703.808	671.38
704.252	1088.08
704.696	1517.98
705.14	1727.28
705.584	2205.88
706.027	1090.48
706.471	540.38
706.915	407.78
707.359	368.08
707.803	329.38
708.246	318.88
708.69	322.58
709.134	316.78
709.577	315.08
710.021	325.68
710.465	313.88
710.908	313.78
711.352	312.78
711.795	316.18
712.239	354.38
712.682	392.38
713.126	421.48
713.569	460.78
714.012	360.68
714.456	305.78
714.899	294.88
715.342	283.48
715.786	266.88
716.229	255.58
716.672	257.38
717.115	251.58
717.558	250.68
718.002	250.18
718.445	270.08
718.888	296.18
719.331	298.78
719.774	316.08
720.217	301.48
720.66	293.88
721.103	274.48
721.546	261.08
721.989	260.68
722.432	234.68
722.874	239.48
723.317	231.18
723.76	236.88
724.203	260.08
724.645	327.28
725.088	466.68
725.531	589.38
725.974	654.08
726.416	564.58
726.859	312.98
727.301	254.38
727.744	242.28
728.187	238.08
728.629	243.28
729.071	250.68
729.514	267.48
729.956	279.28
730.399	289.98
730.841	295.18
731.283	281.68
731.726	268.98
732.168	262.38
732.61	280.08
733.053	296.18
733.495	323.88
733.937	362.68
734.379	404.38
734.821	451.48
735.263	557.78
735.705	869.38
736.148	1640.98
736.59	2690.18
737.032	3159.18
737.474	2563.18
737.916	844.78
738.357	449.98
738.799	338.48
739.241	312.68
739.683	285.38
740.125	298.58
740.567	310.28
741.008	319.68
741.45	325.98
741.892	324.58
742.334	360.58
742.775	375.38
743.217	357.18
743.658	282.98
744.1	263.48
744.542	277.38
744.983	323.28
745.425	352.18
745.866	350.48
746.307	290.18
746.749	280.88
747.19	331.88
747.632	478.18
748.073	933.98
748.514	1951.18
748.956	2953.48
749.397	3742.98
749.838	3088.78
750.279	3088.98
750.72	1554.58
751.162	572.58
751.603	337.08
752.044	258.68
752.485	225.58
752.926	215.78
753.367	200.08
753.808	198.38
754.249	193.28
754.69	190.28
755.131	190.78
755.572	189.28
756.013	183.78
756.453	193.38
756.894	196.58
757.335	192.88
757.776	196.98
758.216	207.38
758.657	206.48
759.098	200.08
759.538	231.68
759.979	271.28
760.42	383.28
760.86	733.58
761.301	1935.88
761.741	4624.78
762.182	6642.28
762.622	4696.88
763.063	1368.58
763.503	557.78
