Data from 20171114-ORNL-Ar_H_NY_Subt18_08-04-44-647.txt Node
Date: Tue Nov 14 08:04:44 EST 2017
User: Ender
Spectrometer: HR+D1039
Trigger mode: 0
Integration Time (sec): 2.730000E-2
Scans to average: 10
Electric dark correction enabled: true
Nonlinearity correction enabled: false
Boxcar width: 0
XAxis mode: Wavelengths
Number of Pixels in Spectrum: 2048
>>>>>Begin Spectral Data<<<<<
187.836	-10.51
188.309	-10.51
188.782	-10.51
189.255	1.49
189.728	-0.01
190.201	0.79
190.674	4.59
191.147	-0.41
191.619	-7.21
192.092	5.09
192.565	5.79
193.038	0.79
193.511	-0.31
193.984	1.09
194.456	-0.71
194.929	2.09
195.402	-3.31
195.874	0.69
196.347	3.99
196.82	-4.41
197.292	6.39
197.765	3.79
198.237	-6.91
198.71	7.19
199.182	-2.11
199.655	4.39
200.127	0.69
200.6	-0.41
201.072	1.39
201.544	-2.51
202.017	0.79
202.489	6.19
202.961	-1.61
203.433	4.09
203.906	-6.01
204.378	-3.31
204.85	-2.91
205.322	-11.11
205.794	-1.61
206.266	-2.21
206.739	-10.61
207.211	1.99
207.683	-6.01
208.155	0.59
208.627	-7.01
209.099	-0.31
209.57	-4.01
210.042	-4.61
210.514	-1.81
210.986	-5.61
211.458	-6.41
211.93	-3.21
212.402	6.29
212.873	-5.31
213.345	-9.71
213.817	-14.11
214.288	-6.21
214.76	-10.41
215.232	1.59
215.703	-1.71
216.175	-5.51
216.646	-1.01
217.118	-5.31
217.589	-0.91
218.061	2.19
218.532	-8.41
219.004	0.79
219.475	-6.61
219.946	-3.31
220.418	-9.01
220.889	4.79
221.36	-1.11
221.832	-1.71
222.303	-5.81
222.774	-0.81
223.245	1.19
223.717	-2.21
224.188	-6.01
224.659	-8.01
225.13	-6.31
225.601	-2.11
226.072	7.49
226.543	3.49
227.014	0.69
227.485	1.99
227.956	-1.31
228.427	-1.21
228.898	-1.01
229.369	4.99
229.839	0.39
230.31	-8.71
230.781	-0.01
231.252	-0.21
231.722	-2.41
232.193	-0.81
232.664	6.19
233.135	0.59
233.605	-2.71
234.076	-5.21
234.546	8.19
235.017	3.49
235.487	6.29
235.958	0.99
236.428	-5.01
236.899	7.89
237.369	2.79
237.84	-0.91
238.31	11.49
238.78	6.39
239.251	2.39
239.721	6.89
240.191	3.09
240.662	6.09
241.132	7.69
241.602	0.59
242.072	4.69
242.542	10.89
243.013	0.59
243.483	6.39
243.953	5.39
244.423	7.19
244.893	2.69
245.363	7.89
245.833	4.49
246.303	1.39
246.773	9.09
247.243	1.29
247.712	-0.01
248.182	14.69
248.652	11.99
249.122	2.39
249.592	15.99
250.061	26.89
250.531	40.19
251.001	14.69
251.471	26.99
251.94	17.79
252.41	12.39
252.879	8.09
253.349	17.89
253.818	13.69
254.288	5.39
254.757	11.69
255.227	0.89
255.696	5.19
256.166	8.99
256.635	9.19
257.105	13.19
257.574	8.59
258.043	14.29
258.513	13.09
258.982	16.69
259.451	9.79
259.92	20.99
260.389	19.09
260.859	22.09
261.328	13.29
261.797	30.09
262.266	15.09
262.735	17.69
263.204	13.19
263.673	6.79
264.142	12.39
264.611	1.59
265.08	5.99
265.549	2.69
266.018	4.09
266.487	3.29
266.955	2.69
267.424	7.09
267.893	10.79
268.362	1.39
268.83	2.19
269.299	18.09
269.768	10.59
270.236	9.89
270.705	4.49
271.174	7.49
271.642	9.79
272.111	10.39
272.579	25.29
273.048	28.79
273.516	37.49
273.985	31.89
274.453	35.99
274.922	24.89
275.39	15.19
275.858	4.29
276.327	11.99
276.795	17.59
277.263	15.09
277.731	32.59
278.2	58.19
278.668	69.79
279.136	59.39
279.604	18.39
280.072	15.79
280.54	14.59
281.008	19.29
281.477	18.29
281.945	11.19
282.413	14.99
282.881	16.79
283.348	11.89
283.816	16.79
284.284	17.39
284.752	19.79
285.22	21.59
285.688	19.59
286.156	18.19
286.623	47.19
287.091	62.89
287.559	35.79
288.026	23.19
288.494	19.29
288.962	8.49
289.429	17.39
289.897	25.59
290.364	17.59
290.832	22.09
291.3	22.09
291.767	17.49
292.234	21.89
292.702	19.19
293.169	19.89
293.637	28.49
294.104	20.79
294.571	14.09
295.039	11.89
295.506	19.89
295.973	23.49
296.44	17.29
296.908	18.99
297.375	22.69
297.842	18.99
298.309	15.89
298.776	14.69
299.243	21.89
299.71	22.49
300.177	24.19
300.644	19.39
301.111	22.09
301.578	25.59
302.045	18.69
302.512	26.29
302.979	25.29
303.446	22.39
303.913	25.29
304.379	22.89
304.846	40.89
305.313	25.89
305.78	23.29
306.246	30.59
306.713	28.89
307.18	38.19
307.646	33.89
308.113	29.59
308.579	25.39
309.046	33.69
309.512	26.49
309.979	23.89
310.445	32.89
310.912	25.49
311.378	32.79
311.845	29.59
312.311	36.29
312.777	31.59
313.244	33.59
313.71	41.39
314.176	39.99
314.642	34.99
315.109	31.09
315.575	40.19
316.041	41.09
316.507	33.39
316.973	36.89
317.439	43.99
317.905	40.29
318.371	40.59
318.837	33.49
319.303	29.89
319.769	37.99
320.235	35.49
320.701	43.19
321.167	37.49
321.633	40.29
322.099	42.89
322.564	51.59
323.03	39.39
323.496	42.99
323.962	47.19
324.427	43.99
324.893	48.89
325.359	36.59
325.824	37.49
326.29	38.49
326.755	46.99
327.221	43.99
327.686	45.19
328.152	57.59
328.617	45.49
329.083	50.89
329.548	46.59
330.014	51.99
330.479	43.59
330.944	47.79
331.41	44.79
331.875	48.59
332.34	41.69
332.805	45.69
333.271	48.29
333.736	50.39
334.201	54.79
334.666	52.59
335.131	57.89
335.596	58.09
336.061	48.89
336.526	44.29
336.991	46.29
337.456	53.69
337.921	49.09
338.386	47.79
338.851	45.19
339.316	49.19
339.781	50.89
340.246	55.89
340.711	46.59
341.175	50.39
341.64	50.09
342.105	54.39
342.569	59.09
343.034	63.09
343.499	58.09
343.963	58.29
344.428	66.89
344.893	63.69
345.357	60.79
345.822	61.69
346.286	77.49
346.751	78.69
347.215	69.29
347.679	71.69
348.144	96.89
348.608	90.19
349.073	68.49
349.537	78.89
350.001	82.19
350.465	88.09
350.93	80.59
351.394	85.69
351.858	74.99
352.322	95.39
352.786	84.79
353.25	94.39
353.715	110.39
354.179	104.89
354.643	124.39
355.107	126.99
355.571	107.49
356.035	107.89
356.498	122.09
356.962	125.99
357.426	136.69
357.89	121.09
358.354	91.09
358.818	87.29
359.281	81.49
359.745	80.09
360.209	78.99
360.673	78.59
361.136	81.19
361.6	90.99
362.064	82.89
362.527	84.79
362.991	89.69
363.454	79.89
363.918	79.39
364.381	80.09
364.845	79.99
365.308	87.39
365.772	79.89
366.235	86.79
366.698	87.59
367.162	87.99
367.625	96.09
368.088	93.49
368.552	91.19
369.015	91.59
369.478	101.69
369.941	101.39
370.404	95.49
370.867	101.79
371.331	108.29
371.794	114.89
372.257	116.89
372.72	118.69
373.183	107.79
373.646	107.29
374.109	107.39
374.572	107.79
375.035	112.39
375.497	111.09
375.96	105.79
376.423	104.19
376.886	107.39
377.349	105.99
377.811	107.19
378.274	104.19
378.737	110.89
379.199	115.59
379.662	107.79
380.125	112.79
380.587	104.39
381.05	119.09
381.512	123.49
381.975	133.39
382.437	122.79
382.9	125.59
383.362	125.19
383.825	131.99
384.287	147.39
384.75	140.89
385.212	134.89
385.674	139.89
386.136	141.19
386.599	120.79
387.061	124.69
387.523	125.49
387.985	131.79
388.447	140.89
388.91	138.69
389.372	154.49
389.834	145.29
390.296	144.19
390.758	149.29
391.22	164.59
391.682	206.19
392.144	285.39
392.606	224.39
393.068	168.19
393.529	165.89
393.991	147.39
394.453	142.09
394.915	150.39
395.377	183.39
395.838	203.69
396.3	153.79
396.762	137.49
397.224	127.99
397.685	120.49
398.147	126.79
398.608	126.59
399.07	124.49
399.531	137.59
399.993	140.99
400.454	153.09
400.916	137.49
401.377	139.69
401.839	143.59
402.3	139.89
402.762	155.49
403.223	181.49
403.684	166.29
404.145	156.29
404.607	153.79
405.068	155.39
405.529	166.79
405.99	178.59
406.451	167.79
406.913	169.19
407.374	155.39
407.835	155.89
408.296	157.69
408.757	166.09
409.218	182.89
409.679	173.09
410.14	168.69
410.601	173.39
411.062	181.29
411.522	179.19
411.983	180.69
412.444	167.69
412.905	176.89
413.366	174.09
413.826	182.19
414.287	206.89
414.748	255.69
415.208	244.69
415.669	204.69
416.13	195.19
416.59	192.79
417.051	206.89
417.511	207.69
417.972	230.19
418.432	241.49
418.893	280.29
419.353	238.69
419.814	190.79
420.274	180.99
420.734	170.49
421.195	190.29
421.655	190.59
422.115	181.49
422.576	184.19
423.036	185.09
423.496	200.89
423.956	210.09
424.416	216.29
424.876	257.89
425.336	251.29
425.797	255.89
426.257	250.89
426.717	220.59
427.177	220.59
427.637	214.29
428.097	225.79
428.556	238.89
429.016	252.69
429.476	255.09
429.936	262.39
430.396	265.79
430.856	279.09
431.315	307.29
431.775	335.89
432.235	360.19
432.694	336.79
433.154	342.49
433.614	370.69
434.073	311.19
434.533	278.09
434.993	256.89
435.452	267.39
435.912	274.29
436.371	268.89
436.83	268.39
437.29	254.29
437.749	233.79
438.209	230.69
438.668	255.29
439.127	270.69
439.587	257.69
440.046	241.59
440.505	253.59
440.964	265.69
441.424	304.19
441.883	294.49
442.342	244.49
442.801	216.39
443.26	214.09
443.719	216.09
444.178	212.79
444.637	198.39
445.096	208.29
445.555	215.09
446.014	211.39
446.473	210.89
446.932	225.29
447.391	214.89
447.849	214.49
448.308	201.49
448.767	210.99
449.226	220.29
449.685	233.39
450.143	235.79
450.602	225.79
451.061	213.99
451.519	216.19
451.978	217.89
452.436	221.59
452.895	228.29
453.353	241.39
453.812	226.09
454.27	233.19
454.729	222.39
455.187	233.29
455.646	233.59
456.104	235.39
456.562	248.39
457.021	258.79
457.479	245.69
457.937	262.59
458.395	247.29
458.854	232.69
459.312	240.19
459.77	254.99
460.228	246.09
460.686	230.89
461.144	242.39
461.602	229.09
462.06	230.09
462.518	245.79
462.976	241.09
463.434	245.79
463.892	255.79
464.35	260.39
464.808	272.29
465.266	254.29
465.724	259.69
466.181	261.09
466.639	263.99
467.097	277.49
467.555	288.39
468.012	290.69
468.47	290.09
468.928	313.89
469.385	322.39
469.843	324.29
470.3	328.29
470.758	341.99
471.215	364.29
471.673	397.39
472.13	383.49
472.588	388.99
473.045	354.39
473.503	358.49
473.96	370.59
474.417	380.29
474.875	410.79
475.332	449.49
475.789	440.69
476.246	438.29
476.704	457.99
477.161	478.19
477.618	495.49
478.075	529.69
478.532	585.19
478.989	661.49
479.446	759.89
479.903	738.99
480.36	771.69
480.817	817.79
481.274	935.29
481.731	1023.59
482.188	1113.79
482.645	1244.79
483.102	1345.29
483.558	1488.49
484.015	1545.19
484.472	1522.69
484.929	1471.19
485.385	1417.89
485.842	1378.89
486.299	1314.79
486.755	1231.89
487.212	1044.19
487.668	886.49
488.125	813.59
488.582	743.39
489.038	716.99
489.494	681.49
489.951	663.19
490.407	633.59
490.864	613.89
491.32	610.99
491.776	614.39
492.233	609.09
492.689	583.49
493.145	585.59
493.602	574.19
494.058	581.69
494.514	573.29
494.97	608.49
495.426	617.29
495.882	586.29
496.338	586.59
496.794	602.69
497.251	596.09
497.707	601.79
498.163	611.39
498.618	627.19
499.074	620.19
499.53	638.89
499.986	636.19
500.442	621.29
500.898	597.99
501.354	585.89
501.809	597.09
502.265	610.19
502.721	628.19
503.177	632.89
503.632	628.59
504.088	641.69
504.543	669.89
504.999	678.99
505.455	631.59
505.91	598.49
506.366	608.99
506.821	593.29
507.277	583.49
507.732	591.59
508.187	587.09
508.643	598.59
509.098	599.99
509.553	625.19
510.009	632.09
510.464	634.19
510.919	652.79
511.375	665.39
511.83	663.19
512.285	690.29
512.74	721.39
513.195	751.79
513.65	734.89
514.105	728.69
514.56	731.39
515.015	757.69
515.47	773.29
515.925	754.79
516.38	760.89
516.835	755.09
517.29	744.59
517.745	739.19
518.2	718.09
518.655	715.69
519.109	707.89
519.564	709.09
520.019	688.79
520.474	699.59
520.928	691.19
521.383	685.09
521.838	673.79
522.292	674.99
522.747	669.19
523.201	659.49
523.656	655.79
524.11	647.69
524.565	652.29
525.019	651.59
525.474	663.29
525.928	669.79
526.382	663.19
526.837	656.79
527.291	664.89
527.745	656.59
528.2	662.69
528.654	656.29
529.108	640.79
529.562	652.09
530.016	655.09
530.47	656.39
530.925	655.39
531.379	653.49
531.833	675.39
532.287	659.49
532.741	657.99
533.195	667.59
533.649	675.49
534.103	679.09
534.556	670.89
535.01	674.19
535.464	671.59
535.918	682.09
536.372	684.39
536.826	676.69
537.279	669.09
537.733	670.09
538.187	665.49
538.64	670.69
539.094	683.69
539.548	685.79
540.001	681.79
540.455	678.79
540.908	691.99
541.362	691.29
541.815	704.69
542.269	708.79
542.722	731.29
543.175	720.29
543.629	716.89
544.082	734.19
544.536	737.49
544.989	732.09
545.442	737.59
545.895	738.99
546.349	730.49
546.802	747.19
547.255	749.59
547.708	748.39
548.161	760.79
548.614	767.99
549.067	774.09
549.52	769.39
549.973	774.19
550.426	752.39
550.879	739.79
551.332	753.09
551.785	747.69
552.238	756.79
552.691	766.89
553.144	778.39
553.596	788.29
554.049	807.19
554.502	832.99
554.955	860.89
555.407	858.69
555.86	841.59
556.313	835.29
556.765	823.79
557.218	831.49
557.67	818.29
558.123	818.49
558.576	810.39
559.028	824.99
559.48	819.29
559.933	802.59
560.385	783.99
560.838	749.29
561.29	728.99
561.742	732.69
562.195	712.49
562.647	703.69
563.099	727.59
563.551	711.69
564.004	725.49
564.456	725.49
564.908	707.29
565.36	690.59
565.812	684.49
566.264	670.39
566.716	676.89
567.168	666.19
567.62	671.69
568.072	653.79
568.524	649.99
568.976	629.89
569.428	625.19
569.88	622.39
570.332	625.09
570.784	631.29
571.235	626.19
571.687	637.69
572.139	648.39
572.59	659.39
573.042	660.29
573.494	662.89
573.945	652.49
574.397	630.19
574.849	634.79
575.3	641.99
575.752	619.89
576.203	626.99
576.655	633.09
577.106	621.59
577.557	610.99
578.009	622.69
578.46	612.09
578.912	616.79
579.363	614.49
579.814	614.29
580.265	609.49
580.717	626.49
581.168	622.39
581.619	632.19
582.07	631.79
582.521	619.89
582.972	617.39
583.423	623.49
583.875	624.79
584.326	646.39
584.777	685.49
585.227	755.79
585.678	849.69
586.129	941.89
586.58	1002.39
587.031	1082.79
587.482	1248.59
587.933	1429.29
588.384	1240.69
588.834	920.69
589.285	749.89
589.736	724.79
590.186	705.89
590.637	710.79
591.088	673.49
591.538	672.39
591.989	673.29
592.439	658.49
592.89	657.69
593.34	655.99
593.791	652.29
594.241	647.19
594.692	654.19
595.142	637.39
595.593	637.99
596.043	634.59
596.493	656.09
596.943	655.69
597.394	650.89
597.844	640.69
598.294	665.49
598.744	678.29
599.195	695.39
599.645	743.99
600.095	781.39
600.545	833.49
600.995	874.29
601.445	933.29
601.895	996.19
602.345	1030.49
602.795	1005.49
603.245	967.39
603.695	928.49
604.145	877.29
604.594	825.49
605.044	785.89
605.494	728.59
605.944	676.89
606.393	681.79
606.843	657.19
607.293	661.99
607.743	667.19
608.192	673.19
608.642	691.29
609.091	689.79
609.541	692.19
609.99	693.49
610.44	687.09
610.889	655.79
611.339	629.99
611.788	626.49
612.238	633.09
612.687	641.89
613.136	650.29
613.586	667.99
614.035	674.69
614.484	687.29
614.933	684.59
615.383	674.69
615.832	674.29
616.281	654.39
616.73	621.69
617.179	592.49
617.628	581.19
618.077	566.99
618.526	564.99
618.975	549.49
619.424	548.39
619.873	556.79
620.322	558.39
620.771	536.99
621.22	534.59
621.669	529.19
622.118	526.59
622.567	522.59
623.015	504.09
623.464	500.49
623.913	496.49
624.361	492.09
624.81	497.89
625.259	488.59
625.707	499.09
626.156	497.69
626.604	507.69
627.053	509.99
627.501	502.49
627.95	502.89
628.398	517.09
628.847	503.29
629.295	504.19
629.744	519.29
630.192	512.59
630.64	509.99
631.089	501.89
631.537	519.69
631.985	519.09
632.433	529.69
632.881	531.49
633.33	583.09
633.778	566.89
634.226	501.59
634.674	504.19
635.122	511.99
635.57	533.09
636.018	556.79
636.466	512.69
636.914	492.99
637.362	504.09
637.81	513.09
638.258	506.69
638.705	514.99
639.153	541.49
639.601	542.39
640.049	570.29
640.497	595.09
640.944	610.39
641.392	572.89
641.84	537.29
642.287	512.99
642.735	502.49
643.182	516.79
643.63	505.89
644.078	517.79
644.525	524.89
644.973	524.49
645.42	535.89
645.867	547.39
646.315	551.39
646.762	584.49
647.21	607.39
647.657	625.39
648.104	672.39
648.551	681.39
648.999	741.29
649.446	808.59
649.893	890.09
650.34	1024.79
650.787	1230.99
651.234	1527.09
651.682	1968.99
652.129	2699.19
652.576	3890.79
653.023	5771.39
653.47	7941.19
653.917	10042.09
654.363	11747.89
654.81	13125.29
655.257	12492.39
655.704	8112.59
656.151	4770.49
656.598	3081.69
657.044	2186.39
657.491	1678.79
657.938	1329.39
658.385	1109.19
658.831	969.79
659.278	855.69
659.724	767.79
660.171	695.69
660.618	641.99
661.064	609.89
661.511	589.59
661.957	572.89
662.404	567.89
662.85	574.39
663.296	545.89
663.743	491.89
664.189	477.99
664.635	476.29
665.082	460.19
665.528	462.89
665.974	453.59
666.42	446.09
666.867	449.89
667.313	425.99
667.759	412.39
668.205	424.89
668.651	425.49
669.097	426.59
669.543	449.49
669.989	422.89
670.435	394.09
670.881	390.29
671.327	395.39
671.773	406.69
672.219	424.69
672.665	485.39
673.11	502.59
673.556	546.79
674.002	585.69
674.448	566.69
674.893	486.29
675.339	417.19
675.785	395.19
676.23	361.59
676.676	341.39
677.122	332.79
677.567	326.79
678.013	326.29
678.458	312.49
678.904	313.79
679.349	299.99
679.794	311.79
680.24	300.29
680.685	307.99
681.131	300.49
681.576	304.59
682.021	308.99
682.466	291.99
682.912	304.09
683.357	309.09
683.802	331.69
684.247	357.79
684.692	402.49
685.137	425.79
685.583	464.89
686.028	490.39
686.473	453.79
686.918	385.99
687.363	355.79
687.807	345.59
688.252	320.09
688.697	301.49
689.142	285.99
689.587	289.49
690.032	283.49
690.477	292.59
690.921	310.69
691.366	326.99
691.811	353.79
692.255	376.29
692.7	409.89
693.145	435.59
693.589	591.99
694.034	962.29
694.478	1314.79
694.923	1529.79
695.367	2003.59
695.812	1041.79
696.256	435.89
696.701	326.29
697.145	293.89
697.59	288.89
698.034	277.49
698.478	282.49
698.922	283.59
699.367	288.99
699.811	301.89
700.255	310.79
700.699	333.79
701.143	367.89
701.588	417.49
702.032	447.89
702.476	441.49
702.92	418.29
703.364	420.49
703.808	531.69
704.252	871.49
704.696	1237.89
705.14	1468.49
705.584	1880.69
706.027	925.39
706.471	445.99
706.915	335.19
707.359	302.09
707.803	274.59
708.246	275.39
708.69	268.89
709.134	271.79
709.577	269.49
710.021	278.19
710.465	274.19
710.908	257.19
711.352	252.59
711.795	275.29
712.239	298.99
712.682	326.69
713.126	365.89
713.569	405.89
714.012	324.49
714.456	284.99
714.899	261.99
715.342	236.79
715.786	220.59
716.229	220.59
716.672	223.49
717.115	224.99
717.558	213.79
718.002	215.29
718.445	226.69
718.888	249.39
719.331	253.29
719.774	274.59
720.217	262.89
720.66	245.89
721.103	227.89
721.546	219.89
721.989	212.29
722.432	201.69
722.874	204.69
723.317	195.59
723.76	212.39
724.203	231.19
724.645	269.79
725.088	372.49
725.531	485.29
725.974	560.79
726.416	480.99
726.859	260.59
727.301	210.09
727.744	204.79
728.187	206.69
728.629	211.99
729.071	206.69
729.514	224.99
729.956	232.39
730.399	244.99
730.841	253.89
731.283	238.79
731.726	225.89
732.168	226.79
732.61	230.69
733.053	241.99
733.495	270.99
733.937	300.19
734.379	345.59
734.821	377.19
735.263	444.69
735.705	700.49
736.148	1310.19
736.59	2198.29
737.032	2706.19
737.474	2185.89
737.916	695.39
738.357	362.99
738.799	282.49
739.241	257.89
739.683	246.79
740.125	251.19
740.567	262.19
741.008	274.29
741.45	276.79
741.892	265.79
742.334	292.89
742.775	315.79
743.217	298.19
743.658	235.39
744.1	214.69
744.542	221.89
744.983	262.59
745.425	298.99
745.866	298.69
746.307	251.69
746.749	244.79
747.19	281.89
747.632	375.99
748.073	727.49
748.514	1547.09
748.956	2435.79
749.397	3069.29
749.838	2550.59
750.279	2619.49
750.72	1303.29
751.162	472.79
751.603	276.69
752.044	212.19
752.485	196.89
752.926	179.39
753.367	179.79
753.808	167.29
754.249	166.39
754.69	150.39
755.131	159.69
755.572	158.49
756.013	151.89
756.453	165.59
756.894	163.49
757.335	166.49
757.776	173.29
758.216	167.29
758.657	165.79
759.098	173.59
759.538	196.89
759.979	223.79
760.42	314.49
760.86	580.19
761.301	1509.89
761.741	3729.29
762.182	5698.59
762.622	4002.39
