Data from 20171114-ORNL-Ar_H_NY_Subt18_08-03-29-851.txt Node
Date: Tue Nov 14 08:03:29 EST 2017
User: Ender
Spectrometer: HR+D1039
Trigger mode: 0
Integration Time (sec): 2.730000E-2
Scans to average: 10
Electric dark correction enabled: true
Nonlinearity correction enabled: false
Boxcar width: 0
XAxis mode: Wavelengths
Number of Pixels in Spectrum: 2048
>>>>>Begin Spectral Data<<<<<
187.836	-5.12
188.309	-5.12
188.782	-5.12
189.255	-3.22
189.728	-2.32
190.201	4.18
190.674	0.78
191.147	-1.22
191.619	-6.52
192.092	0.78
192.565	3.18
193.038	1.38
193.511	4.38
193.984	3.48
194.456	-3.32
194.929	4.28
195.402	-2.12
195.874	1.38
196.347	3.68
196.82	-4.32
197.292	5.18
197.765	0.48
198.237	-3.22
198.71	4.08
199.182	1.08
199.655	4.28
200.127	3.38
200.6	-0.12
201.072	0.98
201.544	0.38
202.017	2.98
202.489	4.18
202.961	0.08
203.433	-8.42
203.906	-6.42
204.378	-1.12
204.85	-0.12
205.322	-12.22
205.794	-8.32
206.266	-2.02
206.739	-8.12
207.211	9.28
207.683	-6.92
208.155	-1.62
208.627	-3.42
209.099	-1.92
209.57	-8.42
210.042	-3.02
210.514	-0.62
210.986	-4.72
211.458	-8.62
211.93	-5.12
212.402	-0.82
212.873	-0.82
213.345	-7.22
213.817	-15.02
214.288	-7.82
214.76	-10.02
215.232	1.58
215.703	0.48
216.175	-7.52
216.646	-4.12
217.118	-6.92
217.589	-3.32
218.061	2.18
218.532	-6.02
219.004	-1.12
219.475	-1.92
219.946	-0.62
220.418	-10.62
220.889	9.38
221.36	2.48
221.832	-5.52
222.303	-3.62
222.774	3.28
223.245	-4.72
223.717	-3.12
224.188	-1.82
224.659	-10.52
225.13	-3.22
225.601	-2.92
226.072	0.58
226.543	-4.42
227.014	-2.32
227.485	-10.02
227.956	-10.12
228.427	-6.62
228.898	-5.42
229.369	5.08
229.839	-8.92
230.31	-8.42
230.781	-2.12
231.252	-3.22
231.722	-5.82
232.193	-4.82
232.664	0.38
233.135	-1.52
233.605	1.48
234.076	-5.12
234.546	-1.82
235.017	1.38
235.487	2.48
235.958	2.78
236.428	-4.12
236.899	-5.02
237.369	1.88
237.84	-8.42
238.31	0.78
238.78	-4.72
239.251	-10.42
239.721	-1.52
240.191	1.08
240.662	-9.82
241.132	-4.12
241.602	-6.62
242.072	-6.42
242.542	2.58
243.013	-1.22
243.483	-1.42
243.953	-0.62
244.423	-3.52
244.893	-7.72
245.363	4.78
245.833	0.18
246.303	-5.22
246.773	-5.12
247.243	-5.42
247.712	-0.82
248.182	-1.22
248.652	1.38
249.122	-10.42
249.592	1.18
250.061	-5.12
250.531	5.88
251.001	-7.22
251.471	0.08
251.94	0.58
252.41	-9.22
252.879	-10.32
253.349	5.48
253.818	3.78
254.288	-0.82
254.757	-0.82
255.227	-11.62
255.696	-3.32
256.166	1.48
256.635	-2.82
257.105	-0.52
257.574	-1.02
258.043	-2.82
258.513	-12.72
258.982	-5.12
259.451	-4.52
259.92	-3.02
260.389	-6.82
260.859	2.68
261.328	-5.02
261.797	-2.42
262.266	-2.82
262.735	4.98
263.204	0.88
263.673	-5.72
264.142	1.78
264.611	-13.42
265.08	-8.12
265.549	-11.32
266.018	-5.62
266.487	-13.42
266.955	-9.62
267.424	-2.52
267.893	0.08
268.362	-4.32
268.83	-6.82
269.299	-0.62
269.768	-11.22
270.236	-4.62
270.705	-11.52
271.174	-8.32
271.642	-4.62
272.111	-3.12
272.579	-7.42
273.048	-9.02
273.516	-4.72
273.985	-0.82
274.453	-3.12
274.922	2.68
275.39	-3.62
275.858	-6.02
276.327	4.58
276.795	4.88
277.263	-3.22
277.731	4.18
278.2	-7.72
278.668	-6.12
279.136	-9.42
279.604	-5.22
280.072	-3.62
280.54	-3.92
281.008	3.88
281.477	-0.72
281.945	1.98
282.413	-0.62
282.881	-0.92
283.348	-5.12
283.816	0.88
284.284	1.68
284.752	0.28
285.22	-6.02
285.688	-0.12
286.156	-3.22
286.623	-1.42
287.091	-4.52
287.559	-3.82
288.026	0.98
288.494	0.98
288.962	-8.62
289.429	-4.92
289.897	4.68
290.364	4.58
290.832	-3.82
291.3	-1.02
291.767	-2.42
292.234	-4.12
292.702	-7.22
293.169	-8.02
293.637	3.18
294.104	-1.72
294.571	-5.62
295.039	-14.42
295.506	-0.32
295.973	-4.32
296.44	-2.82
296.908	-3.82
297.375	-5.92
297.842	-7.72
298.309	-4.92
298.776	-9.02
299.243	-6.12
299.71	-3.92
300.177	1.48
300.644	-0.32
301.111	-6.82
301.578	2.88
302.045	-8.02
302.512	-5.82
302.979	2.98
303.446	-3.42
303.913	-2.92
304.379	-6.22
304.846	0.48
305.313	0.88
305.78	-0.72
306.246	3.18
306.713	-4.62
307.18	-4.02
307.646	-4.92
308.113	0.08
308.579	-5.72
309.046	-4.62
309.512	-6.62
309.979	-6.32
310.445	1.68
310.912	5.58
311.378	1.58
311.845	1.68
312.311	6.28
312.777	-0.32
313.244	-0.72
313.71	12.48
314.176	-0.52
314.642	-6.92
315.109	-7.22
315.575	-0.92
316.041	-0.72
316.507	-4.12
316.973	-3.22
317.439	-0.02
317.905	-0.32
318.371	2.58
318.837	-5.62
319.303	-5.32
319.769	-9.62
320.235	-5.72
320.701	2.58
321.167	-7.12
321.633	-2.72
322.099	-4.62
322.564	1.78
323.03	-1.52
323.496	-9.02
323.962	-3.12
324.427	4.78
324.893	1.38
325.359	-4.82
325.824	-1.82
326.29	-13.62
326.755	-0.72
327.221	-4.12
327.686	-3.42
328.152	1.48
328.617	-2.92
329.083	-2.42
329.548	0.98
330.014	3.18
330.479	-3.02
330.944	-2.22
331.41	-7.72
331.875	-1.52
332.34	-6.92
332.805	-9.22
333.271	-7.22
333.736	-8.42
334.201	4.28
334.666	-4.52
335.131	-2.52
335.596	-3.92
336.061	-7.02
336.526	-5.52
336.991	-4.02
337.456	4.98
337.921	-3.22
338.386	-3.62
338.851	-3.22
339.316	3.48
339.781	-1.12
340.246	1.88
340.711	-4.52
341.175	0.28
341.64	-11.92
342.105	-4.62
342.569	4.18
343.034	0.18
343.499	3.88
343.963	-15.02
344.428	2.78
344.893	3.48
345.357	5.48
345.822	0.08
346.286	0.68
346.751	1.28
347.215	-2.62
347.679	-4.02
348.144	2.28
348.608	1.48
349.073	-1.52
349.537	-0.82
350.001	-4.42
350.465	1.58
350.93	-1.62
351.394	7.98
351.858	-5.02
352.322	5.78
352.786	-6.02
353.25	-5.32
353.715	1.38
354.179	-3.92
354.643	3.18
355.107	-0.22
355.571	4.68
356.035	0.08
356.498	3.08
356.962	-2.92
357.426	0.78
357.89	3.28
358.354	2.98
358.818	-1.92
359.281	-1.52
359.745	-5.82
360.209	-3.22
360.673	-13.32
361.136	1.38
361.6	1.78
362.064	-4.52
362.527	1.38
362.991	8.78
363.454	-4.22
363.918	-5.32
364.381	-6.32
364.845	-2.52
365.308	-1.62
365.772	0.98
366.235	2.48
366.698	1.28
367.162	0.58
367.625	-6.12
368.088	2.38
368.552	3.18
369.015	-6.02
369.478	4.38
369.941	7.98
370.404	-4.32
370.867	-2.82
371.331	0.08
371.794	-2.52
372.257	-9.82
372.72	2.18
373.183	0.58
373.646	-7.72
374.109	-6.82
374.572	1.78
375.035	-2.12
375.497	-9.92
375.96	-4.32
376.423	0.28
376.886	1.68
377.349	0.58
377.811	-6.52
378.274	-2.92
378.737	-4.92
379.199	0.88
379.662	-2.42
380.125	-1.12
380.587	-9.22
381.05	-6.42
381.512	2.08
381.975	8.88
382.437	2.98
382.9	-3.02
383.362	1.78
383.825	-1.32
384.287	2.28
384.75	1.48
385.212	0.38
385.674	1.98
386.136	0.28
386.599	-5.42
387.061	-2.72
387.523	-3.52
387.985	-3.12
388.447	5.58
388.91	-1.82
389.372	-1.82
389.834	1.88
390.296	0.98
390.758	-4.12
391.22	0.48
391.682	-1.02
392.144	0.08
392.606	6.58
393.068	3.48
393.529	5.58
393.991	-1.32
394.453	-5.92
394.915	1.18
395.377	0.68
395.838	4.68
396.3	1.68
396.762	6.88
397.224	5.18
397.685	0.58
398.147	-2.62
398.608	-10.42
399.07	-9.02
399.531	-4.12
399.993	-1.02
400.454	3.28
400.916	6.98
401.377	-0.52
401.839	-2.32
402.3	1.48
402.762	4.28
403.223	5.68
403.684	3.18
404.145	8.58
404.607	-1.32
405.068	1.78
405.529	-2.82
405.99	-3.12
406.451	-4.42
406.913	2.58
407.374	-1.12
407.835	2.58
408.296	2.08
408.757	5.48
409.218	1.88
409.679	1.98
410.14	3.28
410.601	4.98
411.062	5.38
411.522	3.58
411.983	2.78
412.444	-6.42
412.905	2.68
413.366	3.98
413.826	3.08
414.287	-1.82
414.748	10.78
415.208	4.08
415.669	3.48
416.13	8.68
416.59	0.78
417.051	13.68
417.511	8.68
417.972	6.08
418.432	4.68
418.893	8.48
419.353	8.38
419.814	4.28
420.274	6.48
420.734	3.98
421.195	6.28
421.655	-5.82
422.115	-1.22
422.576	-1.42
423.036	6.08
423.496	4.58
423.956	5.58
424.416	2.08
424.876	11.78
425.336	6.18
425.797	7.98
426.257	8.88
426.717	1.58
427.177	9.38
427.637	-0.22
428.097	3.88
428.556	-3.62
429.016	9.48
429.476	-1.12
429.936	0.28
430.396	-1.12
430.856	-0.82
431.315	10.48
431.775	-5.12
432.235	10.18
432.694	-2.52
433.154	6.58
433.614	4.18
434.073	0.08
434.533	9.28
434.993	-2.22
435.452	6.38
435.912	0.28
436.371	2.18
436.83	0.18
437.29	4.08
437.749	0.58
438.209	-0.12
438.668	4.38
439.127	5.08
439.587	2.48
440.046	0.18
440.505	2.08
440.964	-0.02
441.424	-1.52
441.883	5.58
442.342	9.98
442.801	-1.52
443.26	-1.82
443.719	8.58
444.178	4.88
444.637	-2.72
445.096	1.28
445.555	1.58
446.014	0.78
446.473	5.38
446.932	1.48
447.391	-5.02
447.849	7.68
448.308	-1.42
448.767	2.18
449.226	1.68
449.685	7.28
450.143	11.68
450.602	-5.02
451.061	-1.52
451.519	2.68
451.978	1.48
452.436	1.28
452.895	3.48
453.353	4.28
453.812	9.78
454.27	10.98
454.729	8.78
455.187	-1.02
455.646	0.58
456.104	6.08
456.562	0.38
457.021	0.78
457.479	6.28
457.937	6.38
458.395	0.88
458.854	-2.52
459.312	5.38
459.77	-1.32
460.228	1.78
460.686	2.08
461.144	12.18
461.602	3.88
462.06	7.98
462.518	2.98
462.976	3.28
463.434	3.78
463.892	4.88
464.35	-3.72
464.808	5.98
465.266	1.78
465.724	6.78
466.181	4.08
466.639	0.58
467.097	5.28
467.555	4.88
468.012	7.48
468.47	4.28
468.928	11.48
469.385	13.98
469.843	6.18
470.3	8.08
470.758	8.58
471.215	3.18
471.673	7.38
472.13	4.68
472.588	13.68
473.045	4.98
473.503	12.08
473.96	3.18
474.417	4.38
474.875	4.28
475.332	14.48
475.789	7.48
476.246	6.28
476.704	8.88
477.161	10.08
477.618	0.18
478.075	8.08
478.532	11.58
478.989	5.68
479.446	13.38
479.903	16.68
480.36	12.18
480.817	4.18
481.274	11.88
481.731	15.38
482.188	0.98
482.645	10.38
483.102	11.48
483.558	12.68
484.015	13.78
484.472	12.88
484.929	15.08
485.385	7.58
485.842	12.38
486.299	8.88
486.755	14.08
487.212	6.58
487.668	9.38
488.125	5.78
488.582	12.78
489.038	14.38
489.494	7.08
489.951	9.68
490.407	12.48
490.864	12.08
491.32	13.98
491.776	14.08
492.233	12.18
492.689	7.68
493.145	9.88
493.602	8.58
494.058	10.18
494.514	4.28
494.97	16.88
495.426	11.58
495.882	12.38
496.338	8.98
496.794	15.18
497.251	6.58
497.707	13.88
498.163	12.78
498.618	3.18
499.074	10.08
499.53	10.68
499.986	13.18
500.442	10.58
500.898	6.48
501.354	5.88
501.809	13.68
502.265	11.78
502.721	12.28
503.177	16.78
503.632	14.88
504.088	14.08
504.543	19.08
504.999	17.78
505.455	8.68
505.91	2.58
506.366	12.38
506.821	8.48
507.277	3.28
507.732	9.98
508.187	3.58
508.643	10.98
509.098	1.58
509.553	19.18
510.009	22.08
510.464	6.88
510.919	13.68
511.375	12.18
511.83	18.98
512.285	11.98
512.74	18.28
513.195	14.08
513.65	11.78
514.105	16.88
514.56	16.08
515.015	11.28
515.47	19.38
515.925	11.38
516.38	15.88
516.835	19.78
517.29	20.58
517.745	18.08
518.2	10.18
518.655	16.08
519.109	8.98
519.564	13.58
520.019	8.28
520.474	6.08
520.928	8.18
521.383	10.68
521.838	0.68
522.292	14.28
522.747	20.98
523.201	13.38
523.656	16.78
524.11	10.48
524.565	14.38
525.019	5.98
525.474	11.68
525.928	7.68
526.382	8.28
526.837	4.88
527.291	11.78
527.745	10.18
528.2	11.48
528.654	10.88
529.108	6.38
529.562	10.08
530.016	11.78
530.47	4.98
530.925	7.08
531.379	10.38
531.833	8.48
532.287	5.58
532.741	13.28
533.195	5.38
533.649	6.58
534.103	13.78
534.556	2.98
535.01	5.58
535.464	7.58
535.918	16.98
536.372	9.78
536.826	7.68
537.279	2.48
537.733	9.28
538.187	6.08
538.64	10.08
539.094	9.28
539.548	11.68
540.001	5.18
540.455	3.98
540.908	8.88
541.362	11.68
541.815	14.18
542.269	6.98
542.722	3.58
543.175	0.38
543.629	5.78
544.082	12.58
544.536	10.78
544.989	9.98
545.442	19.68
545.895	9.38
546.349	9.88
546.802	8.58
547.255	8.68
547.708	7.38
548.161	12.88
548.614	20.28
549.067	13.98
549.52	14.28
549.973	9.78
550.426	13.38
550.879	5.18
551.332	9.98
551.785	13.68
552.238	8.18
552.691	13.98
553.144	9.28
553.596	12.88
554.049	12.78
554.502	18.38
554.955	22.78
555.407	7.38
555.86	13.88
556.313	15.48
556.765	12.58
557.218	19.38
557.67	12.98
558.123	10.68
558.576	11.18
559.028	20.18
559.48	13.48
559.933	19.78
560.385	12.18
560.838	11.18
561.29	3.08
561.742	14.08
562.195	4.48
562.647	-0.42
563.099	11.48
563.551	13.88
564.004	12.88
564.456	12.78
564.908	10.08
565.36	6.88
565.812	13.88
566.264	8.68
566.716	14.68
567.168	10.88
567.62	19.78
568.072	6.58
568.524	8.48
568.976	12.48
569.428	6.68
569.88	1.28
570.332	6.48
570.784	7.48
571.235	2.38
571.687	11.38
572.139	11.48
572.59	10.08
573.042	8.68
573.494	2.18
573.945	6.48
574.397	5.78
574.849	8.48
575.3	11.08
575.752	5.98
576.203	11.18
576.655	11.28
577.106	13.58
577.557	3.68
578.009	11.18
578.46	3.78
578.912	5.18
579.363	3.38
579.814	10.68
580.265	-0.72
580.717	4.48
581.168	-1.52
581.619	9.98
582.07	5.78
582.521	4.58
582.972	5.48
583.423	4.48
583.875	1.28
584.326	2.28
584.777	8.98
585.227	7.58
585.678	3.28
586.129	4.78
586.58	9.58
587.031	9.88
587.482	13.88
587.933	17.98
588.384	11.68
588.834	8.88
589.285	10.98
589.736	10.78
590.186	9.58
590.637	14.88
591.088	13.38
591.538	7.68
591.989	14.78
592.439	15.78
592.89	5.98
593.34	8.98
593.791	9.58
594.241	1.78
594.692	11.68
595.142	10.28
595.593	11.08
596.043	7.58
596.493	12.28
596.943	4.78
597.394	5.98
597.844	3.58
598.294	9.48
598.744	9.48
599.195	13.18
599.645	15.98
600.095	9.38
600.545	11.08
600.995	12.08
601.445	24.88
601.895	21.28
602.345	31.88
602.795	20.18
603.245	13.08
603.695	17.98
604.145	9.18
604.594	10.08
605.044	6.48
605.494	8.18
605.944	-4.02
606.393	7.88
606.843	4.48
607.293	9.48
607.743	6.28
608.192	11.28
608.642	12.58
609.091	10.18
609.541	13.28
609.99	7.38
610.44	13.58
610.889	2.58
611.339	4.18
611.788	1.68
612.238	8.18
612.687	16.48
613.136	2.18
613.586	10.98
614.035	7.08
614.484	6.28
614.933	-0.42
615.383	7.58
615.832	13.88
616.281	13.98
616.73	15.28
617.179	12.58
617.628	9.78
618.077	11.18
618.526	6.08
618.975	3.28
619.424	7.78
619.873	3.98
620.322	6.68
620.771	0.68
621.22	7.38
621.669	7.88
622.118	7.58
622.567	3.28
623.015	-0.22
623.464	10.08
623.913	1.18
624.361	-0.52
624.81	-1.22
625.259	4.98
625.707	7.88
626.156	-0.02
626.604	11.58
627.053	1.78
627.501	3.88
627.95	1.08
628.398	4.08
628.847	5.48
629.295	0.88
629.744	9.58
630.192	4.98
630.64	4.98
631.089	0.28
631.537	6.78
631.985	-0.62
632.433	9.68
632.881	1.38
633.33	7.58
633.778	-0.02
634.226	1.08
634.674	6.58
635.122	1.98
635.57	12.58
636.018	5.68
636.466	12.08
636.914	-2.22
637.362	6.68
637.81	5.98
638.258	3.68
638.705	5.88
639.153	6.98
639.601	6.18
640.049	2.78
640.497	7.78
640.944	14.38
641.392	-2.72
641.84	10.08
642.287	3.58
642.735	-8.22
643.182	0.88
643.63	-0.02
644.078	0.38
644.525	4.88
644.973	1.18
645.42	1.18
645.867	2.18
646.315	12.78
646.762	0.68
647.21	0.88
647.657	-1.02
648.104	5.58
648.551	8.78
648.999	-0.32
649.446	5.58
649.893	-1.72
650.34	1.78
650.787	1.68
651.234	6.18
651.682	1.58
652.129	6.38
652.576	-1.02
653.023	14.88
653.47	10.88
653.917	6.98
654.363	11.28
654.81	10.38
655.257	0.28
655.704	3.08
656.151	1.98
656.598	8.88
657.044	2.98
657.491	9.48
657.938	-1.72
658.385	5.48
658.831	3.08
659.278	10.08
659.724	-5.62
660.171	2.88
660.618	3.78
661.064	6.98
661.511	0.68
661.957	8.98
662.404	-0.72
662.85	8.68
663.296	1.88
663.743	3.28
664.189	6.38
664.635	6.98
665.082	1.78
665.528	3.38
665.974	4.38
666.42	0.08
666.867	0.48
667.313	1.28
667.759	3.38
668.205	3.98
668.651	7.68
669.097	1.18
669.543	-2.02
669.989	-1.52
670.435	10.48
670.881	2.68
671.327	3.58
671.773	5.68
672.219	5.98
672.665	7.38
673.11	1.48
673.556	6.38
674.002	8.18
674.448	2.88
674.893	3.88
675.339	4.58
675.785	4.78
676.23	8.08
676.676	-3.32
677.122	-2.72
677.567	1.28
678.013	-0.02
678.458	5.08
678.904	4.58
679.349	-2.32
679.794	2.88
680.24	-0.62
680.685	-3.12
681.131	3.58
681.576	0.28
682.021	2.48
682.466	-3.72
682.912	-2.82
683.357	-2.12
683.802	2.48
684.247	4.88
684.692	7.58
685.137	-0.42
685.583	9.88
686.028	9.88
686.473	12.08
686.918	-5.92
687.363	5.78
687.807	2.58
688.252	2.98
688.697	8.28
689.142	-4.32
689.587	2.38
690.032	-18.42
690.477	-0.82
690.921	-8.32
691.366	1.38
691.811	5.48
692.255	5.38
692.7	11.48
693.145	3.88
693.589	12.78
694.034	28.48
694.478	48.68
694.923	58.68
695.367	77.08
695.812	33.68
696.256	10.78
696.701	-3.32
697.145	2.48
697.59	4.78
698.034	3.38
698.478	8.58
698.922	4.78
699.367	5.88
699.811	7.68
700.255	6.18
700.699	3.78
701.143	8.68
701.588	5.88
702.032	9.08
702.476	2.18
702.92	5.58
703.364	0.18
703.808	12.48
704.252	23.58
704.696	41.38
705.14	49.18
705.584	75.88
706.027	30.88
706.471	7.68
706.915	2.48
707.359	1.58
707.803	-2.42
708.246	-1.12
708.69	5.68
709.134	11.58
709.577	4.88
710.021	6.98
710.465	0.78
710.908	-1.82
711.352	2.38
711.795	0.08
712.239	11.98
712.682	0.28
713.126	4.88
713.569	9.68
714.012	13.28
714.456	2.28
714.899	-1.12
715.342	-3.42
715.786	-7.02
716.229	1.18
716.672	1.88
717.115	-0.82
717.558	-4.72
718.002	-1.82
718.445	0.28
718.888	10.18
719.331	0.48
719.774	8.78
720.217	8.28
720.66	0.68
721.103	1.18
721.546	-2.12
721.989	-0.62
722.432	-8.12
722.874	2.08
723.317	-6.92
723.76	-1.32
724.203	2.98
724.645	1.38
725.088	10.18
725.531	11.68
725.974	10.78
726.416	11.48
726.859	6.58
727.301	1.48
727.744	-3.12
728.187	-2.22
728.629	3.68
729.071	-4.22
729.514	5.78
729.956	1.98
730.399	1.08
730.841	2.08
731.283	-5.42
731.726	-3.52
732.168	3.78
732.61	-2.52
733.053	6.48
733.495	-2.82
733.937	-4.02
734.379	2.78
734.821	7.08
735.263	6.98
735.705	16.78
736.148	42.28
736.59	74.48
737.032	97.48
737.474	74.18
737.916	14.38
738.357	4.28
738.799	4.38
739.241	2.38
739.683	-4.22
740.125	5.08
740.567	-5.52
741.008	8.48
741.45	9.28
741.892	10.88
742.334	7.18
742.775	5.08
743.217	1.18
743.658	-1.22
744.1	2.48
744.542	-4.42
744.983	4.48
745.425	-1.62
745.866	5.88
746.307	5.68
746.749	1.08
747.19	5.48
747.632	13.48
748.073	11.28
748.514	66.18
748.956	89.58
749.397	115.68
749.838	102.58
750.279	100.68
750.72	46.98
751.162	15.18
751.603	5.58
752.044	2.28
752.485	-4.62
752.926	-3.92
753.367	-2.32
753.808	1.08
754.249	-1.72
754.69	-6.72
755.131	-2.22
755.572	-2.82
756.013	-5.52
756.453	-0.92
756.894	5.18
757.335	-4.62
757.776	7.08
758.216	-0.62
758.657	2.78
759.098	-11.52
759.538	-2.72
759.979	-6.32
760.42	-5.02
760.86	8.98
761.301	46.08
761.741	125.98
762.182	192.38
762.622	131.88
763.063	23.58
763.503	9.28
763.943	-0.42
764.384	4.88
764.824	4.48
765.264	0.58
765.705	-0.82
766.145	-7.52
766.585	-4.32
767.025	-7.92
767.465	-2.92
767.906	-1.12
768.346	12.88
768.786	3.98
769.226	-4.22
769.666	5.18
770.106	8.88
770.546	49.48
770.986	97.08
771.426	76.78
771.866	16.68
772.306	-2.22
772.745	-1.12
773.185	-4.32
773.625	5.78
774.065	-6.32
774.505	-1.52
774.944	0.28
775.384	5.88
775.824	-0.12
776.263	4.38
776.703	3.88
777.142	-0.22
777.582	-4.82
778.021	-10.72
778.461	0.38
778.9	2.68
779.34	6.98
779.779	-6.92
780.219	-7.92
780.658	-3.32
781.097	-5.42
781.537	2.98
781.976	-5.22
782.415	-2.42
782.855	-7.12
783.294	-6.22
783.733	0.58
784.172	1.28
784.611	-5.22
785.05	-3.62
785.489	-2.82
785.928	2.88
786.367	5.58
786.806	-0.82
787.245	0.78
787.684	-3.02
788.123	9.88
788.562	-6.72
789.001	1.88
789.44	3.38
789.879	1.28
790.317	3.28
790.756	6.28
791.195	-5.22
791.634	-2.32
792.072	4.68
792.511	8.08
792.95	26.98
793.388	62.38
793.827	65.38
794.265	18.38
794.704	5.48
795.142	7.88
795.581	6.28
796.019	0.48
796.458	5.08
796.896	-2.02
797.334	-2.72
797.773	0.58
798.211	4.18
798.649	16.38
799.087	34.08
799.526	43.48
799.964	66.88
800.402	78.58
800.84	18.78
801.278	-0.62
801.716	-2.32
802.154	2.98
802.592	1.28
803.03	-1.52
803.468	-8.72
803.906	3.18
804.344	6.38
804.782	-1.02
805.22	-3.72
805.658	-8.32
806.096	2.88
806.533	3.48
