Data from 20171114-ORNL-Ar_H_NY_Subt18_08-08-23-573.txt Node
Date: Tue Nov 14 08:08:23 EST 2017
User: Ender
Spectrometer: HR+D1039
Trigger mode: 0
Integration Time (sec): 2.730000E-2
Scans to average: 10
Electric dark correction enabled: true
Nonlinearity correction enabled: false
Boxcar width: 0
XAxis mode: Wavelengths
Number of Pixels in Spectrum: 2048
>>>>>Begin Spectral Data<<<<<
187.836	-4.83
188.309	-4.83
188.782	-4.83
189.255	3.47
189.728	-4.93
190.201	7.97
190.674	-3.23
191.147	-1.03
191.619	-5.93
192.092	4.27
192.565	6.77
193.038	-1.33
193.511	-2.03
193.984	-2.33
194.456	1.37
194.929	-0.62
195.402	-1.63
195.874	3.97
196.347	-0.93
196.82	-4.63
197.292	5.47
197.765	0.07
198.237	-5.83
198.71	7.97
199.182	-0.23
199.655	3.57
200.127	1.67
200.6	0.17
201.072	-4.23
201.544	-6.63
202.017	-1.23
202.489	0.87
202.961	1.47
203.433	-4.03
203.906	-4.73
204.378	-5.12
204.85	-6.43
205.322	-7.53
205.794	-6.43
206.266	-0.23
206.739	-5.83
207.211	7.77
207.683	-5.12
208.155	-3.13
208.627	-5.23
209.099	-2.03
209.57	-7.93
210.042	-8.23
210.514	-5.53
210.986	-5.03
211.458	-5.83
211.93	1.47
212.402	4.57
212.873	-7.53
213.345	-5.63
213.817	-6.93
214.288	-1.33
214.76	-6.73
215.232	-11.03
215.703	-6.73
216.175	-4.43
216.646	-10.03
217.118	-2.63
217.589	-3.43
218.061	-6.33
218.532	-8.73
219.004	1.77
219.475	-7.83
219.946	-1.33
220.418	-9.43
220.889	7.57
221.36	-0.62
221.832	-5.73
222.303	-5.13
222.774	2.57
223.245	-4.23
223.717	0.37
224.188	-4.63
224.659	-3.43
225.13	-8.33
225.601	-3.33
226.072	-1.03
226.543	-1.83
227.014	4.37
227.485	-1.73
227.956	-7.73
228.427	2.57
228.898	-3.03
229.369	3.67
229.839	-5.13
230.31	-5.43
230.781	4.37
231.252	-4.43
231.722	-5.13
232.193	-3.93
232.664	3.17
233.135	-1.13
233.605	0.88
234.076	-12.43
234.546	2.17
235.017	4.87
235.487	1.47
235.958	0.07
236.428	-4.23
236.899	2.47
237.369	4.57
237.84	2.07
238.31	3.97
238.78	3.38
239.251	0.17
239.721	2.17
240.191	5.77
240.662	1.77
241.132	5.47
241.602	-5.83
242.072	2.57
242.542	4.27
243.013	0.07
243.483	2.07
243.953	0.17
244.423	-1.03
244.893	3.27
245.363	1.87
245.833	-6.33
246.303	-2.63
246.773	3.77
247.243	-2.13
247.712	0.87
248.182	5.57
248.652	3.77
249.122	-4.23
249.592	11.67
250.061	21.27
250.531	32.27
251.001	12.77
251.471	19.77
251.94	21.87
252.41	3.47
252.879	7.67
253.349	14.07
253.818	2.57
254.288	2.17
254.757	6.17
255.227	0.97
255.696	4.67
256.166	3.97
256.635	8.07
257.105	9.97
257.574	5.17
258.043	4.47
258.513	11.37
258.982	16.57
259.451	11.07
259.92	13.67
260.389	5.87
260.859	16.47
261.328	14.38
261.797	14.07
262.266	8.17
262.735	6.17
263.204	5.27
263.673	-0.03
264.142	3.07
264.611	-0.63
265.08	-2.63
265.549	5.67
266.018	4.07
266.487	3.17
266.955	-7.33
267.424	-1.33
267.893	7.47
268.362	6.27
268.83	5.67
269.299	9.38
269.768	9.57
270.236	5.27
270.705	1.67
271.174	5.07
271.642	7.37
272.111	5.67
272.579	18.57
273.048	15.27
273.516	30.57
273.985	26.37
274.453	27.07
274.922	16.47
275.39	7.17
275.858	5.37
276.327	13.77
276.795	17.87
277.263	6.07
277.731	32.27
278.2	54.67
278.668	52.97
279.136	45.57
279.604	17.77
280.072	15.27
280.54	9.57
281.008	11.97
281.477	12.67
281.945	14.77
282.413	11.97
282.881	19.37
283.348	9.07
283.816	15.87
284.284	14.57
284.752	19.97
285.22	15.07
285.688	17.87
286.156	23.77
286.623	44.37
287.091	51.07
287.559	28.27
288.026	15.67
288.494	20.07
288.962	4.37
289.429	7.57
289.897	11.67
290.364	15.97
290.832	14.27
291.3	12.97
291.767	19.27
292.234	16.57
292.702	12.17
293.169	14.27
293.637	24.97
294.104	18.07
294.571	12.57
295.039	11.77
295.506	11.47
295.973	15.27
296.44	11.17
296.908	16.88
297.375	21.47
297.842	20.07
298.309	15.07
298.776	16.88
299.243	18.77
299.71	13.17
300.177	17.37
300.644	25.17
301.111	16.27
301.578	19.47
302.045	22.97
302.512	24.07
302.979	24.57
303.446	22.07
303.913	17.57
304.379	21.97
304.846	22.07
305.313	28.17
305.78	11.77
306.246	24.77
306.713	25.27
307.18	23.27
307.646	24.37
308.113	25.17
308.579	23.77
309.046	25.27
309.512	29.17
309.979	13.87
310.445	28.37
310.912	25.97
311.378	37.17
311.845	30.17
312.311	27.57
312.777	28.77
313.244	27.88
313.71	38.07
314.176	26.97
314.642	34.17
315.109	31.77
315.575	33.27
316.041	35.17
316.507	30.87
316.973	34.97
317.439	34.67
317.905	37.97
318.371	35.17
318.837	39.07
319.303	33.27
319.769	25.47
320.235	28.87
320.701	33.07
321.167	34.37
321.633	33.77
322.099	37.67
322.564	42.17
323.03	39.07
323.496	39.07
323.962	33.67
324.427	35.57
324.893	38.47
325.359	35.17
325.824	33.27
326.29	39.87
326.755	34.37
327.221	36.17
327.686	38.07
328.152	44.88
328.617	41.77
329.083	48.87
329.548	45.07
330.014	47.97
330.479	35.87
330.944	44.87
331.41	46.07
331.875	40.07
332.34	40.27
332.805	35.27
333.271	42.47
333.736	40.77
334.201	49.38
334.666	48.27
335.131	51.17
335.596	53.67
336.061	48.37
336.526	37.77
336.991	48.17
337.456	52.57
337.921	49.67
338.386	45.87
338.851	48.17
339.316	42.27
339.781	42.97
340.246	46.87
340.711	44.17
341.175	47.77
341.64	47.97
342.105	51.97
342.569	56.57
343.034	61.57
343.499	44.57
343.963	54.88
344.428	61.67
344.893	59.87
345.357	60.87
345.822	64.47
346.286	66.77
346.751	70.07
347.215	62.97
347.679	79.87
348.144	93.47
348.608	76.77
349.073	71.57
349.537	69.97
350.001	83.57
350.465	88.17
350.93	81.57
351.394	84.97
351.858	70.88
352.322	84.57
352.786	81.88
353.25	100.87
353.715	104.37
354.179	97.77
354.643	124.57
355.107	132.07
355.571	103.77
356.035	102.87
356.498	122.67
356.962	119.67
357.426	130.57
357.89	111.07
358.354	84.07
358.818	78.47
359.281	77.17
359.745	77.77
360.209	73.57
360.673	75.88
361.136	84.77
361.6	83.77
362.064	80.67
362.527	82.77
362.991	90.27
363.454	75.37
363.918	77.07
364.381	80.77
364.845	76.97
365.308	78.57
365.772	78.07
366.235	86.87
366.698	85.17
367.162	83.57
367.625	87.67
368.088	84.37
368.552	89.07
369.015	92.47
369.478	96.37
369.941	95.47
370.404	97.97
370.867	108.07
371.331	104.97
371.794	112.57
372.257	111.77
372.72	113.37
373.183	109.97
373.646	100.07
374.109	101.38
374.572	113.27
375.035	109.77
375.497	104.67
375.96	101.57
376.423	96.37
376.886	113.77
377.349	107.17
377.811	100.57
378.274	109.57
378.737	106.17
379.199	112.67
379.662	113.97
380.125	117.27
380.587	127.67
381.05	122.88
381.512	135.97
381.975	137.17
382.437	127.37
382.9	126.67
383.362	130.77
383.825	143.27
384.287	147.87
384.75	143.77
385.212	136.87
385.674	141.67
386.136	135.67
386.599	131.47
387.061	128.97
387.523	130.97
387.985	134.87
388.447	152.17
388.91	147.67
389.372	167.77
389.834	154.97
390.296	151.87
390.758	160.47
391.22	173.27
391.682	229.77
392.144	332.57
392.606	249.17
393.068	176.27
393.529	178.07
393.991	156.17
394.453	152.77
394.915	161.67
395.377	201.07
395.838	232.37
396.3	159.27
396.762	149.17
397.224	131.77
397.685	128.27
398.147	131.38
398.608	134.67
399.07	130.37
399.531	127.67
399.993	143.38
400.454	153.27
400.916	146.67
401.377	143.57
401.839	144.17
402.3	156.57
402.762	167.57
403.223	179.67
403.684	175.37
404.145	165.47
404.607	165.67
405.068	174.77
405.529	172.47
405.99	195.47
406.451	176.87
406.913	171.27
407.374	170.27
407.835	166.07
408.296	176.77
408.757	173.67
409.218	189.87
409.679	188.27
410.14	177.17
410.601	183.57
411.062	184.97
411.522	191.77
411.983	196.77
412.444	183.07
412.905	178.38
413.366	185.07
413.826	193.17
414.287	214.67
414.748	263.48
415.208	243.37
415.669	212.37
416.13	204.57
416.59	207.57
417.051	208.88
417.511	219.37
417.972	236.67
418.432	245.87
418.893	288.27
419.353	249.38
419.814	198.77
420.274	178.97
420.734	186.57
421.195	198.77
421.655	201.67
422.115	193.87
422.576	197.67
423.036	196.47
423.496	209.27
423.956	213.38
424.416	226.47
424.876	264.88
425.336	257.57
425.797	271.57
426.257	255.88
426.717	243.97
427.177	227.77
427.637	224.77
428.097	238.77
428.556	250.37
429.016	268.17
429.476	259.57
429.936	280.08
430.396	282.67
430.856	296.77
431.315	315.47
431.775	358.57
432.235	382.37
432.694	354.67
433.154	374.37
433.614	403.17
434.073	348.97
434.533	293.27
434.993	272.17
435.452	283.77
435.912	297.17
436.371	291.27
436.83	284.88
437.29	281.77
437.749	257.87
438.209	255.07
438.668	281.67
439.127	295.17
439.587	259.47
440.046	245.57
440.505	263.97
440.964	282.97
441.424	331.27
441.883	319.47
442.342	266.58
442.801	229.07
443.26	224.67
443.719	224.87
444.178	220.57
444.637	212.47
445.096	223.17
445.555	230.57
446.014	221.67
446.473	230.67
446.932	237.27
447.391	230.27
447.849	231.67
448.308	216.57
448.767	218.67
449.226	232.27
449.685	236.17
450.143	238.77
450.602	242.17
451.061	223.97
451.519	231.47
451.978	231.17
452.436	238.37
452.895	240.08
453.353	257.88
453.812	243.38
454.27	240.07
454.729	239.77
455.187	238.77
455.646	248.27
456.104	251.48
456.562	265.57
457.021	272.27
457.479	261.17
457.937	271.77
458.395	265.17
458.854	258.27
459.312	264.17
459.77	277.98
460.228	258.07
460.686	245.47
461.144	254.07
461.602	236.97
462.06	251.27
462.518	257.38
462.976	258.77
463.434	259.57
463.892	257.98
464.35	280.37
464.808	287.77
465.266	266.67
465.724	263.97
466.181	271.57
466.639	269.47
467.097	283.17
467.555	295.57
468.012	306.27
468.47	308.77
468.928	330.07
469.385	335.58
469.843	349.77
470.3	355.58
470.758	353.98
471.215	382.27
471.673	406.57
472.13	414.57
472.588	417.37
473.045	369.97
473.503	382.27
473.96	392.17
474.417	402.57
474.875	431.37
475.332	479.37
475.789	463.77
476.246	467.87
476.704	482.47
477.161	507.87
477.618	524.37
478.075	553.97
478.532	606.37
478.989	687.07
479.446	801.97
479.903	768.67
480.36	809.77
480.817	858.17
481.274	963.47
481.731	1059.67
482.188	1155.67
482.645	1283.18
483.102	1392.07
483.558	1518.88
484.015	1580.38
484.472	1560.97
484.929	1524.28
485.385	1460.08
485.842	1419.07
486.299	1350.17
486.755	1298.87
487.212	1098.27
487.668	920.97
488.125	847.77
488.582	768.08
489.038	740.37
489.494	702.88
489.951	675.67
490.407	651.17
490.864	645.97
491.32	630.07
491.776	637.48
492.233	641.47
492.689	603.98
493.145	603.57
493.602	599.67
494.058	618.37
494.514	618.47
494.97	629.67
495.426	641.07
495.882	607.77
496.338	587.37
496.794	615.67
497.251	605.87
497.707	621.08
498.163	622.57
498.618	638.47
499.074	629.67
499.53	664.07
499.986	683.77
500.442	647.47
500.898	625.88
501.354	619.87
501.809	631.27
502.265	631.27
502.721	659.67
503.177	661.97
503.632	656.37
504.088	667.17
504.543	709.77
504.999	694.27
505.455	640.47
505.91	623.07
506.366	620.97
506.821	617.57
507.277	611.87
507.732	609.47
508.187	616.77
508.643	630.87
509.098	622.87
509.553	639.97
510.009	659.17
510.464	655.07
510.919	677.77
511.375	693.77
511.83	696.47
512.285	708.77
512.74	735.57
513.195	766.98
513.65	758.08
514.105	756.07
514.56	755.37
515.015	785.58
515.47	794.27
515.925	773.58
516.38	793.37
516.835	793.67
517.29	778.77
517.745	767.97
518.2	742.77
518.655	736.27
519.109	725.58
519.564	721.77
520.019	710.87
520.474	717.08
520.928	716.27
521.383	705.37
521.838	694.67
522.292	699.37
522.747	697.37
523.201	704.87
523.656	683.87
524.11	690.97
524.565	688.77
525.019	687.67
525.474	684.67
525.928	680.27
526.382	685.37
526.837	691.48
527.291	694.67
527.745	685.17
528.2	689.88
528.654	677.67
529.108	672.97
529.562	683.07
530.016	680.17
530.47	685.07
530.925	680.57
531.379	682.77
531.833	688.07
532.287	682.57
532.741	689.58
533.195	700.77
533.649	697.57
534.103	704.87
534.556	701.27
535.01	694.38
535.464	696.87
535.918	710.08
536.372	702.17
536.826	709.88
537.279	690.38
537.733	710.57
538.187	708.57
538.64	703.07
539.094	716.98
539.548	718.17
540.001	709.77
540.455	709.97
540.908	720.57
541.362	725.67
541.815	729.07
542.269	749.37
542.722	747.37
543.175	763.87
543.629	761.17
544.082	771.27
544.536	777.98
544.989	765.38
545.442	775.97
545.895	771.07
546.349	775.97
546.802	776.37
547.255	783.37
547.708	802.37
548.161	803.77
548.614	809.77
549.067	813.98
549.52	807.27
549.973	797.67
550.426	791.47
550.879	776.67
551.332	783.88
551.785	792.27
552.238	793.57
552.691	797.17
553.144	823.07
553.596	829.38
554.049	843.97
554.502	885.77
554.955	908.37
555.407	887.97
555.86	889.87
556.313	866.67
556.765	863.27
557.218	878.38
557.67	859.17
558.123	858.07
558.576	850.67
559.028	855.27
559.48	862.27
559.933	862.48
560.385	828.77
560.838	794.97
561.29	771.17
561.742	772.08
562.195	745.87
562.647	755.67
563.099	761.27
563.551	765.87
564.004	778.87
564.456	764.67
564.908	752.87
565.36	746.57
565.812	724.88
566.264	724.97
566.716	707.47
567.168	710.97
567.62	716.77
568.072	704.37
568.524	693.58
568.976	694.47
569.428	663.07
569.88	669.67
570.332	682.47
570.784	671.97
571.235	683.07
571.687	681.48
572.139	684.87
572.59	695.97
573.042	702.27
573.494	700.27
573.945	705.57
574.397	674.67
574.849	683.97
575.3	671.77
575.752	672.07
576.203	684.07
576.655	666.77
577.106	667.98
577.557	658.67
578.009	668.88
578.46	655.07
578.912	658.47
579.363	662.37
579.814	654.77
580.265	651.27
580.717	658.77
581.168	661.87
581.619	670.67
582.07	670.08
582.521	665.37
582.972	659.17
583.423	680.57
583.875	675.37
584.326	702.17
584.777	744.17
585.227	829.87
585.678	930.77
586.129	1016.88
586.58	1082.58
587.031	1194.17
587.482	1354.77
587.933	1535.27
588.384	1336.38
588.834	982.77
589.285	809.77
589.736	772.97
590.186	772.07
590.637	761.47
591.088	743.08
591.538	731.77
591.989	721.98
592.439	726.97
592.89	711.37
593.34	708.57
593.791	706.17
594.241	699.38
594.692	703.67
595.142	700.98
595.593	691.37
596.043	700.27
596.493	708.17
596.943	711.38
597.394	720.57
597.844	713.17
598.294	723.77
598.744	744.27
599.195	770.67
599.645	806.17
600.095	846.77
600.545	913.27
600.995	965.47
601.445	1015.47
601.895	1073.58
602.345	1111.28
602.795	1102.47
603.245	1048.47
603.695	999.47
604.145	943.07
604.594	903.97
605.044	848.57
605.494	792.88
605.944	731.97
606.393	739.17
606.843	721.77
607.293	720.77
607.743	729.77
608.192	739.37
608.642	753.27
609.091	770.67
609.541	776.97
609.99	769.38
610.44	763.38
610.889	717.38
611.339	695.37
611.788	689.38
612.238	698.38
612.687	722.67
613.136	725.57
613.586	738.38
614.035	734.17
614.484	757.07
614.933	758.67
615.383	746.57
615.832	731.58
616.281	725.97
616.73	683.37
617.179	651.88
617.628	642.77
618.077	625.57
618.526	625.37
618.975	608.27
619.424	611.67
619.873	610.27
620.322	604.87
620.771	602.27
621.22	606.17
621.669	595.97
622.118	588.27
622.567	578.97
623.015	569.77
623.464	566.87
623.913	563.38
624.361	548.77
624.81	547.27
625.259	548.17
625.707	553.38
626.156	551.07
626.604	573.57
627.053	559.07
627.501	561.07
627.95	571.58
628.398	581.27
628.847	573.77
629.295	564.57
629.744	569.47
630.192	558.57
630.64	572.67
631.089	569.77
631.537	580.77
631.985	583.77
632.433	602.37
632.881	615.17
633.33	673.27
633.778	651.37
634.226	576.17
634.674	578.47
635.122	583.57
635.57	606.27
636.018	634.17
636.466	579.37
636.914	560.07
637.362	566.27
637.81	568.88
638.258	572.47
638.705	576.77
639.153	604.07
639.601	617.07
640.049	634.57
640.497	667.97
640.944	688.97
641.392	638.17
641.84	614.38
642.287	582.67
642.735	577.27
643.182	567.47
643.63	572.87
644.078	577.97
644.525	585.17
644.973	593.77
645.42	608.57
645.867	629.07
646.315	633.77
646.762	661.97
647.21	679.58
647.657	710.57
648.104	741.77
648.551	769.67
648.999	840.48
649.446	922.77
649.893	1004.38
650.34	1164.77
650.787	1402.27
651.234	1740.97
651.682	2282.77
652.129	3156.97
652.576	4575.88
653.023	6732.77
653.47	9159.07
653.917	11362.07
654.363	13019.68
654.81	14278.77
655.257	13609.38
655.704	8915.97
656.151	5256.57
656.598	3405.48
657.044	2396.27
657.491	1842.47
657.938	1486.78
658.385	1227.58
658.831	1061.17
659.278	959.57
659.724	850.67
660.171	778.87
660.618	720.17
661.064	687.08
661.511	659.37
661.957	648.77
662.404	644.17
662.85	645.88
663.296	623.87
663.743	562.67
664.189	540.47
664.635	521.67
665.082	536.97
665.528	530.27
665.974	505.97
666.42	507.07
666.867	512.07
667.313	501.07
667.759	484.47
668.205	481.47
668.651	500.88
669.097	490.47
669.543	507.57
669.989	484.47
670.435	447.17
670.881	451.17
671.327	453.27
671.773	478.17
672.219	493.17
672.665	541.17
673.11	588.67
673.556	617.77
674.002	664.07
674.448	646.07
674.893	547.67
675.339	462.38
675.785	439.37
676.23	416.88
676.676	389.57
677.122	382.27
677.567	371.97
678.013	375.37
678.458	359.57
678.904	360.38
679.349	347.87
679.794	353.98
680.24	349.67
680.685	349.77
681.131	349.37
681.576	348.17
682.021	348.27
682.466	348.77
682.912	355.57
683.357	351.77
683.802	382.47
684.247	414.47
684.692	462.17
685.137	495.27
685.583	530.07
686.028	552.67
686.473	515.27
686.918	445.07
687.363	419.07
687.807	388.38
688.252	360.38
688.697	353.27
689.142	336.27
689.587	327.67
690.032	329.97
690.477	340.67
690.921	355.38
691.366	380.67
691.811	401.27
692.255	429.07
692.7	465.87
693.145	509.88
693.589	712.88
694.034	1156.78
694.478	1534.58
694.923	1714.07
695.367	2200.38
695.812	1169.77
696.256	493.67
696.701	378.67
697.145	351.77
697.59	334.27
698.034	322.37
698.478	330.38
698.922	326.08
699.367	329.27
699.811	346.27
700.255	352.58
700.699	389.07
701.143	436.17
701.588	480.47
702.032	517.57
702.476	513.58
702.92	484.77
703.364	483.97
703.808	655.67
704.252	1055.57
704.696	1457.08
705.14	1647.47
705.584	2095.78
706.027	1045.27
706.471	523.07
706.915	400.57
707.359	345.37
707.803	317.97
708.246	313.47
708.69	319.17
709.134	317.57
709.577	314.37
710.021	315.17
710.465	311.67
710.908	300.47
711.352	303.87
711.795	325.57
712.239	355.17
712.682	389.17
713.126	410.47
713.569	457.07
714.012	371.57
714.456	327.88
714.899	296.77
715.342	272.58
715.786	256.87
716.229	259.47
716.672	252.57
717.115	246.98
717.558	256.08
718.002	251.88
718.445	261.98
718.888	279.88
719.331	289.08
719.774	312.67
720.217	300.87
720.66	284.38
721.103	263.77
721.546	254.17
721.989	246.57
722.432	228.57
722.874	241.47
723.317	232.57
723.76	240.07
724.203	265.27
724.645	323.98
725.088	450.57
725.531	571.17
725.974	640.37
726.416	540.17
726.859	310.77
727.301	247.87
727.744	239.08
728.187	232.97
728.629	240.27
729.071	247.67
729.514	264.27
729.956	275.77
730.399	287.57
730.841	287.47
731.283	269.97
731.726	269.67
732.168	265.97
732.61	267.67
733.053	286.67
733.495	308.47
733.937	357.17
734.379	400.87
734.821	435.87
735.263	550.88
735.705	849.67
736.148	1607.57
736.59	2599.27
737.032	2992.07
737.474	2426.07
737.916	811.17
738.357	429.47
738.799	321.77
739.241	294.37
739.683	279.37
740.125	290.67
740.567	302.67
741.008	311.47
741.45	320.98
741.892	315.67
742.334	345.97
742.775	359.77
743.217	345.67
743.658	270.07
744.1	251.27
744.542	266.98
744.983	311.57
745.425	334.38
745.866	343.17
746.307	280.17
746.749	282.67
747.19	325.47
747.632	468.38
748.073	917.47
748.514	1922.48
748.956	2833.78
749.397	3567.78
749.838	2948.88
750.279	2890.88
750.72	1474.27
751.162	543.77
751.603	325.27
752.044	252.47
752.485	218.07
752.926	214.27
753.367	197.17
753.808	197.67
754.249	189.27
754.69	185.47
755.131	179.27
755.572	185.47
756.013	169.57
756.453	182.97
756.894	185.88
757.335	196.88
757.776	196.67
758.216	200.57
758.657	199.27
759.098	209.67
759.538	229.77
759.979	273.97
760.42	381.17
760.86	731.37
761.301	1892.97
761.741	4481.48
762.182	6238.77
762.622	4385.07
