Data from 20171114-ORNL-Ar_H_NY_Subt18_08-09-16-863.txt Node
Date: Tue Nov 14 08:09:16 EST 2017
User: Ender
Spectrometer: HR+D1039
Trigger mode: 0
Integration Time (sec): 2.730000E-2
Scans to average: 10
Electric dark correction enabled: true
Nonlinearity correction enabled: false
Boxcar width: 0
XAxis mode: Wavelengths
Number of Pixels in Spectrum: 2048
>>>>>Begin Spectral Data<<<<<
187.836	0.19
188.309	0.19
188.782	0.19
189.255	-1.61
189.728	1.49
190.201	3.59
190.674	-0.01
191.147	4.79
191.619	-3.41
192.092	1.69
192.565	6.69
193.038	-2.81
193.511	-2.21
193.984	2.29
194.456	-7.01
194.929	1.19
195.402	-3.31
195.874	-1.51
196.347	-3.01
196.82	-10.31
197.292	9.19
197.765	0.59
198.237	-6.71
198.71	-0.81
199.182	3.59
199.655	1.29
200.127	0.79
200.6	0.19
201.072	-2.91
201.544	-1.61
202.017	-1.01
202.489	2.09
202.961	-1.31
203.433	3.89
203.906	-3.91
204.378	0.89
204.85	-3.01
205.322	-9.11
205.794	-4.01
206.266	-7.51
206.739	-8.71
207.211	3.09
207.683	-6.11
208.155	-8.41
208.627	-9.11
209.099	-6.31
209.57	-15.31
210.042	-3.51
210.514	-4.41
210.986	-1.01
211.458	-13.21
211.93	1.99
212.402	0.69
212.873	-3.01
213.345	-9.41
213.817	-11.51
214.288	-1.21
214.76	-14.61
215.232	-5.61
215.703	-6.61
216.175	-9.91
216.646	-7.81
217.118	-6.01
217.589	-3.71
218.061	-5.31
218.532	-2.11
219.004	-2.61
219.475	-2.91
219.946	-2.51
220.418	-7.61
220.889	-3.01
221.36	-4.01
221.832	-7.71
222.303	-2.21
222.774	5.69
223.245	-13.31
223.717	-3.81
224.188	-4.71
224.659	-4.31
225.13	-0.31
225.601	-1.11
226.072	0.09
226.543	1.59
227.014	-0.91
227.485	-3.11
227.956	-11.81
228.427	-8.21
228.898	2.89
229.369	3.29
229.839	-5.11
230.31	-9.71
230.781	5.19
231.252	-4.11
231.722	-3.81
232.193	-2.61
232.664	-1.91
233.135	-4.01
233.605	-5.11
234.076	-9.81
234.546	-2.91
235.017	-2.41
235.487	-4.91
235.958	-6.41
236.428	-6.01
236.899	-2.71
237.369	-2.41
237.84	-5.01
238.31	5.39
238.78	-6.31
239.251	-7.41
239.721	0.99
240.191	-5.41
240.662	-6.51
241.132	-4.51
241.602	-9.71
242.072	-6.41
242.542	-2.71
243.013	-2.11
243.483	5.09
243.953	3.39
244.423	-0.21
244.893	-6.81
245.363	-0.81
245.833	-1.11
246.303	-8.21
246.773	2.59
247.243	-1.71
247.712	-2.01
248.182	0.19
248.652	-3.01
249.122	-14.61
249.592	-5.01
250.061	5.49
250.531	9.59
251.001	-9.61
251.471	2.49
251.94	6.79
252.41	-5.31
252.879	-8.01
253.349	2.19
253.818	0.09
254.288	-6.51
254.757	-1.11
255.227	-3.11
255.696	-5.91
256.166	-3.01
256.635	-5.31
257.105	-3.21
257.574	-0.51
258.043	-0.11
258.513	-4.91
258.982	-1.71
259.451	-4.71
259.92	-12.01
260.389	-1.01
260.859	3.59
261.328	-0.61
261.797	4.69
262.266	-4.21
262.735	8.19
263.204	-2.01
263.673	-1.41
264.142	-2.21
264.611	-8.71
265.08	-4.01
265.549	-2.51
266.018	2.49
266.487	-7.41
266.955	-5.41
267.424	-5.51
267.893	3.89
268.362	0.29
268.83	0.79
269.299	4.09
269.768	4.99
270.236	1.69
270.705	-8.31
271.174	3.39
271.642	-2.21
272.111	2.49
272.579	2.59
273.048	1.79
273.516	3.79
273.985	-0.71
274.453	2.99
274.922	8.59
275.39	-2.11
275.858	-1.01
276.327	6.89
276.795	4.79
277.263	-4.61
277.731	12.29
278.2	4.59
278.668	3.69
279.136	0.79
279.604	-0.11
280.072	1.99
280.54	2.99
281.008	2.99
281.477	7.69
281.945	10.39
282.413	4.89
282.881	6.69
283.348	-3.51
283.816	12.89
284.284	2.89
284.752	9.69
285.22	8.29
285.688	6.49
286.156	2.99
286.623	9.19
287.091	8.89
287.559	7.59
288.026	4.19
288.494	7.69
288.962	1.19
289.429	2.49
289.897	14.59
290.364	4.69
290.832	6.59
291.3	9.49
291.767	7.59
292.234	12.09
292.702	1.59
293.169	11.49
293.637	12.39
294.104	12.09
294.571	-4.01
295.039	1.99
295.506	5.59
295.973	8.69
296.44	7.09
296.908	7.89
297.375	6.09
297.842	7.79
298.309	9.39
298.776	4.49
299.243	4.09
299.71	4.19
300.177	10.99
300.644	14.79
301.111	3.99
301.578	12.29
302.045	11.49
302.512	16.39
302.979	10.99
303.446	15.29
303.913	6.29
304.379	8.99
304.846	14.29
305.313	15.29
305.78	14.49
306.246	15.29
306.713	17.19
307.18	10.99
307.646	13.19
308.113	20.09
308.579	10.89
309.046	14.79
309.512	15.99
309.979	11.09
310.445	16.09
310.912	22.39
311.378	18.89
311.845	21.09
312.311	23.79
312.777	24.19
313.244	19.79
313.71	29.39
314.176	21.99
314.642	17.29
315.109	15.09
315.575	18.89
316.041	28.09
316.507	21.09
316.973	19.99
317.439	22.59
317.905	22.29
318.371	30.69
318.837	26.89
319.303	22.29
319.769	17.89
320.235	19.99
320.701	22.09
321.167	18.99
321.633	23.69
322.099	22.69
322.564	29.69
323.03	22.89
323.496	28.29
323.962	25.99
324.427	26.19
324.893	31.39
325.359	27.19
325.824	19.59
326.29	20.99
326.755	30.79
327.221	26.59
327.686	30.89
328.152	33.59
328.617	27.89
329.083	36.89
329.548	38.29
330.014	31.49
330.479	35.99
330.944	31.79
331.41	27.69
331.875	31.59
332.34	25.29
332.805	28.69
333.271	36.19
333.736	26.29
334.201	36.19
334.666	37.99
335.131	40.39
335.596	37.59
336.061	39.29
336.526	27.79
336.991	37.59
337.456	46.49
337.921	37.79
338.386	39.09
338.851	37.49
339.316	38.09
339.781	34.89
340.246	45.29
340.711	34.99
341.175	45.79
341.64	30.59
342.105	43.49
342.569	48.59
343.034	41.89
343.499	47.89
343.963	43.29
344.428	50.39
344.893	46.29
345.357	54.39
345.822	48.59
346.286	46.79
346.751	53.69
347.215	51.99
347.679	56.59
348.144	70.99
348.608	64.19
349.073	51.69
349.537	53.19
350.001	61.39
350.465	70.69
350.93	64.89
351.394	61.89
351.858	54.19
352.322	69.29
352.786	64.19
353.25	80.29
353.715	79.69
354.179	79.19
354.643	88.49
355.107	102.39
355.571	89.09
356.035	78.09
356.498	87.39
356.962	89.69
357.426	92.39
357.89	88.19
358.354	72.99
358.818	68.29
359.281	64.99
359.745	59.89
360.209	57.39
360.673	58.29
361.136	70.39
361.6	68.89
362.064	67.29
362.527	73.69
362.991	73.49
363.454	65.19
363.918	55.39
364.381	66.29
364.845	68.39
365.308	70.59
365.772	68.79
366.235	75.39
366.698	71.99
367.162	63.39
367.625	70.09
368.088	66.19
368.552	71.79
369.015	73.59
369.478	80.99
369.941	81.09
370.404	77.29
370.867	79.19
371.331	82.99
371.794	87.89
372.257	76.99
372.72	89.79
373.183	88.99
373.646	77.59
374.109	80.89
374.572	83.39
375.035	83.99
375.497	82.19
375.96	94.79
376.423	86.29
376.886	98.09
377.349	92.29
377.811	82.69
378.274	86.49
378.737	88.99
379.199	93.09
379.662	95.29
380.125	98.19
380.587	89.59
381.05	96.09
381.512	96.99
381.975	111.79
382.437	102.09
382.9	99.89
383.362	102.79
383.825	109.89
384.287	107.59
384.75	98.49
385.212	109.39
385.674	120.89
386.136	115.89
386.599	113.89
387.061	112.59
387.523	104.99
387.985	108.29
388.447	117.59
388.91	108.99
389.372	112.09
389.834	119.99
390.296	113.59
390.758	117.69
391.22	119.59
391.682	134.99
392.144	136.89
392.606	126.39
393.068	127.39
393.529	135.09
393.991	135.59
394.453	123.39
394.915	114.39
395.377	122.59
395.838	125.79
396.3	126.79
396.762	124.69
397.224	118.19
397.685	122.19
398.147	117.19
398.608	124.79
399.07	115.49
399.531	128.89
399.993	133.19
400.454	149.29
400.916	135.99
401.377	139.39
401.839	142.89
402.3	149.39
402.762	153.69
403.223	164.19
403.684	160.89
404.145	152.29
404.607	146.59
405.068	151.49
405.529	154.69
405.99	167.09
406.451	154.39
406.913	164.89
407.374	151.79
407.835	145.99
408.296	155.79
408.757	163.99
409.218	169.19
409.679	159.99
410.14	163.89
410.601	164.29
411.062	171.39
411.522	172.09
411.983	168.19
412.444	164.89
412.905	173.19
413.366	172.49
413.826	192.09
414.287	212.49
414.748	251.09
415.208	236.99
415.669	203.49
416.13	201.39
416.59	195.19
417.051	199.49
417.511	208.69
417.972	237.09
418.432	237.29
418.893	278.99
419.353	251.09
419.814	195.79
420.274	178.29
420.734	168.89
421.195	194.59
421.655	179.49
422.115	182.89
422.576	186.69
423.036	195.99
423.496	201.59
423.956	210.29
424.416	223.89
424.876	251.19
425.336	257.29
425.797	251.19
426.257	247.09
426.717	229.99
427.177	228.59
427.637	212.49
428.097	220.79
428.556	233.69
429.016	253.99
429.476	248.29
429.936	265.59
430.396	267.79
430.856	277.19
431.315	290.49
431.775	326.09
432.235	347.19
432.694	332.19
433.154	335.69
433.614	366.69
434.073	315.79
434.533	267.09
434.993	260.39
435.452	264.39
435.912	273.79
436.371	264.29
436.83	262.69
437.29	252.19
437.749	240.09
438.209	236.89
438.668	262.89
439.127	269.29
439.587	254.79
440.046	242.19
440.505	244.29
440.964	265.29
441.424	298.39
441.883	290.39
442.342	250.29
442.801	226.89
443.26	212.59
443.719	215.79
444.178	217.59
444.637	207.89
445.096	221.59
445.555	224.09
446.014	227.29
446.473	225.79
446.932	231.59
447.391	226.69
447.849	231.69
448.308	223.89
448.767	225.19
449.226	237.09
449.685	241.99
450.143	250.49
450.602	240.29
451.061	227.69
451.519	228.69
451.978	232.59
452.436	236.29
452.895	232.89
453.353	250.19
453.812	229.89
454.27	240.79
454.729	243.29
455.187	235.89
455.646	242.59
456.104	243.19
456.562	260.19
457.021	271.69
457.479	250.59
457.937	272.09
458.395	262.79
458.854	246.29
459.312	261.39
459.77	269.39
460.228	251.99
460.686	242.19
461.144	249.89
461.602	244.89
462.06	246.69
462.518	256.69
462.976	258.39
463.434	263.59
463.892	258.69
464.35	273.99
464.808	288.49
465.266	262.29
465.724	274.89
466.181	269.09
466.639	275.19
467.097	294.99
467.555	291.19
468.012	310.29
468.47	312.39
468.928	328.29
469.385	341.99
469.843	353.39
470.3	344.69
470.758	362.39
471.215	385.39
471.673	403.19
472.13	400.29
472.588	414.39
473.045	375.89
473.503	381.59
473.96	400.99
474.417	397.19
474.875	435.19
475.332	465.79
475.789	454.19
476.246	464.99
476.704	481.09
477.161	497.39
477.618	515.29
478.075	558.19
478.532	599.19
478.989	673.69
479.446	768.79
479.903	737.49
480.36	773.89
480.817	819.09
481.274	903.89
481.731	982.19
482.188	1074.39
482.645	1177.29
483.102	1274.69
483.558	1377.19
484.015	1426.19
484.472	1399.09
484.929	1362.79
485.385	1328.09
485.842	1281.69
486.299	1240.09
486.755	1201.79
487.212	1021.49
487.668	879.89
488.125	816.79
488.582	743.59
489.038	716.69
489.494	698.39
489.951	676.09
490.407	648.39
490.864	637.49
491.32	629.79
491.776	632.69
492.233	638.69
492.689	603.69
493.145	608.09
493.602	605.19
494.058	600.89
494.514	610.39
494.97	636.49
495.426	634.69
495.882	608.79
496.338	604.49
496.794	610.29
497.251	604.39
497.707	622.99
498.163	631.19
498.618	632.89
499.074	635.49
499.53	664.99
499.986	649.79
500.442	641.39
500.898	617.99
501.354	612.79
501.809	619.19
502.265	627.89
502.721	627.49
503.177	638.29
503.632	636.59
504.088	639.99
504.543	668.39
504.999	692.99
505.455	652.49
505.91	645.49
506.366	647.79
506.821	630.59
507.277	639.09
507.732	631.49
508.187	633.79
508.643	645.59
509.098	637.09
509.553	664.49
510.009	673.99
510.464	685.49
510.919	694.09
511.375	710.69
511.83	725.29
512.285	731.59
512.74	762.09
513.195	784.29
513.65	757.89
514.105	771.89
514.56	772.29
515.015	797.99
515.47	806.39
515.925	795.59
516.38	782.09
516.835	797.39
517.29	786.99
517.745	773.59
518.2	765.99
518.655	758.59
519.109	754.79
519.564	742.89
520.019	735.69
520.474	724.09
520.928	738.19
521.383	723.59
521.838	721.89
522.292	719.59
522.747	718.99
523.201	721.09
523.656	708.49
524.11	706.79
524.565	699.89
525.019	696.69
525.474	708.89
525.928	702.59
526.382	706.29
526.837	693.49
527.291	720.89
527.745	705.79
528.2	706.09
528.654	701.39
529.108	694.69
529.562	696.69
530.016	701.79
530.47	694.79
530.925	690.89
531.379	694.29
531.833	703.39
532.287	704.89
532.741	702.59
533.195	709.19
533.649	715.39
534.103	727.69
534.556	715.09
535.01	719.19
535.464	718.79
535.918	715.69
536.372	724.69
536.826	717.69
537.279	711.89
537.733	716.79
538.187	717.69
538.64	720.59
539.094	729.89
539.548	735.39
540.001	737.39
540.455	742.49
540.908	741.69
541.362	755.29
541.815	757.09
542.269	759.49
542.722	766.49
543.175	779.29
543.629	772.99
544.082	793.69
544.536	793.79
544.989	796.29
545.442	802.89
545.895	801.09
546.349	811.69
546.802	813.19
547.255	816.09
547.708	816.89
548.161	826.59
548.614	836.49
549.067	845.59
549.52	840.09
549.973	833.99
550.426	822.29
550.879	804.29
551.332	814.49
551.785	820.89
552.238	825.89
552.691	837.99
553.144	848.09
553.596	862.59
554.049	883.39
554.502	903.49
554.955	937.19
555.407	920.09
555.86	913.69
556.313	902.39
556.765	890.19
557.218	892.89
557.67	890.79
558.123	884.99
558.576	882.69
559.028	890.09
559.48	902.59
559.933	892.79
560.385	847.79
560.838	826.69
561.29	805.89
561.742	802.89
562.195	779.39
562.647	793.69
563.099	793.79
563.551	786.29
564.004	781.59
564.456	790.49
564.908	774.49
565.36	755.09
565.812	747.19
566.264	726.49
566.716	728.79
567.168	720.69
567.62	725.99
568.072	712.09
568.524	706.89
568.976	713.49
569.428	691.79
569.88	696.89
570.332	708.69
570.784	711.59
571.235	701.09
571.687	718.09
572.139	713.49
572.59	726.69
573.042	731.09
573.494	724.19
573.945	719.79
574.397	713.89
574.849	699.59
575.3	718.79
575.752	696.19
576.203	698.69
576.655	703.49
577.106	686.89
577.557	687.79
578.009	686.69
578.46	683.49
578.912	672.39
579.363	677.59
579.814	683.69
580.265	682.19
580.717	679.29
581.168	686.99
581.619	694.29
582.07	694.49
582.521	683.99
582.972	685.89
583.423	691.99
583.875	684.49
584.326	689.59
584.777	716.49
585.227	736.19
585.678	744.99
586.129	761.89
586.58	783.79
587.031	799.19
587.482	832.39
587.933	870.29
588.384	837.49
588.834	792.09
589.285	798.29
589.736	792.39
590.186	793.49
590.637	785.99
591.088	761.69
591.538	748.89
591.989	746.59
592.439	743.49
592.89	731.99
593.34	730.79
593.791	718.69
594.241	713.59
594.692	712.49
595.142	714.89
595.593	711.29
596.043	720.79
596.493	722.49
596.943	717.39
597.394	739.79
597.844	746.49
598.294	755.59
598.744	771.59
599.195	810.59
599.645	841.89
600.095	882.49
600.545	947.99
600.995	999.99
601.445	1053.99
601.895	1124.39
602.345	1166.09
602.795	1147.49
603.245	1103.19
603.695	1045.29
604.145	988.19
604.594	945.59
605.044	879.69
605.494	811.49
605.944	765.99
606.393	762.49
606.843	747.69
607.293	755.49
607.743	750.99
608.192	759.29
608.642	778.29
609.091	776.29
609.541	780.69
609.99	773.59
610.44	771.49
610.889	734.59
611.339	726.09
611.788	698.19
612.238	717.79
612.687	717.99
613.136	707.69
613.586	723.69
614.035	718.39
614.484	729.29
614.933	717.39
615.383	719.09
615.832	721.39
616.281	726.29
616.73	691.99
617.179	672.99
617.628	667.39
618.077	650.39
618.526	641.19
618.975	637.09
619.424	634.89
619.873	626.79
620.322	631.09
620.771	632.89
621.22	619.79
621.669	605.69
622.118	596.59
622.567	589.79
623.015	580.59
623.464	583.09
623.913	577.29
624.361	557.19
624.81	557.99
625.259	571.39
625.707	564.39
626.156	568.79
626.604	585.99
627.053	580.49
627.501	575.69
627.95	587.59
628.398	596.99
628.847	580.09
629.295	579.29
629.744	586.79
630.192	579.89
630.64	585.79
631.089	555.09
631.537	555.79
631.985	530.79
632.433	543.69
632.881	545.49
633.33	553.49
633.778	539.49
634.226	529.49
634.674	555.79
635.122	552.79
635.57	561.99
636.018	574.79
636.466	584.59
636.914	575.29
637.362	587.19
637.81	594.29
638.258	597.09
638.705	595.19
639.153	621.29
639.601	643.79
640.049	658.69
640.497	692.69
640.944	717.69
641.392	663.99
641.84	636.09
642.287	599.69
642.735	588.29
643.182	579.79
643.63	581.99
644.078	573.09
644.525	592.79
644.973	584.39
645.42	605.69
645.867	633.09
646.315	650.19
646.762	669.49
647.21	705.79
647.657	722.49
648.104	750.99
648.551	767.59
648.999	831.99
649.446	914.99
649.893	989.69
650.34	1130.39
650.787	1347.99
651.234	1666.39
651.682	2165.59
652.129	2928.79
652.576	4193.59
653.023	6085.89
653.47	8227.49
653.917	10102.89
654.363	11518.89
654.81	12669.89
655.257	11999.19
655.704	7951.89
656.151	4786.09
656.598	3151.59
657.044	2264.09
657.491	1761.19
657.938	1420.09
658.385	1194.09
658.831	1045.49
659.278	938.39
659.724	837.89
660.171	776.49
660.618	722.19
661.064	698.39
661.511	668.19
661.957	663.19
662.404	648.99
662.85	647.09
663.296	637.59
663.743	580.79
664.189	543.49
664.635	547.09
665.082	551.99
665.528	538.79
665.974	538.39
666.42	519.89
666.867	523.69
667.313	500.29
667.759	475.49
668.205	463.99
668.651	468.79
669.097	460.59
669.543	455.19
669.989	462.49
670.435	465.19
670.881	457.09
671.327	463.09
671.773	491.09
672.219	517.09
672.665	575.79
673.11	611.89
673.556	658.89
674.002	701.89
674.448	675.79
674.893	566.99
675.339	488.59
675.785	454.69
676.23	441.69
676.676	406.09
677.122	394.59
677.567	379.59
678.013	388.49
678.458	369.89
678.904	378.79
679.349	362.39
679.794	369.49
680.24	356.89
680.685	357.39
681.131	367.89
681.576	363.19
682.021	376.39
682.466	362.59
682.912	358.39
683.357	361.49
683.802	406.59
684.247	438.89
684.692	479.09
685.137	529.19
685.583	565.49
686.028	587.49
686.473	541.99
686.918	466.79
687.363	433.89
687.807	409.89
688.252	380.39
688.697	382.89
689.142	347.09
689.587	356.19
690.032	335.39
690.477	355.79
690.921	371.19
691.366	406.69
691.811	419.19
692.255	452.29
692.7	486.79
693.145	539.69
693.589	760.69
694.034	1237.99
694.478	1662.89
694.923	1816.69
695.367	2344.19
695.812	1254.99
696.256	527.29
696.701	393.29
697.145	357.59
697.59	339.69
698.034	332.19
698.478	341.89
698.922	334.79
699.367	336.09
699.811	350.69
700.255	360.19
700.699	405.09
701.143	455.89
701.588	498.09
702.032	533.19
702.476	533.19
702.92	519.09
703.364	524.99
703.808	689.49
704.252	1139.39
704.696	1566.49
705.14	1745.29
705.584	2232.79
706.027	1130.09
706.471	553.39
706.915	419.69
707.359	373.09
707.803	337.49
708.246	325.89
708.69	337.59
709.134	330.49
709.577	320.39
710.021	329.59
710.465	314.29
710.908	308.89
711.352	311.89
711.795	330.09
712.239	368.89
712.682	404.79
713.126	423.19
713.569	474.99
714.012	371.49
714.456	312.19
714.899	299.49
715.342	281.39
715.786	272.59
716.229	270.99
716.672	266.19
717.115	257.29
717.558	269.29
718.002	265.69
718.445	273.29
718.888	302.29
719.331	309.99
719.774	323.79
720.217	314.89
720.66	295.79
721.103	283.39
721.546	263.29
721.989	264.39
722.432	245.29
722.874	244.19
723.317	236.99
723.76	252.29
724.203	269.19
724.645	348.49
725.088	478.29
725.531	602.89
725.974	662.59
726.416	575.49
726.859	320.89
727.301	250.69
727.744	246.39
728.187	246.79
728.629	260.39
729.071	249.59
729.514	260.59
729.956	289.99
730.399	298.49
730.841	311.49
731.283	289.49
731.726	279.39
732.168	274.79
732.61	296.09
733.053	308.69
733.495	337.19
733.937	373.19
734.379	420.29
734.821	473.89
735.263	598.49
735.705	921.19
736.148	1763.29
736.59	2789.59
737.032	3182.69
737.474	2610.09
737.916	860.59
738.357	452.99
738.799	351.09
739.241	309.49
739.683	297.49
740.125	308.79
740.567	322.79
741.008	330.99
741.45	337.19
741.892	332.49
742.334	374.59
742.775	375.99
743.217	362.49
743.658	281.79
744.1	277.09
744.542	281.39
744.983	332.19
745.425	368.69
745.866	362.79
746.307	295.69
746.749	296.39
747.19	355.59
747.632	505.99
748.073	997.99
748.514	2065.79
748.956	3041.99
749.397	3857.09
749.838	3179.29
750.279	3093.89
750.72	1589.29
751.162	580.29
751.603	337.69
752.044	270.29
752.485	231.39
752.926	224.39
753.367	212.09
753.808	201.39
754.249	203.49
754.69	194.29
755.131	191.69
755.572	195.19
756.013	190.59
756.453	200.09
756.894	196.89
757.335	199.19
757.776	209.39
758.216	202.29
758.657	211.69
759.098	214.49
759.538	242.89
759.979	290.29
760.42	414.69
760.86	798.89
761.301	2103.29
761.741	4885.49
762.182	6698.79
762.622	4760.09
763.063	1397.39
763.503	579.59
763.943	342.19
