Data from 20171114-ORNL-Ar_H_NY_Subt18_08-04-32-363.txt Node
Date: Tue Nov 14 08:04:32 EST 2017
User: Ender
Spectrometer: HR+D1039
Trigger mode: 0
Integration Time (sec): 2.730000E-2
Scans to average: 10
Electric dark correction enabled: true
Nonlinearity correction enabled: false
Boxcar width: 0
XAxis mode: Wavelengths
Number of Pixels in Spectrum: 2048
>>>>>Begin Spectral Data<<<<<
187.836	-1.66
188.309	-1.66
188.782	-1.66
189.255	3.94
189.728	-1.26
190.201	1.94
190.674	5.14
191.147	3.54
191.619	-8.76
192.092	-5.56
192.565	3.14
193.038	-1.76
193.511	-0.56
193.984	1.74
194.456	-0.06
194.929	3.14
195.402	-2.46
195.874	-0.46
196.347	-4.16
196.82	-3.46
197.292	7.54
197.765	0.34
198.237	-7.66
198.71	3.14
199.182	-1.36
199.655	2.14
200.127	3.94
200.6	-2.26
201.072	-2.06
201.544	-4.66
202.017	-2.76
202.489	-3.26
202.961	2.54
203.433	0.04
203.906	-4.96
204.378	-6.06
204.85	-2.56
205.322	-11.06
205.794	2.24
206.266	-2.26
206.739	-5.86
207.211	3.24
207.683	-9.16
208.155	2.44
208.627	-4.06
209.099	-7.66
209.57	-5.26
210.042	-7.96
210.514	-4.66
210.986	-1.76
211.458	-3.26
211.93	0.54
212.402	2.44
212.873	-8.16
213.345	-8.46
213.817	-9.96
214.288	-2.06
214.76	-13.26
215.232	1.14
215.703	-2.56
216.175	-0.16
216.646	-3.06
217.118	-6.16
217.589	-0.26
218.061	3.64
218.532	-4.56
219.004	-0.76
219.475	-2.16
219.946	-3.56
220.418	-3.16
220.889	8.64
221.36	0.44
221.832	-8.46
222.303	-5.36
222.774	-0.26
223.245	-8.36
223.717	-10.16
224.188	-7.06
224.659	-10.36
225.13	-5.66
225.601	-5.76
226.072	-0.06
226.543	-0.06
227.014	4.84
227.485	0.14
227.956	-6.46
228.427	-2.46
228.898	1.24
229.369	7.04
229.839	-6.46
230.31	-10.26
230.781	-3.06
231.252	-0.66
231.722	-0.56
232.193	0.74
232.664	1.24
233.135	2.44
233.605	0.64
234.076	-8.06
234.546	4.44
235.017	9.04
235.487	2.84
235.958	4.44
236.428	-0.46
236.899	9.54
237.369	6.14
237.84	-0.26
238.31	6.34
238.78	2.44
239.251	6.74
239.721	9.44
240.191	4.04
240.662	1.34
241.132	4.04
241.602	-2.56
242.072	4.64
242.542	10.34
243.013	-2.26
243.483	3.04
243.953	6.84
244.423	0.84
244.893	1.44
245.363	1.24
245.833	6.04
246.303	-4.56
246.773	4.74
247.243	8.24
247.712	6.44
248.182	6.34
248.652	7.24
249.122	2.84
249.592	17.34
250.061	26.44
250.531	36.64
251.001	15.34
251.471	24.04
251.94	19.24
252.41	6.44
252.879	7.14
253.349	12.84
253.818	11.54
254.288	7.44
254.757	9.34
255.227	5.74
255.696	4.94
256.166	12.04
256.635	5.74
257.105	13.84
257.574	6.64
258.043	16.84
258.513	14.04
258.982	23.04
259.451	7.74
259.92	20.64
260.389	18.04
260.859	19.04
261.328	17.04
261.797	22.64
262.266	12.64
262.735	6.24
263.204	8.54
263.673	6.04
264.142	12.14
264.611	2.04
265.08	8.74
265.549	5.04
266.018	7.84
266.487	1.24
266.955	0.34
267.424	7.14
267.893	9.64
268.362	6.84
268.83	2.94
269.299	11.74
269.768	13.84
270.236	9.44
270.705	5.34
271.174	7.04
271.642	5.34
272.111	10.14
272.579	27.44
273.048	22.44
273.516	32.94
273.985	31.84
274.453	26.14
274.922	25.04
275.39	11.24
275.858	4.24
276.327	12.44
276.795	20.44
277.263	10.64
277.731	37.34
278.2	58.64
278.668	64.94
279.136	47.94
279.604	21.14
280.072	18.34
280.54	14.44
281.008	16.74
281.477	16.44
281.945	13.84
282.413	22.44
282.881	17.24
283.348	7.04
283.816	17.54
284.284	12.94
284.752	22.84
285.22	12.14
285.688	18.84
286.156	21.34
286.623	48.54
287.091	55.74
287.559	31.74
288.026	17.44
288.494	19.14
288.962	8.64
289.429	13.74
289.897	24.64
290.364	14.94
290.832	18.94
291.3	16.14
291.767	16.24
292.234	20.84
292.702	15.94
293.169	22.84
293.637	23.24
294.104	25.04
294.571	14.24
295.039	19.34
295.506	15.14
295.973	17.04
296.44	14.94
296.908	17.34
297.375	20.74
297.842	25.04
298.309	21.64
298.776	19.74
299.243	24.04
299.71	15.94
300.177	22.64
300.644	23.94
301.111	24.84
301.578	24.64
302.045	16.94
302.512	25.64
302.979	25.14
303.446	24.04
303.913	18.34
304.379	22.14
304.846	29.24
305.313	28.44
305.78	26.24
306.246	29.44
306.713	27.84
307.18	27.04
307.646	27.64
308.113	27.74
308.579	18.54
309.046	26.84
309.512	30.74
309.979	18.94
310.445	30.14
310.912	29.84
311.378	36.14
311.845	26.94
312.311	31.64
312.777	35.14
313.244	35.94
313.71	43.24
314.176	22.54
314.642	37.04
315.109	35.44
315.575	36.44
316.041	41.04
316.507	36.14
316.973	36.14
317.439	37.94
317.905	45.04
318.371	36.94
318.837	40.44
319.303	27.34
319.769	36.04
320.235	34.34
320.701	31.74
321.167	39.04
321.633	40.94
322.099	34.44
322.564	45.34
323.03	40.44
323.496	45.84
323.962	43.04
324.427	36.94
324.893	43.04
325.359	39.94
325.824	37.34
326.29	39.94
326.755	42.74
327.221	44.14
327.686	42.44
328.152	48.54
328.617	41.54
329.083	44.04
329.548	49.44
330.014	48.34
330.479	45.74
330.944	45.74
331.41	41.34
331.875	48.04
332.34	43.84
332.805	45.14
333.271	49.64
333.736	47.54
334.201	53.54
334.666	49.84
335.131	56.34
335.596	52.64
336.061	47.34
336.526	42.34
336.991	55.34
337.456	52.34
337.921	56.34
338.386	45.54
338.851	47.74
339.316	49.74
339.781	40.74
340.246	52.84
340.711	42.64
341.175	49.84
341.64	40.24
342.105	53.24
342.569	54.84
343.034	55.74
343.499	54.74
343.963	53.34
344.428	64.94
344.893	60.94
345.357	62.04
345.822	61.14
346.286	67.24
346.751	76.74
347.215	69.24
347.679	72.24
348.144	101.04
348.608	83.34
349.073	69.14
349.537	73.44
350.001	78.54
350.465	89.04
350.93	69.74
351.394	81.44
351.858	70.34
352.322	83.84
352.786	85.34
353.25	101.64
353.715	115.04
354.179	99.34
354.643	118.84
355.107	117.84
355.571	103.44
356.035	97.54
356.498	110.14
356.962	117.44
357.426	124.74
357.89	113.94
358.354	92.34
358.818	76.44
359.281	77.34
359.745	76.14
360.209	77.94
360.673	71.64
361.136	80.24
361.6	81.64
362.064	83.44
362.527	82.54
362.991	88.74
363.454	79.14
363.918	74.34
364.381	80.14
364.845	76.54
365.308	83.64
365.772	77.94
366.235	84.34
366.698	81.74
367.162	86.34
367.625	86.54
368.088	88.94
368.552	89.64
369.015	86.04
369.478	96.04
369.941	93.54
370.404	100.04
370.867	106.34
371.331	100.04
371.794	108.94
372.257	105.14
372.72	116.34
373.183	105.04
373.646	100.44
374.109	98.84
374.572	102.14
375.035	100.64
375.497	104.54
375.96	98.24
376.423	98.14
376.886	107.54
377.349	104.04
377.811	96.84
378.274	101.54
378.737	97.04
379.199	107.14
379.662	103.94
380.125	106.14
380.587	111.04
381.05	118.94
381.512	119.54
381.975	121.24
382.437	124.04
382.9	122.44
383.362	123.24
383.825	135.94
384.287	135.44
384.75	123.44
385.212	130.34
385.674	132.64
386.136	126.74
386.599	116.94
387.061	122.04
387.523	128.14
387.985	126.44
388.447	138.24
388.91	133.54
389.372	144.14
389.834	146.84
390.296	142.84
390.758	152.14
391.22	159.84
391.682	199.34
392.144	269.94
392.606	219.84
393.068	158.64
393.529	160.94
393.991	150.54
394.453	141.94
394.915	145.94
395.377	176.94
395.838	201.94
396.3	145.24
396.762	136.14
397.224	130.74
397.685	118.64
398.147	124.24
398.608	117.34
399.07	123.14
399.531	125.24
399.993	130.14
400.454	142.14
400.916	138.14
401.377	134.04
401.839	144.34
402.3	140.14
402.762	156.24
403.223	163.24
403.684	163.14
404.145	148.74
404.607	153.34
405.068	149.84
405.529	162.04
405.99	172.94
406.451	159.74
406.913	159.14
407.374	150.14
407.835	149.84
408.296	157.14
408.757	163.34
409.218	172.14
409.679	167.34
410.14	167.14
410.601	166.64
411.062	176.64
411.522	176.34
411.983	184.44
412.444	170.54
412.905	170.04
413.366	174.44
413.826	184.64
414.287	206.14
414.748	244.44
415.208	228.14
415.669	198.14
416.13	198.44
416.59	186.84
417.051	202.04
417.511	202.24
417.972	219.74
418.432	234.44
418.893	266.54
419.353	233.14
419.814	187.94
420.274	174.94
420.734	168.94
421.195	188.84
421.655	183.14
422.115	171.44
422.576	185.44
423.036	178.94
423.496	186.94
423.956	205.34
424.416	211.84
424.876	251.24
425.336	253.94
425.797	243.04
426.257	237.14
426.717	210.74
427.177	215.74
427.637	211.84
428.097	222.74
428.556	232.34
429.016	246.14
429.476	243.14
429.936	251.84
430.396	255.34
430.856	270.74
431.315	294.04
431.775	333.84
432.235	356.34
432.694	326.14
433.154	332.14
433.614	354.04
434.073	313.24
434.533	270.64
434.993	254.74
435.452	262.84
435.912	274.04
436.371	261.44
436.83	263.24
437.29	249.64
437.749	225.64
438.209	226.84
438.668	253.94
439.127	264.24
439.587	235.94
440.046	224.54
440.505	239.94
440.964	255.54
441.424	297.24
441.883	288.94
442.342	240.34
442.801	207.74
443.26	212.24
443.719	206.24
444.178	204.24
444.637	189.44
445.096	207.74
445.555	210.84
446.014	201.74
446.473	206.64
446.932	209.74
447.391	207.04
447.849	211.94
448.308	202.64
448.767	200.84
449.226	225.34
449.685	227.14
450.143	231.94
450.602	223.74
451.061	207.54
451.519	217.74
451.978	219.24
452.436	220.64
452.895	221.24
453.353	238.14
453.812	222.24
454.27	222.84
454.729	224.44
455.187	219.44
455.646	227.34
456.104	228.54
456.562	233.64
457.021	240.44
457.479	239.34
457.937	249.84
458.395	237.54
458.854	234.44
459.312	232.74
459.77	246.64
460.228	232.34
460.686	228.04
461.144	228.14
461.602	231.44
462.06	228.44
462.518	233.94
462.976	237.24
463.434	238.94
463.892	240.44
464.35	257.04
464.808	274.54
465.266	248.34
465.724	258.14
466.181	248.94
466.639	255.84
467.097	264.14
467.555	271.84
468.012	279.94
468.47	289.54
468.928	305.24
469.385	316.04
469.843	315.14
470.3	322.44
470.758	337.44
471.215	354.14
471.673	373.94
472.13	379.74
472.588	378.94
473.045	338.04
473.503	352.74
473.96	364.94
474.417	373.24
474.875	397.24
475.332	431.64
475.789	428.84
476.246	430.04
476.704	453.34
477.161	474.04
477.618	486.74
478.075	514.44
478.532	561.74
478.989	631.44
479.446	732.14
479.903	711.54
480.36	750.94
480.817	799.74
481.274	899.74
481.731	984.54
482.188	1089.34
482.645	1221.84
483.102	1318.04
483.558	1441.24
484.015	1492.04
484.472	1485.34
484.929	1431.14
485.385	1385.34
485.842	1337.04
486.299	1278.14
486.755	1199.14
487.212	1020.64
487.668	864.34
488.125	794.64
488.582	719.64
489.038	684.74
489.494	667.94
489.951	637.94
490.407	621.84
490.864	599.94
491.32	594.14
491.776	591.74
492.233	606.24
492.689	562.64
493.145	556.74
493.602	555.44
494.058	565.14
494.514	569.64
494.97	592.54
495.426	596.64
495.882	582.74
496.338	569.94
496.794	578.84
497.251	577.04
497.707	587.84
498.163	594.94
498.618	596.64
499.074	614.34
499.53	621.64
499.986	628.14
500.442	599.74
500.898	588.14
501.354	570.44
501.809	585.24
502.265	594.44
502.721	606.94
503.177	621.74
503.632	613.34
504.088	628.04
504.543	659.04
504.999	655.94
505.455	608.64
505.91	591.44
506.366	581.34
506.821	587.74
507.277	568.84
507.732	577.84
508.187	573.54
508.643	587.54
509.098	583.74
509.553	601.14
510.009	615.14
510.464	621.94
510.919	630.74
511.375	636.04
511.83	661.74
512.285	665.04
512.74	698.64
513.195	722.84
513.65	719.74
514.105	713.04
514.56	712.24
515.015	732.54
515.47	749.44
515.925	742.94
516.38	737.04
516.835	745.34
517.29	730.44
517.745	727.84
518.2	708.44
518.655	693.24
519.109	685.74
519.564	692.64
520.019	676.14
520.474	667.74
520.928	669.24
521.383	668.44
521.838	654.04
522.292	658.64
522.747	652.04
523.201	644.74
523.656	639.54
524.11	645.44
524.565	632.34
525.019	629.24
525.474	637.14
525.928	646.24
526.382	637.54
526.837	642.14
527.291	645.54
527.745	646.54
528.2	645.34
528.654	635.84
529.108	633.14
529.562	634.54
530.016	637.34
530.47	635.94
530.925	636.24
531.379	639.24
531.833	641.14
532.287	640.84
532.741	644.94
533.195	652.44
533.649	653.54
534.103	661.64
534.556	652.54
535.01	664.84
535.464	653.24
535.918	660.94
536.372	660.44
536.826	658.34
537.279	654.14
537.733	639.94
538.187	662.74
538.64	652.44
539.094	662.24
539.548	664.54
540.001	662.34
540.455	655.04
540.908	666.74
541.362	672.04
541.815	679.54
542.269	690.54
542.722	698.74
543.175	699.84
543.629	698.14
544.082	719.04
544.536	713.44
544.989	714.34
545.442	719.24
545.895	726.84
546.349	706.54
546.802	723.24
547.255	728.44
547.708	724.64
548.161	747.34
548.614	744.84
549.067	762.14
549.52	746.84
549.973	740.64
550.426	742.14
550.879	720.24
551.332	725.84
551.785	729.94
552.238	727.94
552.691	737.34
553.144	753.74
553.596	768.64
554.049	785.04
554.502	804.74
554.955	830.34
555.407	823.04
555.86	818.64
556.313	804.84
556.765	800.94
557.218	800.74
557.67	809.24
558.123	794.34
558.576	784.94
559.028	789.54
559.48	799.44
559.933	801.64
560.385	761.54
560.838	722.74
561.29	705.44
561.742	702.04
562.195	690.74
562.647	690.74
563.099	701.74
563.551	699.44
564.004	704.74
564.456	701.64
564.908	693.14
565.36	675.74
565.812	664.24
566.264	653.04
566.716	651.24
567.168	659.04
567.62	646.64
568.072	629.94
568.524	618.94
568.976	616.94
569.428	604.04
569.88	599.84
570.332	607.54
570.784	605.44
571.235	616.04
571.687	620.44
572.139	632.14
572.59	635.74
573.042	639.84
573.494	636.94
573.945	636.34
574.397	608.24
574.849	618.04
575.3	614.14
575.752	612.54
576.203	602.34
576.655	608.44
577.106	593.34
577.557	594.94
578.009	593.54
578.46	589.54
578.912	586.34
579.363	587.74
579.814	594.54
580.265	591.44
580.717	600.04
581.168	597.84
581.619	604.64
582.07	604.34
582.521	595.04
582.972	590.24
583.423	602.64
583.875	606.54
584.326	618.54
584.777	669.54
585.227	742.14
585.678	815.14
586.129	899.14
586.58	964.64
587.031	1042.54
587.482	1198.54
587.933	1369.64
588.384	1179.04
588.834	877.14
589.285	715.24
589.736	698.94
590.186	676.94
590.637	672.94
591.088	657.74
591.538	647.04
591.989	650.34
592.439	641.44
592.89	636.54
593.34	627.34
593.791	631.64
594.241	618.84
594.692	616.44
595.142	616.94
595.593	622.34
596.043	623.74
596.493	634.04
596.943	631.24
597.394	628.84
597.844	627.24
598.294	633.54
598.744	664.64
599.195	683.14
599.645	723.44
600.095	747.64
600.545	801.44
600.995	853.24
601.445	903.04
601.895	958.94
602.345	1002.54
602.795	984.34
603.245	941.44
603.695	889.34
604.145	846.94
604.594	804.54
605.044	754.74
605.494	710.04
605.944	661.24
606.393	652.64
606.843	634.44
607.293	645.84
607.743	635.74
608.192	646.44
608.642	655.64
609.091	669.04
609.541	668.64
609.99	666.24
610.44	659.04
610.889	622.64
611.339	607.64
611.788	597.14
612.238	602.04
612.687	630.34
613.136	637.74
613.586	648.94
614.035	640.04
614.484	664.64
614.933	660.94
615.383	658.14
615.832	647.94
616.281	630.84
616.73	593.24
617.179	581.64
617.628	561.84
618.077	550.94
618.526	539.64
618.975	538.34
619.424	530.74
619.873	534.54
620.322	537.84
620.771	531.64
621.22	518.04
621.669	516.44
622.118	509.14
622.567	505.74
623.015	485.34
623.464	493.34
623.913	486.84
624.361	478.94
624.81	474.44
625.259	478.14
625.707	482.84
626.156	487.34
626.604	492.74
627.053	485.24
627.501	484.14
627.95	490.54
628.398	499.34
628.847	485.14
629.295	493.64
629.744	491.74
630.192	485.84
630.64	486.94
631.089	487.64
631.537	490.54
631.985	497.94
632.433	509.54
632.881	520.84
633.33	562.04
633.778	542.44
634.226	481.84
634.674	487.64
635.122	494.74
635.57	510.24
636.018	532.34
636.466	497.94
636.914	476.44
637.362	488.64
637.81	490.14
638.258	488.24
638.705	486.14
639.153	521.44
639.601	527.64
640.049	543.14
640.497	571.24
640.944	589.74
641.392	549.94
641.84	525.64
642.287	501.74
642.735	483.64
643.182	487.84
643.63	489.54
644.078	494.44
644.525	508.34
644.973	512.04
645.42	514.54
645.867	521.84
646.315	548.84
646.762	569.14
647.21	593.74
647.657	614.04
648.104	634.44
648.551	657.04
648.999	708.34
649.446	773.44
649.893	847.94
650.34	984.94
650.787	1179.64
651.234	1455.24
651.682	1890.64
652.129	2574.04
652.576	3715.94
653.023	5507.54
653.47	7594.84
653.917	9634.84
654.363	11259.74
654.81	12656.84
655.257	12022.64
655.704	7781.74
656.151	4568.34
656.598	2951.94
657.044	2085.64
657.491	1595.64
657.938	1278.84
658.385	1066.74
658.831	922.84
659.278	823.54
659.724	730.34
660.171	669.04
660.618	612.44
661.064	583.74
661.511	566.34
661.957	552.84
662.404	542.84
662.85	547.34
663.296	519.04
663.743	477.34
664.189	458.84
664.635	453.44
665.082	451.54
665.528	450.14
665.974	436.94
666.42	435.64
666.867	432.04
667.313	406.64
667.759	404.54
668.205	410.54
668.651	410.14
669.097	410.24
669.543	428.64
669.989	403.14
670.435	382.44
670.881	376.34
671.327	387.14
671.773	393.24
672.219	415.24
672.665	457.84
673.11	474.14
673.556	514.94
674.002	554.14
674.448	550.14
674.893	463.34
675.339	402.64
675.785	373.14
676.23	347.54
676.676	333.44
677.122	315.44
677.567	307.14
678.013	305.94
678.458	300.14
678.904	300.84
679.349	290.64
679.794	293.54
680.24	290.74
680.685	294.74
681.131	295.14
681.576	290.84
682.021	297.74
682.466	285.44
682.912	292.74
683.357	291.74
683.802	316.84
684.247	340.64
684.692	382.94
685.137	415.34
685.583	457.94
686.028	471.24
686.473	431.94
686.918	371.14
687.363	350.14
687.807	330.24
688.252	294.84
688.697	293.74
689.142	278.54
689.587	270.44
690.032	273.44
690.477	286.54
690.921	297.24
691.366	314.54
691.811	334.24
692.255	358.24
692.7	385.34
693.145	414.44
693.589	559.74
694.034	923.74
694.478	1270.54
694.923	1471.24
695.367	1934.24
695.812	1011.14
696.256	417.24
696.701	314.84
697.145	284.34
697.59	275.24
698.034	267.14
698.478	269.74
698.922	273.34
699.367	264.64
699.811	283.44
700.255	298.34
700.699	314.24
701.143	350.04
701.588	400.54
702.032	438.04
702.476	423.34
702.92	400.64
703.364	405.64
703.808	511.74
704.252	846.64
704.696	1202.14
705.14	1418.44
705.584	1831.14
706.027	892.54
706.471	437.84
706.915	331.44
707.359	295.04
707.803	260.34
708.246	254.24
708.69	260.14
709.134	255.84
709.577	259.64
710.021	260.74
710.465	253.04
710.908	245.44
711.352	253.64
711.795	261.24
712.239	293.34
712.682	310.34
713.126	346.94
713.569	394.84
714.012	311.94
714.456	272.54
714.899	248.04
715.342	229.04
715.786	221.64
716.229	216.74
716.672	212.54
717.115	205.74
717.558	205.44
718.002	213.14
718.445	221.84
718.888	236.54
719.331	242.14
719.774	251.84
720.217	255.44
720.66	232.74
721.103	215.34
721.546	211.94
721.989	208.74
722.432	199.14
722.874	202.94
723.317	190.94
723.76	193.74
724.203	206.44
724.645	259.04
725.088	363.24
725.531	480.84
725.974	551.94
726.416	466.64
726.859	258.64
727.301	209.84
727.744	190.04
728.187	199.14
728.629	193.44
729.071	209.34
729.514	217.14
729.956	218.44
730.399	236.24
730.841	242.04
731.283	225.44
731.726	224.34
732.168	221.34
732.61	225.84
733.053	235.54
733.495	261.24
733.937	285.14
734.379	334.04
734.821	361.74
735.263	442.34
735.705	668.94
736.148	1261.34
736.59	2113.34
737.032	2613.54
737.474	2119.84
737.916	677.04
738.357	354.84
738.799	268.04
739.241	239.04
739.683	237.44
740.125	248.74
740.567	243.74
741.008	264.84
741.45	257.94
741.892	259.24
742.334	288.84
742.775	296.04
743.217	287.44
743.658	226.84
744.1	214.84
744.542	210.84
744.983	261.44
745.425	292.84
745.866	296.44
746.307	234.14
746.749	235.84
747.19	268.64
747.632	362.94
748.073	692.94
748.514	1501.24
748.956	2367.04
749.397	2946.44
749.838	2471.14
750.279	2538.14
750.72	1273.64
751.162	458.34
751.603	269.14
752.044	204.24
752.485	179.34
752.926	175.04
753.367	166.04
753.808	164.34
754.249	151.24
754.69	155.94
755.131	153.54
755.572	151.24
756.013	148.54
756.453	155.54
756.894	157.84
757.335	162.54
757.776	167.24
758.216	161.14
758.657	172.24
759.098	171.54
759.538	191.94
759.979	218.34
760.42	299.14
760.86	558.04
761.301	1454.14
761.741	3595.94
762.182	5567.84
762.622	3920.44
763.063	1105.04
