Data from 20171114-ORNL-Ar_H_NY_Subt18_08-05-19-587.txt Node
Date: Tue Nov 14 08:05:19 EST 2017
User: Ender
Spectrometer: HR+D1039
Trigger mode: 0
Integration Time (sec): 2.730000E-2
Scans to average: 10
Electric dark correction enabled: true
Nonlinearity correction enabled: false
Boxcar width: 0
XAxis mode: Wavelengths
Number of Pixels in Spectrum: 2048
>>>>>Begin Spectral Data<<<<<
187.836	-3.19
188.309	-3.19
188.782	-3.19
189.255	1.01
189.728	-3.49
190.201	1.41
190.674	0.61
191.147	4.71
191.619	-0.39
192.092	-1.29
192.565	1.61
193.038	-0.09
193.511	1.21
193.984	3.11
194.456	-5.19
194.929	3.71
195.402	-2.69
195.874	-0.99
196.347	-5.29
196.82	-6.39
197.292	3.21
197.765	-5.29
198.237	-10.29
198.71	1.01
199.182	-3.89
199.655	4.11
200.127	2.31
200.6	-7.79
201.072	-8.29
201.544	-7.59
202.017	-5.89
202.489	-0.39
202.961	-10.79
203.433	-0.89
203.906	-8.49
204.378	-3.29
204.85	-9.59
205.322	-16.29
205.794	-6.19
206.266	-7.59
206.739	-11.39
207.211	-0.09
207.683	-9.49
208.155	-15.69
208.627	-8.99
209.099	-3.49
209.57	-6.99
210.042	-7.69
210.514	-7.59
210.986	-1.39
211.458	-8.89
211.93	-4.79
212.402	-1.39
212.873	-3.19
213.345	-11.89
213.817	-18.09
214.288	-8.19
214.76	-16.49
215.232	-7.09
215.703	-4.09
216.175	-9.19
216.646	-1.59
217.118	-6.99
217.589	-2.19
218.061	0.91
218.532	-2.69
219.004	-6.29
219.475	-5.69
219.946	-4.39
220.418	-9.09
220.889	3.81
221.36	1.11
221.832	-4.39
222.303	-8.29
222.774	-0.79
223.245	-9.99
223.717	-3.79
224.188	-9.89
224.659	-8.19
225.13	-5.49
225.601	-6.19
226.072	3.21
226.543	0.41
227.014	-3.39
227.485	-4.39
227.956	-7.79
228.427	-5.49
228.898	1.51
229.369	3.91
229.839	-6.29
230.31	-11.49
230.781	-0.99
231.252	-6.69
231.722	-5.49
232.193	-3.79
232.664	0.51
233.135	-4.59
233.605	-1.99
234.076	-6.09
234.546	5.21
235.017	4.61
235.487	4.01
235.958	9.71
236.428	-7.09
236.899	6.11
237.369	4.91
237.84	-0.19
238.31	7.41
238.78	4.91
239.251	3.01
239.721	-0.39
240.191	-4.99
240.662	-3.29
241.132	-1.19
241.602	-6.99
242.072	7.91
242.542	7.41
243.013	-0.99
243.483	0.11
243.953	0.41
244.423	1.81
244.893	-3.79
245.363	0.61
245.833	2.31
246.303	-5.59
246.773	10.81
247.243	-1.09
247.712	5.11
248.182	4.31
248.652	12.41
249.122	1.41
249.592	14.61
250.061	21.71
250.531	37.61
251.001	15.11
251.471	17.71
251.94	23.31
252.41	4.91
252.879	-0.69
253.349	12.71
253.818	6.51
254.288	-0.99
254.757	3.21
255.227	3.71
255.696	3.71
256.166	3.31
256.635	4.01
257.105	9.81
257.574	7.21
258.043	6.91
258.513	15.71
258.982	17.41
259.451	7.91
259.92	17.31
260.389	14.81
260.859	21.71
261.328	9.41
261.797	14.71
262.266	8.51
262.735	8.41
263.204	4.51
263.673	0.51
264.142	6.21
264.611	-3.59
265.08	-0.79
265.549	2.11
266.018	5.11
266.487	-3.89
266.955	0.41
267.424	4.21
267.893	7.01
268.362	3.01
268.83	4.51
269.299	8.71
269.768	7.41
270.236	6.81
270.705	6.81
271.174	6.51
271.642	12.01
272.111	10.61
272.579	17.51
273.048	20.51
273.516	25.91
273.985	31.61
274.453	24.91
274.922	23.71
275.39	11.71
275.858	6.31
276.327	12.31
276.795	20.21
277.263	12.21
277.731	29.11
278.2	56.51
278.668	59.31
279.136	51.61
279.604	18.31
280.072	16.61
280.54	13.61
281.008	10.81
281.477	17.31
281.945	15.11
282.413	10.41
282.881	17.81
283.348	11.21
283.816	11.51
284.284	17.31
284.752	22.41
285.22	11.11
285.688	15.91
286.156	23.21
286.623	49.41
287.091	57.31
287.559	28.91
288.026	19.11
288.494	14.91
288.962	9.31
289.429	9.91
289.897	21.71
290.364	20.51
290.832	17.71
291.3	14.71
291.767	25.11
292.234	16.91
292.702	18.51
293.169	21.51
293.637	24.81
294.104	20.61
294.571	15.11
295.039	14.51
295.506	16.51
295.973	22.71
296.44	13.41
296.908	20.11
297.375	23.41
297.842	18.11
298.309	19.51
298.776	16.31
299.243	24.61
299.71	16.31
300.177	23.21
300.644	15.41
301.111	17.71
301.578	25.01
302.045	18.91
302.512	19.91
302.979	30.81
303.446	21.21
303.913	21.91
304.379	20.51
304.846	24.01
305.313	32.31
305.78	29.01
306.246	28.81
306.713	23.41
307.18	24.01
307.646	28.41
308.113	31.31
308.579	32.31
309.046	27.81
309.512	23.11
309.979	24.31
310.445	33.61
310.912	26.51
311.378	28.71
311.845	28.91
312.311	33.61
312.777	31.71
313.244	27.81
313.71	45.11
314.176	35.21
314.642	34.91
315.109	29.11
315.575	41.61
316.041	40.61
316.507	35.81
316.973	40.81
317.439	31.51
317.905	37.91
318.371	34.01
318.837	36.41
319.303	31.71
319.769	38.71
320.235	30.91
320.701	31.11
321.167	35.61
321.633	35.61
322.099	39.61
322.564	41.71
323.03	45.01
323.496	43.01
323.962	41.11
324.427	38.11
324.893	42.41
325.359	38.61
325.824	43.41
326.29	40.21
326.755	41.71
327.221	42.41
327.686	36.71
328.152	48.81
328.617	48.01
329.083	46.81
329.548	52.71
330.014	47.01
330.479	37.51
330.944	46.81
331.41	46.21
331.875	49.41
332.34	43.01
332.805	47.71
333.271	48.51
333.736	49.01
334.201	53.91
334.666	52.01
335.131	52.01
335.596	55.51
336.061	47.61
336.526	39.11
336.991	53.71
337.456	55.11
337.921	50.41
338.386	49.81
338.851	45.71
339.316	48.31
339.781	46.31
340.246	53.61
340.711	46.61
341.175	47.51
341.64	46.01
342.105	59.61
342.569	54.51
343.034	57.71
343.499	54.61
343.963	55.41
344.428	62.01
344.893	61.31
345.357	60.91
345.822	61.51
346.286	65.21
346.751	76.51
347.215	67.61
347.679	68.61
348.144	102.61
348.608	82.21
349.073	73.11
349.537	74.51
350.001	77.61
350.465	87.21
350.93	85.91
351.394	89.51
351.858	77.91
352.322	84.21
352.786	80.51
353.25	101.51
353.715	110.31
354.179	107.31
354.643	121.71
355.107	129.31
355.571	108.81
356.035	103.11
356.498	115.01
356.962	126.51
357.426	136.21
357.89	117.11
358.354	92.31
358.818	88.01
359.281	84.81
359.745	82.71
360.209	82.21
360.673	71.11
361.136	79.81
361.6	91.31
362.064	86.21
362.527	85.61
362.991	92.11
363.454	77.91
363.918	79.41
364.381	80.61
364.845	84.71
365.308	87.01
365.772	83.81
366.235	84.31
366.698	88.91
367.162	88.91
367.625	85.51
368.088	95.11
368.552	88.61
369.015	87.21
369.478	93.61
369.941	107.51
370.404	98.41
370.867	110.21
371.331	108.61
371.794	115.51
372.257	116.01
372.72	115.81
373.183	110.31
373.646	103.31
374.109	106.61
374.572	102.31
375.035	109.51
375.497	106.91
375.96	108.71
376.423	102.31
376.886	111.11
377.349	112.01
377.811	103.11
378.274	100.41
378.737	106.11
379.199	116.11
379.662	117.31
380.125	124.51
380.587	118.91
381.05	121.01
381.512	132.11
381.975	134.21
382.437	129.71
382.9	133.71
383.362	134.61
383.825	142.21
384.287	150.91
384.75	142.61
385.212	141.81
385.674	137.31
386.136	137.01
386.599	124.61
387.061	125.91
387.523	131.81
387.985	130.41
388.447	142.71
388.91	137.71
389.372	157.61
389.834	156.61
390.296	149.11
390.758	156.81
391.22	163.81
391.682	208.11
392.144	300.11
392.606	236.21
393.068	166.31
393.529	166.01
393.991	153.91
394.453	145.51
394.915	159.81
395.377	189.51
395.838	213.31
396.3	148.41
396.762	133.51
397.224	133.41
397.685	137.31
398.147	133.51
398.608	133.41
399.07	129.51
399.531	138.81
399.993	149.61
400.454	152.71
400.916	154.41
401.377	142.21
401.839	158.61
402.3	155.31
402.762	170.01
403.223	184.41
403.684	171.71
404.145	161.61
404.607	156.41
405.068	159.91
405.529	174.61
405.99	184.61
406.451	172.51
406.913	174.01
407.374	160.71
407.835	160.31
408.296	166.51
408.757	172.81
409.218	188.01
409.679	182.61
410.14	170.41
410.601	178.61
411.062	186.21
411.522	190.71
411.983	184.71
412.444	177.01
412.905	184.51
413.366	182.21
413.826	189.41
414.287	215.81
414.748	263.71
415.208	246.01
415.669	215.11
416.13	208.11
416.59	198.71
417.051	209.11
417.511	219.01
417.972	228.61
418.432	250.11
418.893	287.51
419.353	258.21
419.814	196.71
420.274	187.91
420.734	185.61
421.195	196.41
421.655	197.51
422.115	194.21
422.576	191.81
423.036	198.01
423.496	206.41
423.956	215.41
424.416	234.11
424.876	261.41
425.336	258.31
425.797	262.81
426.257	248.51
426.717	239.91
427.177	229.81
427.637	225.21
428.097	243.01
428.556	245.91
429.016	270.91
429.476	261.91
429.936	281.21
430.396	275.41
430.856	289.71
431.315	321.51
431.775	356.81
432.235	376.71
432.694	350.11
433.154	362.91
433.614	391.51
434.073	344.81
434.533	280.91
434.993	267.21
435.452	290.61
435.912	299.91
436.371	294.91
436.83	283.61
437.29	272.21
437.749	247.91
438.209	248.91
438.668	274.41
439.127	288.61
439.587	267.31
440.046	250.31
440.505	257.51
440.964	279.01
441.424	326.91
441.883	313.51
442.342	260.41
442.801	222.81
443.26	223.01
443.719	223.21
444.178	223.71
444.637	213.01
445.096	216.81
445.555	228.31
446.014	220.71
446.473	222.11
446.932	229.81
447.391	222.51
447.849	224.21
448.308	219.11
448.767	217.51
449.226	237.11
449.685	234.51
450.143	248.21
450.602	241.41
451.061	228.41
451.519	239.61
451.978	228.41
452.436	241.81
452.895	237.61
453.353	257.91
453.812	234.01
454.27	232.31
454.729	240.31
455.187	236.11
455.646	239.21
456.104	242.11
456.562	260.31
457.021	263.11
457.479	257.61
457.937	268.51
458.395	261.01
458.854	248.41
459.312	252.41
459.77	270.41
460.228	254.31
460.686	244.71
461.144	246.71
461.602	244.61
462.06	243.71
462.518	251.21
462.976	252.91
463.434	260.11
463.892	267.61
464.35	272.71
464.808	286.21
465.266	258.91
465.724	269.11
466.181	273.01
466.639	272.51
467.097	285.31
467.555	304.21
468.012	295.81
468.47	311.01
468.928	331.81
469.385	349.01
469.843	345.81
470.3	347.81
470.758	360.61
471.215	384.71
471.673	402.11
472.13	408.41
472.588	418.61
473.045	375.91
473.503	373.31
473.96	394.61
474.417	408.01
474.875	435.11
475.332	481.71
475.789	465.51
476.246	467.91
476.704	479.31
477.161	511.81
477.618	522.21
478.075	552.71
478.532	619.21
478.989	694.51
479.446	813.11
479.903	770.21
480.36	804.41
480.817	867.91
481.274	974.61
481.731	1078.51
482.188	1183.91
482.645	1319.01
483.102	1419.81
483.558	1559.41
484.015	1617.11
484.472	1585.81
484.929	1531.71
485.385	1490.51
485.842	1456.91
486.299	1390.01
486.755	1318.01
487.212	1094.71
487.668	928.91
488.125	860.61
488.582	783.61
489.038	755.11
489.494	712.81
489.951	684.11
490.407	671.21
490.864	645.01
491.32	644.51
491.776	641.01
492.233	644.51
492.689	611.01
493.145	607.31
493.602	605.11
494.058	614.71
494.514	613.51
494.97	647.11
495.426	656.31
495.882	624.51
496.338	611.31
496.794	644.41
497.251	628.01
497.707	638.31
498.163	648.01
498.618	648.41
499.074	642.71
499.53	686.31
499.986	675.11
500.442	650.11
500.898	636.41
501.354	619.61
501.809	631.51
502.265	640.61
502.721	658.41
503.177	671.61
503.632	670.01
504.088	673.01
504.543	715.51
504.999	710.61
505.455	663.91
505.91	629.31
506.366	645.11
506.821	631.01
507.277	619.51
507.732	628.71
508.187	622.71
508.643	622.61
509.098	629.81
509.553	655.91
510.009	657.21
510.464	671.61
510.919	694.11
511.375	693.51
511.83	702.51
512.285	727.21
512.74	759.31
513.195	783.51
513.65	766.21
514.105	771.81
514.56	769.21
515.015	795.41
515.47	810.51
515.925	792.61
516.38	789.71
516.835	798.01
517.29	785.21
517.745	776.61
518.2	761.81
518.655	754.61
519.109	748.41
519.564	737.51
520.019	731.51
520.474	716.21
520.928	732.51
521.383	715.41
521.838	716.91
522.292	705.61
522.747	708.21
523.201	705.01
523.656	696.01
524.11	698.11
524.565	687.41
525.019	688.91
525.474	699.11
525.928	699.61
526.382	699.31
526.837	688.21
527.291	696.51
527.745	694.51
528.2	695.81
528.654	696.21
529.108	682.11
529.562	675.01
530.016	688.21
530.47	690.91
530.925	696.01
531.379	698.81
531.833	706.51
532.287	709.21
532.741	706.61
533.195	704.41
533.649	717.01
534.103	718.11
534.556	707.01
535.01	720.31
535.464	712.21
535.918	726.81
536.372	728.51
536.826	713.01
537.279	698.61
537.733	702.31
538.187	713.81
538.64	713.71
539.094	726.01
539.548	731.81
540.001	727.21
540.455	712.61
540.908	720.31
541.362	730.01
541.815	737.71
542.269	752.81
542.722	746.01
543.175	765.91
543.629	765.51
544.082	785.41
544.536	777.41
544.989	785.21
545.442	795.81
545.895	780.21
546.349	792.81
546.802	780.21
547.255	789.91
547.708	796.81
548.161	807.41
548.614	813.51
549.067	817.51
549.52	812.71
549.973	798.41
550.426	803.81
550.879	782.71
551.332	788.71
551.785	797.91
552.238	794.81
552.691	813.81
553.144	822.11
553.596	844.91
554.049	863.51
554.502	880.91
554.955	902.81
555.407	899.11
555.86	886.81
556.313	889.71
556.765	875.21
557.218	869.41
557.67	880.11
558.123	869.91
558.576	867.91
559.028	854.31
559.48	875.81
559.933	864.91
560.385	819.71
560.838	801.91
561.29	784.51
561.742	776.51
562.195	753.01
562.647	751.21
563.099	764.01
563.551	757.11
564.004	771.21
564.456	758.01
564.908	753.31
565.36	733.41
565.812	724.11
566.264	709.81
566.716	714.21
567.168	698.71
567.62	715.61
568.072	699.41
568.524	691.71
568.976	689.61
569.428	661.61
569.88	667.81
570.332	666.71
570.784	677.31
571.235	672.51
571.687	687.31
572.139	694.51
572.59	699.51
573.042	687.61
573.494	698.41
573.945	687.31
574.397	671.21
574.849	692.41
575.3	677.61
575.752	679.41
576.203	669.21
576.655	679.31
577.106	656.51
577.557	655.71
578.009	657.81
578.46	652.51
578.912	648.71
579.363	653.21
579.814	651.91
580.265	640.81
580.717	648.11
581.168	657.91
581.619	659.21
582.07	655.11
582.521	659.51
582.972	662.51
583.423	664.01
583.875	666.41
584.326	690.31
584.777	724.61
585.227	805.61
585.678	903.91
586.129	978.81
586.58	1054.41
587.031	1138.21
587.482	1295.11
587.933	1488.31
588.384	1278.91
588.834	957.81
589.285	788.91
589.736	762.31
590.186	757.81
590.637	748.91
591.088	722.31
591.538	716.71
591.989	718.11
592.439	705.61
592.89	699.11
593.34	698.11
593.791	698.21
594.241	685.81
594.692	694.31
595.142	686.91
595.593	684.01
596.043	687.81
596.493	694.91
596.943	698.31
597.394	710.51
597.844	689.71
598.294	708.81
598.744	723.71
599.195	754.11
599.645	794.21
600.095	837.71
600.545	885.81
600.995	934.71
601.445	991.31
601.895	1055.61
602.345	1107.71
602.795	1087.41
603.245	1031.91
603.695	977.81
604.145	932.31
604.594	889.71
605.044	827.61
605.494	774.01
605.944	723.21
606.393	720.51
606.843	700.21
607.293	701.91
607.743	707.71
608.192	723.31
608.642	732.81
609.091	741.41
609.541	741.01
609.99	740.31
610.44	744.51
610.889	706.01
611.339	676.91
611.788	676.31
612.238	684.81
612.687	691.11
613.136	697.21
613.586	717.31
614.035	716.51
614.484	723.91
614.933	734.11
615.383	720.81
615.832	719.91
616.281	699.11
616.73	668.21
617.179	642.91
617.628	620.51
618.077	620.41
618.526	600.81
618.975	605.51
619.424	584.61
619.873	594.71
620.322	595.61
620.771	580.01
621.22	588.41
621.669	570.71
622.118	558.31
622.567	549.21
623.015	545.71
623.464	541.51
623.913	538.91
624.361	534.41
624.81	528.01
625.259	540.71
625.707	534.11
626.156	531.91
626.604	554.11
627.053	538.01
627.501	534.51
627.95	550.21
628.398	559.31
628.847	543.61
629.295	548.41
629.744	554.31
630.192	545.81
630.64	545.31
631.089	546.01
631.537	553.31
631.985	563.41
632.433	575.51
632.881	577.21
633.33	633.71
633.778	608.91
634.226	540.61
634.674	542.41
635.122	550.81
635.57	571.41
636.018	599.31
636.466	555.31
636.914	539.41
637.362	547.01
637.81	550.81
638.258	559.81
638.705	553.41
639.153	580.31
639.601	591.21
640.049	616.31
640.497	645.31
640.944	661.21
641.392	621.91
641.84	582.01
642.287	559.31
642.735	544.41
643.182	542.71
643.63	541.71
644.078	552.01
644.525	566.21
644.973	569.41
645.42	577.01
645.867	592.81
646.315	617.91
646.762	630.91
647.21	657.81
647.657	683.01
648.104	714.81
648.551	744.31
648.999	797.51
649.446	874.81
649.893	970.11
650.34	1109.41
650.787	1334.41
651.234	1639.11
651.682	2143.31
652.129	2918.51
652.576	4183.71
653.023	6227.31
653.47	8603.71
653.917	10774.91
654.363	12560.11
654.81	13983.41
655.257	13287.91
655.704	8688.51
656.151	5119.21
656.598	3306.41
657.044	2326.21
657.491	1787.01
657.938	1429.81
658.385	1198.01
658.831	1040.21
659.278	924.91
659.724	820.81
660.171	750.11
660.618	686.81
661.064	660.51
661.511	650.71
661.957	618.51
662.404	616.01
662.85	620.21
663.296	595.21
663.743	535.31
664.189	511.61
664.635	502.21
665.082	497.91
665.528	500.41
665.974	490.21
666.42	481.51
666.867	480.81
667.313	467.61
667.759	461.31
668.205	457.41
668.651	467.61
669.097	458.81
669.543	468.81
669.989	443.31
670.435	421.01
670.881	423.61
671.327	417.71
671.773	450.31
672.219	466.61
672.665	511.41
673.11	549.31
673.556	594.11
674.002	633.61
674.448	621.61
674.893	514.61
675.339	449.21
675.785	405.11
676.23	398.71
676.676	377.21
677.122	355.81
677.567	353.21
678.013	346.21
678.458	332.71
678.904	329.31
679.349	326.71
679.794	329.81
680.24	337.21
680.685	329.41
681.131	328.41
681.576	327.11
682.021	327.81
682.466	331.31
682.912	331.81
683.357	326.21
683.802	356.51
684.247	377.71
684.692	417.51
685.137	461.81
685.583	507.61
686.028	532.31
686.473	479.91
686.918	419.71
687.363	393.01
687.807	368.61
688.252	345.31
688.697	331.21
689.142	316.31
689.587	311.81
690.032	302.31
690.477	319.21
690.921	327.21
691.366	351.31
691.811	373.11
692.255	405.21
692.7	432.61
693.145	469.41
693.589	628.61
694.034	1041.21
694.478	1436.01
694.923	1639.71
695.367	2155.81
695.812	1123.71
696.256	466.91
696.701	339.21
697.145	322.81
697.59	304.31
698.034	298.61
698.478	304.11
698.922	301.81
699.367	305.21
699.811	306.61
700.255	333.91
700.699	349.51
701.143	391.81
701.588	439.71
702.032	480.91
702.476	480.31
702.92	462.21
703.364	459.11
703.808	586.51
704.252	958.71
704.696	1341.31
705.14	1569.61
705.584	2008.31
706.027	1001.11
706.471	487.71
706.915	373.01
707.359	329.71
707.803	299.41
708.246	290.71
708.69	292.51
709.134	303.51
709.577	290.41
710.021	295.21
710.465	293.01
710.908	287.91
711.352	283.51
711.795	289.91
712.239	320.61
712.682	358.01
713.126	383.11
713.569	437.01
714.012	351.31
714.456	299.51
714.899	276.41
715.342	263.21
715.786	248.81
716.229	244.81
716.672	239.91
717.115	230.41
717.558	228.51
718.002	227.21
718.445	243.01
718.888	258.71
719.331	274.31
719.774	286.11
720.217	293.31
720.66	266.91
721.103	246.11
721.546	238.91
721.989	234.11
722.432	215.51
722.874	228.81
723.317	215.11
723.76	221.41
724.203	232.81
724.645	286.41
725.088	406.51
725.531	534.81
725.974	602.61
726.416	518.31
726.859	283.41
727.301	223.71
727.744	223.01
728.187	220.81
728.629	223.71
729.071	227.81
729.514	237.61
729.956	253.71
730.399	265.21
730.841	270.91
731.283	244.01
731.726	243.91
732.168	237.91
732.61	241.61
733.053	266.31
733.495	291.61
733.937	329.91
734.379	375.31
734.821	407.21
735.263	504.51
735.705	756.81
736.148	1432.71
736.59	2386.71
737.032	2889.61
737.474	2337.71
737.916	752.91
738.357	405.71
738.799	303.11
739.241	274.21
739.683	260.71
740.125	269.11
740.567	272.31
741.008	299.31
741.45	293.71
741.892	292.61
742.334	318.51
742.775	335.01
743.217	317.21
743.658	252.01
744.1	239.51
744.542	245.61
744.983	288.31
745.425	322.31
745.866	323.21
746.307	264.51
746.749	266.21
747.19	296.21
747.632	417.51
748.073	798.41
748.514	1704.01
748.956	2656.51
749.397	3310.01
749.838	2764.71
750.279	2803.81
750.72	1408.21
751.162	504.91
751.603	293.91
752.044	233.01
752.485	199.81
752.926	194.01
753.367	188.91
753.808	179.61
754.249	174.81
754.69	172.61
755.131	169.61
755.572	165.21
756.013	167.91
756.453	168.71
756.894	176.11
757.335	174.31
757.776	179.21
758.216	171.41
758.657	174.41
759.098	183.11
759.538	208.31
759.979	244.11
760.42	336.01
760.86	638.31
761.301	1638.51
761.741	4043.01
762.182	6086.41
