Data from 20171114-ORNL-Ar_H_NY_Subt18_08-06-11-999.txt Node
Date: Tue Nov 14 08:06:11 EST 2017
User: Ender
Spectrometer: HR+D1039
Trigger mode: 0
Integration Time (sec): 2.730000E-2
Scans to average: 10
Electric dark correction enabled: true
Nonlinearity correction enabled: false
Boxcar width: 0
XAxis mode: Wavelengths
Number of Pixels in Spectrum: 2048
>>>>>Begin Spectral Data<<<<<
187.836	-10.62
188.309	-10.62
188.782	-10.62
189.255	-2.62
189.728	-2.42
190.201	5.48
190.674	4.38
191.147	2.48
191.619	-8.22
192.092	3.38
192.565	11.28
193.038	1.68
193.511	-1.02
193.984	0.28
194.456	-4.62
194.929	-1.82
195.402	0.18
195.874	2.18
196.347	0.18
196.82	-7.22
197.292	-1.72
197.765	0.58
198.237	-2.02
198.71	3.18
199.182	-3.42
199.655	3.58
200.127	-0.02
200.6	-9.32
201.072	-1.82
201.544	-7.52
202.017	-9.12
202.489	2.88
202.961	-8.22
203.433	-6.52
203.906	-7.42
204.378	-1.62
204.85	-8.22
205.322	-8.92
205.794	1.58
206.266	-4.32
206.739	-9.12
207.211	3.18
207.683	-7.62
208.155	-7.12
208.627	-2.02
209.099	-7.72
209.57	-7.22
210.042	-3.62
210.514	-6.22
210.986	-1.02
211.458	-6.92
211.93	-2.82
212.402	0.18
212.873	-9.12
213.345	-9.12
213.817	-8.82
214.288	-3.22
214.76	-12.92
215.232	-0.82
215.703	-1.92
216.175	-2.42
216.646	-0.02
217.118	-5.82
217.589	-0.22
218.061	-2.72
218.532	-0.92
219.004	-7.42
219.475	-2.52
219.946	-4.52
220.418	-9.92
220.889	3.58
221.36	-1.62
221.832	-10.42
222.303	-8.32
222.774	1.28
223.245	-11.42
223.717	-10.42
224.188	-6.12
224.659	-12.22
225.13	-5.92
225.601	-10.72
226.072	3.18
226.543	-1.52
227.014	-3.42
227.485	-3.02
227.956	-1.72
228.427	-1.12
228.898	-4.42
229.369	2.48
229.839	-4.42
230.31	-5.62
230.781	2.68
231.252	2.08
231.722	-1.42
232.193	-0.12
232.664	-6.22
233.135	0.18
233.605	-1.02
234.076	-4.42
234.546	-2.22
235.017	2.98
235.487	-0.92
235.958	-2.72
236.428	-5.32
236.899	5.48
237.369	2.58
237.84	-1.42
238.31	5.38
238.78	-1.72
239.251	2.68
239.721	1.68
240.191	3.78
240.662	-2.02
241.132	0.98
241.602	-4.72
242.072	-0.22
242.542	1.38
243.013	2.08
243.483	5.38
243.953	-1.62
244.423	6.68
244.893	-1.82
245.363	5.88
245.833	1.58
246.303	-1.72
246.773	6.48
247.243	3.08
247.712	3.48
248.182	9.28
248.652	10.28
249.122	-3.12
249.592	13.58
250.061	19.58
250.531	28.88
251.001	17.28
251.471	16.78
251.94	12.78
252.41	10.88
252.879	-2.12
253.349	16.88
253.818	8.38
254.288	4.48
254.757	5.08
255.227	-0.92
255.696	3.18
256.166	7.28
256.635	7.08
257.105	10.68
257.574	7.28
258.043	9.68
258.513	14.78
258.982	14.38
259.451	6.18
259.92	13.88
260.389	11.38
260.859	15.08
261.328	17.48
261.797	14.58
262.266	5.18
262.735	10.48
263.204	4.78
263.673	1.18
264.142	-0.62
264.611	-6.42
265.08	-4.52
265.549	2.08
266.018	5.68
266.487	-3.02
266.955	-8.72
267.424	-0.82
267.893	1.98
268.362	-0.62
268.83	2.48
269.299	14.58
269.768	7.38
270.236	6.58
270.705	1.98
271.174	3.68
271.642	10.38
272.111	15.48
272.579	12.08
273.048	23.58
273.516	25.58
273.985	26.38
274.453	26.78
274.922	23.08
275.39	14.88
275.858	5.38
276.327	15.08
276.795	16.68
277.263	9.68
277.731	25.98
278.2	63.98
278.668	56.38
279.136	45.68
279.604	19.58
280.072	12.68
280.54	13.28
281.008	12.58
281.477	12.98
281.945	11.38
282.413	19.48
282.881	16.98
283.348	9.48
283.816	17.48
284.284	9.88
284.752	19.08
285.22	14.78
285.688	16.48
286.156	19.48
286.623	49.88
287.091	56.38
287.559	34.88
288.026	14.58
288.494	21.18
288.962	14.38
289.429	8.98
289.897	18.58
290.364	11.78
290.832	17.38
291.3	13.88
291.767	17.18
292.234	16.78
292.702	7.98
293.169	23.48
293.637	24.98
294.104	23.38
294.571	12.48
295.039	14.18
295.506	16.08
295.973	14.98
296.44	16.18
296.908	20.68
297.375	15.88
297.842	19.48
298.309	12.88
298.776	11.58
299.243	20.38
299.71	16.78
300.177	24.58
300.644	27.78
301.111	20.88
301.578	16.78
302.045	20.48
302.512	21.58
302.979	22.68
303.446	24.98
303.913	18.58
304.379	19.78
304.846	26.18
305.313	24.08
305.78	20.68
306.246	28.38
306.713	22.58
307.18	23.68
307.646	28.48
308.113	32.38
308.579	21.98
309.046	21.28
309.512	29.18
309.979	16.68
310.445	22.98
310.912	33.68
311.378	28.98
311.845	31.28
312.311	36.78
312.777	33.48
313.244	32.28
313.71	38.68
314.176	32.58
314.642	28.48
315.109	33.68
315.575	31.98
316.041	41.18
316.507	34.58
316.973	42.68
317.439	29.58
317.905	36.58
318.371	31.88
318.837	36.88
319.303	35.28
319.769	33.28
320.235	39.88
320.701	33.78
321.167	40.68
321.633	34.58
322.099	42.18
322.564	48.38
323.03	42.98
323.496	44.58
323.962	48.18
324.427	39.28
324.893	42.58
325.359	35.08
325.824	39.88
326.29	35.38
326.755	39.28
327.221	44.28
327.686	46.28
328.152	51.18
328.617	43.68
329.083	52.58
329.548	51.28
330.014	53.98
330.479	39.08
330.944	40.98
331.41	44.68
331.875	45.18
332.34	37.78
332.805	44.58
333.271	50.78
333.736	45.68
334.201	55.28
334.666	53.08
335.131	57.58
335.596	48.38
336.061	54.58
336.526	45.48
336.991	48.78
337.456	51.08
337.921	51.28
338.386	53.58
338.851	50.48
339.316	53.08
339.781	46.88
340.246	50.28
340.711	47.58
341.175	55.48
341.64	45.58
342.105	52.38
342.569	59.78
343.034	54.48
343.499	55.58
343.963	53.88
344.428	67.08
344.893	63.28
345.357	61.18
345.822	62.58
346.286	73.18
346.751	76.18
347.215	71.18
347.679	76.18
348.144	104.78
348.608	84.78
349.073	76.18
349.537	76.78
350.001	82.78
350.465	93.98
350.93	88.28
351.394	79.08
351.858	75.08
352.322	94.48
352.786	87.18
353.25	107.38
353.715	107.98
354.179	96.78
354.643	123.38
355.107	128.68
355.571	108.48
356.035	111.98
356.498	123.78
356.962	133.58
357.426	133.38
357.89	118.58
358.354	97.98
358.818	91.68
359.281	79.08
359.745	79.18
360.209	76.48
360.673	72.98
361.136	87.78
361.6	91.68
362.064	85.18
362.527	90.18
362.991	90.18
363.454	80.78
363.918	78.28
364.381	85.28
364.845	81.68
365.308	80.08
365.772	86.88
366.235	91.18
366.698	83.98
367.162	90.88
367.625	85.98
368.088	87.58
368.552	89.98
369.015	96.78
369.478	101.48
369.941	104.78
370.404	94.98
370.867	103.98
371.331	110.78
371.794	113.28
372.257	108.98
372.72	118.38
373.183	105.28
373.646	103.88
374.109	103.68
374.572	108.08
375.035	111.08
375.497	114.08
375.96	109.08
376.423	102.98
376.886	111.68
377.349	120.58
377.811	106.28
378.274	101.88
378.737	112.88
379.199	112.48
379.662	112.28
380.125	119.68
380.587	129.38
381.05	132.58
381.512	131.08
381.975	132.48
382.437	129.28
382.9	129.08
383.362	137.58
383.825	149.18
384.287	153.18
384.75	147.08
385.212	147.58
385.674	143.48
386.136	143.28
386.599	120.78
387.061	127.48
387.523	133.08
387.985	139.58
388.447	140.68
388.91	140.68
389.372	164.08
389.834	153.08
390.296	147.88
390.758	157.68
391.22	171.28
391.682	217.58
392.144	302.28
392.606	227.58
393.068	170.88
393.529	170.78
393.991	157.38
394.453	154.68
394.915	157.78
395.377	195.78
395.838	223.88
396.3	166.28
396.762	147.28
397.224	137.08
397.685	134.28
398.147	132.18
398.608	132.68
399.07	128.78
399.531	133.78
399.993	146.28
400.454	156.98
400.916	148.88
401.377	148.88
401.839	156.98
402.3	157.08
402.762	168.78
403.223	186.88
403.684	175.88
404.145	168.98
404.607	162.18
405.068	171.08
405.529	181.58
405.99	190.78
406.451	185.58
406.913	176.08
407.374	163.48
407.835	164.98
408.296	164.48
408.757	176.48
409.218	190.48
409.679	183.68
410.14	181.28
410.601	185.28
411.062	189.48
411.522	192.28
411.983	188.88
412.444	179.68
412.905	183.38
413.366	186.48
413.826	193.88
414.287	216.58
414.748	269.98
415.208	246.08
415.669	216.68
416.13	211.98
416.59	205.48
417.051	211.38
417.511	220.28
417.972	239.98
418.432	254.88
418.893	294.78
419.353	244.78
419.814	201.58
420.274	194.98
420.734	188.98
421.195	204.78
421.655	195.28
422.115	194.88
422.576	199.68
423.036	205.08
423.496	210.68
423.956	217.08
424.416	234.18
424.876	270.88
425.336	271.28
425.797	275.88
426.257	259.98
426.717	253.88
427.177	235.08
427.637	230.58
428.097	241.38
428.556	245.18
429.016	267.68
429.476	272.68
429.936	282.88
430.396	287.48
430.856	300.38
431.315	324.58
431.775	356.18
432.235	378.58
432.694	360.48
433.154	368.38
433.614	394.98
434.073	335.78
434.533	293.28
434.993	277.58
435.452	292.18
435.912	301.28
436.371	297.58
436.83	291.28
437.29	280.78
437.749	253.98
438.209	247.98
438.668	279.78
439.127	296.08
439.587	268.58
440.046	248.68
440.505	269.78
440.964	280.08
441.424	335.58
441.883	322.48
442.342	272.38
442.801	223.78
443.26	226.48
443.719	217.98
444.178	220.08
444.637	213.18
445.096	224.88
445.555	223.28
446.014	233.08
446.473	238.08
446.932	242.58
447.391	229.98
447.849	234.88
448.308	221.28
448.767	226.18
449.226	230.38
449.685	241.78
450.143	249.68
450.602	242.08
451.061	236.48
451.519	239.08
451.978	237.88
452.436	231.78
452.895	244.68
453.353	255.88
453.812	253.18
454.27	247.58
454.729	246.68
455.187	254.08
455.646	247.08
456.104	254.48
456.562	261.78
457.021	275.78
457.479	272.38
457.937	272.78
458.395	272.88
458.854	253.28
459.312	263.08
459.77	281.38
460.228	266.48
460.686	250.48
461.144	261.68
461.602	247.78
462.06	245.28
462.518	257.48
462.976	264.58
463.434	270.18
463.892	274.58
464.35	284.38
464.808	299.18
465.266	279.58
465.724	282.48
466.181	276.38
466.639	279.48
467.097	297.68
467.555	309.98
468.012	309.28
468.47	316.28
468.928	339.48
469.385	351.28
469.843	354.28
470.3	360.38
470.758	364.88
471.215	398.78
471.673	425.28
472.13	416.38
472.588	431.98
473.045	380.18
473.503	390.18
473.96	406.48
474.417	409.98
474.875	444.88
475.332	492.58
475.789	471.08
476.246	478.28
476.704	497.28
477.161	519.08
477.618	529.28
478.075	581.48
478.532	641.18
478.989	709.98
479.446	841.88
479.903	793.28
480.36	831.68
480.817	888.68
481.274	997.48
481.731	1096.18
482.188	1184.08
482.645	1328.88
483.102	1441.88
483.558	1571.08
484.015	1641.48
484.472	1612.68
484.929	1558.58
485.385	1502.18
485.842	1468.18
486.299	1400.88
486.755	1327.88
487.212	1127.28
487.668	944.98
488.125	861.68
488.582	804.58
489.038	760.08
489.494	725.18
489.951	709.48
490.407	684.08
490.864	666.48
491.32	659.78
491.776	661.28
492.233	668.58
492.689	626.58
493.145	625.08
493.602	610.68
494.058	623.08
494.514	633.48
494.97	651.18
495.426	662.68
495.882	639.28
496.338	632.18
496.794	640.58
497.251	638.78
497.707	643.68
498.163	658.28
498.618	659.18
499.074	655.58
499.53	701.78
499.986	689.68
500.442	668.08
500.898	646.98
501.354	636.08
501.809	657.68
502.265	670.58
502.721	680.28
503.177	681.98
503.632	672.28
504.088	688.18
504.543	736.58
504.999	731.88
505.455	666.48
505.91	652.58
506.366	646.48
506.821	636.78
507.277	638.98
507.732	630.78
508.187	638.88
508.643	643.28
509.098	644.18
509.553	670.68
510.009	685.58
510.464	686.08
510.919	708.98
511.375	698.58
511.83	716.48
512.285	737.08
512.74	773.48
513.195	805.68
513.65	784.08
514.105	783.18
514.56	790.68
515.015	816.68
515.47	826.38
515.925	812.48
516.38	803.78
516.835	809.78
517.29	803.18
517.745	797.18
518.2	783.48
518.655	768.68
519.109	758.98
519.564	755.78
520.019	749.38
520.474	742.68
520.928	740.38
521.383	737.28
521.838	736.18
522.292	730.08
522.747	736.98
523.201	725.48
523.656	710.28
524.11	710.68
524.565	714.98
525.019	708.98
525.474	710.98
525.928	717.18
526.382	715.08
526.837	712.78
527.291	717.08
527.745	713.38
528.2	713.98
528.654	709.28
529.108	697.38
529.562	709.88
530.016	697.78
530.47	712.38
530.925	714.18
531.379	716.78
531.833	721.58
532.287	713.08
532.741	722.18
533.195	720.18
533.649	727.48
534.103	736.18
534.556	723.18
535.01	728.58
535.464	713.68
535.918	731.58
536.372	734.28
536.826	737.38
537.279	727.88
537.733	725.58
538.187	735.38
538.64	731.58
539.094	744.98
539.548	737.98
540.001	735.58
540.455	743.68
540.908	749.08
541.362	747.08
541.815	755.58
542.269	776.48
542.722	776.68
543.175	791.38
543.629	776.18
544.082	801.08
544.536	808.68
544.989	796.88
545.442	806.58
545.895	801.48
546.349	811.48
546.802	814.58
547.255	807.48
547.708	824.38
548.161	836.28
548.614	837.88
549.067	836.88
549.52	837.08
549.973	837.08
550.426	817.88
550.879	811.88
551.332	817.88
551.785	814.68
552.238	823.78
552.691	845.68
553.144	857.68
553.596	862.28
554.049	883.28
554.502	921.98
554.955	930.28
555.407	929.98
555.86	921.18
556.313	911.48
556.765	915.28
557.218	915.28
557.67	901.88
558.123	896.98
558.576	894.38
559.028	895.18
559.48	893.08
559.933	889.18
560.385	863.88
560.838	823.68
561.29	793.98
561.742	794.38
562.195	779.18
562.647	775.68
563.099	787.78
563.551	775.28
564.004	793.18
564.456	793.68
564.908	776.48
565.36	761.88
565.812	745.08
566.264	733.58
566.716	737.98
567.168	733.48
567.62	735.88
568.072	716.38
568.524	710.78
568.976	702.58
569.428	692.48
569.88	684.58
570.332	690.28
570.784	688.08
571.235	694.78
571.687	701.28
572.139	711.38
572.59	726.88
573.042	731.08
573.494	726.88
573.945	716.28
574.397	698.98
574.849	697.18
575.3	705.18
575.752	698.98
576.203	692.58
576.655	692.88
577.106	677.08
577.557	681.98
578.009	680.78
578.46	679.48
578.912	675.68
579.363	667.78
579.814	682.68
580.265	666.48
580.717	684.28
581.168	691.48
581.619	692.58
582.07	688.18
582.521	687.88
582.972	687.28
583.423	689.88
583.875	686.28
584.326	717.98
584.777	753.28
585.227	839.78
585.678	923.28
586.129	1011.68
586.58	1092.68
587.031	1166.38
587.482	1314.68
587.933	1511.98
588.384	1311.08
588.834	984.18
589.285	816.28
589.736	793.18
590.186	788.88
590.637	778.28
591.088	760.28
591.538	752.48
591.989	737.58
592.439	727.38
592.89	734.98
593.34	716.18
593.791	722.88
594.241	709.78
594.692	721.88
595.142	720.68
595.593	703.98
596.043	719.28
596.493	724.48
596.943	728.38
597.394	735.68
597.844	727.18
598.294	738.68
598.744	759.78
599.195	780.68
599.645	822.28
600.095	864.38
600.545	927.08
600.995	975.68
601.445	1033.08
601.895	1092.98
602.345	1147.88
602.795	1127.38
603.245	1075.88
603.695	1024.08
604.145	961.68
604.594	924.18
605.044	873.88
605.494	804.18
605.944	765.08
606.393	751.18
606.843	732.08
607.293	745.18
607.743	739.78
608.192	762.48
608.642	767.18
609.091	775.98
609.541	768.58
609.99	779.58
610.44	777.78
610.889	735.08
611.339	711.68
611.788	690.58
612.238	714.28
612.687	728.58
613.136	727.68
613.586	746.18
614.035	739.68
614.484	770.88
614.933	759.98
615.383	769.28
615.832	743.18
616.281	729.78
616.73	698.18
617.179	673.28
617.628	657.88
618.077	642.38
618.526	631.88
618.975	622.68
619.424	615.58
619.873	625.98
620.322	631.28
620.771	612.48
621.22	599.38
621.669	601.08
622.118	591.88
622.567	587.88
623.015	577.58
623.464	574.48
623.913	565.78
624.361	556.08
624.81	557.68
625.259	558.28
625.707	563.98
626.156	563.78
626.604	577.98
627.053	560.68
627.501	571.18
627.95	581.58
628.398	578.98
628.847	569.48
629.295	569.38
629.744	575.88
630.192	565.78
630.64	572.18
631.089	580.68
631.537	588.18
631.985	592.78
632.433	606.78
632.881	620.28
633.33	664.48
633.778	648.48
634.226	574.58
634.674	585.28
635.122	580.58
635.57	605.88
636.018	627.38
636.466	588.48
636.914	555.58
637.362	568.28
637.81	583.18
638.258	586.58
638.705	582.48
639.153	613.48
639.601	616.88
640.049	648.28
640.497	677.88
640.944	698.58
641.392	648.78
641.84	621.08
642.287	598.08
642.735	571.38
643.182	573.48
643.63	583.28
644.078	577.48
644.525	601.48
644.973	596.98
645.42	597.48
645.867	621.58
646.315	643.58
646.762	667.08
647.21	699.18
647.657	714.38
648.104	755.58
648.551	778.58
648.999	838.98
649.446	927.58
649.893	1016.08
650.34	1172.28
650.787	1402.58
651.234	1726.68
651.682	2257.78
652.129	3104.68
652.576	4445.08
653.023	6593.48
653.47	9072.78
653.917	11343.88
654.363	13075.18
654.81	14472.88
655.257	13754.98
655.704	9007.78
656.151	5328.88
656.598	3448.28
657.044	2442.48
657.491	1874.78
657.938	1500.28
658.385	1247.68
658.831	1092.28
659.278	970.08
659.724	866.38
660.171	797.48
660.618	728.78
661.064	692.98
661.511	672.58
661.957	656.98
662.404	650.28
662.85	655.68
663.296	628.28
663.743	554.18
664.189	543.68
664.635	531.28
665.082	529.38
665.528	529.08
665.974	518.18
666.42	520.18
666.867	510.48
667.313	491.08
667.759	482.98
668.205	480.28
668.651	488.48
669.097	481.28
669.543	500.48
669.989	468.98
670.435	450.88
670.881	447.38
671.327	452.88
671.773	469.18
672.219	490.28
672.665	549.08
673.11	581.58
673.556	622.08
674.002	677.48
674.448	653.98
674.893	547.28
675.339	476.18
675.785	443.58
676.23	421.68
676.676	383.68
677.122	382.58
677.567	375.58
678.013	362.98
678.458	354.98
678.904	359.58
679.349	342.68
679.794	351.28
680.24	353.58
680.685	343.08
681.131	345.38
681.576	353.38
682.021	348.28
682.466	346.18
682.912	343.18
683.357	352.98
683.802	383.78
684.247	409.78
684.692	456.08
685.137	495.08
685.583	524.78
686.028	561.38
686.473	512.38
686.918	441.18
687.363	412.78
687.807	397.98
688.252	364.28
688.697	350.88
689.142	332.58
689.587	330.38
690.032	330.88
690.477	346.68
690.921	351.78
691.366	370.98
691.811	400.08
692.255	433.38
692.7	465.78
693.145	493.98
693.589	686.08
694.034	1113.38
694.478	1512.08
694.923	1729.18
695.367	2254.88
695.812	1192.78
696.256	499.08
696.701	369.98
697.145	335.78
697.59	331.38
698.034	320.08
698.478	327.58
698.922	322.88
699.367	322.88
699.811	338.38
700.255	348.68
700.699	386.18
701.143	422.88
701.588	472.88
702.032	513.78
702.476	495.68
702.92	488.98
703.364	488.48
703.808	621.38
704.252	1011.48
704.696	1431.68
705.14	1653.08
705.584	2130.18
706.027	1051.68
706.471	519.28
706.915	392.58
707.359	346.88
707.803	318.18
708.246	308.88
708.69	311.98
709.134	308.88
709.577	313.68
710.021	316.58
710.465	301.08
710.908	295.78
711.352	302.08
711.795	306.38
712.239	343.98
712.682	380.08
713.126	410.98
713.569	465.08
714.012	371.08
714.456	320.98
714.899	299.38
715.342	274.98
715.786	259.48
716.229	252.98
716.672	259.78
717.115	249.38
717.558	247.98
718.002	248.78
718.445	261.38
718.888	283.18
719.331	297.28
719.774	311.88
720.217	296.48
720.66	282.88
721.103	263.18
721.546	252.88
721.989	255.88
722.432	220.28
722.874	226.78
723.317	228.68
723.76	233.58
724.203	250.88
724.645	309.68
725.088	440.18
725.531	559.68
725.974	638.98
726.416	544.68
726.859	302.38
727.301	247.08
727.744	235.38
728.187	228.68
728.629	237.08
729.071	235.78
729.514	255.08
729.956	273.68
730.399	275.18
730.841	285.28
731.283	274.48
731.726	269.18
732.168	262.68
732.61	268.88
733.053	287.68
733.495	309.78
733.937	352.68
734.379	389.68
734.821	431.98
735.263	540.38
735.705	823.88
736.148	1546.88
736.59	2565.28
737.032	3037.38
737.474	2480.88
737.916	799.88
738.357	419.98
738.799	328.38
739.241	293.78
739.683	278.68
740.125	289.18
740.567	290.18
741.008	309.18
741.45	312.18
741.892	317.58
742.334	339.68
742.775	357.28
743.217	342.18
743.658	264.98
744.1	253.68
744.542	260.98
744.983	315.78
745.425	344.18
745.866	345.68
746.307	282.28
746.749	281.78
747.19	314.68
747.632	451.28
748.073	862.38
748.514	1819.58
748.956	2813.18
749.397	3521.78
749.838	2945.58
750.279	2963.98
750.72	1481.78
751.162	547.58
751.603	314.58
752.044	251.48
752.485	214.18
752.926	210.18
753.367	199.08
753.808	190.48
754.249	184.68
754.69	177.28
755.131	170.28
755.572	175.68
756.013	179.68
756.453	179.08
756.894	195.28
757.335	192.28
757.776	186.48
758.216	193.88
758.657	198.08
759.098	199.38
759.538	216.58
759.979	259.38
760.42	371.08
760.86	680.08
761.301	1776.68
761.741	4312.38
