Data from 20171114-ORNL-Ar_H_NY_Subt18_08-08-39-679.txt Node
Date: Tue Nov 14 08:08:39 EST 2017
User: Ender
Spectrometer: HR+D1039
Trigger mode: 0
Integration Time (sec): 2.730000E-2
Scans to average: 10
Electric dark correction enabled: true
Nonlinearity correction enabled: false
Boxcar width: 0
XAxis mode: Wavelengths
Number of Pixels in Spectrum: 2048
>>>>>Begin Spectral Data<<<<<
187.836	-0.48
188.309	-0.48
188.782	-0.48
189.255	-2.88
189.728	-5.48
190.201	3.92
190.674	-0.18
191.147	4.62
191.619	-8.68
192.092	5.02
192.565	6.12
193.038	-1.88
193.511	1.02
193.984	-0.38
194.456	0.32
194.929	0.62
195.402	-1.38
195.874	-0.38
196.347	1.82
196.82	-9.88
197.292	2.42
197.765	-7.08
198.237	-5.88
198.71	1.92
199.182	-7.58
199.655	3.02
200.127	3.12
200.6	-1.58
201.072	-4.08
201.544	-9.58
202.017	-7.18
202.489	0.12
202.961	-10.28
203.433	-2.88
203.906	-5.28
204.378	-7.58
204.85	-4.48
205.322	-10.78
205.794	-3.48
206.266	-8.68
206.739	-6.78
207.211	0.22
207.683	-11.68
208.155	-3.78
208.627	-10.08
209.099	-5.78
209.57	-6.68
210.042	-6.58
210.514	-8.58
210.986	-8.38
211.458	-9.88
211.93	-9.28
212.402	-2.18
212.873	-8.78
213.345	-8.68
213.817	-13.78
214.288	-1.08
214.76	-16.18
215.232	-1.78
215.703	-5.88
216.175	-4.28
216.646	-8.38
217.118	-10.78
217.589	0.92
218.061	-6.58
218.532	-7.48
219.004	-3.98
219.475	-7.38
219.946	-0.98
220.418	-10.68
220.889	4.32
221.36	-2.18
221.832	-10.58
222.303	-9.88
222.774	-0.88
223.245	-9.48
223.717	-2.48
224.188	-5.68
224.659	-2.38
225.13	-8.88
225.601	-4.08
226.072	1.12
226.543	-0.88
227.014	2.52
227.485	-3.48
227.956	-5.58
228.427	-0.48
228.898	0.02
229.369	-2.28
229.839	-9.98
230.31	-7.08
230.781	0.32
231.252	-5.48
231.722	-11.48
232.193	-4.68
232.664	-1.38
233.135	-5.28
233.605	-2.58
234.076	-8.68
234.546	-1.18
235.017	0.02
235.487	-2.78
235.958	-4.78
236.428	-11.28
236.899	0.72
237.369	-4.38
237.84	-8.98
238.31	1.12
238.78	3.32
239.251	-3.08
239.721	-3.78
240.191	-4.98
240.662	-5.78
241.132	-4.38
241.602	-7.68
242.072	-4.78
242.542	-3.88
243.013	-2.08
243.483	0.72
243.953	-1.88
244.423	-11.38
244.893	-6.88
245.363	-3.88
245.833	-6.48
246.303	-7.88
246.773	-0.38
247.243	0.02
247.712	-1.98
248.182	-1.88
248.652	3.02
249.122	-2.38
249.592	-1.58
250.061	7.12
250.531	15.12
251.001	-0.98
251.471	6.02
251.94	7.02
252.41	-2.28
252.879	-7.88
253.349	9.92
253.818	6.62
254.288	0.22
254.757	-1.48
255.227	-2.78
255.696	0.02
256.166	2.62
256.635	0.02
257.105	1.12
257.574	-6.38
258.043	0.72
258.513	-5.28
258.982	3.52
259.451	-1.58
259.92	-3.18
260.389	-0.18
260.859	10.82
261.328	-2.38
261.797	8.12
262.266	0.82
262.735	11.52
263.204	-1.88
263.673	0.52
264.142	3.42
264.611	-10.18
265.08	-6.08
265.549	-0.88
266.018	6.92
266.487	-5.28
266.955	-3.88
267.424	-1.58
267.893	4.52
268.362	-4.88
268.83	-1.38
269.299	11.92
269.768	3.62
270.236	3.42
270.705	-1.78
271.174	-1.98
271.642	0.62
272.111	-0.88
272.579	6.82
273.048	5.62
273.516	7.12
273.985	7.32
274.453	7.82
274.922	5.62
275.39	8.42
275.858	2.32
276.327	3.22
276.795	14.02
277.263	-0.98
277.731	11.32
278.2	11.12
278.668	14.72
279.136	10.72
279.604	3.82
280.072	12.52
280.54	5.32
281.008	6.82
281.477	12.42
281.945	11.62
282.413	7.72
282.881	9.92
283.348	-1.88
283.816	2.72
284.284	6.02
284.752	16.72
285.22	8.52
285.688	8.62
286.156	12.22
286.623	18.92
287.091	16.02
287.559	10.62
288.026	12.92
288.494	9.42
288.962	2.92
289.429	7.12
289.897	7.42
290.364	10.02
290.832	11.72
291.3	7.12
291.767	9.52
292.234	15.52
292.702	11.12
293.169	7.22
293.637	12.12
294.104	11.82
294.571	6.32
295.039	5.72
295.506	9.82
295.973	11.82
296.44	14.02
296.908	11.82
297.375	9.62
297.842	10.52
298.309	11.02
298.776	15.92
299.243	13.42
299.71	1.92
300.177	14.22
300.644	18.02
301.111	13.72
301.578	20.22
302.045	10.42
302.512	22.02
302.979	19.92
303.446	19.82
303.913	13.22
304.379	8.82
304.846	20.82
305.313	12.72
305.78	19.02
306.246	20.22
306.713	19.42
307.18	17.82
307.646	18.42
308.113	21.12
308.579	15.32
309.046	22.62
309.512	13.62
309.979	3.42
310.445	24.82
310.912	18.92
311.378	25.52
311.845	26.22
312.311	20.42
312.777	21.62
313.244	21.62
313.71	33.72
314.176	21.92
314.642	18.72
315.109	21.22
315.575	24.12
316.041	31.62
316.507	21.62
316.973	25.12
317.439	26.42
317.905	29.72
318.371	28.72
318.837	25.42
319.303	24.22
319.769	25.32
320.235	28.82
320.701	29.72
321.167	34.32
321.633	28.12
322.099	23.02
322.564	32.92
323.03	33.12
323.496	34.52
323.962	35.12
324.427	35.02
324.893	32.82
325.359	31.82
325.824	30.62
326.29	27.32
326.755	34.52
327.221	33.72
327.686	33.42
328.152	41.22
328.617	34.42
329.083	46.52
329.548	41.82
330.014	40.42
330.479	31.32
330.944	29.72
331.41	32.12
331.875	44.72
332.34	36.02
332.805	36.82
333.271	34.92
333.736	31.42
334.201	41.72
334.666	37.22
335.131	44.02
335.596	39.72
336.061	36.82
336.526	38.82
336.991	39.22
337.456	51.32
337.921	42.32
338.386	40.52
338.851	37.42
339.316	45.22
339.781	43.02
340.246	45.62
340.711	37.92
341.175	46.82
341.64	38.82
342.105	38.02
342.569	46.82
343.034	47.02
343.499	50.02
343.963	44.62
344.428	56.22
344.893	58.12
345.357	49.12
345.822	51.52
346.286	52.42
346.751	61.62
347.215	55.02
347.679	58.52
348.144	75.42
348.608	75.72
349.073	62.22
349.537	63.92
350.001	67.32
350.465	78.92
350.93	72.52
351.394	63.82
351.858	60.62
352.322	75.52
352.786	70.92
353.25	80.92
353.715	97.82
354.179	86.32
354.643	104.02
355.107	108.72
355.571	89.72
356.035	87.12
356.498	105.12
356.962	102.22
357.426	116.12
357.89	103.52
358.354	77.62
358.818	71.02
359.281	74.22
359.745	62.42
360.209	66.72
360.673	69.02
361.136	70.52
361.6	72.92
362.064	72.52
362.527	75.72
362.991	78.42
363.454	77.12
363.918	64.02
364.381	68.42
364.845	77.42
365.308	75.52
365.772	73.32
366.235	78.42
366.698	77.82
367.162	80.32
367.625	79.62
368.088	75.32
368.552	81.42
369.015	87.12
369.478	88.72
369.941	86.92
370.404	83.42
370.867	90.02
371.331	89.82
371.794	104.42
372.257	92.12
372.72	96.02
373.183	97.92
373.646	86.42
374.109	90.42
374.572	89.42
375.035	95.22
375.497	98.32
375.96	92.62
376.423	97.82
376.886	102.62
377.349	101.92
377.811	96.02
378.274	89.72
378.737	95.62
379.199	100.52
379.662	101.82
380.125	102.62
380.587	95.02
381.05	98.42
381.512	113.62
381.975	116.32
382.437	113.32
382.9	110.82
383.362	115.82
383.825	120.02
384.287	123.22
384.75	117.12
385.212	124.32
385.674	126.82
386.136	125.82
386.599	112.82
387.061	112.82
387.523	120.22
387.985	121.02
388.447	125.72
388.91	121.22
389.372	123.62
389.834	126.72
390.296	124.12
390.758	126.92
391.22	136.82
391.682	156.42
392.144	178.72
392.606	162.72
393.068	136.42
393.529	145.02
393.991	135.92
394.453	127.72
394.915	133.72
395.377	139.32
395.838	149.72
396.3	131.92
396.762	140.22
397.224	133.72
397.685	132.02
398.147	125.62
398.608	132.82
399.07	117.72
399.531	131.12
399.993	139.12
400.454	148.42
400.916	145.52
401.377	141.12
401.839	148.32
402.3	147.92
402.762	157.02
403.223	167.92
403.684	161.52
404.145	157.82
404.607	154.32
405.068	157.42
405.529	160.22
405.99	176.32
406.451	161.42
406.913	168.72
407.374	164.52
407.835	153.12
408.296	159.72
408.757	165.42
409.218	181.02
409.679	175.92
410.14	171.32
410.601	175.12
411.062	179.82
411.522	172.12
411.983	169.82
412.444	170.22
412.905	179.52
413.366	183.62
413.826	191.32
414.287	219.02
414.748	259.02
415.208	244.92
415.669	210.72
416.13	210.52
416.59	201.52
417.051	208.12
417.511	219.32
417.972	241.42
418.432	252.23
418.893	289.92
419.353	262.12
419.814	201.92
420.274	182.32
420.734	183.72
421.195	190.72
421.655	190.92
422.115	197.82
422.576	192.82
423.036	200.52
423.496	205.42
423.956	211.92
424.416	237.42
424.876	270.32
425.336	259.22
425.797	263.12
426.257	251.12
426.717	238.72
427.177	229.62
427.637	218.92
428.097	227.02
428.556	240.02
429.016	271.22
429.476	256.32
429.936	272.83
430.396	270.82
430.856	285.72
431.315	310.32
431.775	330.12
432.235	369.42
432.694	341.72
433.154	354.62
433.614	376.42
434.073	321.22
434.533	279.22
434.993	267.42
435.452	280.82
435.912	287.82
436.371	277.22
436.83	275.22
437.29	266.82
437.749	247.92
438.209	243.72
438.668	272.72
439.127	276.92
439.587	259.72
440.046	247.42
440.505	256.33
440.964	274.42
441.424	323.52
441.883	301.32
442.342	259.52
442.801	224.82
443.26	222.92
443.719	218.32
444.178	220.82
444.637	212.62
445.096	221.22
445.555	225.92
446.014	225.52
446.473	228.42
446.932	234.42
447.391	235.22
447.849	233.82
448.308	227.62
448.767	219.22
449.226	242.72
449.685	237.22
450.143	254.22
450.602	246.52
451.061	231.82
451.519	233.92
451.978	234.42
452.436	240.23
452.895	235.62
453.353	250.32
453.812	245.12
454.27	243.32
454.729	243.33
455.187	240.12
455.646	243.12
456.104	244.23
456.562	264.92
457.021	271.62
457.479	264.42
457.937	279.82
458.395	263.72
458.854	250.32
459.312	251.12
459.77	280.42
460.228	257.42
460.686	255.82
461.144	252.62
461.602	251.62
462.06	249.02
462.518	256.92
462.976	264.02
463.434	264.23
463.892	271.42
464.35	264.32
464.808	292.52
465.266	274.42
465.724	274.72
466.181	277.73
466.639	268.72
467.097	291.73
467.555	304.82
468.012	313.92
468.47	317.42
468.928	325.42
469.385	341.33
469.843	354.92
470.3	346.83
470.758	365.32
471.215	393.12
471.673	414.52
472.13	409.82
472.588	414.73
473.045	378.02
473.503	381.42
473.96	400.82
474.417	410.32
474.875	442.92
475.332	486.73
475.789	466.42
476.246	476.12
476.704	486.32
477.161	515.52
477.618	527.52
478.075	566.52
478.532	615.62
478.989	687.32
479.446	791.92
479.903	761.62
480.36	788.82
480.817	844.92
481.274	930.12
481.731	1014.72
482.188	1094.53
482.645	1221.03
483.102	1306.22
483.558	1436.32
484.015	1479.43
484.472	1450.22
484.929	1401.62
485.385	1353.52
485.842	1336.22
486.299	1279.42
486.755	1234.52
487.212	1051.02
487.668	895.02
488.125	830.52
488.582	766.42
489.038	744.52
489.494	705.42
489.951	684.82
490.407	663.72
490.864	645.52
491.32	641.42
491.776	651.32
492.233	656.52
492.689	617.12
493.145	608.22
493.602	605.42
494.058	612.12
494.514	626.62
494.97	634.83
495.426	650.62
495.882	622.32
496.338	621.02
496.794	622.92
497.251	619.32
497.707	647.22
498.163	629.92
498.618	644.72
499.074	648.32
499.53	669.42
499.986	669.32
500.442	645.62
500.898	624.22
501.354	612.32
501.809	626.52
502.265	634.52
502.721	642.12
503.177	646.72
503.632	657.32
504.088	664.12
504.543	692.22
504.999	704.52
505.455	667.42
505.91	646.82
506.366	637.72
506.821	633.12
507.277	647.42
507.732	641.22
508.187	638.92
508.643	655.42
509.098	647.12
509.553	672.82
510.009	681.82
510.464	682.62
510.919	706.62
511.375	716.32
511.83	724.22
512.285	724.62
512.74	773.23
513.195	786.82
513.65	774.22
514.105	775.22
514.56	779.22
515.015	804.02
515.47	816.12
515.925	785.92
516.38	798.72
516.835	804.02
517.29	793.62
517.745	788.92
518.2	774.72
518.655	752.62
519.109	760.52
519.564	743.92
520.019	735.72
520.474	735.12
520.928	734.72
521.383	731.72
521.838	722.32
522.292	718.62
522.747	721.02
523.201	724.52
523.656	718.92
524.11	710.02
524.565	700.12
525.019	701.12
525.474	711.52
525.928	707.02
526.382	711.52
526.837	711.12
527.291	717.32
527.745	706.62
528.2	711.82
528.654	704.52
529.108	699.22
529.562	699.62
530.016	695.83
530.47	710.92
530.925	699.02
531.379	709.32
531.833	708.62
532.287	716.92
532.741	703.62
533.195	707.32
533.649	724.12
534.103	724.92
534.556	714.52
535.01	720.52
535.464	714.62
535.918	718.62
536.372	732.82
536.826	723.62
537.279	710.82
537.733	720.52
538.187	722.22
538.64	729.52
539.094	738.82
539.548	738.62
540.001	728.82
540.455	736.52
540.908	753.42
541.362	754.82
541.815	759.82
542.269	776.52
542.722	782.32
543.175	787.52
543.629	785.02
544.082	798.22
544.536	802.82
544.989	801.92
545.442	812.12
545.895	809.12
546.349	811.22
546.802	816.12
547.255	813.72
547.708	833.23
548.161	842.62
548.614	841.22
549.067	844.02
549.52	835.62
549.973	830.62
550.426	820.72
550.879	811.72
551.332	816.92
551.785	820.52
552.238	813.12
552.691	829.33
553.144	847.62
553.596	868.52
554.049	885.22
554.502	915.52
554.955	928.52
555.407	930.82
555.86	926.92
556.313	908.32
556.765	903.32
557.218	901.42
557.67	906.32
558.123	893.02
558.576	891.62
559.028	901.33
559.48	893.92
559.933	892.32
560.385	859.72
560.838	829.32
561.29	806.82
561.742	800.42
562.195	792.52
562.647	779.42
563.099	804.62
563.551	793.42
564.004	802.92
564.456	787.02
564.908	779.52
565.36	755.62
565.812	754.12
566.264	737.92
566.716	729.83
567.168	716.92
567.62	723.02
568.072	719.62
568.524	716.72
568.976	706.22
569.428	693.92
569.88	700.42
570.332	695.22
570.784	710.92
571.235	703.52
571.687	713.12
572.139	722.02
572.59	730.52
573.042	724.02
573.494	722.92
573.945	728.52
574.397	705.92
574.849	713.72
575.3	713.23
575.752	697.42
576.203	697.22
576.655	699.72
577.106	684.92
577.557	680.02
578.009	695.12
578.46	691.42
578.912	686.32
579.363	683.52
579.814	681.52
580.265	680.92
580.717	681.42
581.168	692.22
581.619	690.22
582.07	699.12
582.521	691.72
582.972	693.72
583.423	686.02
583.875	683.62
584.326	704.32
584.777	733.72
585.227	765.12
585.678	789.52
586.129	824.22
586.58	849.02
587.031	885.92
587.482	936.82
587.933	1002.82
588.384	949.42
588.834	843.32
589.285	792.02
589.736	790.32
590.186	795.52
590.637	777.52
591.088	762.92
591.538	759.12
591.989	748.02
592.439	751.32
592.89	736.92
593.34	729.52
593.791	725.72
594.241	713.42
594.692	717.62
595.142	716.73
595.593	721.62
596.043	721.82
596.493	738.02
596.943	729.12
597.394	740.73
597.844	740.52
598.294	756.52
598.744	771.62
599.195	800.52
599.645	841.42
600.095	889.32
600.545	946.72
600.995	991.52
601.445	1057.52
601.895	1118.02
602.345	1175.22
602.795	1145.92
603.245	1107.52
603.695	1047.42
604.145	983.12
604.594	936.12
605.044	887.22
605.494	820.52
605.944	766.42
606.393	764.02
606.843	742.62
607.293	758.83
607.743	748.73
608.192	762.02
608.642	771.82
609.091	779.52
609.541	786.02
609.99	787.92
610.44	784.42
610.889	745.42
611.339	727.12
611.788	698.83
612.238	717.22
612.687	722.12
613.136	720.42
613.586	724.62
614.035	728.42
614.484	731.32
614.933	736.12
615.383	736.52
615.832	726.22
616.281	724.83
616.73	693.73
617.179	678.92
617.628	662.72
618.077	640.42
618.526	642.12
618.975	635.92
619.424	628.92
619.873	631.62
620.322	627.82
620.771	612.82
621.22	611.02
621.669	606.62
622.118	606.52
622.567	602.42
623.015	579.62
623.464	585.52
623.913	574.22
624.361	569.42
624.81	567.62
625.259	566.22
625.707	571.62
626.156	567.32
626.604	591.42
627.053	576.62
627.501	579.52
627.95	581.33
628.398	596.02
628.847	591.62
629.295	582.92
629.744	584.92
630.192	585.62
630.64	577.92
631.089	568.02
631.537	564.73
631.985	550.32
632.433	566.32
632.881	555.12
633.33	576.82
633.778	567.92
634.226	542.62
634.674	557.52
635.122	563.62
635.57	577.52
636.018	585.52
636.466	577.62
636.914	567.02
637.362	585.83
637.81	597.62
638.258	598.33
638.705	599.42
639.153	637.12
639.601	645.72
640.049	665.12
640.497	691.22
640.944	715.82
641.392	665.22
641.84	631.62
642.287	598.12
642.735	580.72
643.182	584.22
643.63	577.72
644.078	588.72
644.525	586.82
644.973	596.92
645.42	613.52
645.867	637.62
646.315	648.02
646.762	683.92
647.21	704.52
647.657	721.62
648.104	753.82
648.551	773.52
648.999	843.12
649.446	910.32
649.893	1000.82
650.34	1145.92
650.787	1366.72
651.234	1679.82
651.682	2184.72
652.129	2962.52
652.576	4215.73
653.023	6219.52
653.47	8359.42
653.917	10325.32
654.363	11797.83
654.81	12939.12
655.257	12299.43
655.704	8147.53
656.151	4894.72
656.598	3206.72
657.044	2297.12
657.491	1784.72
657.938	1443.62
658.385	1208.72
658.831	1055.72
659.278	944.22
659.724	851.92
660.171	791.62
660.618	721.92
661.064	684.02
661.511	668.73
661.957	663.32
662.404	657.92
662.85	655.42
663.296	626.02
663.743	573.72
664.189	544.62
664.635	548.32
665.082	541.62
665.528	542.92
665.974	540.92
666.42	529.02
666.867	515.82
667.313	497.82
667.759	487.22
668.205	469.42
668.651	468.33
669.097	469.02
669.543	466.12
669.989	461.62
670.435	458.92
670.881	463.72
671.327	459.52
671.773	486.22
672.219	501.42
672.665	575.32
673.11	603.32
673.556	646.72
674.002	694.52
674.448	678.62
674.893	574.62
675.339	495.22
675.785	455.12
676.23	437.42
676.676	414.02
677.122	406.42
677.567	389.62
678.013	385.12
678.458	381.23
678.904	381.22
679.349	359.82
679.794	370.52
680.24	365.22
680.685	358.72
681.131	354.92
681.576	363.52
682.021	364.73
682.466	358.62
682.912	361.62
683.357	364.42
683.802	395.42
684.247	420.82
684.692	468.32
685.137	516.82
685.583	560.62
686.028	585.62
686.473	530.92
686.918	463.42
687.363	436.62
687.807	404.02
688.252	373.92
688.697	361.92
689.142	352.02
689.587	341.12
690.032	332.52
690.477	355.52
690.921	371.22
691.366	397.52
691.811	422.92
692.255	446.82
692.7	486.12
693.145	531.12
693.589	753.02
694.034	1219.53
694.478	1631.42
694.923	1817.72
695.367	2337.72
695.812	1248.92
696.256	522.72
696.701	389.42
697.145	353.82
697.59	340.72
698.034	335.72
698.478	343.62
698.922	337.52
699.367	338.02
699.811	348.12
700.255	361.72
700.699	396.62
701.143	446.02
701.588	494.02
702.032	532.92
702.476	534.52
702.92	514.83
703.364	519.52
703.808	683.12
704.252	1114.82
704.696	1544.52
705.14	1737.62
705.584	2219.43
706.027	1122.52
706.471	549.42
706.915	412.42
707.359	359.02
707.803	331.02
708.246	322.33
708.69	329.92
709.134	323.32
709.577	322.73
710.021	322.42
710.465	319.52
710.908	313.42
711.352	300.23
711.795	328.52
712.239	365.12
712.682	403.02
713.126	423.92
713.569	470.12
714.012	374.52
714.456	315.42
714.899	300.32
715.342	286.33
715.786	278.82
716.229	264.32
716.672	263.72
717.115	253.92
717.558	252.62
718.002	249.32
718.445	275.42
718.888	297.12
719.331	305.42
719.774	318.32
720.217	320.82
720.66	301.52
721.103	277.82
721.546	260.12
721.989	256.72
722.432	241.82
722.874	244.72
723.317	233.73
723.76	241.02
724.203	265.92
724.645	336.42
725.088	463.72
725.531	595.62
725.974	661.72
726.416	568.42
726.859	327.72
727.301	253.02
727.744	255.52
728.187	247.72
728.629	247.22
729.071	248.23
729.514	270.22
729.956	286.22
730.399	298.72
730.841	302.12
731.283	285.42
731.726	282.83
732.168	270.12
732.61	281.12
733.053	295.12
733.495	329.92
733.937	369.22
734.379	421.52
734.821	456.73
735.263	574.52
735.705	900.32
736.148	1719.22
736.59	2742.93
737.032	3168.02
737.474	2584.62
737.916	860.12
738.357	456.02
738.799	344.22
739.241	317.32
739.683	291.72
740.125	304.72
740.567	313.32
741.008	321.52
741.45	328.23
741.892	329.82
742.334	368.52
742.775	377.92
743.217	357.82
743.658	281.42
744.1	261.83
744.542	278.23
744.983	334.62
745.425	366.52
745.866	352.52
746.307	292.52
746.749	296.42
747.19	344.62
747.632	494.92
748.073	976.82
748.514	2027.92
748.956	3009.72
749.397	3796.22
749.838	3143.93
750.279	3069.03
750.72	1571.83
751.162	573.23
751.603	340.12
752.044	267.12
752.485	223.23
752.926	214.82
753.367	214.72
753.808	202.02
754.249	202.12
754.69	192.92
755.131	193.72
755.572	187.92
756.013	186.02
756.453	186.52
756.894	198.82
757.335	202.02
757.776	203.12
758.216	210.52
758.657	205.72
759.098	206.52
759.538	236.92
759.979	281.82
760.42	404.62
760.86	778.62
761.301	2036.12
761.741	4781.32
762.182	6643.83
762.622	4699.23
