Data from 20171114-ORNL-Ar_H_NY_Subt18_08-06-41-753.txt Node
Date: Tue Nov 14 08:06:41 EST 2017
User: Ender
Spectrometer: HR+D1039
Trigger mode: 0
Integration Time (sec): 2.730000E-2
Scans to average: 10
Electric dark correction enabled: true
Nonlinearity correction enabled: false
Boxcar width: 0
XAxis mode: Wavelengths
Number of Pixels in Spectrum: 2048
>>>>>Begin Spectral Data<<<<<
187.836	-5.45
188.309	-5.45
188.782	-5.45
189.255	2.15
189.728	1.35
190.201	5.25
190.674	-0.95
191.147	3.45
191.619	-6.75
192.092	-1.35
192.565	2.35
193.038	0.55
193.511	-1.95
193.984	-2.35
194.456	-2.65
194.929	-0.75
195.402	3.45
195.874	3.65
196.347	0.45
196.82	-3.65
197.292	5.15
197.765	0.45
198.237	-5.15
198.71	1.45
199.182	-2.85
199.655	2.65
200.127	3.45
200.6	1.45
201.072	-2.15
201.544	-5.35
202.017	-3.85
202.489	5.85
202.961	0.15
203.433	-3.25
203.906	-4.25
204.378	-6.05
204.85	-5.55
205.322	-12.75
205.794	-1.65
206.266	-2.35
206.739	-11.45
207.211	1.95
207.683	-12.15
208.155	-5.55
208.627	-5.05
209.099	-1.35
209.57	-7.45
210.042	-2.75
210.514	-5.45
210.986	1.35
211.458	-10.55
211.93	-3.25
212.402	3.25
212.873	-5.55
213.345	-3.75
213.817	-8.65
214.288	-4.95
214.76	-8.75
215.232	-3.25
215.703	-2.15
216.175	-4.25
216.646	-9.85
217.118	-11.15
217.589	-2.15
218.061	-6.25
218.532	-2.55
219.004	-1.25
219.475	-9.95
219.946	-5.25
220.418	-4.65
220.889	3.35
221.36	-1.15
221.832	-5.95
222.303	-4.85
222.774	-2.25
223.245	-6.55
223.717	-6.05
224.188	-8.65
224.659	-10.25
225.13	-2.35
225.601	-7.25
226.072	-2.55
226.543	-0.75
227.014	-3.85
227.485	-0.65
227.956	-5.95
228.427	-5.45
228.898	5.85
229.369	2.05
229.839	-1.15
230.31	-6.25
230.781	-3.15
231.252	-2.55
231.722	-2.85
232.193	-2.55
232.664	1.05
233.135	-4.35
233.605	-2.65
234.076	-7.65
234.546	4.15
235.017	0.15
235.487	-1.65
235.958	-5.05
236.428	-6.55
236.899	-6.55
237.369	-3.15
237.84	-5.05
238.31	-2.95
238.78	-4.15
239.251	-2.85
239.721	-2.35
240.191	-1.65
240.662	-1.85
241.132	-7.95
241.602	-0.25
242.072	-0.65
242.542	9.25
243.013	-0.65
243.483	-1.45
243.953	-2.45
244.423	-4.15
244.893	-0.75
245.363	-0.65
245.833	-3.55
246.303	-0.85
246.773	4.65
247.243	1.15
247.712	-2.55
248.182	3.35
248.652	-0.55
249.122	-1.95
249.592	-0.45
250.061	5.55
250.531	9.15
251.001	-1.75
251.471	5.15
251.94	9.65
252.41	4.95
252.879	-4.05
253.349	8.75
253.818	7.25
254.288	0.55
254.757	-1.05
255.227	0.55
255.696	2.65
256.166	1.95
256.635	1.35
257.105	3.75
257.574	2.55
258.043	0.85
258.513	-1.55
258.982	3.35
259.451	-1.75
259.92	3.65
260.389	1.65
260.859	11.95
261.328	2.45
261.797	10.55
262.266	-0.25
262.735	8.35
263.204	6.65
263.673	2.65
264.142	5.55
264.611	0.25
265.08	1.15
265.549	0.95
266.018	7.75
266.487	2.55
266.955	-6.15
267.424	-3.25
267.893	5.75
268.362	2.65
268.83	6.05
269.299	7.35
269.768	7.25
270.236	7.75
270.705	1.95
271.174	9.35
271.642	3.05
272.111	10.45
272.579	7.25
273.048	7.05
273.516	5.05
273.985	4.25
274.453	10.65
274.922	19.75
275.39	6.35
275.858	-3.95
276.327	9.35
276.795	15.85
277.263	4.65
277.731	20.15
278.2	5.75
278.668	12.85
279.136	10.25
279.604	7.45
280.072	9.45
280.54	7.45
281.008	6.25
281.477	10.55
281.945	11.15
282.413	6.65
282.881	16.85
283.348	6.35
283.816	16.75
284.284	10.05
284.752	22.55
285.22	13.05
285.688	13.25
286.156	13.75
286.623	15.25
287.091	16.85
287.559	9.85
288.026	11.15
288.494	13.55
288.962	6.45
289.429	5.05
289.897	18.35
290.364	11.05
290.832	24.25
291.3	16.45
291.767	16.75
292.234	21.35
292.702	14.15
293.169	13.55
293.637	16.95
294.104	16.55
294.571	9.95
295.039	16.75
295.506	14.75
295.973	16.15
296.44	16.55
296.908	15.55
297.375	18.95
297.842	21.15
298.309	15.85
298.776	11.75
299.243	15.95
299.71	15.75
300.177	19.55
300.644	22.15
301.111	19.85
301.578	21.75
302.045	16.85
302.512	23.25
302.979	22.35
303.446	20.05
303.913	17.85
304.379	23.15
304.846	29.75
305.313	24.25
305.78	19.55
306.246	24.45
306.713	24.85
307.18	21.15
307.646	24.25
308.113	23.65
308.579	28.35
309.046	25.95
309.512	31.85
309.979	23.65
310.445	30.95
310.912	31.45
311.378	30.35
311.845	24.45
312.311	26.15
312.777	35.85
313.244	37.55
313.71	38.95
314.176	30.65
314.642	28.05
315.109	31.45
315.575	36.55
316.041	36.65
316.507	32.85
316.973	36.25
317.439	32.35
317.905	34.25
318.371	33.95
318.837	33.05
319.303	35.15
319.769	36.45
320.235	32.75
320.701	34.85
321.167	35.75
321.633	33.15
322.099	38.15
322.564	42.85
323.03	39.35
323.496	36.65
323.962	43.05
324.427	34.65
324.893	39.15
325.359	36.15
325.824	40.45
326.29	38.05
326.755	42.55
327.221	40.55
327.686	39.65
328.152	49.25
328.617	47.25
329.083	44.45
329.548	47.75
330.014	53.85
330.479	40.55
330.944	42.15
331.41	44.85
331.875	43.85
332.34	40.55
332.805	41.75
333.271	45.75
333.736	45.25
334.201	56.45
334.666	50.65
335.131	58.45
335.596	51.45
336.061	53.45
336.526	44.05
336.991	49.05
337.456	50.35
337.921	50.35
338.386	46.95
338.851	52.45
339.316	50.45
339.781	46.65
340.246	53.85
340.711	47.15
341.175	54.75
341.64	43.55
342.105	50.15
342.569	57.55
343.034	57.95
343.499	62.15
343.963	52.65
344.428	64.55
344.893	59.85
345.357	65.55
345.822	64.15
346.286	71.25
346.751	74.95
347.215	73.35
347.679	84.05
348.144	99.55
348.608	92.55
349.073	72.75
349.537	79.65
350.001	80.35
350.465	93.85
350.93	84.55
351.394	87.45
351.858	77.55
352.322	90.25
352.786	86.85
353.25	102.85
353.715	109.95
354.179	99.15
354.643	120.55
355.107	127.95
355.571	111.15
356.035	103.75
356.498	120.35
356.962	118.75
357.426	128.65
357.89	123.65
358.354	86.25
358.818	84.35
359.281	85.35
359.745	76.75
360.209	83.75
360.673	80.05
361.136	85.05
361.6	87.25
362.064	82.55
362.527	91.95
362.991	92.45
363.454	80.75
363.918	78.95
364.381	84.95
364.845	90.45
365.308	88.25
365.772	93.05
366.235	94.75
366.698	91.35
367.162	85.15
367.625	88.45
368.088	93.45
368.552	98.55
369.015	89.45
369.478	96.35
369.941	98.65
370.404	100.05
370.867	110.75
371.331	110.45
371.794	110.25
372.257	108.15
372.72	114.15
373.183	112.85
373.646	102.15
374.109	105.35
374.572	105.75
375.035	111.25
375.497	110.45
375.96	118.25
376.423	109.45
376.886	118.85
377.349	115.35
377.811	113.55
378.274	107.45
378.737	109.95
379.199	111.55
379.662	112.85
380.125	112.45
380.587	117.75
381.05	110.45
381.512	126.75
381.975	132.15
382.437	124.75
382.9	122.55
383.362	132.45
383.825	142.35
384.287	135.05
384.75	129.65
385.212	133.25
385.674	133.35
386.136	146.25
386.599	128.75
387.061	134.65
387.523	131.15
387.985	139.25
388.447	141.45
388.91	134.85
389.372	135.65
389.834	140.35
390.296	132.15
390.758	142.05
391.22	149.95
391.682	161.55
392.144	167.65
392.606	161.15
393.068	153.45
393.529	160.65
393.991	154.35
394.453	146.25
394.915	138.05
395.377	146.15
395.838	151.35
396.3	148.55
396.762	151.45
397.224	138.05
397.685	140.45
398.147	146.35
398.608	144.75
399.07	140.55
399.531	149.75
399.993	161.65
400.454	168.65
400.916	160.55
401.377	157.45
401.839	161.05
402.3	167.95
402.762	186.95
403.223	186.65
403.684	182.65
404.145	175.15
404.607	177.35
405.068	177.75
405.529	180.85
405.99	201.75
406.451	194.05
406.913	191.65
407.374	184.95
407.835	176.85
408.296	181.85
408.757	185.05
409.218	199.05
409.679	188.65
410.14	191.15
410.601	192.15
411.062	194.95
411.522	202.25
411.983	198.25
412.444	196.65
412.905	201.75
413.366	202.85
413.826	212.95
414.287	237.45
414.748	292.95
415.208	279.35
415.669	237.45
416.13	226.95
416.59	222.55
417.051	238.35
417.511	238.65
417.972	266.75
418.432	271.85
418.893	325.45
419.353	279.35
419.814	222.65
420.274	203.85
420.734	198.35
421.195	216.05
421.655	212.55
422.115	210.25
422.576	207.15
423.036	214.95
423.496	229.75
423.956	235.35
424.416	260.25
424.876	289.95
425.336	279.65
425.797	289.95
426.257	291.25
426.717	260.65
427.177	254.55
427.637	243.15
428.097	259.15
428.556	271.75
429.016	299.95
429.476	283.45
429.936	292.15
430.396	305.35
430.856	315.85
431.315	339.75
431.775	371.85
432.235	404.05
432.694	374.55
433.154	387.95
433.614	418.35
434.073	364.65
434.533	308.95
434.993	291.75
435.452	297.25
435.912	316.05
436.371	306.85
436.83	311.35
437.29	287.95
437.749	273.15
438.209	271.85
438.668	298.45
439.127	311.75
439.587	298.05
440.046	273.55
440.505	291.35
440.964	306.65
441.424	351.05
441.883	340.65
442.342	277.75
442.801	258.85
443.26	245.75
443.719	245.45
444.178	240.95
444.637	234.85
445.096	246.95
445.555	254.75
446.014	248.35
446.473	250.65
446.932	257.65
447.391	249.05
447.849	254.35
448.308	248.95
448.767	236.55
449.226	258.45
449.685	267.55
450.143	276.85
450.602	267.85
451.061	249.55
451.519	263.25
451.978	257.95
452.436	265.65
452.895	271.05
453.353	280.85
453.812	261.15
454.27	265.45
454.729	268.95
455.187	271.35
455.646	269.95
456.104	275.45
456.562	288.75
457.021	298.85
457.479	290.25
457.937	302.35
458.395	299.85
458.854	283.45
459.312	291.25
459.77	309.35
460.228	282.05
460.686	269.25
461.144	279.05
461.602	274.75
462.06	277.65
462.518	281.15
462.976	288.55
463.434	286.75
463.892	298.25
464.35	313.45
464.808	320.35
465.266	296.15
465.724	299.95
466.181	307.35
466.639	298.35
467.097	320.65
467.555	331.55
468.012	333.65
468.47	349.15
468.928	366.95
469.385	373.25
469.843	382.85
470.3	387.05
470.758	400.65
471.215	429.95
471.673	450.55
472.13	451.15
472.588	457.95
473.045	416.95
473.503	412.75
473.96	434.55
474.417	446.35
474.875	481.75
475.332	519.55
475.789	509.75
476.246	506.45
476.704	539.55
477.161	559.85
477.618	573.85
478.075	609.55
478.532	666.35
478.989	745.55
479.446	856.75
479.903	821.35
480.36	851.35
480.817	912.05
481.274	985.95
481.731	1088.85
482.188	1171.85
482.645	1305.65
483.102	1412.85
483.558	1513.75
484.015	1571.75
484.472	1536.25
484.929	1494.45
485.385	1448.85
485.842	1427.55
486.299	1387.95
486.755	1339.05
487.212	1137.35
487.668	981.35
488.125	915.85
488.582	828.15
489.038	815.15
489.494	760.65
489.951	740.35
490.407	727.15
490.864	707.65
491.32	704.85
491.776	692.55
492.233	707.95
492.689	669.75
493.145	661.35
493.602	660.15
494.058	655.25
494.514	665.45
494.97	702.75
495.426	715.75
495.882	689.15
496.338	668.65
496.794	682.75
497.251	673.05
497.707	688.25
498.163	690.55
498.618	702.25
499.074	702.75
499.53	740.05
499.986	721.45
500.442	708.15
500.898	684.45
501.354	674.45
501.809	677.25
502.265	687.55
502.721	688.95
503.177	704.15
503.632	707.45
504.088	720.25
504.543	734.15
504.999	749.35
505.455	723.75
505.91	693.35
506.366	700.65
506.821	700.85
507.277	688.75
507.732	697.75
508.187	700.15
508.643	709.15
509.098	700.25
509.553	730.35
510.009	740.55
510.464	736.75
510.919	758.45
511.375	768.75
511.83	778.75
512.285	787.55
512.74	831.55
513.195	861.15
513.65	844.75
514.105	834.45
514.56	840.85
515.015	865.55
515.47	878.65
515.925	847.85
516.38	851.95
516.835	865.65
517.29	846.55
517.745	851.45
518.2	834.85
518.655	826.35
519.109	823.35
519.564	815.85
520.019	800.85
520.474	789.65
520.928	789.05
521.383	777.55
521.838	764.45
522.292	775.35
522.747	773.35
523.201	770.95
523.656	769.25
524.11	757.35
524.565	759.65
525.019	754.65
525.474	763.55
525.928	771.35
526.382	759.05
526.837	769.95
527.291	769.25
527.745	761.95
528.2	771.95
528.654	748.25
529.108	754.55
529.562	759.05
530.016	751.65
530.47	745.85
530.925	754.75
531.379	748.45
531.833	771.25
532.287	758.65
532.741	771.95
533.195	772.95
533.649	771.45
534.103	784.55
534.556	766.85
535.01	770.35
535.464	769.75
535.918	781.35
536.372	783.95
536.826	780.75
537.279	769.75
537.733	782.55
538.187	785.65
538.64	778.95
539.094	780.45
539.548	793.85
540.001	789.05
540.455	784.25
540.908	802.05
541.362	798.95
541.815	807.55
542.269	821.75
542.722	836.25
543.175	844.95
543.629	828.45
544.082	862.55
544.536	860.35
544.989	857.95
545.442	868.65
545.895	867.15
546.349	871.25
546.802	846.65
547.255	866.25
547.708	885.55
548.161	887.55
548.614	886.15
549.067	904.15
549.52	891.25
549.973	879.25
550.426	893.55
550.879	864.35
551.332	876.75
551.785	878.75
552.238	900.15
552.691	892.65
553.144	901.55
553.596	919.75
554.049	927.85
554.502	965.35
554.955	974.85
555.407	988.75
555.86	981.55
556.313	971.55
556.765	956.35
557.218	961.95
557.67	959.15
558.123	957.35
558.576	942.15
559.028	950.35
559.48	962.25
559.933	939.95
560.385	906.75
560.838	885.95
561.29	862.35
561.742	860.15
562.195	849.55
562.647	840.15
563.099	841.25
563.551	841.75
564.004	855.35
564.456	836.05
564.908	825.65
565.36	800.55
565.812	779.95
566.264	782.95
566.716	772.05
567.168	769.55
567.62	756.55
568.072	751.05
568.524	746.95
568.976	745.25
569.428	738.55
569.88	729.95
570.332	740.55
570.784	742.05
571.235	749.05
571.687	755.05
572.139	764.75
572.59	768.35
573.042	765.85
573.494	772.35
573.945	761.95
574.397	745.55
574.849	752.05
575.3	742.75
575.752	738.75
576.203	737.55
576.655	745.35
577.106	726.25
577.557	727.15
578.009	726.35
578.46	719.85
578.912	710.35
579.363	717.45
579.814	723.35
580.265	718.45
580.717	725.65
581.168	720.85
581.619	731.35
582.07	737.25
582.521	732.65
582.972	724.45
583.423	729.05
583.875	731.95
584.326	731.55
584.777	754.65
585.227	784.05
585.678	792.35
586.129	810.15
586.58	836.35
587.031	859.05
587.482	891.05
587.933	923.95
588.384	904.35
588.834	842.85
589.285	822.65
589.736	832.85
590.186	828.95
590.637	816.35
591.088	806.45
591.538	789.25
591.989	780.75
592.439	777.85
592.89	767.35
593.34	751.05
593.791	762.15
594.241	740.65
594.692	747.35
595.142	740.85
595.593	752.05
596.043	754.25
596.493	757.45
596.943	756.05
597.394	764.85
597.844	772.65
598.294	791.85
598.744	815.05
599.195	838.05
599.645	878.45
600.095	920.15
600.545	985.85
600.995	1039.25
601.445	1080.85
601.895	1171.45
602.345	1214.95
602.795	1204.75
603.245	1142.65
603.695	1088.85
604.145	1023.95
604.594	984.05
605.044	932.55
605.494	864.45
605.944	815.85
606.393	797.25
606.843	779.95
607.293	791.25
607.743	780.05
608.192	786.45
608.642	805.35
609.091	812.15
609.541	813.75
609.99	819.95
610.44	814.95
610.889	770.45
611.339	746.25
611.788	724.75
612.238	731.25
612.687	750.95
613.136	739.55
613.586	758.75
614.035	741.15
614.484	752.85
614.933	751.95
615.383	756.25
615.832	754.45
616.281	747.05
616.73	721.25
617.179	690.35
617.628	679.95
618.077	676.95
618.526	658.05
618.975	656.45
619.424	657.25
619.873	654.65
620.322	655.35
620.771	652.25
621.22	637.15
621.669	629.45
622.118	627.95
622.567	611.45
623.015	606.35
623.464	609.55
623.913	602.15
624.361	584.65
624.81	593.85
625.259	590.55
625.707	600.75
626.156	595.65
626.604	613.75
627.053	596.05
627.501	597.35
627.95	603.65
628.398	627.35
628.847	611.85
629.295	609.55
629.744	611.95
630.192	602.75
630.64	595.65
631.089	581.65
631.537	563.25
631.985	560.45
632.433	564.35
632.881	564.45
633.33	571.45
633.778	563.05
634.226	561.65
634.674	572.25
635.122	572.65
635.57	579.15
636.018	597.35
636.466	600.15
636.914	585.95
637.362	602.55
637.81	614.35
638.258	612.45
638.705	616.65
639.153	642.45
639.601	660.05
640.049	685.95
640.497	708.55
640.944	730.05
641.392	684.35
641.84	644.45
642.287	618.85
642.735	607.05
643.182	595.35
643.63	597.85
644.078	594.55
644.525	602.65
644.973	615.05
645.42	621.25
645.867	655.15
646.315	658.75
646.762	689.05
647.21	723.65
647.657	740.45
648.104	772.45
648.551	795.45
648.999	848.75
649.446	931.05
649.893	1020.75
650.34	1165.75
650.787	1384.65
651.234	1702.65
651.682	2173.15
652.129	2953.05
652.576	4192.15
653.023	6089.35
653.47	8252.65
653.917	10244.35
654.363	11800.85
654.81	13045.95
655.257	12352.65
655.704	8210.95
656.151	4955.95
656.598	3257.95
657.044	2324.65
657.491	1828.25
657.938	1472.55
658.385	1246.65
658.831	1085.25
659.278	979.85
659.724	858.45
660.171	813.85
660.618	722.85
661.064	714.95
661.511	692.15
661.957	680.25
662.404	663.75
662.85	675.25
663.296	657.05
663.743	590.45
664.189	561.15
664.635	560.05
665.082	565.05
665.528	557.95
665.974	549.25
666.42	537.15
666.867	527.95
667.313	514.15
667.759	490.05
668.205	479.15
668.651	474.95
669.097	466.45
669.543	466.35
669.989	471.25
670.435	474.35
670.881	465.95
671.327	471.15
671.773	494.95
672.219	518.15
672.665	580.15
673.11	609.75
673.556	666.25
674.002	704.65
674.448	696.45
674.893	579.05
675.339	508.55
675.785	470.15
676.23	443.75
676.676	423.35
677.122	406.05
677.567	396.65
678.013	387.95
678.458	388.15
678.904	380.45
679.349	370.05
679.794	377.15
680.24	372.15
680.685	371.95
681.131	365.25
681.576	378.15
682.021	370.05
682.466	372.45
682.912	371.45
683.357	375.15
683.802	404.55
684.247	437.65
684.692	481.05
685.137	524.35
685.583	568.75
686.028	611.95
686.473	552.65
686.918	472.55
687.363	448.25
687.807	416.95
688.252	389.45
688.697	377.85
689.142	364.15
689.587	349.95
690.032	346.75
690.477	371.65
690.921	365.45
691.366	397.65
691.811	423.45
692.255	453.95
692.7	486.35
693.145	530.65
693.589	742.75
694.034	1211.45
694.478	1648.85
694.923	1853.65
695.367	2412.95
695.812	1276.75
696.256	529.45
696.701	396.85
697.145	363.95
697.59	347.55
698.034	342.95
698.478	338.65
698.922	338.15
699.367	343.85
699.811	353.65
700.255	369.35
700.699	399.95
701.143	455.35
701.588	494.85
702.032	543.05
702.476	544.05
702.92	526.15
703.364	525.45
703.808	688.05
704.252	1105.15
704.696	1550.95
705.14	1798.15
705.584	2268.35
706.027	1137.55
706.471	556.25
706.915	429.25
707.359	378.45
707.803	338.95
708.246	333.55
708.69	331.45
709.134	327.25
709.577	330.55
710.021	329.45
710.465	324.05
710.908	326.15
711.352	316.85
711.795	334.95
712.239	368.45
712.682	405.65
713.126	440.95
713.569	483.35
714.012	382.55
714.456	325.35
714.899	309.45
715.342	284.75
715.786	281.45
716.229	273.45
716.672	269.25
717.115	265.35
717.558	264.45
718.002	266.95
718.445	282.25
718.888	306.25
719.331	314.15
719.774	330.65
720.217	321.95
720.66	296.05
721.103	292.25
721.546	261.15
721.989	263.35
722.432	250.55
722.874	253.65
723.317	244.65
723.76	249.65
724.203	275.15
724.645	328.85
725.088	468.25
725.531	601.45
725.974	682.05
726.416	575.85
726.859	326.05
727.301	254.45
727.744	245.75
728.187	243.45
728.629	254.45
729.071	254.25
729.514	269.75
729.956	287.65
730.399	298.35
730.841	307.55
731.283	292.25
731.726	291.35
732.168	273.25
732.61	288.45
733.053	303.85
733.495	335.25
733.937	375.85
734.379	423.15
734.821	464.15
735.263	582.45
735.705	890.05
736.148	1680.25
736.59	2765.55
737.032	3263.75
737.474	2641.95
737.916	872.55
738.357	452.85
738.799	344.05
739.241	321.05
739.683	307.05
740.125	305.05
740.567	317.55
741.008	339.65
741.45	334.65
741.892	343.55
742.334	372.35
742.775	389.75
743.217	373.75
743.658	285.85
744.1	272.35
744.542	282.95
744.983	339.05
745.425	368.45
745.866	369.15
746.307	297.35
746.749	299.75
747.19	342.85
747.632	482.25
748.073	939.85
748.514	1984.25
748.956	3037.55
749.397	3814.05
749.838	3159.25
750.279	3163.05
750.72	1604.15
751.162	586.85
751.603	342.65
752.044	270.95
752.485	232.65
752.926	219.45
753.367	215.75
753.808	201.75
754.249	197.55
754.69	196.45
755.131	197.05
755.572	188.85
756.013	192.65
756.453	195.85
756.894	205.95
757.335	204.85
757.776	211.15
758.216	209.05
758.657	214.55
759.098	211.95
759.538	243.05
759.979	281.85
760.42	400.05
760.86	744.55
761.301	1947.15
761.741	4735.35
762.182	6846.15
762.622	4845.35
