Data from 20171114-ORNL-Ar_H_NY_Subt18_08-07-43-446.txt Node
Date: Tue Nov 14 08:07:43 EST 2017
User: Ender
Spectrometer: HR+D1039
Trigger mode: 0
Integration Time (sec): 2.730000E-2
Scans to average: 10
Electric dark correction enabled: true
Nonlinearity correction enabled: false
Boxcar width: 0
XAxis mode: Wavelengths
Number of Pixels in Spectrum: 2048
>>>>>Begin Spectral Data<<<<<
187.836	-7.76
188.309	-7.76
188.782	-7.76
189.255	4.44
189.728	-1.16
190.201	3.94
190.674	-0.06
191.147	2.64
191.619	-8.66
192.092	4.64
192.565	3.94
193.038	2.14
193.511	2.54
193.984	-1.06
194.456	0.24
194.929	3.54
195.402	-5.46
195.874	-3.96
196.347	0.34
196.82	-7.86
197.292	-0.06
197.765	-3.56
198.237	-6.06
198.71	1.24
199.182	-4.46
199.655	-1.56
200.127	-1.16
200.6	-3.06
201.072	-5.36
201.544	-2.06
202.017	-5.16
202.489	0.04
202.961	1.74
203.433	3.04
203.906	-1.26
204.378	-6.06
204.85	-2.36
205.322	-8.16
205.794	2.14
206.266	-3.66
206.739	-8.76
207.211	5.04
207.683	-3.86
208.155	-4.96
208.627	-3.76
209.099	-2.06
209.57	-10.16
210.042	-3.96
210.514	-3.96
210.986	3.24
211.458	-8.06
211.93	-0.16
212.402	2.84
212.873	-5.06
213.345	-11.06
213.817	-7.76
214.288	-3.36
214.76	-12.76
215.232	-2.66
215.703	-0.96
216.175	-3.46
216.646	-3.06
217.118	0.54
217.589	-3.56
218.061	0.44
218.532	-10.56
219.004	-5.66
219.475	-9.56
219.946	-4.76
220.418	-5.86
220.889	6.94
221.36	6.84
221.832	-3.96
222.303	-6.36
222.774	-0.56
223.245	-8.26
223.717	-5.76
224.188	-0.86
224.659	-7.86
225.13	-13.26
225.601	-2.66
226.072	-0.56
226.543	-2.76
227.014	-1.06
227.485	-1.36
227.956	-6.76
228.427	0.84
228.898	0.54
229.369	7.94
229.839	-3.56
230.31	-7.56
230.781	3.24
231.252	-5.56
231.722	-5.76
232.193	2.34
232.664	-2.26
233.135	-0.76
233.605	-2.76
234.076	-5.26
234.546	-3.16
235.017	1.34
235.487	-2.76
235.958	-0.86
236.428	-4.06
236.899	3.54
237.369	3.64
237.84	-1.26
238.31	-0.76
238.78	2.14
239.251	0.14
239.721	0.24
240.191	1.04
240.662	-0.26
241.132	4.14
241.602	-1.36
242.072	6.34
242.542	6.44
243.013	0.94
243.483	5.74
243.953	0.04
244.423	-3.36
244.893	-5.46
245.363	-0.56
245.833	5.44
246.303	4.54
246.773	9.14
247.243	-1.46
247.712	-3.46
248.182	2.54
248.652	7.94
249.122	-1.66
249.592	11.24
250.061	15.64
250.531	27.64
251.001	12.44
251.471	16.74
251.94	15.24
252.41	3.44
252.879	-0.36
253.349	14.24
253.818	7.24
254.288	1.94
254.757	2.04
255.227	-3.26
255.696	3.44
256.166	1.84
256.635	3.64
257.105	4.54
257.574	3.24
258.043	9.84
258.513	10.24
258.982	12.24
259.451	12.04
259.92	9.24
260.389	4.74
260.859	15.24
261.328	12.04
261.797	13.34
262.266	5.84
262.735	8.24
263.204	3.44
263.673	-5.46
264.142	5.04
264.611	-9.26
265.08	0.14
265.549	-1.76
266.018	-0.76
266.487	2.14
266.955	-1.16
267.424	-5.26
267.893	6.84
268.362	4.04
268.83	-0.16
269.299	10.94
269.768	-0.66
270.236	5.44
270.705	-0.66
271.174	4.14
271.642	11.94
272.111	9.24
272.579	16.34
273.048	20.14
273.516	25.94
273.985	23.34
274.453	18.54
274.922	15.34
275.39	9.84
275.858	0.64
276.327	13.84
276.795	18.14
277.263	10.44
277.731	26.84
278.2	48.84
278.668	50.34
279.136	46.74
279.604	20.94
280.072	16.94
280.54	10.04
281.008	5.64
281.477	10.14
281.945	8.04
282.413	10.54
282.881	12.04
283.348	6.74
283.816	16.94
284.284	14.54
284.752	20.74
285.22	16.84
285.688	15.14
286.156	19.24
286.623	35.64
287.091	44.94
287.559	33.44
288.026	11.84
288.494	14.94
288.962	10.74
289.429	8.04
289.897	16.74
290.364	14.24
290.832	9.34
291.3	15.44
291.767	15.54
292.234	18.94
292.702	13.14
293.169	14.24
293.637	22.34
294.104	15.24
294.571	6.04
295.039	11.24
295.506	9.64
295.973	12.24
296.44	8.54
296.908	13.54
297.375	14.44
297.842	20.64
298.309	13.04
298.776	10.84
299.243	17.04
299.71	11.44
300.177	16.64
300.644	17.04
301.111	14.64
301.578	20.64
302.045	18.74
302.512	17.14
302.979	25.44
303.446	13.74
303.913	15.54
304.379	15.24
304.846	22.54
305.313	25.04
305.78	18.54
306.246	25.84
306.713	24.24
307.18	18.04
307.646	24.04
308.113	23.24
308.579	25.84
309.046	21.84
309.512	23.84
309.979	19.14
310.445	20.94
310.912	24.94
311.378	25.64
311.845	23.24
312.311	26.14
312.777	32.44
313.244	28.94
313.71	32.64
314.176	26.04
314.642	26.44
315.109	25.64
315.575	36.54
316.041	39.24
316.507	30.34
316.973	31.94
317.439	27.14
317.905	33.14
318.371	29.34
318.837	29.64
319.303	34.14
319.769	32.54
320.235	32.94
320.701	32.84
321.167	35.74
321.633	29.64
322.099	33.14
322.564	40.14
323.03	40.44
323.496	33.64
323.962	39.04
324.427	32.84
324.893	38.34
325.359	29.64
325.824	30.04
326.29	31.74
326.755	41.64
327.221	37.24
327.686	38.44
328.152	34.04
328.617	34.84
329.083	43.24
329.548	47.04
330.014	43.84
330.479	34.14
330.944	42.24
331.41	42.04
331.875	41.84
332.34	37.84
332.805	40.64
333.271	43.14
333.736	42.04
334.201	47.94
334.666	49.64
335.131	53.24
335.596	52.34
336.061	44.14
336.526	34.04
336.991	43.44
337.456	51.94
337.921	45.54
338.386	39.04
338.851	42.44
339.316	45.54
339.781	41.74
340.246	42.24
340.711	41.54
341.175	48.44
341.64	40.84
342.105	49.14
342.569	47.94
343.034	59.64
343.499	47.54
343.963	48.64
344.428	60.64
344.893	55.84
345.357	50.94
345.822	57.44
346.286	62.04
346.751	69.24
347.215	60.34
347.679	67.04
348.144	83.64
348.608	74.94
349.073	63.84
349.537	69.44
350.001	76.94
350.465	81.74
350.93	71.14
351.394	69.94
351.858	66.44
352.322	75.74
352.786	79.14
353.25	92.64
353.715	108.04
354.179	94.74
354.643	107.94
355.107	118.94
355.571	104.24
356.035	98.94
356.498	107.94
356.962	116.14
357.426	121.14
357.89	105.94
358.354	84.14
358.818	69.24
359.281	81.34
359.745	71.04
360.209	65.64
360.673	69.44
361.136	72.94
361.6	80.44
362.064	77.44
362.527	79.14
362.991	86.94
363.454	77.64
363.918	73.64
364.381	70.94
364.845	79.64
365.308	80.44
365.772	77.64
366.235	77.24
366.698	78.54
367.162	83.64
367.625	79.74
368.088	85.14
368.552	83.64
369.015	77.34
369.478	98.04
369.941	93.84
370.404	91.44
370.867	97.54
371.331	100.94
371.794	111.14
372.257	105.44
372.72	106.64
373.183	107.54
373.646	95.34
374.109	99.24
374.572	98.44
375.035	105.44
375.497	103.64
375.96	93.74
376.423	95.94
376.886	108.04
377.349	105.14
377.811	100.84
378.274	99.04
378.737	104.74
379.199	107.94
379.662	111.24
380.125	107.44
380.587	112.24
381.05	115.04
381.512	121.84
381.975	132.44
382.437	122.14
382.9	119.74
383.362	124.04
383.825	137.54
384.287	135.34
384.75	136.84
385.212	134.74
385.674	134.94
386.136	132.14
386.599	122.24
387.061	124.34
387.523	122.84
387.985	128.64
388.447	143.94
388.91	136.04
389.372	157.74
389.834	146.54
390.296	141.64
390.758	154.44
391.22	163.34
391.682	199.24
392.144	291.04
392.606	228.54
393.068	161.74
393.529	158.04
393.991	149.54
394.453	142.24
394.915	153.84
395.377	186.54
395.838	205.24
396.3	154.54
396.762	136.04
397.224	137.44
397.685	123.94
398.147	124.94
398.608	132.54
399.07	125.14
399.531	127.34
399.993	131.94
400.454	148.34
400.916	142.54
401.377	144.44
401.839	147.74
402.3	146.14
402.762	169.44
403.223	167.24
403.684	164.94
404.145	147.24
404.607	154.04
405.068	161.14
405.529	158.24
405.99	187.14
406.451	164.74
406.913	168.64
407.374	156.34
407.835	160.84
408.296	162.74
408.757	165.54
409.218	182.04
409.679	174.54
410.14	176.94
410.601	170.94
411.062	179.14
411.522	188.64
411.983	187.64
412.444	171.94
412.905	172.44
413.366	176.04
413.826	181.64
414.287	210.84
414.748	253.74
415.208	240.64
415.669	209.14
416.13	199.94
416.59	197.14
417.051	204.84
417.511	214.64
417.972	230.94
418.432	235.34
418.893	274.84
419.353	240.14
419.814	190.74
420.274	174.94
420.734	178.74
421.195	196.44
421.655	198.44
422.115	188.84
422.576	186.54
423.036	198.84
423.496	201.74
423.956	214.44
424.416	221.44
424.876	258.44
425.336	253.04
425.797	251.54
426.257	251.24
426.717	232.54
427.177	229.44
427.637	211.54
428.097	227.24
428.556	237.54
429.016	267.14
429.476	256.14
429.936	267.74
430.396	272.94
430.856	291.74
431.315	312.14
431.775	340.94
432.235	370.34
432.694	345.94
433.154	362.54
433.614	395.34
434.073	323.34
434.533	275.94
434.993	262.24
435.452	278.04
435.912	282.94
436.371	271.14
436.83	274.04
437.29	271.14
437.749	246.44
438.209	243.24
438.668	267.24
439.127	275.94
439.587	261.74
440.046	242.24
440.505	251.84
440.964	269.74
441.424	315.84
441.883	305.84
442.342	260.64
442.801	223.44
443.26	213.44
443.719	214.74
444.178	218.14
444.637	200.84
445.096	219.34
445.555	217.84
446.014	216.44
446.473	221.74
446.932	229.94
447.391	222.44
447.849	222.34
448.308	209.54
448.767	219.74
449.226	226.94
449.685	233.64
450.143	249.94
450.602	234.04
451.061	218.74
451.519	230.04
451.978	220.14
452.436	226.64
452.895	227.04
453.353	247.94
453.812	232.14
454.27	240.14
454.729	233.54
455.187	232.64
455.646	238.44
456.104	239.04
456.562	250.64
457.021	255.54
457.479	253.14
457.937	264.34
458.395	255.84
458.854	246.54
459.312	250.14
459.77	264.34
460.228	251.04
460.686	242.14
461.144	243.04
461.602	235.54
462.06	234.44
462.518	255.44
462.976	249.04
463.434	251.04
463.892	259.14
464.35	271.14
464.808	291.24
465.266	261.54
465.724	270.74
466.181	271.24
466.639	270.74
467.097	282.14
467.555	296.54
468.012	290.34
468.47	310.24
468.928	319.34
469.385	328.74
469.843	333.64
470.3	339.44
470.758	352.74
471.215	374.74
471.673	399.94
472.13	401.84
472.588	413.04
473.045	365.54
473.503	365.74
473.96	387.24
474.417	397.24
474.875	428.34
475.332	465.44
475.789	456.44
476.246	461.44
476.704	478.94
477.161	492.54
477.618	515.24
478.075	551.14
478.532	607.44
478.989	683.54
479.446	782.44
479.903	752.14
480.36	791.04
480.817	857.24
481.274	961.24
481.731	1050.34
482.188	1138.14
482.645	1270.44
483.102	1375.04
483.558	1523.34
484.015	1561.64
484.472	1555.64
484.929	1488.24
485.385	1438.74
485.842	1400.64
486.299	1355.34
486.755	1275.64
487.212	1073.84
487.668	922.74
488.125	834.44
488.582	764.14
489.038	732.04
489.494	692.14
489.951	675.44
490.407	655.24
490.864	637.94
491.32	625.24
491.776	627.84
492.233	644.44
492.689	600.24
493.145	594.24
493.602	582.84
494.058	596.54
494.514	614.44
494.97	628.34
495.426	644.14
495.882	616.64
496.338	606.04
496.794	607.54
497.251	607.14
497.707	622.44
498.163	617.34
498.618	641.24
499.074	633.84
499.53	666.44
499.986	657.14
500.442	642.54
500.898	621.54
501.354	617.94
501.809	630.34
502.265	630.74
502.721	650.24
503.177	661.74
503.632	653.64
504.088	660.24
504.543	706.24
504.999	708.54
505.455	646.04
505.91	618.74
506.366	628.24
506.821	615.14
507.277	621.14
507.732	619.04
508.187	617.84
508.643	632.64
509.098	627.84
509.553	643.24
510.009	657.74
510.464	659.54
510.919	678.54
511.375	687.14
511.83	690.14
512.285	711.24
512.74	744.84
513.195	772.84
513.65	764.74
514.105	758.04
514.56	765.04
515.015	772.64
515.47	790.24
515.925	789.64
516.38	775.14
516.835	778.04
517.29	779.54
517.745	770.74
518.2	757.64
518.655	733.74
519.109	728.14
519.564	721.34
520.019	718.04
520.474	706.74
520.928	714.24
521.383	705.84
521.838	707.84
522.292	707.64
522.747	692.84
523.201	691.24
523.656	687.14
524.11	680.44
524.565	685.64
525.019	674.64
525.474	694.84
525.928	692.34
526.382	688.84
526.837	683.74
527.291	690.84
527.745	686.84
528.2	687.24
528.654	678.44
529.108	682.24
529.562	679.04
530.016	679.54
530.47	681.74
530.925	678.04
531.379	684.14
531.833	691.44
532.287	697.04
532.741	695.74
533.195	702.54
533.649	700.44
534.103	712.24
534.556	694.84
535.01	698.74
535.464	698.84
535.918	702.74
536.372	702.04
536.826	709.84
537.279	703.24
537.733	706.64
538.187	709.14
538.64	712.44
539.094	717.94
539.548	724.64
540.001	709.04
540.455	722.44
540.908	724.74
541.362	731.94
541.815	732.64
542.269	751.84
542.722	755.34
543.175	761.74
543.629	753.64
544.082	787.84
544.536	778.14
544.989	768.14
545.442	787.64
545.895	779.34
546.349	785.84
546.802	784.94
547.255	777.74
547.708	800.74
548.161	815.44
548.614	813.64
549.067	821.14
549.52	810.04
549.973	791.64
550.426	796.14
550.879	788.64
551.332	795.44
551.785	794.44
552.238	802.14
552.691	815.84
553.144	821.14
553.596	841.84
554.049	851.84
554.502	885.84
554.955	896.44
555.407	897.94
555.86	891.04
556.313	885.94
556.765	865.24
557.218	873.74
557.67	880.44
558.123	865.74
558.576	863.44
559.028	865.14
559.48	866.64
559.933	856.34
560.385	839.64
560.838	797.54
561.29	769.24
561.742	775.34
562.195	769.04
562.647	759.84
563.099	775.64
563.551	757.14
564.004	775.14
564.456	755.44
564.908	746.44
565.36	738.34
565.812	728.14
566.264	709.24
566.716	716.64
567.168	710.74
567.62	718.14
568.072	702.34
568.524	686.64
568.976	683.34
569.428	671.04
569.88	666.04
570.332	683.54
570.784	681.64
571.235	676.74
571.687	682.54
572.139	696.64
572.59	712.94
573.042	702.24
573.494	704.84
573.945	698.34
574.397	680.64
574.849	684.24
575.3	689.04
575.752	680.84
576.203	675.54
576.655	678.94
577.106	664.94
577.557	663.54
578.009	662.34
578.46	663.44
578.912	658.54
579.363	666.74
579.814	660.64
580.265	653.74
580.717	659.94
581.168	669.74
581.619	678.34
582.07	686.14
582.521	675.44
582.972	655.54
583.423	679.04
583.875	676.64
584.326	695.84
584.777	743.54
585.227	819.64
585.678	909.04
586.129	996.84
586.58	1067.14
587.031	1146.24
587.482	1291.94
587.933	1476.74
588.384	1282.34
588.834	960.04
589.285	799.94
589.736	777.04
590.186	773.24
590.637	761.54
591.088	735.34
591.538	739.34
591.989	738.24
592.439	730.74
592.89	717.74
593.34	714.24
593.791	705.34
594.241	702.64
594.692	707.54
595.142	699.84
595.593	706.14
596.043	700.44
596.493	706.64
596.943	713.44
597.394	728.64
597.844	713.24
598.294	734.24
598.744	744.64
599.195	772.44
599.645	805.64
600.095	849.54
600.545	909.14
600.995	957.94
601.445	1014.54
601.895	1088.74
602.345	1120.94
602.795	1113.54
603.245	1073.84
603.695	1004.94
604.145	950.84
604.594	909.84
605.044	865.64
605.494	792.94
605.944	739.84
606.393	730.74
606.843	736.14
607.293	737.24
607.743	735.14
608.192	740.04
608.642	748.74
609.091	758.14
609.541	764.34
609.99	770.74
610.44	762.04
610.889	715.44
611.339	702.44
611.788	699.34
612.238	707.04
612.687	717.44
613.136	719.54
613.586	739.54
614.035	739.14
614.484	750.24
614.933	751.24
615.383	747.94
615.832	744.64
616.281	723.24
616.73	681.14
617.179	659.54
617.628	641.54
618.077	638.44
618.526	622.74
618.975	621.24
619.424	617.34
619.873	614.94
620.322	623.34
620.771	605.74
621.22	594.84
621.669	588.84
622.118	585.84
622.567	580.04
623.015	565.44
623.464	570.54
623.913	551.04
624.361	557.14
624.81	546.44
625.259	549.74
625.707	556.24
626.156	556.54
626.604	567.34
627.053	560.64
627.501	565.44
627.95	562.64
628.398	579.04
628.847	565.74
629.295	560.74
629.744	580.54
630.192	566.44
630.64	568.64
631.089	562.54
631.537	580.54
631.985	586.14
632.433	605.34
632.881	614.84
633.33	659.44
633.778	639.54
634.226	572.74
634.674	572.24
635.122	572.44
635.57	600.94
636.018	632.44
636.466	587.24
636.914	553.44
637.362	566.64
637.81	578.04
638.258	579.84
638.705	574.14
639.153	606.94
639.601	611.14
640.049	648.24
640.497	685.04
640.944	687.24
641.392	637.04
641.84	609.34
642.287	590.74
642.735	571.94
643.182	577.14
643.63	572.74
644.078	571.34
644.525	594.84
644.973	603.64
645.42	602.64
645.867	623.14
646.315	640.94
646.762	656.14
647.21	690.84
647.657	716.84
648.104	748.74
648.551	781.24
648.999	840.84
649.446	921.24
649.893	1003.14
650.34	1166.84
650.787	1396.44
651.234	1737.74
651.682	2282.84
652.129	3132.84
652.576	4522.64
653.023	6632.14
653.47	9131.14
653.917	11273.44
654.363	12996.14
654.81	14289.64
655.257	13611.74
655.704	8875.14
656.151	5246.14
656.598	3386.04
657.044	2407.94
657.491	1857.84
657.938	1481.44
658.385	1244.44
658.831	1082.74
659.278	961.04
659.724	846.84
660.171	791.24
660.618	720.84
661.064	692.64
661.511	664.14
661.957	650.24
662.404	640.24
662.85	649.24
663.296	625.14
663.743	562.24
664.189	544.34
664.635	532.14
665.082	525.94
665.528	524.74
665.974	506.14
666.42	514.44
666.867	507.84
667.313	492.54
667.759	479.54
668.205	477.54
668.651	483.74
669.097	477.54
669.543	501.44
669.989	469.74
670.435	448.54
670.881	448.14
671.327	439.24
671.773	465.14
672.219	484.74
672.665	544.64
673.11	587.04
673.556	632.74
674.002	662.54
674.448	653.64
674.893	547.64
675.339	472.54
675.785	441.44
676.23	416.74
676.676	393.64
677.122	381.84
677.567	369.04
678.013	359.64
678.458	348.84
678.904	363.34
679.349	348.84
679.794	357.74
680.24	349.14
680.685	348.14
681.131	348.04
681.576	345.14
682.021	350.34
682.466	344.14
682.912	347.84
683.357	349.64
683.802	373.94
684.247	405.74
684.692	455.94
685.137	488.34
685.583	536.14
686.028	560.54
686.473	517.04
686.918	449.44
687.363	423.04
687.807	394.24
688.252	365.84
688.697	352.54
689.142	341.54
689.587	338.34
690.032	332.44
690.477	344.84
690.921	355.04
691.366	383.34
691.811	395.14
692.255	432.74
692.7	458.44
693.145	497.24
693.589	712.14
694.034	1142.64
694.478	1539.24
694.923	1710.74
695.367	2253.14
695.812	1190.24
696.256	491.64
696.701	371.34
697.145	343.54
697.59	323.64
698.034	331.64
698.478	329.74
698.922	320.34
699.367	322.14
699.811	331.84
700.255	360.54
700.699	398.54
701.143	432.64
701.588	475.74
702.032	517.34
702.476	510.94
702.92	487.54
703.364	502.64
703.808	642.94
704.252	1048.64
704.696	1468.94
705.14	1652.74
705.584	2112.24
706.027	1056.14
706.471	523.14
706.915	397.14
707.359	355.94
707.803	326.04
708.246	309.24
708.69	309.94
709.134	315.64
709.577	309.94
710.021	318.14
710.465	309.94
710.908	295.64
711.352	302.44
711.795	317.24
712.239	349.94
712.682	387.04
713.126	414.24
713.569	468.14
714.012	372.74
714.456	322.74
714.899	298.34
715.342	276.44
715.786	266.84
716.229	254.84
716.672	254.64
717.115	247.84
717.558	246.84
718.002	253.84
718.445	265.04
718.888	288.94
719.331	291.54
719.774	313.44
720.217	300.94
720.66	283.84
721.103	264.34
721.546	254.14
721.989	246.84
722.432	229.74
722.874	240.94
723.317	222.14
723.76	239.24
724.203	261.74
724.645	325.94
725.088	449.74
725.531	568.74
725.974	640.74
726.416	545.94
726.859	307.64
727.301	246.54
727.744	236.24
728.187	233.24
728.629	240.44
729.071	239.84
729.514	256.64
729.956	263.64
730.399	283.44
730.841	290.24
731.283	277.14
731.726	272.34
732.168	263.24
732.61	266.54
733.053	288.94
733.495	309.64
733.937	351.44
734.379	394.74
734.821	438.04
735.263	542.24
735.705	847.04
736.148	1602.84
736.59	2614.24
737.032	3029.54
737.474	2453.64
737.916	802.94
738.357	426.94
738.799	325.74
739.241	292.04
739.683	277.84
740.125	284.84
740.567	297.44
741.008	322.14
741.45	313.94
741.892	317.14
742.334	345.34
742.775	357.24
743.217	341.44
743.658	271.74
744.1	253.64
744.542	259.34
744.983	311.24
745.425	340.44
745.866	337.44
746.307	280.64
746.749	286.94
747.19	330.04
747.632	456.64
748.073	911.54
748.514	1893.64
748.956	2849.94
749.397	3590.54
749.838	2958.14
750.279	2907.04
750.72	1491.84
751.162	546.74
751.603	320.44
752.044	248.24
752.485	216.84
752.926	208.44
753.367	205.64
753.808	192.24
754.249	194.54
754.69	187.04
755.131	173.04
755.572	182.04
756.013	180.04
756.453	179.64
756.894	189.04
757.335	191.74
757.776	194.84
758.216	195.54
758.657	199.24
759.098	200.54
759.538	228.94
759.979	274.54
760.42	380.64
760.86	726.84
761.301	1875.04
761.741	4451.24
762.182	6334.64
762.622	4417.84
