Data from 20171114-ORNL-Ar_H_NY_Subt18_08-07-57-367.txt Node
Date: Tue Nov 14 08:07:57 EST 2017
User: Ender
Spectrometer: HR+D1039
Trigger mode: 0
Integration Time (sec): 2.730000E-2
Scans to average: 10
Electric dark correction enabled: true
Nonlinearity correction enabled: false
Boxcar width: 0
XAxis mode: Wavelengths
Number of Pixels in Spectrum: 2048
>>>>>Begin Spectral Data<<<<<
187.836	-3.95
188.309	-3.95
188.782	-3.95
189.255	-2.95
189.728	-3.95
190.201	4.95
190.674	5.05
191.147	6.45
191.619	-7.15
192.092	1.55
192.565	3.05
193.038	1.85
193.511	-0.95
193.984	2.95
194.456	-0.35
194.929	0.35
195.402	-6.05
195.874	-0.85
196.347	-3.05
196.82	-7.75
197.292	6.65
197.765	2.15
198.237	-1.05
198.71	-0.45
199.182	-3.45
199.655	2.55
200.127	2.35
200.6	-0.25
201.072	-4.65
201.544	-7.85
202.017	1.15
202.489	6.35
202.961	-0.95
203.433	-5.55
203.906	0.55
204.378	1.35
204.85	-7.85
205.322	-4.25
205.794	-3.05
206.266	-8.25
206.739	-7.05
207.211	4.95
207.683	-4.45
208.155	-7.55
208.627	-11.35
209.099	-4.95
209.57	-4.55
210.042	-8.25
210.514	0.05
210.986	-3.05
211.458	-5.55
211.93	0.15
212.402	0.35
212.873	-7.25
213.345	-11.65
213.817	-17.25
214.288	-4.75
214.76	-13.45
215.232	-4.55
215.703	-5.75
216.175	-4.15
216.646	-9.45
217.118	-1.75
217.589	-3.45
218.061	-1.45
218.532	-6.35
219.004	-3.05
219.475	-4.85
219.946	-4.55
220.418	-7.45
220.889	4.25
221.36	2.45
221.832	-5.35
222.303	-13.85
222.774	-0.25
223.245	-12.75
223.717	-9.35
224.188	-3.15
224.659	-9.35
225.13	-1.65
225.601	-3.95
226.072	5.95
226.543	-2.55
227.014	1.75
227.485	-4.85
227.956	-4.25
228.427	-2.25
228.898	0.35
229.369	-2.65
229.839	-1.25
230.31	-10.35
230.781	5.05
231.252	-0.95
231.722	-3.15
232.193	-3.35
232.664	-3.75
233.135	2.35
233.605	-1.05
234.076	-8.55
234.546	1.05
235.017	5.65
235.487	4.65
235.958	2.45
236.428	-3.15
236.899	4.25
237.369	0.55
237.84	-0.65
238.31	2.35
238.78	1.35
239.251	-3.95
239.721	1.65
240.191	4.75
240.662	0.85
241.132	-0.45
241.602	-3.05
242.072	6.45
242.542	7.45
243.013	-0.65
243.483	-0.65
243.953	3.85
244.423	-1.65
244.893	-6.15
245.363	-0.05
245.833	2.35
246.303	-11.25
246.773	8.45
247.243	6.05
247.712	6.75
248.182	4.65
248.652	7.95
249.122	-0.75
249.592	10.55
250.061	19.35
250.531	27.75
251.001	12.55
251.471	22.55
251.94	18.25
252.41	5.85
252.879	2.95
253.349	15.15
253.818	9.55
254.288	6.05
254.757	3.25
255.227	-0.25
255.696	6.45
256.166	-0.45
256.635	3.55
257.105	7.55
257.574	6.75
258.043	11.75
258.513	16.05
258.982	18.65
259.451	8.55
259.92	11.05
260.389	9.65
260.859	15.95
261.328	6.55
261.797	16.35
262.266	5.15
262.735	9.95
263.204	5.85
263.673	0.55
264.142	10.15
264.611	-3.45
265.08	0.95
265.549	-2.55
266.018	4.75
266.487	-1.85
266.955	-2.15
267.424	-4.35
267.893	8.65
268.362	2.15
268.83	-1.05
269.299	14.65
269.768	3.45
270.236	4.25
270.705	5.15
271.174	6.15
271.642	8.95
272.111	6.05
272.579	15.65
273.048	20.65
273.516	27.85
273.985	28.05
274.453	29.15
274.922	9.75
275.39	14.45
275.858	1.25
276.327	14.05
276.795	20.15
277.263	8.45
277.731	30.55
278.2	51.65
278.668	52.95
279.136	41.45
279.604	16.45
280.072	11.75
280.54	8.35
281.008	14.95
281.477	5.45
281.945	12.65
282.413	18.25
282.881	11.65
283.348	6.55
283.816	15.85
284.284	17.25
284.752	20.45
285.22	4.25
285.688	15.75
286.156	17.05
286.623	44.55
287.091	47.65
287.559	20.05
288.026	16.05
288.494	13.75
288.962	14.85
289.429	13.75
289.897	20.15
290.364	12.95
290.832	14.25
291.3	11.45
291.767	14.25
292.234	17.55
292.702	14.65
293.169	17.05
293.637	19.55
294.104	19.75
294.571	12.05
295.039	15.75
295.506	15.15
295.973	20.65
296.44	17.85
296.908	17.35
297.375	17.75
297.842	15.65
298.309	21.35
298.776	18.55
299.243	18.85
299.71	16.15
300.177	12.55
300.644	19.45
301.111	13.95
301.578	12.95
302.045	15.25
302.512	16.85
302.979	24.55
303.446	15.45
303.913	18.05
304.379	24.05
304.846	24.45
305.313	20.95
305.78	22.55
306.246	22.15
306.713	24.55
307.18	27.65
307.646	29.45
308.113	23.75
308.579	19.95
309.046	17.45
309.512	25.05
309.979	15.35
310.445	28.45
310.912	24.85
311.378	27.35
311.845	25.95
312.311	32.25
312.777	34.35
313.244	31.95
313.71	37.15
314.176	30.65
314.642	29.35
315.109	28.75
315.575	32.45
316.041	37.85
316.507	28.85
316.973	33.45
317.439	36.85
317.905	33.05
318.371	31.85
318.837	31.45
319.303	33.95
319.769	32.35
320.235	31.35
320.701	35.25
321.167	38.05
321.633	36.65
322.099	39.05
322.564	47.35
323.03	42.45
323.496	39.35
323.962	33.35
324.427	32.85
324.893	39.55
325.359	35.85
325.824	36.35
326.29	34.35
326.755	36.85
327.221	38.25
327.686	34.55
328.152	43.45
328.617	41.85
329.083	43.55
329.548	42.85
330.014	42.95
330.479	37.85
330.944	43.75
331.41	38.55
331.875	35.25
332.34	42.95
332.805	39.35
333.271	45.25
333.736	42.15
334.201	56.35
334.666	48.95
335.131	52.05
335.596	50.05
336.061	50.35
336.526	40.85
336.991	47.45
337.456	52.05
337.921	47.45
338.386	45.05
338.851	44.35
339.316	46.05
339.781	39.75
340.246	50.05
340.711	38.65
341.175	52.15
341.64	38.55
342.105	48.35
342.569	57.55
343.034	61.55
343.499	60.55
343.963	50.95
344.428	61.65
344.893	54.35
345.357	63.95
345.822	54.45
346.286	71.45
346.751	69.45
347.215	60.45
347.679	71.15
348.144	93.75
348.608	74.35
349.073	71.55
349.537	71.95
350.001	71.95
350.465	80.45
350.93	77.95
351.394	83.15
351.858	73.65
352.322	83.65
352.786	83.15
353.25	94.05
353.715	109.05
354.179	100.15
354.643	121.55
355.107	124.85
355.571	110.25
356.035	101.95
356.498	118.15
356.962	133.95
357.426	134.65
357.89	112.55
358.354	86.45
358.818	77.55
359.281	75.95
359.745	75.65
360.209	74.75
360.673	70.95
361.136	80.45
361.6	82.05
362.064	89.95
362.527	83.85
362.991	81.65
363.454	81.95
363.918	74.95
364.381	79.45
364.845	72.45
365.308	77.05
365.772	77.25
366.235	86.95
366.698	82.05
367.162	85.25
367.625	83.65
368.088	84.65
368.552	78.15
369.015	85.95
369.478	90.15
369.941	95.95
370.404	89.45
370.867	99.25
371.331	108.65
371.794	111.35
372.257	106.15
372.72	112.95
373.183	108.15
373.646	97.85
374.109	107.75
374.572	106.25
375.035	107.75
375.497	111.75
375.96	106.65
376.423	102.05
376.886	108.55
377.349	105.95
377.811	104.65
378.274	102.25
378.737	107.85
379.199	113.95
379.662	110.35
380.125	114.95
380.587	112.65
381.05	123.95
381.512	127.15
381.975	134.65
382.437	129.35
382.9	118.75
383.362	130.25
383.825	144.25
384.287	148.45
384.75	142.45
385.212	137.45
385.674	139.65
386.136	133.15
386.599	119.55
387.061	129.85
387.523	122.75
387.985	130.35
388.447	139.65
388.91	137.15
389.372	162.35
389.834	155.85
390.296	149.75
390.758	155.25
391.22	173.85
391.682	221.25
392.144	306.65
392.606	230.95
393.068	166.95
393.529	167.65
393.991	157.15
394.453	148.55
394.915	160.05
395.377	192.15
395.838	217.95
396.3	154.45
396.762	140.55
397.224	136.55
397.685	125.45
398.147	126.85
398.608	133.15
399.07	123.95
399.531	132.75
399.993	140.25
400.454	144.15
400.916	148.15
401.377	145.45
401.839	150.55
402.3	153.25
402.762	162.15
403.223	176.85
403.684	167.95
404.145	158.55
404.607	152.05
405.068	159.15
405.529	167.85
405.99	189.25
406.451	169.25
406.913	175.85
407.374	163.35
407.835	160.65
408.296	164.55
408.757	165.25
409.218	184.45
409.679	174.65
410.14	176.05
410.601	176.15
411.062	187.15
411.522	191.65
411.983	189.85
412.444	175.25
412.905	175.95
413.366	177.65
413.826	187.35
414.287	209.45
414.748	253.55
415.208	236.35
415.669	214.75
416.13	203.45
416.59	205.85
417.051	208.85
417.511	214.25
417.972	238.45
418.432	243.65
418.893	286.05
419.353	246.85
419.814	190.65
420.274	184.75
420.734	179.55
421.195	194.75
421.655	203.35
422.115	195.05
422.576	195.65
423.036	198.75
423.496	204.75
423.956	216.35
424.416	226.65
424.876	259.65
425.336	260.35
425.797	256.05
426.257	253.35
426.717	229.95
427.177	235.65
427.637	221.55
428.097	236.25
428.556	235.75
429.016	269.45
429.476	270.25
429.936	272.15
430.396	285.85
430.856	296.45
431.315	315.15
431.775	349.85
432.235	381.85
432.694	352.55
433.154	368.25
433.614	397.75
434.073	343.75
434.533	285.45
434.993	268.85
435.452	282.45
435.912	291.35
436.371	282.95
436.83	285.05
437.29	273.65
437.749	252.25
438.209	246.05
438.668	274.75
439.127	281.85
439.587	263.05
440.046	243.35
440.505	256.95
440.964	278.35
441.424	324.05
441.883	310.65
442.342	253.35
442.801	222.95
443.26	222.55
443.719	220.75
444.178	219.25
444.637	211.85
445.096	219.15
445.555	220.05
446.014	216.45
446.473	225.45
446.932	232.45
447.391	227.95
447.849	232.75
448.308	212.85
448.767	219.35
449.226	234.35
449.685	239.95
450.143	247.65
450.602	233.45
451.061	225.35
451.519	234.05
451.978	228.65
452.436	232.85
452.895	231.25
453.353	243.05
453.812	241.95
454.27	236.65
454.729	239.15
455.187	241.55
455.646	240.55
456.104	251.15
456.562	261.45
457.021	263.35
457.479	259.35
457.937	282.45
458.395	264.15
458.854	248.45
459.312	257.75
459.77	271.45
460.228	252.45
460.686	240.15
461.144	248.15
461.602	243.25
462.06	240.05
462.518	253.85
462.976	247.75
463.434	260.15
463.892	258.15
464.35	275.75
464.808	284.65
465.266	258.25
465.724	268.35
466.181	273.05
466.639	263.65
467.097	285.45
467.555	296.55
468.012	305.65
468.47	302.85
468.928	319.55
469.385	335.85
469.843	348.05
470.3	338.85
470.758	356.75
471.215	384.25
471.673	403.15
472.13	404.35
472.588	419.65
473.045	368.85
473.503	374.85
473.96	393.45
474.417	398.45
474.875	435.35
475.332	471.65
475.789	465.95
476.246	468.05
476.704	485.65
477.161	505.65
477.618	516.95
478.075	557.25
478.532	623.65
478.989	692.75
479.446	804.25
479.903	760.65
480.36	802.05
480.817	860.25
481.274	964.45
481.731	1058.55
482.188	1157.75
482.645	1281.15
483.102	1392.65
483.558	1528.05
484.015	1581.25
484.472	1567.15
484.929	1514.65
485.385	1452.65
485.842	1413.35
486.299	1343.55
486.755	1277.55
487.212	1078.95
487.668	915.65
488.125	850.75
488.582	775.15
489.038	734.05
489.494	698.25
489.951	675.45
490.407	662.65
490.864	637.45
491.32	633.55
491.776	633.35
492.233	647.45
492.689	604.45
493.145	598.85
493.602	591.45
494.058	605.35
494.514	616.45
494.97	633.55
495.426	638.45
495.882	618.55
496.338	602.85
496.794	609.15
497.251	617.15
497.707	623.75
498.163	621.95
498.618	632.25
499.074	638.55
499.53	656.25
499.986	660.85
500.442	644.45
500.898	627.85
501.354	616.45
501.809	629.85
502.265	636.85
502.721	659.35
503.177	668.25
503.632	664.35
504.088	670.15
504.543	704.55
504.999	702.75
505.455	646.35
505.91	615.25
506.366	612.75
506.821	610.25
507.277	616.55
507.732	616.95
508.187	617.55
508.643	620.55
509.098	613.25
509.553	650.05
510.009	653.45
510.464	653.55
510.919	672.55
511.375	688.55
511.83	707.45
512.285	712.55
512.74	744.25
513.195	777.25
513.65	767.45
514.105	747.95
514.56	761.95
515.015	784.05
515.47	790.95
515.925	777.55
516.38	764.95
516.835	786.95
517.29	775.35
517.745	766.65
518.2	750.15
518.655	739.05
519.109	724.35
519.564	725.35
520.019	723.65
520.474	719.45
520.928	706.25
521.383	706.65
521.838	701.65
522.292	694.75
522.747	705.75
523.201	695.95
523.656	685.45
524.11	685.25
524.565	676.15
525.019	677.45
525.474	693.15
525.928	686.35
526.382	685.05
526.837	683.05
527.291	697.75
527.745	688.55
528.2	685.25
528.654	679.45
529.108	676.55
529.562	675.25
530.016	686.25
530.47	681.15
530.925	688.15
531.379	684.85
531.833	691.55
532.287	693.75
532.741	687.75
533.195	697.95
533.649	701.65
534.103	698.95
534.556	685.65
535.01	708.55
535.464	701.95
535.918	701.25
536.372	711.35
536.826	705.85
537.279	704.25
537.733	710.35
538.187	700.75
538.64	705.75
539.094	710.95
539.548	720.85
540.001	714.55
540.455	710.35
540.908	725.75
541.362	731.25
541.815	733.25
542.269	748.15
542.722	740.45
543.175	756.15
543.629	764.85
544.082	779.85
544.536	769.45
544.989	766.65
545.442	783.25
545.895	782.75
546.349	779.05
546.802	783.35
547.255	786.95
547.708	798.45
548.161	797.15
548.614	817.65
549.067	814.25
549.52	806.95
549.973	798.55
550.426	799.15
550.879	785.95
551.332	792.95
551.785	796.45
552.238	787.75
552.691	803.05
553.144	819.35
553.596	832.95
554.049	850.35
554.502	872.75
554.955	902.85
555.407	891.45
555.86	890.15
556.313	887.75
556.765	870.15
557.218	874.65
557.67	866.75
558.123	864.95
558.576	856.15
559.028	857.95
559.48	869.45
559.933	854.75
560.385	830.15
560.838	802.15
561.29	775.95
561.742	776.45
562.195	757.45
562.647	757.65
563.099	767.95
563.551	754.15
564.004	769.95
564.456	759.75
564.908	741.45
565.36	739.95
565.812	723.85
566.264	714.35
566.716	711.55
567.168	702.95
567.62	719.65
568.072	702.35
568.524	687.45
568.976	687.45
569.428	666.65
569.88	669.45
570.332	685.25
570.784	677.95
571.235	683.35
571.687	683.25
572.139	696.35
572.59	710.15
573.042	710.05
573.494	691.75
573.945	705.15
574.397	679.65
574.849	672.45
575.3	673.75
575.752	677.05
576.203	674.45
576.655	672.05
577.106	661.75
577.557	655.65
578.009	647.95
578.46	661.15
578.912	642.65
579.363	660.05
579.814	656.15
580.265	650.75
580.717	661.65
581.168	663.95
581.619	669.15
582.07	683.15
582.521	677.75
582.972	657.35
583.423	664.15
583.875	686.65
584.326	694.35
584.777	735.55
585.227	822.85
585.678	909.45
586.129	998.35
586.58	1074.35
587.031	1163.15
587.482	1314.15
587.933	1509.85
588.384	1300.15
588.834	972.55
589.285	801.55
589.736	777.05
590.186	769.55
590.637	762.45
591.088	729.55
591.538	728.45
591.989	734.25
592.439	723.65
592.89	707.25
593.34	705.65
593.791	693.85
594.241	695.45
594.692	710.05
595.142	702.05
595.593	699.15
596.043	698.95
596.493	703.65
596.943	709.95
597.394	723.95
597.844	704.35
598.294	724.05
598.744	740.05
599.195	770.75
599.645	809.45
600.095	855.95
600.545	910.75
600.995	955.75
601.445	1022.35
601.895	1077.45
602.345	1121.55
602.795	1103.15
603.245	1056.85
603.695	994.65
604.145	948.95
604.594	900.35
605.044	846.95
605.494	782.75
605.944	741.75
606.393	738.85
606.843	721.65
607.293	721.55
607.743	731.55
608.192	738.75
608.642	750.15
609.091	770.95
609.541	762.95
609.99	762.85
610.44	759.95
610.889	720.45
611.339	703.85
611.788	684.85
612.238	696.35
612.687	718.35
613.136	718.95
613.586	740.05
614.035	730.05
614.484	753.75
614.933	753.65
615.383	740.05
615.832	725.35
616.281	719.25
616.73	685.15
617.179	664.25
617.628	650.75
618.077	637.55
618.526	620.35
618.975	608.35
619.424	616.15
619.873	609.95
620.322	620.45
620.771	613.45
621.22	600.75
621.669	593.35
622.118	585.15
622.567	581.05
623.015	570.75
623.464	571.05
623.913	564.95
624.361	552.65
624.81	553.45
625.259	549.15
625.707	548.15
626.156	556.15
626.604	565.85
627.053	558.35
627.501	555.75
627.95	569.55
628.398	582.85
628.847	560.85
629.295	554.15
629.744	568.35
630.192	570.55
630.64	564.65
631.089	561.65
631.537	582.25
631.985	595.95
632.433	603.25
632.881	614.45
633.33	672.35
633.778	651.55
634.226	577.95
634.674	571.75
635.122	579.55
635.57	593.95
636.018	636.15
636.466	580.55
636.914	557.55
637.362	563.75
637.81	565.85
638.258	571.15
638.705	577.65
639.153	602.15
639.601	620.95
640.049	641.65
640.497	668.15
640.944	683.45
641.392	634.85
641.84	610.15
642.287	571.95
642.735	563.35
643.182	568.75
643.63	568.75
644.078	583.75
644.525	600.85
644.973	587.15
645.42	600.85
645.867	612.75
646.315	642.15
646.762	665.05
647.21	700.95
647.657	710.65
648.104	744.35
648.551	771.05
648.999	831.15
649.446	917.25
649.893	1010.95
650.34	1160.15
650.787	1389.75
651.234	1752.35
651.682	2290.65
652.129	3136.75
652.576	4510.55
653.023	6678.65
653.47	9120.35
653.917	11313.05
654.363	12979.25
654.81	14345.85
655.257	13592.85
655.704	8913.45
656.151	5241.55
656.598	3385.35
657.044	2400.95
657.491	1842.55
657.938	1474.85
658.385	1238.65
658.831	1072.15
659.278	961.95
659.724	848.45
660.171	784.65
660.618	709.75
661.064	683.15
661.511	666.85
661.957	662.35
662.404	642.15
662.85	646.15
663.296	625.85
663.743	554.75
664.189	538.65
664.635	524.15
665.082	522.25
665.528	528.45
665.974	517.65
666.42	510.45
666.867	500.45
667.313	489.95
667.759	488.25
668.205	482.35
668.651	486.35
669.097	489.15
669.543	509.75
669.989	469.55
670.435	448.15
670.881	438.65
671.327	446.75
671.773	478.45
672.219	487.15
672.665	547.45
673.11	584.05
673.556	627.35
674.002	665.15
674.448	661.35
674.893	540.55
675.339	479.05
675.785	432.55
676.23	418.95
676.676	392.95
677.122	378.05
677.567	369.95
678.013	360.45
678.458	351.95
678.904	352.05
679.349	348.45
679.794	347.25
680.24	351.65
680.685	345.95
681.131	338.65
681.576	347.75
682.021	347.05
682.466	343.15
682.912	349.25
683.357	343.45
683.802	374.45
684.247	409.35
684.692	447.05
685.137	489.45
685.583	536.15
686.028	556.45
686.473	509.05
686.918	444.25
687.363	419.55
687.807	393.15
688.252	368.35
688.697	350.25
689.142	333.75
689.587	332.15
690.032	324.95
690.477	338.75
690.921	355.45
691.366	381.65
691.811	400.85
692.255	430.55
692.7	461.75
693.145	512.65
693.589	701.05
694.034	1145.75
694.478	1525.75
694.923	1694.95
695.367	2216.25
695.812	1183.05
696.256	492.65
696.701	373.85
697.145	347.85
697.59	332.45
698.034	315.05
698.478	329.95
698.922	324.35
699.367	328.15
699.811	336.05
700.255	363.55
700.699	386.65
701.143	432.15
701.588	475.95
702.032	518.45
702.476	503.25
702.92	480.55
703.364	494.45
703.808	650.65
704.252	1039.85
704.696	1435.95
705.14	1641.95
705.584	2087.55
706.027	1060.05
706.471	526.95
706.915	385.35
707.359	344.65
707.803	313.15
708.246	305.05
708.69	308.05
709.134	313.05
709.577	306.05
710.021	313.35
710.465	302.35
710.908	297.05
711.352	291.85
711.795	306.35
712.239	352.65
712.682	390.15
713.126	414.85
713.569	457.35
714.012	370.85
714.456	324.55
714.899	301.15
715.342	277.85
715.786	264.05
716.229	258.05
716.672	251.55
717.115	245.25
717.558	243.65
718.002	243.05
718.445	268.25
718.888	279.75
719.331	292.25
719.774	308.15
720.217	301.75
720.66	280.35
721.103	256.45
721.546	251.25
721.989	251.65
722.432	228.15
722.874	241.25
723.317	232.05
723.76	240.15
724.203	253.55
724.645	321.95
725.088	452.05
725.531	567.75
725.974	625.75
726.416	535.65
726.859	302.95
727.301	250.65
727.744	238.45
728.187	229.75
728.629	243.25
729.071	248.05
729.514	268.85
729.956	276.15
730.399	282.95
730.841	287.35
731.283	268.35
731.726	264.05
732.168	266.15
732.61	265.35
733.053	282.95
733.495	317.55
733.937	362.55
734.379	392.45
734.821	426.65
735.263	539.25
735.705	837.35
736.148	1593.35
736.59	2569.75
737.032	2977.55
737.474	2415.15
737.916	804.95
738.357	416.65
738.799	324.65
739.241	293.65
739.683	276.45
740.125	285.05
740.567	295.75
741.008	310.05
741.45	315.75
741.892	318.45
742.334	340.05
742.775	356.05
743.217	334.55
743.658	268.95
744.1	251.15
744.542	262.85
744.983	304.65
745.425	336.05
745.866	335.85
746.307	282.55
746.749	280.15
747.19	328.75
747.632	462.95
748.073	906.55
748.514	1885.45
748.956	2806.95
749.397	3543.85
749.838	2940.35
750.279	2896.85
750.72	1461.25
751.162	539.05
751.603	312.75
752.044	250.05
752.485	216.65
752.926	208.15
753.367	207.35
753.808	193.25
754.249	193.15
754.69	177.75
755.131	175.85
755.572	181.15
756.013	181.05
756.453	179.55
756.894	190.15
757.335	192.65
757.776	193.35
758.216	190.05
758.657	200.15
759.098	209.35
759.538	231.55
759.979	261.65
760.42	373.05
760.86	725.65
761.301	1868.85
761.741	4437.95
762.182	6278.65
