Data from 20171114-ORNL-Ar_H_NY_Subt18_08-03-13-200.txt Node
Date: Tue Nov 14 08:03:13 EST 2017
User: Ender
Spectrometer: HR+D1039
Trigger mode: 0
Integration Time (sec): 2.730000E-2
Scans to average: 10
Electric dark correction enabled: true
Nonlinearity correction enabled: false
Boxcar width: 0
XAxis mode: Wavelengths
Number of Pixels in Spectrum: 2048
>>>>>Begin Spectral Data<<<<<
187.836	-7.19
188.309	-7.19
188.782	-7.19
189.255	1.01
189.728	-2.59
190.201	8.91
190.674	0.51
191.147	-0.39
191.619	-8.09
192.092	3.91
192.565	4.31
193.038	-1.69
193.511	-3.49
193.984	-2.29
194.456	1.01
194.929	3.81
195.402	3.21
195.874	-0.99
196.347	-2.09
196.82	-6.69
197.292	7.91
197.765	0.41
198.237	-3.99
198.71	3.31
199.182	-4.19
199.655	-4.49
200.127	1.51
200.6	-0.19
201.072	-3.69
201.544	-1.49
202.017	-3.69
202.489	6.91
202.961	2.21
203.433	-2.69
203.906	-4.09
204.378	-5.59
204.85	-2.59
205.322	-3.39
205.794	-0.99
206.266	-5.99
206.739	-1.49
207.211	2.71
207.683	-3.79
208.155	-6.89
208.627	-2.49
209.099	-0.29
209.57	-12.59
210.042	-1.89
210.514	-3.29
210.986	-4.49
211.458	-8.19
211.93	-7.69
212.402	-0.89
212.873	-6.89
213.345	-8.79
213.817	-12.69
214.288	-1.79
214.76	-12.89
215.232	-12.69
215.703	-2.99
216.175	-2.59
216.646	-1.29
217.118	-5.69
217.589	-5.69
218.061	-1.49
218.532	-2.69
219.004	-3.49
219.475	-4.99
219.946	-4.19
220.418	-6.99
220.889	-2.89
221.36	-2.19
221.832	-8.79
222.303	-12.59
222.774	0.31
223.245	-11.69
223.717	-6.29
224.188	-6.59
224.659	-9.79
225.13	-4.49
225.601	-4.19
226.072	3.21
226.543	-4.09
227.014	-1.09
227.485	-4.09
227.956	-7.49
228.427	-3.29
228.898	-0.09
229.369	3.01
229.839	-4.59
230.31	-10.39
230.781	-4.79
231.252	-2.39
231.722	-11.79
232.193	-5.09
232.664	0.71
233.135	-6.39
233.605	-3.29
234.076	-12.99
234.546	-3.69
235.017	2.91
235.487	0.01
235.958	-4.29
236.428	-12.39
236.899	-2.19
237.369	-1.49
237.84	-2.89
238.31	1.01
238.78	-4.29
239.251	-0.09
239.721	-4.99
240.191	-5.79
240.662	-2.89
241.132	-1.19
241.602	-7.29
242.072	-4.59
242.542	-1.09
243.013	-5.39
243.483	-1.99
243.953	-2.69
244.423	-4.79
244.893	-8.69
245.363	-1.39
245.833	-3.59
246.303	-4.89
246.773	7.21
247.243	-3.69
247.712	-4.89
248.182	-2.09
248.652	-0.89
249.122	-9.69
249.592	-4.79
250.061	-2.99
250.531	8.21
251.001	-11.69
251.471	-0.59
251.94	1.81
252.41	-6.79
252.879	-5.09
253.349	3.91
253.818	1.51
254.288	-3.29
254.757	-3.49
255.227	-5.89
255.696	-1.89
256.166	-0.89
256.635	-3.89
257.105	-3.89
257.574	-5.79
258.043	-2.89
258.513	-10.49
258.982	-5.89
259.451	-11.29
259.92	-0.89
260.389	-7.99
260.859	-2.99
261.328	-3.59
261.797	-3.79
262.266	-2.29
262.735	1.01
263.204	2.31
263.673	-3.89
264.142	1.41
264.611	-11.09
265.08	-10.89
265.549	-6.59
266.018	0.11
266.487	-2.49
266.955	-6.59
267.424	-5.79
267.893	-3.29
268.362	-5.99
268.83	-5.29
269.299	0.31
269.768	-1.19
270.236	-8.69
270.705	-11.49
271.174	-7.49
271.642	-0.29
272.111	-5.39
272.579	-3.09
273.048	0.11
273.516	-7.89
273.985	-7.29
274.453	-1.69
274.922	-1.39
275.39	-9.49
275.858	-16.49
276.327	-1.49
276.795	5.41
277.263	-5.49
277.731	2.41
278.2	-0.49
278.668	-3.19
279.136	-3.89
279.604	-7.09
280.072	-0.09
280.54	-2.69
281.008	-7.29
281.477	-4.29
281.945	3.01
282.413	4.51
282.881	5.41
283.348	-6.79
283.816	-0.59
284.284	-4.19
284.752	6.71
285.22	-7.99
285.688	0.61
286.156	-7.59
286.623	-3.39
287.091	-3.59
287.559	-1.19
288.026	-7.79
288.494	-3.09
288.962	-15.89
289.429	-11.09
289.897	5.71
290.364	1.51
290.832	-4.19
291.3	-4.59
291.767	-5.09
292.234	-3.09
292.702	-11.59
293.169	-7.29
293.637	-1.49
294.104	0.71
294.571	-7.59
295.039	-8.49
295.506	-8.69
295.973	-5.69
296.44	-5.89
296.908	-7.49
297.375	-6.59
297.842	-5.79
298.309	-1.59
298.776	-10.99
299.243	-2.79
299.71	-5.29
300.177	-2.39
300.644	-5.99
301.111	-9.19
301.578	-4.09
302.045	-8.09
302.512	-2.59
302.979	-0.19
303.446	-5.79
303.913	-5.19
304.379	-8.29
304.846	4.01
305.313	-5.69
305.78	-2.69
306.246	-1.19
306.713	-5.89
307.18	-2.59
307.646	-2.29
308.113	-5.69
308.579	-7.79
309.046	-7.49
309.512	0.81
309.979	-9.39
310.445	-4.29
310.912	-2.49
311.378	3.81
311.845	-7.49
312.311	-4.39
312.777	-2.59
313.244	-2.89
313.71	3.91
314.176	-6.79
314.642	-8.99
315.109	-6.59
315.575	-1.89
316.041	-7.39
316.507	-7.89
316.973	2.51
317.439	-2.09
317.905	-1.69
318.371	-2.59
318.837	-5.39
319.303	-5.59
319.769	-6.29
320.235	0.21
320.701	-0.79
321.167	0.61
321.633	-6.49
322.099	0.71
322.564	0.11
323.03	-11.79
323.496	-7.19
323.962	-0.69
324.427	-6.19
324.893	9.81
325.359	1.31
325.824	-1.89
326.29	-5.69
326.755	-3.39
327.221	-1.39
327.686	-1.29
328.152	-3.19
328.617	-7.59
329.083	1.21
329.548	1.71
330.014	-0.49
330.479	-8.69
330.944	-0.99
331.41	-6.19
331.875	2.11
332.34	-3.59
332.805	-3.29
333.271	-3.19
333.736	-10.19
334.201	-0.39
334.666	-1.19
335.131	1.21
335.596	-4.39
336.061	-0.29
336.526	-13.79
336.991	-2.49
337.456	-0.19
337.921	0.11
338.386	-9.89
338.851	-5.49
339.316	0.81
339.781	-5.59
340.246	2.91
340.711	-8.79
341.175	-2.19
341.64	-9.49
342.105	-2.89
342.569	0.31
343.034	-1.99
343.499	-5.59
343.963	-7.59
344.428	6.11
344.893	-2.99
345.357	1.11
345.822	1.21
346.286	1.01
346.751	-2.29
347.215	1.41
347.679	-8.79
348.144	-5.59
348.608	2.11
349.073	-6.59
349.537	-1.79
350.001	-5.39
350.465	2.21
350.93	-7.39
351.394	-0.39
351.858	-7.19
352.322	0.41
352.786	-2.89
353.25	-1.89
353.715	1.91
354.179	-2.79
354.643	-2.09
355.107	0.11
355.571	1.91
356.035	-2.99
356.498	-3.49
356.962	-1.09
357.426	0.51
357.89	-0.89
358.354	-4.09
358.818	0.71
359.281	-10.59
359.745	-7.39
360.209	-8.59
360.673	-8.59
361.136	-3.79
361.6	1.71
362.064	-3.19
362.527	-1.79
362.991	1.11
363.454	-5.29
363.918	-7.59
364.381	-13.49
364.845	-9.29
365.308	-0.59
365.772	-3.99
366.235	1.31
366.698	-12.19
367.162	-3.29
367.625	-3.89
368.088	-3.59
368.552	-2.19
369.015	-7.99
369.478	-4.99
369.941	-1.39
370.404	-7.59
370.867	-3.79
371.331	-4.19
371.794	-6.69
372.257	-3.59
372.72	-3.29
373.183	-0.29
373.646	-10.19
374.109	-6.09
374.572	5.71
375.035	-6.69
375.497	-5.59
375.96	-5.69
376.423	-5.09
376.886	-4.49
377.349	0.91
377.811	-1.19
378.274	-1.99
378.737	-2.69
379.199	-4.89
379.662	-3.59
380.125	-2.79
380.587	-7.69
381.05	-10.69
381.512	-3.19
381.975	-3.99
382.437	-5.29
382.9	-5.19
383.362	-1.39
383.825	-11.29
384.287	-2.69
384.75	-9.39
385.212	-3.49
385.674	-0.29
386.136	1.01
386.599	-3.69
387.061	-4.49
387.523	-4.19
387.985	-2.89
388.447	0.81
388.91	0.01
389.372	-1.99
389.834	-1.89
390.296	-7.29
390.758	-5.29
391.22	-3.69
391.682	-6.59
392.144	-1.99
392.606	-0.99
393.068	-4.89
393.529	-1.79
393.991	-8.39
394.453	-9.39
394.915	-4.99
395.377	-9.59
395.838	-0.89
396.3	0.21
396.762	1.11
397.224	-3.79
397.685	-6.49
398.147	-3.69
398.608	-3.19
399.07	-9.09
399.531	-12.79
399.993	-0.69
400.454	-4.39
400.916	-2.09
401.377	-1.69
401.839	-3.19
402.3	-9.79
402.762	-2.19
403.223	-2.59
403.684	-5.99
404.145	-5.49
404.607	-5.59
405.068	-3.69
405.529	-10.89
405.99	-9.39
406.451	-15.89
406.913	-3.79
407.374	-6.49
407.835	-3.69
408.296	-7.49
408.757	-3.29
409.218	-1.79
409.679	-5.89
410.14	4.31
410.601	-5.39
411.062	-2.59
411.522	-5.99
411.983	-5.79
412.444	-15.99
412.905	-0.69
413.366	-9.99
413.826	1.31
414.287	-4.29
414.748	3.11
415.208	-1.49
415.669	-7.59
416.13	1.71
416.59	-5.89
417.051	1.01
417.511	-3.29
417.972	1.61
418.432	-3.29
418.893	5.31
419.353	1.51
419.814	3.41
420.274	-1.49
420.734	-1.29
421.195	2.51
421.655	-6.59
422.115	-6.79
422.576	4.61
423.036	1.21
423.496	-2.39
423.956	7.31
424.416	-2.59
424.876	-1.79
425.336	-10.19
425.797	-3.89
426.257	-3.39
426.717	-9.39
427.177	6.31
427.637	-7.29
428.097	-3.29
428.556	-15.19
429.016	-7.39
429.476	-9.89
429.936	-5.49
430.396	-0.49
430.856	-4.29
431.315	-0.39
431.775	-3.89
432.235	5.81
432.694	-5.79
433.154	3.11
433.614	-7.69
434.073	-2.49
434.533	0.31
434.993	-6.79
435.452	0.31
435.912	0.71
436.371	-3.39
436.83	-5.19
437.29	0.31
437.749	-4.89
438.209	-8.69
438.668	-5.69
439.127	-2.69
439.587	0.01
440.046	-12.09
440.505	-6.09
440.964	1.81
441.424	-6.49
441.883	-4.89
442.342	5.11
442.801	-3.89
443.26	-4.09
443.719	-1.39
444.178	-5.69
444.637	-13.09
445.096	-2.99
445.555	-1.69
446.014	-1.39
446.473	2.31
446.932	-3.39
447.391	-5.09
447.849	-5.79
448.308	-7.79
448.767	-8.09
449.226	-0.39
449.685	-3.69
450.143	0.61
450.602	-10.19
451.061	-4.29
451.519	-1.19
451.978	-2.89
452.436	-3.69
452.895	-1.99
453.353	-2.99
453.812	-2.89
454.27	3.11
454.729	-3.59
455.187	-8.69
455.646	-4.59
456.104	0.81
456.562	-4.49
457.021	-4.69
457.479	-3.49
457.937	-5.69
458.395	-6.49
458.854	-11.29
459.312	-8.89
459.77	-10.39
460.228	-7.09
460.686	-9.69
461.144	-0.89
461.602	-4.99
462.06	-0.49
462.518	2.01
462.976	-4.39
463.434	-6.49
463.892	-5.29
464.35	-7.59
464.808	2.41
465.266	-8.49
465.724	3.91
466.181	3.31
466.639	-3.69
467.097	-0.89
467.555	-6.19
468.012	-0.29
468.47	-0.89
468.928	-0.09
469.385	2.31
469.843	-2.99
470.3	-4.69
470.758	-3.49
471.215	-6.49
471.673	-6.39
472.13	-3.99
472.588	-0.09
473.045	-7.09
473.503	-3.09
473.96	-9.29
474.417	-5.19
474.875	-6.79
475.332	-4.39
475.789	0.11
476.246	-6.69
476.704	-7.49
477.161	0.21
477.618	-10.59
478.075	-2.49
478.532	-1.29
478.989	-6.39
479.446	-6.39
479.903	1.61
480.36	-1.09
480.817	-5.69
481.274	-3.29
481.731	2.11
482.188	-5.59
482.645	6.01
483.102	-4.89
483.558	-5.29
484.015	-5.29
484.472	1.61
484.929	1.21
485.385	-3.99
485.842	-0.69
486.299	-3.79
486.755	-6.19
487.212	2.71
487.668	-3.29
488.125	-2.09
488.582	1.91
489.038	0.41
489.494	-4.49
489.951	-0.99
490.407	-2.59
490.864	-6.89
491.32	0.61
491.776	-1.79
492.233	-4.79
492.689	-12.79
493.145	-3.59
493.602	-7.09
494.058	0.21
494.514	-2.99
494.97	2.91
495.426	-5.09
495.882	-6.99
496.338	-6.19
496.794	7.81
497.251	-6.79
497.707	-6.59
498.163	-9.99
498.618	-8.59
499.074	-6.69
499.53	0.81
499.986	3.01
500.442	-5.79
500.898	-8.39
501.354	-11.89
501.809	-6.69
502.265	-4.99
502.721	-3.69
503.177	1.01
503.632	3.71
504.088	-5.69
504.543	-4.49
504.999	-0.69
505.455	-5.49
505.91	-2.19
506.366	-0.59
506.821	-4.99
507.277	-6.09
507.732	-3.79
508.187	-7.39
508.643	-3.79
509.098	-5.49
509.553	3.91
510.009	5.11
510.464	-1.89
510.919	1.11
511.375	-8.59
511.83	1.91
512.285	-1.19
512.74	6.71
513.195	0.71
513.65	-5.89
514.105	-7.99
514.56	-5.19
515.015	5.01
515.47	6.61
515.925	-7.69
516.38	3.21
516.835	11.41
517.29	0.11
517.745	0.01
518.2	-3.99
518.655	-7.39
519.109	-7.39
519.564	-9.29
520.019	-14.69
520.474	-10.29
520.928	-1.39
521.383	-6.29
521.838	-8.89
522.292	-3.69
522.747	3.41
523.201	2.41
523.656	-5.29
524.11	-4.49
524.565	-4.59
525.019	-10.59
525.474	1.21
525.928	-2.09
526.382	-3.79
526.837	-5.99
527.291	-7.49
527.745	-7.19
528.2	3.61
528.654	-0.39
529.108	-3.09
529.562	-4.29
530.016	-0.99
530.47	-2.29
530.925	-4.39
531.379	-6.69
531.833	-5.59
532.287	-5.89
532.741	-11.59
533.195	-5.19
533.649	-0.99
534.103	2.91
534.556	-6.49
535.01	-8.79
535.464	-7.19
535.918	3.31
536.372	-1.69
536.826	0.81
537.279	-5.59
537.733	-7.99
538.187	-5.09
538.64	-6.29
539.094	-5.19
539.548	-5.19
540.001	-5.59
540.455	-5.49
540.908	-3.59
541.362	3.61
541.815	-0.49
542.269	2.31
542.722	-4.49
543.175	-3.59
543.629	-11.89
544.082	2.61
544.536	-9.29
544.989	-4.49
545.442	-5.09
545.895	-11.49
546.349	-6.89
546.802	-7.99
547.255	-7.19
547.708	-6.79
548.161	-2.39
548.614	-2.69
549.067	-4.59
549.52	-6.39
549.973	-8.49
550.426	-0.99
550.879	-10.19
551.332	-3.99
551.785	-4.19
552.238	-5.19
552.691	-3.69
553.144	-7.19
553.596	-4.19
554.049	-12.19
554.502	-3.39
554.955	-4.09
555.407	-8.29
555.86	-3.69
556.313	-4.99
556.765	-4.49
557.218	-1.69
557.67	-3.69
558.123	0.11
558.576	-3.49
559.028	-3.09
559.48	-5.99
559.933	-8.49
560.385	0.11
560.838	-1.39
561.29	-5.09
561.742	-1.09
562.195	-3.39
562.647	-6.19
563.099	6.41
563.551	0.41
564.004	0.61
564.456	-6.19
564.908	-0.29
565.36	-0.49
565.812	0.91
566.264	-5.89
566.716	-1.79
567.168	0.71
567.62	4.11
568.072	-2.69
568.524	-2.89
568.976	-2.09
569.428	-6.49
569.88	-4.19
570.332	-9.09
570.784	-5.49
571.235	-5.39
571.687	-6.99
572.139	2.81
572.59	-3.79
573.042	-2.19
573.494	-3.69
573.945	-0.29
574.397	-6.69
574.849	1.41
575.3	-1.29
575.752	0.41
576.203	0.21
576.655	-2.69
577.106	-7.19
577.557	-3.49
578.009	4.41
578.46	-4.29
578.912	-0.29
579.363	-0.99
579.814	-3.39
580.265	-11.19
580.717	-7.29
581.168	-9.09
581.619	1.01
582.07	-0.19
582.521	-6.99
582.972	-13.39
583.423	-2.19
583.875	-8.59
584.326	-1.69
584.777	-7.89
585.227	-0.29
585.678	-2.89
586.129	-5.69
586.58	-0.09
587.031	0.81
587.482	-1.29
587.933	-2.99
588.384	-11.89
588.834	-3.89
589.285	-5.59
589.736	-2.19
590.186	-7.59
590.637	-1.19
591.088	-6.99
591.538	-1.89
591.989	2.71
592.439	-0.59
592.89	-0.39
593.34	-1.79
593.791	-6.19
594.241	-6.69
594.692	-3.79
595.142	-3.39
595.593	-6.79
596.043	-4.09
596.493	-7.19
596.943	0.41
597.394	0.11
597.844	-7.29
598.294	-7.19
598.744	-1.99
599.195	0.01
599.645	-4.49
600.095	-5.29
600.545	-6.79
600.995	-7.49
601.445	-3.99
601.895	-4.39
602.345	6.01
602.795	-0.79
603.245	-7.99
603.695	-3.69
604.145	-6.69
604.594	-5.09
605.044	-9.19
605.494	-8.09
605.944	-7.29
606.393	-3.39
606.843	-6.09
607.293	-2.69
607.743	-7.89
608.192	-11.89
608.642	-6.49
609.091	-0.09
609.541	-5.39
609.99	-4.49
610.44	0.61
610.889	-6.29
611.339	-6.99
611.788	-11.79
612.238	-8.09
612.687	4.11
613.136	-4.09
613.586	1.31
614.035	-4.89
614.484	-8.89
614.933	-12.59
615.383	-4.59
615.832	3.31
616.281	-3.09
616.73	-1.79
617.179	1.01
617.628	-1.49
618.077	-2.89
618.526	-4.39
618.975	-5.09
619.424	5.31
619.873	-4.79
620.322	-2.29
620.771	-16.09
621.22	-0.99
621.669	1.91
622.118	0.81
622.567	-1.79
623.015	-10.99
623.464	-5.49
623.913	-0.19
624.361	-13.59
624.81	-9.59
625.259	-7.49
625.707	-2.29
626.156	-3.19
626.604	-1.29
627.053	-3.59
627.501	-8.39
627.95	-7.29
628.398	-6.39
628.847	-7.29
629.295	-11.29
629.744	-8.69
630.192	2.51
630.64	-5.49
631.089	-6.99
631.537	-0.99
631.985	-5.09
632.433	-1.19
632.881	1.21
633.33	-0.29
633.778	-13.79
634.226	-6.69
634.674	-5.79
635.122	-1.79
635.57	-1.29
636.018	-6.19
636.466	4.51
636.914	-10.89
637.362	6.71
637.81	4.01
638.258	6.01
638.705	-8.09
639.153	1.41
639.601	-10.99
640.049	-5.89
640.497	-6.19
640.944	2.31
641.392	-11.59
641.84	-4.39
642.287	-1.99
642.735	-9.99
643.182	0.61
643.63	-8.89
644.078	-4.59
644.525	-6.59
644.973	-2.19
645.42	-5.99
645.867	1.11
646.315	3.71
646.762	-4.99
647.21	-6.79
647.657	-15.79
648.104	-2.99
648.551	-5.09
648.999	2.41
649.446	0.71
649.893	-5.89
650.34	-2.49
650.787	-0.59
651.234	3.21
651.682	1.81
652.129	-3.99
652.576	-10.39
653.023	1.01
653.47	1.81
653.917	-8.59
654.363	1.91
654.81	-4.49
655.257	-11.39
655.704	-0.49
656.151	-5.99
656.598	-5.39
657.044	0.61
657.491	-3.49
657.938	-4.09
658.385	-0.29
658.831	-0.39
659.278	6.01
659.724	-13.29
660.171	-0.79
660.618	-0.39
661.064	-2.29
661.511	-6.79
661.957	-3.89
662.404	-2.89
662.85	6.51
663.296	-4.39
663.743	-3.59
664.189	-1.09
664.635	-3.49
665.082	1.51
665.528	-2.09
665.974	-7.59
666.42	-7.49
666.867	-2.69
667.313	-4.99
667.759	-0.79
668.205	-4.39
668.651	-3.59
669.097	-3.59
669.543	-9.89
669.989	-5.09
670.435	-4.19
670.881	-3.79
671.327	-3.39
671.773	-1.49
672.219	-2.79
672.665	-1.29
673.11	-9.09
673.556	-6.09
674.002	-3.99
674.448	-10.49
674.893	-2.49
675.339	-4.29
675.785	-1.49
676.23	1.21
676.676	-6.69
677.122	-6.39
677.567	-12.19
678.013	1.21
678.458	-5.19
678.904	0.01
679.349	-7.99
679.794	-8.09
680.24	-3.69
680.685	-9.49
681.131	-4.99
681.576	-5.99
682.021	-2.49
682.466	-5.59
682.912	-8.69
683.357	-16.49
683.802	-5.69
684.247	-0.29
684.692	2.41
685.137	-10.89
685.583	-7.29
686.028	-9.89
686.473	-7.49
686.918	-1.89
687.363	0.61
687.807	-2.29
688.252	-6.89
688.697	1.81
689.142	-3.19
689.587	-4.19
690.032	-15.59
690.477	-7.09
690.921	-6.79
691.366	-8.09
691.811	-4.09
692.255	-7.39
692.7	3.71
693.145	-3.39
693.589	-4.59
694.034	-3.19
694.478	-7.19
694.923	7.31
695.367	-2.19
695.812	-1.99
696.256	2.21
696.701	-7.49
697.145	-3.19
697.59	-2.29
698.034	-4.99
698.478	1.41
698.922	-4.79
699.367	-5.59
699.811	-3.59
700.255	-2.29
700.699	-2.09
701.143	-1.49
701.588	-6.79
702.032	-2.99
702.476	-4.19
702.92	-4.99
703.364	-7.59
703.808	-1.19
704.252	-3.79
704.696	-8.69
705.14	-3.19
705.584	-5.29
706.027	-1.69
706.471	-12.49
706.915	1.81
707.359	-4.59
707.803	-7.59
708.246	-4.69
708.69	2.81
709.134	1.31
709.577	-1.49
710.021	6.61
710.465	0.81
710.908	-3.49
711.352	-6.99
711.795	-6.59
712.239	-4.39
712.682	-7.39
713.126	-8.49
713.569	-5.49
714.012	2.71
714.456	-4.89
714.899	2.61
715.342	-4.69
715.786	-13.29
716.229	0.01
716.672	5.21
717.115	-3.89
717.558	-4.19
718.002	-10.89
718.445	-4.59
718.888	4.71
719.331	-2.89
719.774	-4.19
720.217	-0.29
720.66	-5.79
721.103	-8.19
721.546	-5.79
721.989	1.51
722.432	-12.29
722.874	-1.39
723.317	-11.99
723.76	-11.79
724.203	-7.59
724.645	-1.39
725.088	-0.89
725.531	-6.99
725.974	-11.89
726.416	-7.19
726.859	-1.49
727.301	-12.09
727.744	-0.89
728.187	-10.59
728.629	4.61
729.071	-8.29
729.514	-1.49
729.956	-5.89
730.399	-6.99
730.841	3.31
731.283	-10.19
731.726	-3.19
732.168	-6.29
732.61	-7.39
733.053	-0.39
733.495	-8.39
733.937	-12.59
734.379	-5.79
734.821	-4.69
735.263	-9.89
735.705	-2.09
736.148	-3.79
736.59	1.01
737.032	-5.59
737.474	-2.69
737.916	-5.99
738.357	-2.09
738.799	-9.39
739.241	-10.89
739.683	-12.19
740.125	-3.49
740.567	-3.49
741.008	4.91
741.45	0.71
741.892	7.31
742.334	3.31
742.775	0.51
743.217	-3.39
743.658	-5.19
744.1	-2.39
744.542	-6.69
744.983	-2.39
745.425	-3.89
745.866	-2.49
746.307	-2.09
746.749	-10.29
747.19	-7.09
747.632	-1.29
748.073	-14.19
748.514	5.31
748.956	1.91
749.397	-1.99
749.838	-2.29
750.279	-4.59
750.72	2.31
751.162	-1.79
751.603	-1.59
752.044	-5.29
752.485	-10.79
752.926	-3.99
753.367	-3.79
753.808	-5.79
754.249	-6.29
754.69	-5.49
755.131	-9.49
755.572	-3.19
756.013	-12.29
756.453	-4.89
756.894	-2.99
757.335	-3.59
757.776	-4.29
758.216	1.71
758.657	-4.99
759.098	-8.89
759.538	-7.79
759.979	-10.09
760.42	-20.09
760.86	-4.19
761.301	3.91
761.741	-3.79
762.182	-6.89
762.622	-4.19
763.063	-7.99
763.503	-4.59
763.943	-5.99
764.384	-1.49
764.824	1.11
765.264	-12.99
765.705	-9.99
766.145	-13.39
766.585	-3.39
767.025	-9.09
767.465	-8.49
767.906	-4.49
768.346	0.51
768.786	0.11
769.226	-1.49
769.666	-1.29
770.106	-10.39
770.546	-9.29
770.986	-4.49
771.426	-5.19
771.866	-4.79
772.306	-5.69
772.745	-9.39
773.185	-9.29
773.625	-7.99
774.065	-7.59
774.505	-4.49
774.944	-1.39
775.384	-6.19
775.824	-7.09
776.263	-7.89
776.703	-13.69
777.142	-5.69
777.582	-5.69
778.021	-5.89
778.461	-7.69
778.9	1.41
779.34	8.11
779.779	-4.69
780.219	-3.89
780.658	-11.69
781.097	-3.29
781.537	-1.49
781.976	-2.89
782.415	-6.49
782.855	-9.29
783.294	-10.09
783.733	-4.29
784.172	-3.19
784.611	-16.19
785.05	-4.99
785.489	-4.59
785.928	0.21
786.367	-4.49
786.806	-3.69
787.245	-4.49
787.684	-5.69
788.123	1.51
788.562	-4.59
789.001	-2.09
789.44	-1.99
789.879	-4.09
790.317	-6.49
790.756	1.11
791.195	-10.49
791.634	-10.59
792.072	1.31
792.511	-2.79
