Data from 20171114-ORNL-Ar_H_NY_Subt18_08-06-09-269.txt Node
Date: Tue Nov 14 08:06:09 EST 2017
User: Ender
Spectrometer: HR+D1039
Trigger mode: 0
Integration Time (sec): 2.730000E-2
Scans to average: 10
Electric dark correction enabled: true
Nonlinearity correction enabled: false
Boxcar width: 0
XAxis mode: Wavelengths
Number of Pixels in Spectrum: 2048
>>>>>Begin Spectral Data<<<<<
187.836	-6
188.309	-6
188.782	-6
189.255	1.2
189.728	-0.2
190.201	4.8
190.674	-2
191.147	4.5
191.619	-7.3
192.092	-3.5
192.565	7
193.038	0.7
193.511	-1.1
193.984	2.6
194.456	-2
194.929	3.4
195.402	-0.6
195.874	-1.5
196.347	-0.5
196.82	-1.8
197.292	7.9
197.765	-1.4
198.237	-7
198.71	3.8
199.182	-1.7
199.655	0.7
200.127	4.3
200.6	-2.8
201.072	-7.1
201.544	-5
202.017	-1.4
202.489	5.4
202.961	-1.4
203.433	-2
203.906	-6.1
204.378	-2.8
204.85	-7.2
205.322	-4
205.794	-0.4
206.266	-5.5
206.739	-12.2
207.211	-2.2
207.683	-4.2
208.155	-3.3
208.627	-6.6
209.099	-1.5
209.57	-8.7
210.042	-2.7
210.514	-4.8
210.986	-3.4
211.458	-7.1
211.93	-4.4
212.402	4.9
212.873	-4.1
213.345	-7.2
213.817	-11.9
214.288	-9.1
214.76	-10.4
215.232	-2.2
215.703	-5.8
216.175	-3.7
216.646	-10.4
217.118	-8.8
217.589	-2.3
218.061	0.9
218.532	-3.4
219.004	-2.7
219.475	0.2
219.946	-9.6
220.418	-5.2
220.889	2.8
221.36	0.2
221.832	-4.2
222.303	-8.1
222.774	3.5
223.245	-3
223.717	-8
224.188	-3.1
224.659	-6.2
225.13	-6.4
225.601	-4.2
226.072	-2.2
226.543	-4.1
227.014	1.2
227.485	4.1
227.956	0.3
228.427	-5.3
228.898	-1.5
229.369	6.6
229.839	-1.2
230.31	-5.8
230.781	4.9
231.252	-4.5
231.722	-0.7
232.193	-6
232.664	-2.4
233.135	3.3
233.605	-1.9
234.076	-3.7
234.546	1
235.017	3.4
235.487	1.1
235.958	1.2
236.428	-0.6
236.899	4.6
237.369	2.2
237.84	-0.9
238.31	13.1
238.78	1.1
239.251	8.7
239.721	10.3
240.191	1.9
240.662	2.5
241.132	3.3
241.602	-0.6
242.072	3.3
242.542	3.6
243.013	-2.3
243.483	2.9
243.953	3.5
244.423	-4.1
244.893	-1.9
245.363	4.9
245.833	8.6
246.303	0.9
246.773	7.4
247.243	1.8
247.712	5.4
248.182	8.3
248.652	7.6
249.122	-1.6
249.592	11.9
250.061	21.7
250.531	28
251.001	13.9
251.471	19.7
251.94	17.6
252.41	3
252.879	-3.1
253.349	14.5
253.818	7.2
254.288	2.1
254.757	9.3
255.227	2
255.696	6
256.166	4.3
256.635	8.4
257.105	10.4
257.574	9.5
258.043	10.5
258.513	14.4
258.982	16.2
259.451	9.4
259.92	14.4
260.389	15.1
260.859	15.6
261.328	12.6
261.797	20.2
262.266	7.8
262.735	14.6
263.204	6.3
263.673	3.8
264.142	4.8
264.611	-5
265.08	-0.6
265.549	-0.2
266.018	4.8
266.487	0.2
266.955	-0.6
267.424	2.5
267.893	8
268.362	3.9
268.83	1
269.299	14.4
269.768	6.9
270.236	10.6
270.705	7.2
271.174	12.1
271.642	9.5
272.111	9.6
272.579	18.9
273.048	23.4
273.516	29.2
273.985	27.5
274.453	23.6
274.922	18.6
275.39	8.3
275.858	6.4
276.327	12.2
276.795	22.5
277.263	13
277.731	33.8
278.2	61.7
278.668	63.5
279.136	54.6
279.604	16.9
280.072	20.5
280.54	13.2
281.008	17.2
281.477	14.7
281.945	11
282.413	12.8
282.881	14.4
283.348	13.2
283.816	14.2
284.284	17.6
284.752	21.2
285.22	19.2
285.688	18.5
286.156	24.5
286.623	51.5
287.091	55.2
287.559	29.5
288.026	18.5
288.494	21.1
288.962	6.7
289.429	9.9
289.897	24.2
290.364	19
290.832	24.3
291.3	17
291.767	21.4
292.234	21.2
292.702	15.3
293.169	22.8
293.637	25.1
294.104	20
294.571	14.4
295.039	15.4
295.506	17.4
295.973	24.4
296.44	20.4
296.908	19.7
297.375	25
297.842	19.6
298.309	16.4
298.776	16.3
299.243	24.5
299.71	18
300.177	21.6
300.644	23
301.111	24.4
301.578	25.2
302.045	18.7
302.512	24.9
302.979	29.5
303.446	26.2
303.913	11.6
304.379	22.4
304.846	31.6
305.313	23.1
305.78	18.5
306.246	26.4
306.713	32.2
307.18	27.4
307.646	26.2
308.113	30.3
308.579	25.3
309.046	24.8
309.512	29.9
309.979	24.3
310.445	31.5
310.912	32.6
311.378	29.1
311.845	36.4
312.311	36.4
312.777	29
313.244	35.7
313.71	43.5
314.176	39.1
314.642	35
315.109	33.8
315.575	40.3
316.041	46
316.507	32.5
316.973	46
317.439	35.4
317.905	36.7
318.371	38.3
318.837	30.6
319.303	34.5
319.769	35.9
320.235	34.6
320.701	38.1
321.167	46.2
321.633	37.4
322.099	41.3
322.564	50.8
323.03	48.5
323.496	43.8
323.962	44.3
324.427	43.2
324.893	52.4
325.359	40.4
325.824	37.6
326.29	34.8
326.755	41
327.221	45.3
327.686	41.1
328.152	54.8
328.617	43.6
329.083	49.9
329.548	49.7
330.014	51
330.479	48.6
330.944	46.8
331.41	44.5
331.875	43.4
332.34	43.9
332.805	46.4
333.271	45.9
333.736	43.1
334.201	52.7
334.666	57.7
335.131	60.3
335.596	57.6
336.061	52
336.526	43.8
336.991	54.5
337.456	64.7
337.921	45.9
338.386	46.7
338.851	54.1
339.316	52.2
339.781	48.1
340.246	51.6
340.711	50.8
341.175	56.2
341.64	47
342.105	54.7
342.569	62.3
343.034	53.3
343.499	56.8
343.963	59.8
344.428	70.2
344.893	60.4
345.357	68
345.822	63.1
346.286	69.4
346.751	77
347.215	73.1
347.679	77.2
348.144	100.4
348.608	87.1
349.073	73
349.537	72.3
350.001	82.2
350.465	92.3
350.93	80.6
351.394	84.2
351.858	68.4
352.322	88
352.786	87.3
353.25	100.3
353.715	112.8
354.179	106.8
354.643	117.1
355.107	126.6
355.571	112.8
356.035	104.4
356.498	115.4
356.962	125.8
357.426	133
357.89	114.8
358.354	92.6
358.818	82.8
359.281	79.4
359.745	81.4
360.209	81.9
360.673	77.9
361.136	82.1
361.6	90
362.064	86.6
362.527	91.8
362.991	97.2
363.454	81.6
363.918	81.9
364.381	85.6
364.845	80.9
365.308	90.9
365.772	99.4
366.235	93.4
366.698	78.1
367.162	85.5
367.625	89.1
368.088	85.1
368.552	92.7
369.015	92.7
369.478	102.6
369.941	107
370.404	103.4
370.867	112.6
371.331	110.3
371.794	121.5
372.257	124.3
372.72	118.9
373.183	110.5
373.646	101.3
374.109	111.4
374.572	111.9
375.035	110.7
375.497	110.8
375.96	108.9
376.423	104.3
376.886	115.2
377.349	112.5
377.811	107.7
378.274	110.1
378.737	110.4
379.199	117.1
379.662	110.8
380.125	119
380.587	124.2
381.05	129.1
381.512	139.7
381.975	137.2
382.437	137.5
382.9	128.3
383.362	141.5
383.825	144.6
384.287	155.5
384.75	138.7
385.212	138.6
385.674	137.6
386.136	139.5
386.599	133
387.061	128.1
387.523	129.9
387.985	139.7
388.447	147.5
388.91	154.4
389.372	163.8
389.834	153.3
390.296	147.7
390.758	153.3
391.22	169.3
391.682	211.3
392.144	302.8
392.606	234.8
393.068	167.8
393.529	168
393.991	157.6
394.453	153.4
394.915	158.3
395.377	195.9
395.838	219.9
396.3	161.8
396.762	147.3
397.224	141.6
397.685	140.5
398.147	133.3
398.608	131.4
399.07	139.9
399.531	142.6
399.993	148
400.454	154.3
400.916	150.5
401.377	151.3
401.839	153.8
402.3	155.6
402.762	167
403.223	185.8
403.684	176.4
404.145	163.1
404.607	171.3
405.068	174.2
405.529	178
405.99	195.2
406.451	177.9
406.913	184.3
407.374	167.5
407.835	159
408.296	177.7
408.757	171.8
409.218	189.9
409.679	178.1
410.14	182
410.601	180.9
411.062	190.7
411.522	195.9
411.983	199.9
412.444	179.9
412.905	181.3
413.366	187.4
413.826	195.8
414.287	220.5
414.748	265.8
415.208	251.2
415.669	209.2
416.13	211.4
416.59	202.6
417.051	217.8
417.511	220.7
417.972	240.8
418.432	249.4
418.893	285.5
419.353	257.5
419.814	205.4
420.274	183.1
420.734	186.4
421.195	202.9
421.655	194.6
422.115	196.5
422.576	194
423.036	198.9
423.496	205.1
423.956	220.3
424.416	238.8
424.876	268.2
425.336	266.6
425.797	263
426.257	257.3
426.717	246.2
427.177	234.6
427.637	226.5
428.097	240.4
428.556	253.7
429.016	276.8
429.476	269.5
429.936	281.6
430.396	289.5
430.856	299.4
431.315	323.1
431.775	356.7
432.235	389.2
432.694	356.9
433.154	371
433.614	401.7
434.073	344
434.533	290.7
434.993	273
435.452	288.3
435.912	307.5
436.371	291.3
436.83	292.7
437.29	285.5
437.749	257.3
438.209	253
438.668	282.4
439.127	295.3
439.587	266.8
440.046	253.6
440.505	268.8
440.964	282
441.424	329.7
441.883	318.8
442.342	265.7
442.801	223.9
443.26	226.3
443.719	226.3
444.178	222.6
444.637	217.8
445.096	226.6
445.555	230.2
446.014	227.6
446.473	231.8
446.932	241.2
447.391	226.6
447.849	231.9
448.308	229.5
448.767	224.2
449.226	238.7
449.685	242.1
450.143	257.4
450.602	244.6
451.061	230.8
451.519	235.1
451.978	234.7
452.436	244.2
452.895	243
453.353	261.9
453.812	243.9
454.27	236.6
454.729	241
455.187	249.7
455.646	253.8
456.104	259.6
456.562	269.6
457.021	272.9
457.479	267.6
457.937	278.9
458.395	264.8
458.854	250.2
459.312	259.4
459.77	276.7
460.228	260.6
460.686	245.5
461.144	246.4
461.602	245.8
462.06	241.8
462.518	261.9
462.976	257
463.434	264.4
463.892	269.3
464.35	276.2
464.808	291.4
465.266	271.7
465.724	270.6
466.181	277.6
466.639	273.1
467.097	299.8
467.555	306.4
468.012	308
468.47	322.4
468.928	330.3
469.385	349.1
469.843	353
470.3	356.2
470.758	367.9
471.215	394.2
471.673	416.6
472.13	417.9
472.588	421.6
473.045	374.3
473.503	379.4
473.96	409.9
474.417	409
474.875	435.2
475.332	480.7
475.789	474.4
476.246	473.8
476.704	499.5
477.161	521.8
477.618	530.7
478.075	575
478.532	632.4
478.989	701
479.446	824
479.903	780.2
480.36	827.2
480.817	877.7
481.274	988.4
481.731	1100.1
482.188	1200.4
482.645	1337.5
483.102	1445.1
483.558	1571.3
484.015	1623.8
484.472	1611.7
484.929	1563.1
485.385	1506.2
485.842	1478.5
486.299	1396
486.755	1331.2
487.212	1116.3
487.668	952.4
488.125	863.5
488.582	790.9
489.038	769.5
489.494	729.7
489.951	692.8
490.407	676
490.864	655.6
491.32	663.2
491.776	666
492.233	669.2
492.689	634.3
493.145	615.9
493.602	612.1
494.058	619.6
494.514	626.6
494.97	647.4
495.426	661.9
495.882	632.9
496.338	634.3
496.794	640
497.251	631.2
497.707	652.8
498.163	645.4
498.618	653.5
499.074	662.2
499.53	694.2
499.986	681
500.442	669.6
500.898	651.8
501.354	636.7
501.809	656.1
502.265	658.7
502.721	683.2
503.177	686.3
503.632	676.7
504.088	687.4
504.543	724.4
504.999	722.8
505.455	672.4
505.91	647.1
506.366	648.9
506.821	632
507.277	639.3
507.732	648.9
508.187	638.3
508.643	651.7
509.098	647.6
509.553	672.8
510.009	671.2
510.464	681.9
510.919	701.7
511.375	710.6
511.83	724
512.285	733.6
512.74	770.9
513.195	804.4
513.65	788.1
514.105	788.2
514.56	779.9
515.015	803.2
515.47	826.6
515.925	811.5
516.38	800.5
516.835	809.5
517.29	796.7
517.745	782.7
518.2	774.8
518.655	764.8
519.109	745.6
519.564	747
520.019	751.4
520.474	738.5
520.928	741.9
521.383	734.9
521.838	727.8
522.292	719.4
522.747	718.4
523.201	721.8
523.656	705.7
524.11	702.2
524.565	709.8
525.019	707.4
525.474	716.9
525.928	707.8
526.382	702.3
526.837	711.8
527.291	722.1
527.745	708.4
528.2	710.9
528.654	701
529.108	705.2
529.562	710.2
530.016	698.5
530.47	700.8
530.925	702
531.379	700.4
531.833	717.7
532.287	718.2
532.741	720.1
533.195	717
533.649	736.4
534.103	734.5
534.556	728.1
535.01	726.6
535.464	715.9
535.918	730.9
536.372	735.2
536.826	725
537.279	721.3
537.733	719.1
538.187	725
538.64	732.4
539.094	733.6
539.548	740.1
540.001	738.8
540.455	737.5
540.908	740.3
541.362	754.6
541.815	755.5
542.269	773.8
542.722	764.8
543.175	779.6
543.629	792.4
544.082	802.4
544.536	796.1
544.989	788.2
545.442	810.4
545.895	793
546.349	792.3
546.802	798.9
547.255	814.5
547.708	811.8
548.161	828.5
548.614	835.3
549.067	838.5
549.52	837.6
549.973	827.6
550.426	821.6
550.879	800.7
551.332	812.4
551.785	821
552.238	819.5
552.691	820.4
553.144	835.6
553.596	858.3
554.049	870.7
554.502	905.2
554.955	924.8
555.407	924.9
555.86	912.6
556.313	901.1
556.765	897.6
557.218	903.4
557.67	892.5
558.123	887.1
558.576	885.5
559.028	889.5
559.48	896.4
559.933	889.5
560.385	844.1
560.838	820
561.29	794.6
561.742	788.8
562.195	776
562.647	780.5
563.099	783.6
563.551	777.3
564.004	804.2
564.456	785.3
564.908	768.5
565.36	757.3
565.812	740.6
566.264	739.9
566.716	729.3
567.168	730.4
567.62	733.7
568.072	707.8
568.524	699.4
568.976	695.2
569.428	685.3
569.88	672.9
570.332	690.4
570.784	694.1
571.235	692.8
571.687	705
572.139	712.4
572.59	723.2
573.042	720.5
573.494	718.7
573.945	718.2
574.397	694.7
574.849	700.1
575.3	695
575.752	698.5
576.203	683.1
576.655	699.7
577.106	675.2
577.557	675.1
578.009	681.7
578.46	669.2
578.912	668.2
579.363	673.7
579.814	674.8
580.265	671.1
580.717	673.7
581.168	678.7
581.619	693.1
582.07	686.9
582.521	684.9
582.972	681.1
583.423	682.6
583.875	695
584.326	712.9
584.777	755.3
585.227	829.1
585.678	914.6
586.129	1013.8
586.58	1078.8
587.031	1164.2
587.482	1318
587.933	1488
588.384	1297.1
588.834	986
589.285	818.4
589.736	781.4
590.186	783.7
590.637	770.1
591.088	741.6
591.538	738.8
591.989	741.6
592.439	737.4
592.89	717
593.34	715.3
593.791	711
594.241	709.4
594.692	717.7
595.142	717.5
595.593	709.9
596.043	714.4
596.493	719.6
596.943	723.7
597.394	726.6
597.844	715.1
598.294	739.9
598.744	761.8
599.195	780.8
599.645	821.8
600.095	867.3
600.545	914.4
600.995	978.3
601.445	1025.9
601.895	1098.5
602.345	1146.7
602.795	1132.8
603.245	1063.6
603.695	1014.6
604.145	955.4
604.594	918.5
605.044	857.7
605.494	808.4
605.944	753.4
606.393	739.6
606.843	733.1
607.293	746
607.743	736.8
608.192	742.8
608.642	762.8
609.091	777.2
609.541	780.9
609.99	767.8
610.44	758.2
610.889	724.7
611.339	707
611.788	695.3
612.238	697.6
612.687	726.1
613.136	720
613.586	741.4
614.035	736.5
614.484	755.4
614.933	762.3
615.383	748.8
615.832	734.5
616.281	734
616.73	691.4
617.179	672
617.628	650.6
618.077	638.8
618.526	628.9
618.975	612.7
619.424	619
619.873	615.8
620.322	618.2
620.771	602.8
621.22	604.9
621.669	595
622.118	592.9
622.567	585.5
623.015	568.4
623.464	572.4
623.913	561.3
624.361	557.1
624.81	563.9
625.259	550.8
625.707	555.9
626.156	552.9
626.604	572.4
627.053	567.4
627.501	570.1
627.95	573.5
628.398	580.5
628.847	569.7
629.295	575.3
629.744	571
630.192	571
630.64	562.5
631.089	567.1
631.537	578.4
631.985	589
632.433	601
632.881	599.6
633.33	664.5
633.778	642.1
634.226	570.6
634.674	569.5
635.122	581.3
635.57	593.7
636.018	625.8
636.466	583.8
636.914	554.9
637.362	576.5
637.81	574.4
638.258	591.2
638.705	577.1
639.153	610.8
639.601	617.8
640.049	642.2
640.497	664.2
640.944	692.2
641.392	643.7
641.84	617.9
642.287	589.7
642.735	572.1
643.182	574.7
643.63	574.9
644.078	576.2
644.525	589.3
644.973	599.8
645.42	602.5
645.867	624.8
646.315	635.6
646.762	666.7
647.21	694.3
647.657	711.9
648.104	756.2
648.551	767.1
648.999	827.3
649.446	914.2
649.893	995.9
650.34	1162.4
650.787	1393
651.234	1731.8
651.682	2256.5
652.129	3096.1
652.576	4455.6
653.023	6583.8
653.47	9064.6
653.917	11291
654.363	13063.2
654.81	14405.9
655.257	13752.3
655.704	9004.7
656.151	5307.5
656.598	3449.3
657.044	2416.5
657.491	1859.2
657.938	1499
658.385	1261.7
658.831	1084.7
659.278	960.2
659.724	847
660.171	787.6
660.618	722.3
661.064	683.1
661.511	666.9
661.957	650.9
662.404	644.6
662.85	650.6
663.296	622.3
663.743	562.3
664.189	548
664.635	538.6
665.082	523.3
665.528	527.4
665.974	515.6
666.42	512.2
666.867	507.4
667.313	491.4
667.759	476.5
668.205	474.1
668.651	479.8
669.097	473.6
669.543	493.5
669.989	467.3
670.435	448.1
670.881	436.7
671.327	448
671.773	469.5
672.219	488.6
672.665	540.6
673.11	575.8
673.556	626.2
674.002	665.2
674.448	654.1
674.893	543.5
675.339	471.6
675.785	436.9
676.23	411.1
676.676	388.6
677.122	379.1
677.567	364
678.013	356.5
678.458	365
678.904	358.7
679.349	349.6
679.794	348.8
680.24	354.6
680.685	339.6
681.131	352.1
681.576	346.9
682.021	350.3
682.466	352.1
682.912	343.3
683.357	353.9
683.802	382.9
684.247	415
684.692	456.1
685.137	485.4
685.583	527.2
686.028	558.8
686.473	510
686.918	438.2
687.363	411.7
687.807	386.8
688.252	361.7
688.697	347.3
689.142	335.4
689.587	323.3
690.032	324.4
690.477	343
690.921	343
691.366	379.4
691.811	395.3
692.255	432
692.7	450.5
693.145	498.7
693.589	688.1
694.034	1101.8
694.478	1525
694.923	1716.7
695.367	2241.4
695.812	1185.4
696.256	494.9
696.701	367.1
697.145	345.1
697.59	327.2
698.034	321.1
698.478	328.5
698.922	322.6
699.367	319.4
699.811	333.4
700.255	360.4
700.699	374.5
701.143	418.8
701.588	466.2
702.032	508.1
702.476	509
702.92	482.9
703.364	488.6
703.808	619.9
704.252	1010.5
704.696	1417.4
705.14	1641.3
705.584	2113.6
706.027	1055.8
706.471	514.7
706.915	389.1
707.359	348.1
707.803	308.7
708.246	301.3
708.69	305.7
709.134	309.9
709.577	316.4
710.021	310.2
710.465	302.7
710.908	292.3
711.352	298.1
711.795	318
712.239	345.7
712.682	383.9
713.126	415.5
713.569	459.1
714.012	372.2
714.456	319.5
714.899	298
715.342	278
715.786	257.4
716.229	254.9
716.672	257.5
717.115	248.1
717.558	244.5
718.002	247.9
718.445	256.3
718.888	289.7
719.331	289.9
719.774	304.3
720.217	299.7
720.66	280.9
721.103	261.6
721.546	254.1
721.989	258.1
722.432	227.3
722.874	236.3
723.317	230.5
723.76	233
724.203	255.7
724.645	313
725.088	443.7
725.531	562.1
725.974	640.9
726.416	542.8
726.859	308.7
727.301	245.3
727.744	230.6
728.187	230
728.629	229.3
729.071	235.9
729.514	249.3
729.956	258.8
730.399	281.3
730.841	285.2
731.283	266.9
731.726	261.2
732.168	256.2
732.61	260.4
733.053	282.3
733.495	307.8
733.937	349.8
734.379	393.2
734.821	420.9
735.263	531.8
735.705	811.8
736.148	1530.2
736.59	2530
737.032	2994.5
737.474	2434.6
737.916	790.1
738.357	422.8
738.799	320.6
739.241	294.2
739.683	279.4
740.125	289.1
740.567	292
741.008	316.1
741.45	314.6
741.892	314.1
742.334	344.4
742.775	354.8
743.217	341.1
743.658	268.2
744.1	256.4
744.542	260
744.983	308.5
745.425	345.4
745.866	337.9
746.307	282
746.749	276.6
747.19	320
747.632	437.6
748.073	855.4
748.514	1835.6
748.956	2782.1
749.397	3490.5
749.838	2913.2
750.279	2943.8
750.72	1462.4
751.162	538.5
751.603	323.3
752.044	241.9
752.485	209.5
752.926	212.3
753.367	203.9
753.808	194.2
754.249	182.3
754.69	189
755.131	184.8
755.572	175.4
756.013	181.6
756.453	183.3
756.894	189
757.335	185.2
757.776	197.8
758.216	196.6
758.657	200.8
759.098	197.7
759.538	226.1
759.979	257.7
760.42	369
760.86	682.2
761.301	1757.2
761.741	4300.9
762.182	6342.4
762.622	4441.3
763.063	1286.6
763.503	526.7
763.943	338.5
764.384	344.7
764.824	394.5
765.264	435.1
765.705	301
766.145	207.2
766.585	186
767.025	183.4
767.465	184.2
767.906	232
768.346	312.9
768.786	338.5
769.226	252.1
769.666	317.8
770.106	609
770.546	1507.3
770.986	2584.7
771.426	2325.4
771.866	777.6
772.306	318
772.745	202.1
773.185	173.7
773.625	165.7
774.065	165.7
774.505	199.5
774.944	301.1
775.384	668.9
775.824	1209.5
776.263	1184.9
776.703	500.6
777.142	212.6
777.582	158
778.021	137.9
778.461	138.4
778.9	141.4
779.34	129.5
779.779	112
780.219	114.8
780.658	112.2
781.097	116.7
781.537	112.6
781.976	108.9
782.415	106.6
782.855	108.8
783.294	104.1
783.733	103.2
784.172	112.2
784.611	99.4
785.05	104.8
785.489	112.5
785.928	114.3
786.367	117.6
786.806	114.9
787.245	134.2
787.684	141.5
788.123	151.7
788.562	134.7
789.001	122.7
789.44	118.2
789.879	119.3
790.317	117.1
790.756	125.5
791.195	126.3
791.634	137.4
792.072	198.5
792.511	350.7
792.95	977
793.388	2098.4
793.827	1902
794.265	669.5
794.704	271.9
795.142	184.1
795.581	148.6
796.019	136
796.458	133.5
796.896	118.5
797.334	129.2
797.773	155.8
798.211	208.7
798.649	423.5
799.087	992.1
799.526	1560.2
799.964	1970.4
800.402	1984.8
800.84	741.6
801.278	295.8
801.716	177.2
802.154	154.2
802.592	146.4
803.03	141.5
803.468	130.3
803.906	141.7
804.344	143.5
804.782	141.6
805.22	136.7
805.658	126.6
806.096	148.6
806.533	152.6
806.971	167.6
807.409	217.2
