Data from 20171114-ORNL-Ar_H_NY_Subt18_08-04-27-995.txt Node
Date: Tue Nov 14 08:04:27 EST 2017
User: Ender
Spectrometer: HR+D1039
Trigger mode: 0
Integration Time (sec): 2.730000E-2
Scans to average: 10
Electric dark correction enabled: true
Nonlinearity correction enabled: false
Boxcar width: 0
XAxis mode: Wavelengths
Number of Pixels in Spectrum: 2048
>>>>>Begin Spectral Data<<<<<
187.836	0.34
188.309	0.34
188.782	0.34
189.255	2.04
189.728	-7.16
190.201	3.14
190.674	0.94
191.147	7.24
191.619	-3.16
192.092	1.14
192.565	3.04
193.038	1.94
193.511	-1.66
193.984	-1.76
194.456	-4.36
194.929	-0.76
195.402	-2.46
195.874	1.44
196.347	-0.56
196.82	-3.06
197.292	1.54
197.765	1.84
198.237	-10.06
198.71	-0.96
199.182	3.44
199.655	2.84
200.127	-4.06
200.6	-1.26
201.072	-2.36
201.544	-4.66
202.017	-0.66
202.489	7.24
202.961	3.04
203.433	-4.96
203.906	-3.56
204.378	-3.06
204.85	1.54
205.322	-6.56
205.794	0.74
206.266	-4.76
206.739	-3.46
207.211	3.34
207.683	-6.06
208.155	-2.56
208.627	-8.86
209.099	-2.96
209.57	-6.66
210.042	-2.46
210.514	0.34
210.986	-1.36
211.458	-3.36
211.93	-3.16
212.402	-0.66
212.873	-6.86
213.345	-12.66
213.817	-9.76
214.288	-6.26
214.76	-10.56
215.232	-1.36
215.703	-3.36
216.175	-1.26
216.646	-5.76
217.118	-3.86
217.589	-3.26
218.061	-3.96
218.532	-1.26
219.004	-4.96
219.475	-1.96
219.946	1.64
220.418	-2.86
220.889	2.64
221.36	0.44
221.832	-3.36
222.303	-5.16
222.774	5.14
223.245	-8.56
223.717	-10.16
224.188	-2.66
224.659	-11.56
225.13	-10.96
225.601	-0.26
226.072	5.84
226.543	-6.66
227.014	1.14
227.485	0.04
227.956	-6.76
228.427	-3.26
228.898	-2.46
229.369	1.24
229.839	0.04
230.31	-1.26
230.781	2.04
231.252	-1.76
231.722	1.84
232.193	-6.36
232.664	1.44
233.135	1.34
233.605	-0.26
234.076	-6.06
234.546	2.04
235.017	7.14
235.487	-0.06
235.958	-3.46
236.428	-3.36
236.899	7.64
237.369	3.94
237.84	-0.26
238.31	5.84
238.78	2.44
239.251	0.24
239.721	5.44
240.191	3.34
240.662	0.24
241.132	2.14
241.602	-3.96
242.072	0.24
242.542	10.94
243.013	-3.16
243.483	5.94
243.953	-1.16
244.423	0.14
244.893	-4.76
245.363	4.34
245.833	2.84
246.303	-0.96
246.773	7.54
247.243	7.44
247.712	5.14
248.182	9.44
248.652	8.64
249.122	2.14
249.592	12.84
250.061	23.84
250.531	37.24
251.001	17.04
251.471	26.64
251.94	21.74
252.41	9.94
252.879	9.24
253.349	13.54
253.818	6.04
254.288	8.24
254.757	4.74
255.227	0.34
255.696	-0.96
256.166	5.54
256.635	9.24
257.105	8.84
257.574	8.54
258.043	8.84
258.513	12.24
258.982	15.74
259.451	5.94
259.92	17.54
260.389	12.24
260.859	13.84
261.328	11.94
261.797	18.94
262.266	12.44
262.735	10.84
263.204	12.44
263.673	2.44
264.142	8.34
264.611	2.24
265.08	6.74
265.549	2.04
266.018	1.64
266.487	2.74
266.955	-0.46
267.424	-1.66
267.893	4.74
268.362	3.04
268.83	2.04
269.299	15.34
269.768	9.94
270.236	7.94
270.705	6.44
271.174	10.54
271.642	10.54
272.111	13.54
272.579	18.34
273.048	26.74
273.516	33.84
273.985	29.04
274.453	24.04
274.922	22.44
275.39	18.04
275.858	6.24
276.327	8.54
276.795	16.14
277.263	6.44
277.731	30.64
278.2	52.84
278.668	69.14
279.136	52.54
279.604	18.84
280.072	12.24
280.54	8.64
281.008	15.14
281.477	17.84
281.945	20.04
282.413	11.34
282.881	15.84
283.348	10.64
283.816	19.34
284.284	15.84
284.752	23.54
285.22	16.54
285.688	17.74
286.156	24.54
286.623	47.44
287.091	48.24
287.559	30.34
288.026	18.84
288.494	22.04
288.962	5.44
289.429	9.74
289.897	13.24
290.364	13.34
290.832	20.74
291.3	16.14
291.767	20.54
292.234	20.24
292.702	18.44
293.169	21.24
293.637	25.24
294.104	21.14
294.571	15.44
295.039	7.84
295.506	12.54
295.973	24.04
296.44	16.54
296.908	22.84
297.375	17.14
297.842	20.74
298.309	14.84
298.776	15.64
299.243	24.54
299.71	13.34
300.177	21.84
300.644	21.64
301.111	21.14
301.578	20.34
302.045	18.74
302.512	22.14
302.979	28.14
303.446	27.74
303.913	20.44
304.379	20.14
304.846	26.04
305.313	27.14
305.78	24.34
306.246	31.64
306.713	25.64
307.18	30.04
307.646	23.94
308.113	31.54
308.579	21.44
309.046	26.44
309.512	31.14
309.979	18.14
310.445	27.14
310.912	30.24
311.378	35.04
311.845	31.14
312.311	30.54
312.777	35.04
313.244	35.84
313.71	38.94
314.176	32.04
314.642	32.64
315.109	33.64
315.575	41.04
316.041	42.24
316.507	37.54
316.973	34.84
317.439	35.34
317.905	33.44
318.371	38.64
318.837	29.74
319.303	32.04
319.769	30.64
320.235	34.54
320.701	35.54
321.167	35.84
321.633	35.84
322.099	39.54
322.564	44.74
323.03	42.44
323.496	38.04
323.962	41.34
324.427	31.84
324.893	43.54
325.359	29.44
325.824	33.94
326.29	33.54
326.755	35.24
327.221	39.04
327.686	40.34
328.152	49.04
328.617	38.94
329.083	44.34
329.548	47.54
330.014	47.04
330.479	43.94
330.944	46.24
331.41	47.34
331.875	40.44
332.34	39.24
332.805	39.64
333.271	52.34
333.736	41.54
334.201	51.14
334.666	52.44
335.131	54.34
335.596	51.74
336.061	54.44
336.526	39.44
336.991	54.54
337.456	59.84
337.921	47.84
338.386	48.14
338.851	46.54
339.316	45.14
339.781	51.44
340.246	55.04
340.711	47.74
341.175	47.14
341.64	40.04
342.105	45.24
342.569	51.24
343.034	52.44
343.499	56.34
343.963	55.54
344.428	62.64
344.893	58.34
345.357	59.84
345.822	60.64
346.286	69.94
346.751	71.24
347.215	69.44
347.679	75.44
348.144	95.54
348.608	78.64
349.073	67.84
349.537	67.34
350.001	78.14
350.465	85.44
350.93	80.14
351.394	81.44
351.858	73.84
352.322	81.54
352.786	83.04
353.25	97.74
353.715	106.04
354.179	95.24
354.643	112.14
355.107	116.74
355.571	99.54
356.035	96.94
356.498	112.44
356.962	112.24
357.426	118.94
357.89	113.64
358.354	89.44
358.818	78.74
359.281	75.14
359.745	77.14
360.209	76.14
360.673	69.54
361.136	76.14
361.6	79.24
362.064	81.74
362.527	78.14
362.991	88.14
363.454	75.14
363.918	75.34
364.381	70.94
364.845	81.74
365.308	85.74
365.772	76.74
366.235	79.74
366.698	74.34
367.162	84.54
367.625	85.94
368.088	79.74
368.552	80.64
369.015	84.24
369.478	93.94
369.941	97.14
370.404	90.64
370.867	96.14
371.331	97.84
371.794	109.04
372.257	100.64
372.72	112.34
373.183	102.64
373.646	90.24
374.109	95.74
374.572	99.44
375.035	102.24
375.497	101.34
375.96	96.64
376.423	93.54
376.886	104.44
377.349	101.84
377.811	101.84
378.274	94.84
378.737	93.34
379.199	99.04
379.662	106.14
380.125	106.44
380.587	105.64
381.05	110.54
381.512	120.04
381.975	125.34
382.437	115.14
382.9	120.54
383.362	121.94
383.825	127.44
384.287	126.44
384.75	130.84
385.212	129.14
385.674	127.74
386.136	122.14
386.599	117.04
387.061	115.74
387.523	120.74
387.985	122.64
388.447	132.14
388.91	134.14
389.372	141.74
389.834	141.54
390.296	134.14
390.758	138.74
391.22	162.44
391.682	190.34
392.144	272.24
392.606	213.14
393.068	152.94
393.529	156.94
393.991	141.54
394.453	141.74
394.915	144.84
395.377	174.04
395.838	199.24
396.3	147.34
396.762	127.74
397.224	120.84
397.685	124.74
398.147	121.04
398.608	121.24
399.07	119.94
399.531	122.34
399.993	136.34
400.454	142.94
400.916	135.14
401.377	128.14
401.839	135.44
402.3	132.04
402.762	149.74
403.223	161.34
403.684	163.94
404.145	144.54
404.607	151.34
405.068	150.14
405.529	158.64
405.99	168.54
406.451	155.24
406.913	153.54
407.374	146.54
407.835	149.44
408.296	149.24
408.757	161.44
409.218	167.04
409.679	161.04
410.14	156.44
410.601	167.84
411.062	166.64
411.522	171.34
411.983	172.04
412.444	157.44
412.905	163.24
413.366	161.04
413.826	176.34
414.287	197.74
414.748	241.84
415.208	226.64
415.669	195.84
416.13	186.54
416.59	187.64
417.051	198.14
417.511	198.64
417.972	214.34
418.432	226.04
418.893	264.54
419.353	233.84
419.814	173.84
420.274	164.14
420.734	162.34
421.195	182.54
421.655	177.74
422.115	179.64
422.576	176.44
423.036	176.84
423.496	185.94
423.956	201.54
424.416	212.24
424.876	238.34
425.336	235.04
425.797	239.24
426.257	232.14
426.717	225.44
427.177	218.14
427.637	204.84
428.097	211.04
428.556	223.44
429.016	246.74
429.476	239.84
429.936	251.64
430.396	247.04
430.856	263.64
431.315	287.14
431.775	315.24
432.235	344.04
432.694	318.74
433.154	325.74
433.614	359.64
434.073	307.34
434.533	262.44
434.993	248.14
435.452	257.14
435.912	261.24
436.371	259.64
436.83	262.84
437.29	246.44
437.749	222.64
438.209	217.54
438.668	244.74
439.127	250.54
439.587	239.54
440.046	221.94
440.505	235.14
440.964	254.04
441.424	282.84
441.883	280.74
442.342	231.64
442.801	200.74
443.26	202.34
443.719	199.44
444.178	197.74
444.637	191.24
445.096	192.84
445.555	197.74
446.014	204.54
446.473	203.74
446.932	204.64
447.391	204.54
447.849	210.24
448.308	198.04
448.767	202.74
449.226	218.74
449.685	216.84
450.143	227.74
450.602	217.94
451.061	206.14
451.519	215.04
451.978	211.64
452.436	215.34
452.895	217.84
453.353	226.04
453.812	221.24
454.27	213.54
454.729	217.14
455.187	211.24
455.646	212.84
456.104	218.84
456.562	237.74
457.021	235.04
457.479	239.14
457.937	241.14
458.395	241.44
458.854	229.54
459.312	229.64
459.77	244.94
460.228	227.64
460.686	217.94
461.144	228.44
461.602	219.54
462.06	218.94
462.518	230.64
462.976	236.64
463.434	238.04
463.892	236.14
464.35	246.64
464.808	260.44
465.266	244.54
465.724	243.84
466.181	250.04
466.639	247.04
467.097	270.74
467.555	275.74
468.012	273.14
468.47	285.64
468.928	294.04
469.385	310.24
469.843	314.14
470.3	312.44
470.758	323.64
471.215	343.74
471.673	369.44
472.13	364.24
472.588	376.94
473.045	337.94
473.503	342.54
473.96	356.54
474.417	368.34
474.875	388.14
475.332	427.54
475.789	421.44
476.246	424.44
476.704	441.34
477.161	455.74
477.618	467.14
478.075	503.94
478.532	553.04
478.989	619.74
479.446	716.34
479.903	703.74
480.36	737.44
480.817	787.54
481.274	884.74
481.731	978.84
482.188	1064.44
482.645	1197.34
483.102	1289.54
483.558	1413.34
484.015	1474.64
484.472	1451.14
484.929	1399.64
485.385	1342.04
485.842	1329.54
486.299	1250.54
486.755	1183.04
487.212	997.14
487.668	843.74
488.125	770.54
488.582	713.84
489.038	685.84
489.494	647.94
489.951	634.34
490.407	604.34
490.864	597.84
491.32	583.04
491.776	581.44
492.233	580.24
492.689	554.24
493.145	547.54
493.602	537.84
494.058	555.04
494.514	563.24
494.97	583.64
495.426	591.64
495.882	557.24
496.338	561.04
496.794	575.94
497.251	565.34
497.707	583.74
498.163	582.84
498.618	588.84
499.074	588.24
499.53	618.44
499.986	607.04
500.442	602.94
500.898	572.64
501.354	568.54
501.809	584.44
502.265	584.04
502.721	609.34
503.177	607.84
503.632	593.64
504.088	605.74
504.543	651.24
504.999	632.34
505.455	603.24
505.91	570.64
506.366	582.94
506.821	576.64
507.277	579.54
507.732	565.14
508.187	562.04
508.643	577.14
509.098	575.34
509.553	596.54
510.009	607.34
510.464	610.84
510.919	630.54
511.375	626.14
511.83	652.04
512.285	652.04
512.74	691.94
513.195	715.84
513.65	703.04
514.105	710.24
514.56	704.94
515.015	731.84
515.47	734.14
515.925	717.54
516.38	715.64
516.835	724.94
517.29	706.04
517.745	713.84
518.2	698.24
518.655	682.04
519.109	685.74
519.564	680.04
520.019	662.84
520.474	663.14
520.928	667.94
521.383	663.34
521.838	644.94
522.292	644.74
522.747	651.24
523.201	635.64
523.656	627.44
524.11	620.44
524.565	620.94
525.019	618.84
525.474	633.14
525.928	642.24
526.382	629.04
526.837	629.04
527.291	639.34
527.745	629.94
528.2	626.04
528.654	627.14
529.108	623.84
529.562	621.74
530.016	622.54
530.47	629.74
530.925	629.94
531.379	637.94
531.833	634.94
532.287	635.14
532.741	644.34
533.195	636.54
533.649	655.84
534.103	654.84
534.556	650.14
535.01	646.34
535.464	645.24
535.918	633.54
536.372	656.44
536.826	661.24
537.279	644.14
537.733	647.24
538.187	640.44
538.64	645.44
539.094	651.64
539.548	658.94
540.001	658.44
540.455	650.94
540.908	658.04
541.362	662.14
541.815	676.94
542.269	685.54
542.722	676.04
543.175	691.64
543.629	690.64
544.082	713.54
544.536	710.64
544.989	708.14
545.442	714.74
545.895	714.84
546.349	707.24
546.802	708.84
547.255	712.34
547.708	719.34
548.161	725.74
548.614	731.24
549.067	741.84
549.52	737.24
549.973	726.04
550.426	721.14
550.879	719.34
551.332	713.54
551.785	714.84
552.238	714.44
552.691	734.34
553.144	742.64
553.596	753.94
554.049	764.04
554.502	796.14
554.955	820.24
555.407	816.14
555.86	801.84
556.313	799.14
556.765	784.94
557.218	787.14
557.67	793.14
558.123	782.24
558.576	777.24
559.028	781.14
559.48	791.04
559.933	775.04
560.385	741.14
560.838	720.14
561.29	694.14
561.742	707.74
562.195	678.64
562.647	688.14
563.099	675.34
563.551	683.24
564.004	690.24
564.456	689.24
564.908	679.44
565.36	668.04
565.812	655.44
566.264	646.14
566.716	644.04
567.168	636.04
567.62	643.14
568.072	612.74
568.524	612.94
568.976	613.34
569.428	600.54
569.88	596.84
570.332	599.94
570.784	598.94
571.235	600.74
571.687	608.44
572.139	624.54
572.59	638.74
573.042	629.74
573.494	624.64
573.945	617.54
574.397	598.24
574.849	616.64
575.3	613.44
575.752	602.34
576.203	597.44
576.655	608.54
577.106	591.24
577.557	586.44
578.009	586.34
578.46	585.34
578.912	573.54
579.363	582.34
579.814	576.54
580.265	574.34
580.717	576.14
581.168	588.04
581.619	588.04
582.07	590.24
582.521	589.84
582.972	590.74
583.423	583.84
583.875	596.54
584.326	609.24
584.777	648.64
585.227	716.34
585.678	796.54
586.129	879.44
586.58	943.44
587.031	1021.94
587.482	1181.04
587.933	1340.34
588.384	1167.94
588.834	859.84
589.285	709.44
589.736	686.24
590.186	675.94
590.637	663.14
591.088	642.94
591.538	639.54
591.989	626.34
592.439	633.84
592.89	629.54
593.34	617.84
593.791	619.64
594.241	615.54
594.692	607.64
595.142	603.14
595.593	604.44
596.043	609.84
596.493	620.64
596.943	617.84
597.394	623.24
597.844	618.64
598.294	622.34
598.744	655.74
599.195	674.54
599.645	706.64
600.095	740.74
600.545	782.64
600.995	832.74
601.445	876.94
601.895	948.04
602.345	986.24
602.795	964.44
603.245	921.14
603.695	868.64
604.145	830.34
604.594	785.24
605.044	745.74
605.494	687.94
605.944	648.34
606.393	640.44
606.843	624.94
607.293	633.94
607.743	631.54
608.192	637.54
608.642	652.44
609.091	658.44
609.541	661.34
609.99	658.84
610.44	654.94
610.889	618.34
611.339	605.94
611.788	588.74
612.238	605.04
612.687	617.64
613.136	623.64
613.586	632.94
614.035	627.04
614.484	643.74
614.933	648.44
615.383	639.94
615.832	628.24
616.281	622.24
616.73	586.04
617.179	566.84
617.628	547.04
618.077	531.44
618.526	534.04
618.975	522.94
619.424	529.44
619.873	515.94
620.322	518.94
620.771	510.94
621.22	506.04
621.669	502.14
622.118	489.84
622.567	483.34
623.015	481.44
623.464	489.34
623.913	486.34
624.361	467.84
624.81	461.84
625.259	467.24
625.707	474.84
626.156	470.54
626.604	480.04
627.053	480.74
627.501	475.04
627.95	481.44
628.398	494.44
628.847	481.14
629.295	476.24
629.744	487.84
630.192	481.34
630.64	478.14
631.089	476.64
631.537	496.24
631.985	500.94
632.433	501.34
632.881	503.54
633.33	553.14
633.778	538.14
634.226	477.74
634.674	485.04
635.122	482.64
635.57	506.04
636.018	525.04
636.466	493.24
636.914	467.34
637.362	482.24
637.81	494.34
638.258	483.14
638.705	486.14
639.153	509.14
639.601	506.54
640.049	535.84
640.497	566.44
640.944	583.14
641.392	530.94
641.84	520.14
642.287	491.54
642.735	473.94
643.182	478.04
643.63	481.94
644.078	475.54
644.525	498.74
644.973	498.34
645.42	504.34
645.867	521.44
646.315	534.94
646.762	551.64
647.21	573.34
647.657	594.24
648.104	629.74
648.551	641.24
648.999	700.14
649.446	756.24
649.893	837.24
650.34	960.64
650.787	1137.64
651.234	1424.54
651.682	1866.74
652.129	2522.34
652.576	3619.74
653.023	5361.84
653.47	7439.34
653.917	9390.64
654.363	11049.54
654.81	12415.34
655.257	11750.84
655.704	7629.34
656.151	4467.74
656.598	2903.14
657.044	2056.04
657.491	1580.84
657.938	1256.94
658.385	1043.84
658.831	903.74
659.278	810.64
659.724	714.14
660.171	662.64
660.618	608.44
661.064	565.44
661.511	541.94
661.957	534.64
662.404	533.34
662.85	539.04
663.296	513.74
663.743	466.34
664.189	448.94
664.635	448.84
665.082	438.04
665.528	435.74
665.974	426.84
666.42	430.84
666.867	426.94
667.313	406.04
667.759	400.64
668.205	400.34
668.651	408.34
669.097	402.64
669.543	424.54
669.989	390.24
670.435	374.14
670.881	371.14
671.327	371.64
671.773	387.94
672.219	408.94
672.665	454.24
673.11	478.14
673.556	516.74
674.002	558.14
674.448	544.24
674.893	456.64
675.339	397.44
675.785	370.74
676.23	346.74
676.676	323.54
677.122	310.24
677.567	307.94
678.013	302.64
678.458	294.54
678.904	294.94
679.349	285.74
679.794	294.74
680.24	286.94
680.685	287.24
681.131	284.74
681.576	279.84
682.021	297.04
682.466	286.44
682.912	285.54
683.357	290.84
683.802	312.64
684.247	344.34
684.692	374.54
685.137	411.74
685.583	442.54
686.028	468.84
686.473	427.24
686.918	368.94
687.363	344.44
687.807	321.14
688.252	301.04
688.697	293.94
689.142	279.04
689.587	274.14
690.032	260.14
690.477	283.14
690.921	285.14
691.366	310.94
691.811	330.34
692.255	357.84
692.7	382.34
693.145	410.24
693.589	552.14
694.034	900.24
694.478	1254.94
694.923	1453.44
695.367	1927.44
695.812	996.44
696.256	406.64
696.701	301.14
697.145	282.74
697.59	272.64
698.034	269.44
698.478	280.94
698.922	263.84
699.367	262.74
699.811	269.44
700.255	285.34
700.699	316.24
701.143	345.44
701.588	392.04
702.032	430.14
702.476	425.44
702.92	400.24
703.364	394.64
703.808	505.84
704.252	816.24
704.696	1169.44
705.14	1385.64
705.584	1784.04
706.027	882.34
706.471	427.54
706.915	325.64
707.359	280.74
707.803	262.84
708.246	252.74
708.69	259.64
709.134	263.34
709.577	259.24
710.021	271.34
710.465	252.34
710.908	249.64
711.352	238.84
711.795	253.64
712.239	281.94
712.682	319.44
713.126	341.74
713.569	391.14
714.012	306.84
714.456	258.74
714.899	243.44
715.342	225.04
715.786	215.94
716.229	205.84
716.672	214.64
717.115	207.54
717.558	208.14
718.002	210.64
718.445	215.14
718.888	229.44
719.331	240.24
719.774	251.54
720.217	252.14
720.66	231.54
721.103	217.34
721.546	207.34
721.989	210.54
722.432	193.14
722.874	194.14
723.317	185.04
723.76	195.94
724.203	211.34
724.645	249.54
725.088	352.74
725.531	467.94
725.974	530.84
726.416	454.34
726.859	249.84
727.301	192.94
727.744	193.54
728.187	195.44
728.629	194.54
729.071	199.84
729.514	211.94
729.956	213.44
730.399	227.64
730.841	231.84
731.283	220.24
731.726	222.54
732.168	209.04
732.61	219.54
733.053	222.64
733.495	253.84
733.937	283.04
734.379	322.54
734.821	351.84
735.263	430.34
735.705	664.24
736.148	1246.74
736.59	2072.44
737.032	2565.64
737.474	2080.94
737.916	658.54
738.357	351.14
738.799	265.34
739.241	235.04
739.683	233.54
740.125	235.74
740.567	238.34
741.008	260.44
741.45	256.94
741.892	261.64
742.334	291.04
742.775	298.04
743.217	277.14
743.658	219.44
744.1	209.44
744.542	210.14
744.983	255.24
745.425	283.54
745.866	283.24
746.307	232.84
746.749	232.14
747.19	266.54
747.632	360.14
748.073	676.34
748.514	1476.74
748.956	2336.94
749.397	2900.64
749.838	2431.04
750.279	2499.34
750.72	1257.44
751.162	456.34
751.603	263.54
752.044	205.94
752.485	178.34
752.926	171.24
753.367	165.94
753.808	156.54
754.249	156.44
754.69	150.04
755.131	146.44
755.572	156.34
756.013	141.64
756.453	152.34
756.894	153.44
757.335	155.64
757.776	158.94
758.216	160.74
758.657	157.94
759.098	160.34
759.538	174.04
759.979	213.04
760.42	297.04
760.86	552.24
761.301	1417.54
761.741	3543.04
762.182	5505.04
762.622	3866.44
763.063	1089.14
763.503	437.74
