Data from 20171114-ORNL-Ar_H_NY_Subt18_08-08-52-810.txt Node
Date: Tue Nov 14 08:08:52 EST 2017
User: Ender
Spectrometer: HR+D1039
Trigger mode: 0
Integration Time (sec): 2.730000E-2
Scans to average: 10
Electric dark correction enabled: true
Nonlinearity correction enabled: false
Boxcar width: 0
XAxis mode: Wavelengths
Number of Pixels in Spectrum: 2048
>>>>>Begin Spectral Data<<<<<
187.836	-6.79
188.309	-6.79
188.782	-6.79
189.255	4.21
189.728	-0.39
190.201	5.41
190.674	-1.39
191.147	5.81
191.619	-9.49
192.092	1.81
192.565	5.71
193.038	-1.29
193.511	1.91
193.984	-2.99
194.456	-4.39
194.929	0.81
195.402	-2.29
195.874	3.31
196.347	-6.19
196.82	-9.29
197.292	-0.99
197.765	1.61
198.237	-10.29
198.71	-1.59
199.182	-5.29
199.655	-1.09
200.127	5.21
200.6	-3.09
201.072	-2.99
201.544	-8.09
202.017	-7.29
202.489	3.71
202.961	0.81
203.433	-1.49
203.906	-8.29
204.378	-4.39
204.85	-2.99
205.322	-6.49
205.794	0.71
206.266	-6.79
206.739	-8.19
207.211	-1.19
207.683	-6.19
208.155	-6.69
208.627	-8.19
209.099	-1.69
209.57	-9.39
210.042	-7.79
210.514	-6.79
210.986	-9.19
211.458	-7.69
211.93	-0.89
212.402	2.51
212.873	-2.39
213.345	-10.19
213.817	-15.19
214.288	-10.99
214.76	-8.79
215.232	-0.09
215.703	-6.49
216.175	-2.49
216.646	-4.29
217.118	-13.49
217.589	-9.69
218.061	-0.79
218.532	-2.19
219.004	-6.99
219.475	-5.19
219.946	-2.09
220.418	-3.69
220.889	6.01
221.36	-2.09
221.832	-3.69
222.303	-7.49
222.774	-3.89
223.245	-8.29
223.717	-6.69
224.188	-4.99
224.659	-11.09
225.13	-6.49
225.601	-6.99
226.072	-5.49
226.543	-6.59
227.014	-2.59
227.485	-5.09
227.956	-10.09
228.427	-6.49
228.898	4.11
229.369	-0.09
229.839	-6.89
230.31	-9.59
230.781	-1.39
231.252	-4.29
231.722	-1.99
232.193	-3.99
232.664	-2.09
233.135	1.91
233.605	-10.39
234.076	-10.09
234.546	-0.89
235.017	5.71
235.487	4.91
235.958	-0.39
236.428	-8.59
236.899	-8.29
237.369	-0.89
237.84	-3.79
238.31	-1.89
238.78	-1.49
239.251	-5.99
239.721	-1.09
240.191	4.61
240.662	0.41
241.132	0.71
241.602	-4.79
242.072	3.31
242.542	4.21
243.013	-0.39
243.483	4.71
243.953	-3.39
244.423	-4.29
244.893	-7.19
245.363	-0.99
245.833	-3.09
246.303	-6.99
246.773	1.41
247.243	1.31
247.712	-4.09
248.182	-0.59
248.652	8.71
249.122	-14.19
249.592	-2.09
250.061	7.41
250.531	15.41
251.001	-0.09
251.471	2.61
251.94	5.61
252.41	-4.79
252.879	-3.69
253.349	8.91
253.818	3.41
254.288	-3.49
254.757	-1.09
255.227	-6.59
255.696	-4.69
256.166	-1.29
256.635	0.11
257.105	0.41
257.574	-3.19
258.043	-4.99
258.513	-1.79
258.982	2.01
259.451	-4.89
259.92	1.51
260.389	-1.29
260.859	-0.89
261.328	5.11
261.797	2.11
262.266	-0.09
262.735	6.51
263.204	-0.69
263.673	-8.59
264.142	3.31
264.611	-5.19
265.08	-2.59
265.549	-3.49
266.018	0.91
266.487	-7.09
266.955	-5.49
267.424	2.11
267.893	1.31
268.362	-2.29
268.83	-4.69
269.299	7.51
269.768	0.41
270.236	2.41
270.705	1.11
271.174	4.61
271.642	-0.39
272.111	-6.19
272.579	-0.19
273.048	7.51
273.516	1.11
273.985	7.81
274.453	7.21
274.922	12.21
275.39	3.51
275.858	-8.39
276.327	0.31
276.795	12.51
277.263	2.91
277.731	12.51
278.2	19.11
278.668	11.11
279.136	12.31
279.604	-2.49
280.072	4.41
280.54	2.51
281.008	5.01
281.477	15.61
281.945	3.31
282.413	10.41
282.881	9.81
283.348	0.61
283.816	5.71
284.284	12.41
284.752	16.81
285.22	6.21
285.688	7.01
286.156	6.81
286.623	15.61
287.091	7.71
287.559	11.71
288.026	10.11
288.494	3.31
288.962	-2.79
289.429	10.51
289.897	13.71
290.364	10.71
290.832	14.11
291.3	10.51
291.767	9.31
292.234	11.61
292.702	8.81
293.169	5.91
293.637	17.71
294.104	10.21
294.571	1.41
295.039	3.11
295.506	9.11
295.973	12.81
296.44	2.71
296.908	8.41
297.375	13.51
297.842	10.41
298.309	6.81
298.776	5.31
299.243	11.91
299.71	0.21
300.177	18.61
300.644	15.71
301.111	18.11
301.578	17.11
302.045	12.31
302.512	17.01
302.979	18.11
303.446	12.91
303.913	15.51
304.379	14.31
304.846	16.51
305.313	14.01
305.78	12.01
306.246	19.71
306.713	17.71
307.18	17.51
307.646	15.81
308.113	22.01
308.579	20.01
309.046	15.61
309.512	19.31
309.979	11.71
310.445	20.11
310.912	21.21
311.378	22.01
311.845	22.81
312.311	21.51
312.777	25.11
313.244	21.51
313.71	28.41
314.176	28.01
314.642	19.41
315.109	25.41
315.575	22.51
316.041	35.31
316.507	16.11
316.973	28.51
317.439	23.01
317.905	31.11
318.371	27.31
318.837	21.91
319.303	22.51
319.769	26.71
320.235	22.41
320.701	20.81
321.167	30.41
321.633	20.51
322.099	28.61
322.564	25.51
323.03	30.91
323.496	29.01
323.962	32.01
324.427	29.41
324.893	30.41
325.359	32.51
325.824	30.21
326.29	27.31
326.755	26.71
327.221	32.51
327.686	29.21
328.152	33.11
328.617	33.61
329.083	35.71
329.548	42.21
330.014	40.61
330.479	32.71
330.944	34.01
331.41	30.81
331.875	34.31
332.34	39.31
332.805	35.21
333.271	38.21
333.736	29.91
334.201	37.31
334.666	41.91
335.131	42.11
335.596	40.01
336.061	37.91
336.526	33.51
336.991	38.11
337.456	46.71
337.921	39.91
338.386	35.81
338.851	35.31
339.316	40.11
339.781	41.11
340.246	49.51
340.711	36.91
341.175	44.31
341.64	34.61
342.105	47.21
342.569	46.01
343.034	45.41
343.499	42.21
343.963	45.91
344.428	55.41
344.893	46.91
345.357	50.01
345.822	54.91
346.286	51.21
346.751	56.81
347.215	48.41
347.679	59.31
348.144	76.91
348.608	62.91
349.073	63.31
349.537	64.61
350.001	66.01
350.465	72.31
350.93	69.01
351.394	69.71
351.858	60.21
352.322	72.01
352.786	70.21
353.25	89.81
353.715	96.41
354.179	86.51
354.643	99.91
355.107	98.71
355.571	81.81
356.035	87.51
356.498	94.41
356.962	94.21
357.426	107.91
357.89	98.01
358.354	76.91
358.818	74.21
359.281	67.81
359.745	70.31
360.209	63.01
360.673	64.61
361.136	67.91
361.6	71.61
362.064	70.51
362.527	69.21
362.991	76.11
363.454	69.61
363.918	68.21
364.381	70.21
364.845	77.11
365.308	74.61
365.772	75.31
366.235	75.41
366.698	74.21
367.162	78.61
367.625	76.31
368.088	78.21
368.552	80.51
369.015	76.81
369.478	87.81
369.941	90.11
370.404	85.21
370.867	85.51
371.331	87.61
371.794	92.01
372.257	89.01
372.72	97.01
373.183	88.61
373.646	82.21
374.109	82.41
374.572	89.31
375.035	91.71
375.497	90.61
375.96	92.61
376.423	87.31
376.886	103.81
377.349	101.41
377.811	90.91
378.274	98.41
378.737	96.31
379.199	98.71
379.662	93.81
380.125	103.21
380.587	99.41
381.05	96.91
381.512	114.21
381.975	109.91
382.437	113.21
382.9	107.11
383.362	118.51
383.825	124.51
384.287	118.51
384.75	111.01
385.212	120.61
385.674	126.01
386.136	124.81
386.599	112.21
387.061	117.41
387.523	118.11
387.985	125.61
388.447	121.01
388.91	121.31
389.372	124.91
389.834	131.21
390.296	125.41
390.758	124.21
391.22	134.71
391.682	146.61
392.144	171.31
392.606	149.91
393.068	131.01
393.529	138.91
393.991	131.61
394.453	127.81
394.915	127.31
395.377	134.91
395.838	139.31
396.3	139.01
396.762	133.01
397.224	123.61
397.685	122.01
398.147	126.61
398.608	123.81
399.07	136.41
399.531	127.11
399.993	136.01
400.454	147.41
400.916	139.51
401.377	135.61
401.839	145.01
402.3	145.61
402.762	167.51
403.223	170.31
403.684	158.61
404.145	158.41
404.607	154.01
405.068	158.01
405.529	160.11
405.99	174.91
406.451	165.21
406.913	164.61
407.374	163.51
407.835	156.71
408.296	159.41
408.757	161.31
409.218	172.51
409.679	171.41
410.14	168.01
410.601	172.21
411.062	176.71
411.522	182.31
411.983	182.21
412.444	167.51
412.905	177.71
413.366	184.51
413.826	193.91
414.287	215.51
414.748	260.71
415.208	245.11
415.669	205.51
416.13	207.31
416.59	202.71
417.051	220.21
417.511	219.61
417.972	237.01
418.432	241.61
418.893	291.81
419.353	252.51
419.814	203.01
420.274	183.51
420.734	179.01
421.195	195.91
421.655	193.81
422.115	191.11
422.576	196.61
423.036	201.21
423.496	208.91
423.956	216.21
424.416	228.51
424.876	268.51
425.336	255.41
425.797	264.51
426.257	256.11
426.717	236.51
427.177	231.31
427.637	220.11
428.097	233.51
428.556	241.61
429.016	259.11
429.476	259.31
429.936	269.11
430.396	266.21
430.856	280.71
431.315	301.61
431.775	340.41
432.235	369.21
432.694	345.51
433.154	353.71
433.614	377.21
434.073	332.31
434.533	279.21
434.993	262.91
435.452	282.21
435.912	289.41
436.371	284.01
436.83	272.41
437.29	257.81
437.749	244.71
438.209	241.51
438.668	263.21
439.127	277.41
439.587	254.91
440.046	247.81
440.505	256.41
440.964	277.71
441.424	320.01
441.883	309.41
442.342	262.61
442.801	226.81
443.26	228.01
443.719	233.11
444.178	228.01
444.637	225.31
445.096	226.91
445.555	224.31
446.014	219.91
446.473	230.81
446.932	235.31
447.391	231.91
447.849	238.51
448.308	229.91
448.767	231.51
449.226	246.81
449.685	245.41
450.143	255.21
450.602	241.61
451.061	233.71
451.519	237.51
451.978	242.41
452.436	238.21
452.895	243.11
453.353	258.01
453.812	243.31
454.27	247.71
454.729	250.51
455.187	255.01
455.646	244.01
456.104	249.91
456.562	264.11
457.021	265.51
457.479	261.01
457.937	274.01
458.395	266.01
458.854	257.11
459.312	263.81
459.77	276.41
460.228	257.61
460.686	249.91
461.144	253.41
461.602	260.61
462.06	254.31
462.518	256.51
462.976	265.61
463.434	260.41
463.892	267.41
464.35	282.21
464.808	293.11
465.266	271.51
465.724	272.81
466.181	279.21
466.639	280.71
467.097	304.61
467.555	308.91
468.012	311.51
468.47	315.51
468.928	339.31
469.385	348.41
469.843	350.61
470.3	358.01
470.758	362.91
471.215	388.21
471.673	405.31
472.13	415.71
472.588	431.41
473.045	384.51
473.503	390.71
473.96	407.61
474.417	412.71
474.875	442.11
475.332	482.31
475.789	471.61
476.246	470.31
476.704	495.21
477.161	513.71
477.618	528.01
478.075	568.31
478.532	624.31
478.989	686.91
479.446	788.81
479.903	762.51
480.36	792.71
480.817	844.11
481.274	938.51
481.731	1020.71
482.188	1103.01
482.645	1228.41
483.102	1314.31
483.558	1442.31
484.015	1467.41
484.472	1435.81
484.929	1402.81
485.385	1362.51
485.842	1329.81
486.299	1278.81
486.755	1233.01
487.212	1045.21
487.668	900.21
488.125	836.91
488.582	765.51
489.038	742.61
489.494	714.81
489.951	688.41
490.407	670.61
490.864	657.11
491.32	652.91
491.776	640.81
492.233	662.01
492.689	617.11
493.145	616.91
493.602	614.81
494.058	623.91
494.514	619.21
494.97	640.71
495.426	661.61
495.882	624.61
496.338	623.51
496.794	633.21
497.251	627.61
497.707	643.11
498.163	642.91
498.618	646.41
499.074	651.01
499.53	671.71
499.986	669.31
500.442	657.71
500.898	636.51
501.354	624.81
501.809	632.91
502.265	634.21
502.721	650.71
503.177	661.01
503.632	655.31
504.088	672.01
504.543	695.41
504.999	705.31
505.455	676.61
505.91	653.81
506.366	654.51
506.821	642.31
507.277	653.11
507.732	647.81
508.187	648.91
508.643	643.11
509.098	658.01
509.553	681.31
510.009	682.31
510.464	693.41
510.919	700.01
511.375	711.01
511.83	730.71
512.285	738.81
512.74	769.61
513.195	794.81
513.65	789.51
514.105	795.01
514.56	794.11
515.015	799.61
515.47	807.51
515.925	792.21
516.38	804.91
516.835	816.01
517.29	803.21
517.745	794.21
518.2	787.71
518.655	771.21
519.109	756.31
519.564	756.61
520.019	754.81
520.474	751.31
520.928	749.21
521.383	736.41
521.838	733.51
522.292	736.61
522.747	730.21
523.201	725.01
523.656	717.81
524.11	711.01
524.565	722.71
525.019	711.91
525.474	712.01
525.928	720.21
526.382	713.61
526.837	721.11
527.291	723.41
527.745	713.01
528.2	714.61
528.654	720.61
529.108	705.41
529.562	700.91
530.016	708.21
530.47	707.31
530.925	712.61
531.379	712.11
531.833	722.41
532.287	718.91
532.741	719.11
533.195	717.21
533.649	732.81
534.103	723.81
534.556	722.71
535.01	732.01
535.464	729.41
535.918	734.31
536.372	730.91
536.826	731.11
537.279	723.41
537.733	724.11
538.187	732.31
538.64	730.91
539.094	738.71
539.548	749.71
540.001	745.61
540.455	747.61
540.908	752.71
541.362	760.91
541.815	776.41
542.269	785.51
542.722	783.31
543.175	799.71
543.629	798.81
544.082	813.91
544.536	817.81
544.989	816.71
545.442	818.21
545.895	816.81
546.349	818.71
546.802	819.31
547.255	827.81
547.708	825.01
548.161	848.31
548.614	837.21
549.067	858.41
549.52	852.91
549.973	835.41
550.426	833.91
550.879	836.81
551.332	830.61
551.785	828.51
552.238	829.11
552.691	846.31
553.144	871.41
553.596	878.41
554.049	893.21
554.502	929.41
554.955	940.21
555.407	946.31
555.86	929.41
556.313	926.81
556.765	910.11
557.218	921.51
557.67	910.81
558.123	896.91
558.576	905.91
559.028	913.91
559.48	910.61
559.933	901.41
560.385	876.21
560.838	845.81
561.29	828.91
561.742	819.01
562.195	804.91
562.647	796.91
563.099	810.31
563.551	805.71
564.004	811.11
564.456	800.31
564.908	788.71
565.36	774.21
565.812	766.31
566.264	744.81
566.716	733.71
567.168	732.61
567.62	742.61
568.072	724.81
568.524	725.31
568.976	724.01
569.428	705.91
569.88	700.31
570.332	718.01
570.784	710.21
571.235	713.51
571.687	716.91
572.139	725.71
572.59	733.41
573.042	737.61
573.494	739.91
573.945	738.81
574.397	708.31
574.849	721.41
575.3	725.61
575.752	708.51
576.203	704.81
576.655	714.51
577.106	698.11
577.557	693.31
578.009	693.91
578.46	698.01
578.912	685.81
579.363	690.61
579.814	692.51
580.265	688.71
580.717	698.11
581.168	693.91
581.619	705.21
582.07	712.11
582.521	706.31
582.972	700.11
583.423	703.11
583.875	693.21
584.326	715.81
584.777	740.21
585.227	755.91
585.678	803.41
586.129	822.81
586.58	852.81
587.031	877.71
587.482	935.01
587.933	989.31
588.384	945.21
588.834	843.11
589.285	807.51
589.736	806.61
590.186	804.41
590.637	796.61
591.088	776.01
591.538	775.21
591.989	758.41
592.439	751.91
592.89	747.11
593.34	733.11
593.791	722.91
594.241	736.91
594.692	733.61
595.142	723.21
595.593	725.11
596.043	731.11
596.493	732.01
596.943	732.91
597.394	747.01
597.844	743.91
598.294	763.81
598.744	787.21
599.195	810.41
599.645	849.11
600.095	905.31
600.545	957.41
600.995	1005.31
601.445	1074.61
601.895	1133.71
602.345	1182.21
602.795	1170.21
603.245	1116.41
603.695	1065.11
604.145	1007.01
604.594	951.41
605.044	892.71
605.494	824.81
605.944	798.61
606.393	780.71
606.843	759.11
607.293	761.41
607.743	760.21
608.192	771.71
608.642	786.71
609.091	791.61
609.541	795.61
609.99	787.61
610.44	787.41
610.889	751.51
611.339	726.71
611.788	716.31
612.238	728.41
612.687	739.61
613.136	736.81
613.586	736.61
614.035	728.41
614.484	748.61
614.933	741.81
615.383	743.51
615.832	732.21
616.281	729.41
616.73	703.81
617.179	679.81
617.628	671.91
618.077	656.01
618.526	648.61
618.975	637.91
619.424	642.41
619.873	640.41
620.322	647.01
620.771	627.11
621.22	629.11
621.669	614.41
622.118	619.81
622.567	608.81
623.015	595.91
623.464	590.61
623.913	579.81
624.361	574.11
624.81	574.71
625.259	576.61
625.707	569.61
626.156	579.21
626.604	597.41
627.053	592.51
627.501	577.81
627.95	598.21
628.398	602.91
628.847	599.11
629.295	612.41
629.744	597.01
630.192	594.21
630.64	583.51
631.089	569.61
631.537	571.11
631.985	558.71
632.433	566.51
632.881	563.81
633.33	570.91
633.778	566.31
634.226	548.01
634.674	562.81
635.122	567.21
635.57	577.01
636.018	596.41
636.466	595.51
636.914	585.21
637.362	598.71
637.81	597.11
638.258	599.01
638.705	612.91
639.153	644.21
639.601	646.71
640.049	662.81
640.497	702.31
640.944	713.71
641.392	670.91
641.84	639.61
642.287	605.51
642.735	585.71
643.182	589.01
643.63	587.31
644.078	582.51
644.525	593.31
644.973	605.71
645.42	629.51
645.867	635.31
646.315	656.41
646.762	683.11
647.21	715.21
647.657	727.91
648.104	769.91
648.551	780.01
648.999	858.01
649.446	921.01
649.893	1010.31
650.34	1166.11
650.787	1374.21
651.234	1700.01
651.682	2192.61
652.129	3009.11
652.576	4267.21
653.023	6255.61
653.47	8421.91
653.917	10368.01
654.363	11888.81
654.81	13051.81
655.257	12330.31
655.704	8170.91
656.151	4913.31
656.598	3240.71
657.044	2310.51
657.491	1793.31
657.938	1442.91
658.385	1214.21
658.831	1070.31
659.278	967.21
659.724	852.31
660.171	794.61
660.618	728.81
661.064	697.81
661.511	682.31
661.957	662.31
662.404	660.51
662.85	666.71
663.296	647.91
663.743	586.91
664.189	565.11
664.635	546.71
665.082	549.51
665.528	551.11
665.974	540.51
666.42	526.01
666.867	523.31
667.313	509.81
667.759	483.71
668.205	476.51
668.651	473.91
669.097	475.61
669.543	461.71
669.989	468.91
670.435	481.51
670.881	468.01
671.327	469.01
671.773	502.21
672.219	511.01
672.665	578.31
673.11	617.61
673.556	676.01
674.002	704.61
674.448	694.11
674.893	577.41
675.339	503.01
675.785	464.31
676.23	442.31
676.676	411.71
677.122	404.21
677.567	397.51
678.013	393.31
678.458	379.91
678.904	383.11
679.349	370.51
679.794	377.91
680.24	383.01
680.685	370.11
681.131	367.91
681.576	371.41
682.021	372.81
682.466	364.61
682.912	371.61
683.357	372.31
683.802	398.21
684.247	435.21
684.692	478.41
685.137	519.81
685.583	571.31
686.028	595.71
686.473	547.31
686.918	471.41
687.363	439.41
687.807	421.41
688.252	385.81
688.697	374.91
689.142	360.61
689.587	353.91
690.032	345.51
690.477	359.61
690.921	368.71
691.366	408.01
691.811	426.41
692.255	457.91
692.7	487.31
693.145	543.21
693.589	764.41
694.034	1240.51
694.478	1668.01
694.923	1829.41
695.367	2365.21
695.812	1271.31
696.256	536.81
696.701	392.21
697.145	364.21
697.59	342.31
698.034	337.81
698.478	346.91
698.922	341.01
699.367	344.41
699.811	350.01
700.255	375.61
700.699	405.51
701.143	457.31
701.588	502.31
702.032	545.61
702.476	548.21
702.92	523.41
703.364	535.21
703.808	697.91
704.252	1129.71
704.696	1568.31
705.14	1772.91
705.584	2249.51
706.027	1134.91
706.471	565.71
706.915	425.21
707.359	372.81
707.803	334.91
708.246	336.91
708.69	332.31
709.134	334.41
709.577	332.51
710.021	333.81
710.465	323.21
710.908	314.81
711.352	320.11
711.795	330.11
712.239	372.71
712.682	407.31
713.126	439.91
713.569	479.31
714.012	382.51
714.456	322.51
714.899	297.51
715.342	291.71
715.786	275.21
716.229	275.81
716.672	263.71
717.115	258.41
717.558	258.11
718.002	272.51
718.445	274.01
718.888	300.21
719.331	314.61
719.774	329.61
720.217	326.71
720.66	305.31
721.103	276.11
721.546	261.61
721.989	269.21
722.432	245.11
722.874	251.11
723.317	249.61
723.76	244.81
724.203	267.71
724.645	345.61
725.088	478.51
725.531	613.51
725.974	674.01
726.416	594.51
726.859	320.41
727.301	262.01
727.744	248.81
728.187	257.81
728.629	248.61
729.071	257.21
729.514	275.11
729.956	287.31
730.399	312.51
730.841	309.81
731.283	290.11
731.726	281.11
732.168	280.51
732.61	278.71
733.053	311.11
733.495	337.71
733.937	382.91
734.379	424.11
734.821	471.41
735.263	599.51
735.705	931.91
736.148	1759.91
736.59	2785.51
737.032	3212.41
737.474	2631.61
737.916	867.51
738.357	463.81
738.799	349.11
739.241	314.51
739.683	305.21
740.125	315.81
740.567	315.71
741.008	337.11
741.45	348.61
741.892	340.31
742.334	376.11
742.775	375.01
743.217	364.21
743.658	293.91
744.1	271.31
744.542	286.51
744.983	346.41
745.425	367.71
745.866	366.81
746.307	295.21
746.749	297.61
747.19	354.41
747.632	502.81
748.073	992.31
748.514	2068.71
748.956	3072.91
749.397	3842.31
749.838	3215.21
750.279	3112.71
750.72	1593.81
751.162	579.51
751.603	341.71
752.044	270.21
752.485	231.71
752.926	224.41
753.367	210.81
753.808	210.31
754.249	201.91
754.69	200.51
755.131	193.41
755.572	196.91
756.013	186.71
756.453	192.91
756.894	204.51
757.335	203.01
757.776	209.21
758.216	206.81
758.657	208.11
759.098	215.51
759.538	240.71
759.979	286.61
760.42	411.21
760.86	804.01
761.301	2089.61
761.741	4887.91
762.182	6762.51
762.622	4752.21
763.063	1409.51
