Data from 20171114-ORNL-Ar_H_NY_Subt18_08-07-12-599.txt Node
Date: Tue Nov 14 08:07:12 EST 2017
User: Ender
Spectrometer: HR+D1039
Trigger mode: 0
Integration Time (sec): 2.730000E-2
Scans to average: 10
Electric dark correction enabled: true
Nonlinearity correction enabled: false
Boxcar width: 0
XAxis mode: Wavelengths
Number of Pixels in Spectrum: 2048
>>>>>Begin Spectral Data<<<<<
187.836	-7
188.309	-7
188.782	-7
189.255	-2.4
189.728	-3.5
190.201	9.8
190.674	1.5
191.147	4.8
191.619	-6.9
192.092	-0.7
192.565	5.4
193.038	-6.2
193.511	6
193.984	4.8
194.456	-2.2
194.929	1.5
195.402	-3.8
195.874	-1.1
196.347	-4.4
196.82	-7.2
197.292	6.2
197.765	-2.5
198.237	-5.6
198.71	3.5
199.182	-2.6
199.655	3.7
200.127	4.2
200.6	5.2
201.072	-0.2
201.544	-7
202.017	-1.7
202.489	0
202.961	-5.4
203.433	-6.2
203.906	-10.5
204.378	-9.3
204.85	-2.1
205.322	-9.2
205.794	1.5
206.266	-2.9
206.739	0.1
207.211	2
207.683	-11.8
208.155	-3.7
208.627	-8.8
209.099	-9.6
209.57	-8.9
210.042	-12.8
210.514	-3
210.986	-1.7
211.458	-4.5
211.93	-3
212.402	6
212.873	-2.5
213.345	-4.1
213.817	-14.5
214.288	-2.2
214.76	-8.7
215.232	0
215.703	-4.4
216.175	-4.5
216.646	-3.9
217.118	-5.5
217.589	-4.2
218.061	-8.6
218.532	-7.3
219.004	-5
219.475	-7.9
219.946	-3.7
220.418	-10
220.889	-2.6
221.36	-0.6
221.832	-8.1
222.303	-8.6
222.774	3.3
223.245	-11.9
223.717	-3.6
224.188	-1.4
224.659	-9.8
225.13	-10.8
225.601	-4.2
226.072	4.8
226.543	-1.7
227.014	-2.8
227.485	-2.5
227.956	-3.9
228.427	1.8
228.898	-1.6
229.369	0.4
229.839	-6.3
230.31	-10.3
230.781	5.7
231.252	-4.1
231.722	-9.6
232.193	-10
232.664	3.3
233.135	-3.3
233.605	-2.5
234.076	-3.7
234.546	-2.2
235.017	3.4
235.487	-4.7
235.958	-7.6
236.428	-7.4
236.899	-2.3
237.369	-2.8
237.84	-3
238.31	4
238.78	-2
239.251	-5.3
239.721	-7.2
240.191	0.1
240.662	-2.1
241.132	4.6
241.602	-6.5
242.072	-4
242.542	2.4
243.013	-2.4
243.483	1.6
243.953	-3.1
244.423	-5.1
244.893	-2.3
245.363	-2.3
245.833	2
246.303	-8.9
246.773	0.7
247.243	-3.8
247.712	-2.9
248.182	5.8
248.652	-0.2
249.122	-6.4
249.592	-1.8
250.061	-1.3
250.531	9.3
251.001	-0.3
251.471	5.3
251.94	4.9
252.41	-5
252.879	-7.8
253.349	5.7
253.818	2.5
254.288	-0.3
254.757	0.7
255.227	-5.3
255.696	-7.5
256.166	0.4
256.635	3.4
257.105	0.6
257.574	-2.3
258.043	-0.4
258.513	-3.5
258.982	-0.2
259.451	-8.2
259.92	2
260.389	-4.2
260.859	6.3
261.328	-2.9
261.797	5.4
262.266	-0.3
262.735	5.2
263.204	-0.7
263.673	-4.2
264.142	6.6
264.611	-7.3
265.08	-5.3
265.549	-3.3
266.018	0.7
266.487	-5.5
266.955	-3
267.424	-8
267.893	-0.1
268.362	-0.8
268.83	0.3
269.299	0
269.768	3.3
270.236	-1
270.705	1.5
271.174	4.4
271.642	-2.2
272.111	-2.6
272.579	1.9
273.048	4.1
273.516	0.4
273.985	5.3
274.453	-2.2
274.922	5.8
275.39	1.4
275.858	-3.6
276.327	1.6
276.795	9.9
277.263	-3.7
277.731	14.4
278.2	5
278.668	-0.1
279.136	7.6
279.604	3.6
280.072	8.6
280.54	1.6
281.008	-2.6
281.477	5.8
281.945	4.5
282.413	10.4
282.881	6.6
283.348	6.5
283.816	6.7
284.284	7.6
284.752	12.6
285.22	7.1
285.688	9.9
286.156	9
286.623	14.3
287.091	7.6
287.559	13.5
288.026	7.9
288.494	9.8
288.962	-0.7
289.429	10.1
289.897	12.5
290.364	4.9
290.832	6
291.3	6.2
291.767	7.9
292.234	12.3
292.702	6.2
293.169	6.8
293.637	13.8
294.104	17.5
294.571	4.6
295.039	8.7
295.506	4.1
295.973	4.9
296.44	9
296.908	9.3
297.375	9.6
297.842	10.6
298.309	10
298.776	8.9
299.243	15.8
299.71	7.8
300.177	17.3
300.644	16.9
301.111	5
301.578	17.3
302.045	8.8
302.512	12.1
302.979	17.4
303.446	17.1
303.913	11.2
304.379	14.3
304.846	16.3
305.313	17.9
305.78	15
306.246	17.9
306.713	19.8
307.18	17.3
307.646	17.8
308.113	23.1
308.579	18.6
309.046	16.3
309.512	16.6
309.979	6.3
310.445	21.2
310.912	21.3
311.378	20.1
311.845	18.9
312.311	20.3
312.777	24.4
313.244	21.8
313.71	30.8
314.176	15.1
314.642	16
315.109	20.2
315.575	28.2
316.041	26.9
316.507	19.3
316.973	31
317.439	25.7
317.905	25.3
318.371	30.3
318.837	25.6
319.303	28.2
319.769	26.2
320.235	23.9
320.701	20.1
321.167	23.7
321.633	25
322.099	24.3
322.564	32.5
323.03	30.1
323.496	22.4
323.962	33.4
324.427	33.7
324.893	28.1
325.359	24.4
325.824	29
326.29	28.6
326.755	34.6
327.221	28.8
327.686	29.9
328.152	37
328.617	35.7
329.083	33.6
329.548	41.5
330.014	34.4
330.479	28
330.944	39.6
331.41	36.2
331.875	38
332.34	39.4
332.805	35.4
333.271	36.9
333.736	23.5
334.201	37.7
334.666	41.9
335.131	40.8
335.596	44.1
336.061	37.5
336.526	32
336.991	34
337.456	39.4
337.921	38.5
338.386	36
338.851	37.3
339.316	39.4
339.781	38
340.246	45.5
340.711	38.2
341.175	38
341.64	32.9
342.105	38
342.569	43.4
343.034	47.3
343.499	40.9
343.963	42.6
344.428	55.4
344.893	53.5
345.357	52.2
345.822	50.6
346.286	59.8
346.751	60.4
347.215	58.5
347.679	56.8
348.144	74.6
348.608	66.1
349.073	56.4
349.537	55
350.001	59.4
350.465	73.2
350.93	62.2
351.394	68.9
351.858	53.1
352.322	70.7
352.786	71.1
353.25	78.5
353.715	79.6
354.179	79.9
354.643	97.7
355.107	102.1
355.571	85.9
356.035	80.4
356.498	94.1
356.962	93.1
357.426	96.9
357.89	88.7
358.354	76.5
358.818	72.7
359.281	66.1
359.745	64.3
360.209	60.9
360.673	63.3
361.136	65.1
361.6	72.7
362.064	71.3
362.527	68.7
362.991	77.6
363.454	67.1
363.918	65.5
364.381	66.9
364.845	72
365.308	82.3
365.772	75.7
366.235	75.7
366.698	68.1
367.162	75.1
367.625	72.1
368.088	78.6
368.552	69.4
369.015	72
369.478	73.1
369.941	88.9
370.404	81.6
370.867	89.7
371.331	88.4
371.794	93.8
372.257	78.1
372.72	91.6
373.183	90
373.646	78.6
374.109	87.6
374.572	84.3
375.035	86.1
375.497	96.4
375.96	90.1
376.423	94.5
376.886	101.9
377.349	93.8
377.811	90
378.274	98
378.737	95.4
379.199	92.8
379.662	102
380.125	100.4
380.587	91.6
381.05	97.8
381.512	106.6
381.975	107.9
382.437	109.3
382.9	104.7
383.362	112
383.825	113.4
384.287	114.7
384.75	106.8
385.212	112.2
385.674	114.6
386.136	118.5
386.599	108.8
387.061	109.3
387.523	109.4
387.985	112.8
388.447	119.8
388.91	111.2
389.372	122
389.834	121.3
390.296	115.4
390.758	120.6
391.22	125.4
391.682	137.9
392.144	138.4
392.606	133.9
393.068	129.8
393.529	142.7
393.991	136.8
394.453	114.5
394.915	123.3
395.377	123.7
395.838	129.2
396.3	128
396.762	137
397.224	122.9
397.685	120.4
398.147	133.7
398.608	123
399.07	122.8
399.531	127.7
399.993	133.9
400.454	144
400.916	137.3
401.377	131.6
401.839	139.5
402.3	140.1
402.762	162.3
403.223	170.2
403.684	158.9
404.145	162.5
404.607	150.7
405.068	151.7
405.529	161.3
405.99	177.1
406.451	164.3
406.913	167.6
407.374	160.9
407.835	153
408.296	154.7
408.757	156.9
409.218	170.2
409.679	171.2
410.14	164.3
410.601	168.7
411.062	173.8
411.522	167.6
411.983	171.5
412.444	169.8
412.905	180.9
413.366	180.9
413.826	195.5
414.287	216.1
414.748	252.7
415.208	246.5
415.669	210.7
416.13	199.6
416.59	200.5
417.051	209.6
417.511	220.8
417.972	235.2
418.432	248.5
418.893	283.5
419.353	248.1
419.814	192.6
420.274	179.2
420.734	183.2
421.195	192.5
421.655	178.4
422.115	184.7
422.576	190.6
423.036	203.7
423.496	207.7
423.956	208
424.416	229.3
424.876	264.9
425.336	253.9
425.797	261.1
426.257	248.8
426.717	238.9
427.177	229
427.637	216.5
428.097	230.7
428.556	236.2
429.016	259.5
429.476	259.4
429.936	252.8
430.396	263.6
430.856	269.9
431.315	302.4
431.775	328.6
432.235	367.8
432.694	333.9
433.154	339
433.614	361.7
434.073	323.7
434.533	278.3
434.993	263
435.452	273.5
435.912	282.5
436.371	278.9
436.83	270.8
437.29	256.1
437.749	244.9
438.209	246.8
438.668	259.5
439.127	271.5
439.587	260.9
440.046	240.9
440.505	254.5
440.964	269.7
441.424	308.2
441.883	305.1
442.342	251.7
442.801	228.2
443.26	225
443.719	221.6
444.178	218.1
444.637	206.1
445.096	223.9
445.555	225.5
446.014	227.2
446.473	236.1
446.932	239
447.391	233.6
447.849	221.7
448.308	222.3
448.767	229.6
449.226	241.1
449.685	239.9
450.143	251.6
450.602	231.6
451.061	226.2
451.519	237.7
451.978	234.4
452.436	241.6
452.895	243.6
453.353	252.6
453.812	242.1
454.27	238.1
454.729	243.2
455.187	244.3
455.646	252.5
456.104	260.8
456.562	260.2
457.021	265
457.479	257.3
457.937	282.2
458.395	272.4
458.854	249.9
459.312	258.1
459.77	272.4
460.228	254.4
460.686	243.7
461.144	252.3
461.602	253
462.06	246
462.518	262.9
462.976	260.4
463.434	264.9
463.892	269.1
464.35	280.1
464.808	292.8
465.266	275.5
465.724	277.5
466.181	277.1
466.639	281.6
467.097	295.4
467.555	306.9
468.012	311.9
468.47	312.6
468.928	330.8
469.385	351.8
469.843	355.9
470.3	360.2
470.758	369.4
471.215	386.9
471.673	400.5
472.13	409.7
472.588	425.6
473.045	384.2
473.503	391.9
473.96	410.6
474.417	409.9
474.875	440
475.332	476.9
475.789	464.6
476.246	468.9
476.704	481.5
477.161	516.2
477.618	521
478.075	558.3
478.532	608.9
478.989	683.2
479.446	784.5
479.903	754.9
480.36	791.4
480.817	835.9
481.274	922.1
481.731	994.2
482.188	1089.5
482.645	1216.7
483.102	1294.4
483.558	1413.7
484.015	1446.9
484.472	1437.5
484.929	1387.6
485.385	1353.4
485.842	1327.6
486.299	1264.6
486.755	1233.6
487.212	1058.1
487.668	897.7
488.125	830
488.582	768.4
489.038	741.6
489.494	711.3
489.951	688.8
490.407	675.3
490.864	651.3
491.32	644.9
491.776	645
492.233	655.4
492.689	624.3
493.145	612.6
493.602	600.9
494.058	624.1
494.514	618.7
494.97	645.5
495.426	660.9
495.882	628.5
496.338	625.9
496.794	644.6
497.251	625.5
497.707	641.4
498.163	645.9
498.618	652
499.074	651.4
499.53	674.1
499.986	675.5
500.442	655.9
500.898	632.9
501.354	624.6
501.809	634.2
502.265	636.5
502.721	647.8
503.177	651.7
503.632	656.7
504.088	661.6
504.543	681.5
504.999	704.5
505.455	670.2
505.91	643.8
506.366	643.1
506.821	651.6
507.277	642.3
507.732	655.9
508.187	644.4
508.643	659.5
509.098	658
509.553	669.5
510.009	689.6
510.464	698.4
510.919	710.4
511.375	717.6
511.83	730.8
512.285	742.2
512.74	779.6
513.195	788.6
513.65	784.8
514.105	778.8
514.56	787.5
515.015	804
515.47	818.8
515.925	794
516.38	800
516.835	812.7
517.29	800.4
517.745	802.3
518.2	774.7
518.655	764.7
519.109	760.2
519.564	763.4
520.019	749.9
520.474	741
520.928	748.6
521.383	732.5
521.838	718
522.292	737.7
522.747	733.5
523.201	729.8
523.656	716.6
524.11	716.4
524.565	699.2
525.019	708.4
525.474	715.3
525.928	722.2
526.382	708.5
526.837	719.4
527.291	714.6
527.745	721.6
528.2	715.7
528.654	703.2
529.108	711.4
529.562	701.9
530.016	706
530.47	713.1
530.925	708.7
531.379	702
531.833	718.8
532.287	716.3
532.741	715.3
533.195	719.7
533.649	729.9
534.103	737.2
534.556	729.8
535.01	722.6
535.464	714.7
535.918	739.3
536.372	739.5
536.826	729.7
537.279	720
537.733	724.3
538.187	734.8
538.64	734.2
539.094	745.5
539.548	750.7
540.001	754.1
540.455	740.8
540.908	745.7
541.362	758.1
541.815	755.3
542.269	778.4
542.722	776.7
543.175	793.6
543.629	784.3
544.082	794
544.536	811.9
544.989	800.6
545.442	811
545.895	806.5
546.349	818
546.802	817.4
547.255	833.1
547.708	830.4
548.161	837.1
548.614	850
549.067	847.7
549.52	849.4
549.973	839.3
550.426	830.3
550.879	829.9
551.332	818.5
551.785	831.5
552.238	834.4
552.691	844.3
553.144	861.8
553.596	873.7
554.049	879.8
554.502	927.2
554.955	940.5
555.407	941.8
555.86	930
556.313	921.7
556.765	899.6
557.218	906.2
557.67	902.1
558.123	901
558.576	892.9
559.028	896.9
559.48	908.8
559.933	897.7
560.385	867.4
560.838	837.1
561.29	818
561.742	804.9
562.195	784.3
562.647	784.6
563.099	791.3
563.551	797.5
564.004	803
564.456	794.2
564.908	780.8
565.36	766.2
565.812	750.3
566.264	737.8
566.716	734.8
567.168	726.4
567.62	728.5
568.072	719.6
568.524	715.7
568.976	707.2
569.428	699.5
569.88	696
570.332	703.6
570.784	708.6
571.235	702.4
571.687	725.4
572.139	730.4
572.59	727.3
573.042	730.1
573.494	727.7
573.945	730
574.397	704.2
574.849	717.7
575.3	710.7
575.752	705.6
576.203	694.5
576.655	698.9
577.106	687.6
577.557	689
578.009	685.5
578.46	681.3
578.912	682.9
579.363	677.8
579.814	690.8
580.265	684.1
580.717	690.8
581.168	694.3
581.619	694.6
582.07	700.9
582.521	691.1
582.972	687.2
583.423	700.2
583.875	693
584.326	710.4
584.777	715.1
585.227	732.3
585.678	743.7
586.129	751
586.58	775.9
587.031	805.6
587.482	822
587.933	846
588.384	840.1
588.834	790.7
589.285	794.8
589.736	793.2
590.186	785.4
590.637	784.1
591.088	763.6
591.538	753.1
591.989	744
592.439	737.3
592.89	733.6
593.34	727.5
593.791	726.8
594.241	712.7
594.692	707
595.142	711.2
595.593	705.4
596.043	706.4
596.493	725.1
596.943	728.8
597.394	727.5
597.844	733.5
598.294	760
598.744	773.7
599.195	798.7
599.645	835.2
600.095	877.4
600.545	935.2
600.995	999.4
601.445	1039.7
601.895	1108.5
602.345	1167.8
602.795	1136.7
603.245	1100.7
603.695	1034.7
604.145	980.8
604.594	939.5
605.044	886
605.494	820.9
605.944	765.9
606.393	759
606.843	747
607.293	753
607.743	744.3
608.192	750.2
608.642	761.1
609.091	764.5
609.541	770.8
609.99	773.8
610.44	767.3
610.889	735.6
611.339	706.8
611.788	695
612.238	698.1
612.687	719.7
613.136	705.6
613.586	716.5
614.035	717.8
614.484	728.1
614.933	723.6
615.383	715
615.832	716.6
616.281	706.1
616.73	679.8
617.179	671.4
617.628	650
618.077	637.2
618.526	631.9
618.975	622.6
619.424	627.2
619.873	617.9
620.322	632.2
620.771	623.2
621.22	607.8
621.669	597.2
622.118	600.3
622.567	588.3
623.015	578.2
623.464	585.3
623.913	571.6
624.361	563.3
624.81	560.3
625.259	568.3
625.707	558.4
626.156	562.5
626.604	577.4
627.053	575.9
627.501	575.7
627.95	581.7
628.398	590.2
628.847	575.2
629.295	586
629.744	598.4
630.192	571
630.64	567.4
631.089	559.3
631.537	545.1
631.985	537
632.433	539.5
632.881	535.5
633.33	543.6
633.778	529.2
634.226	529.6
634.674	545.5
635.122	550.6
635.57	558.3
636.018	563.1
636.466	576.2
636.914	567.1
637.362	577.9
637.81	584.1
638.258	593.7
638.705	588.3
639.153	628.4
639.601	628.5
640.049	658.3
640.497	680.6
640.944	709.2
641.392	657.3
641.84	625.2
642.287	588.3
642.735	566.9
643.182	571.8
643.63	569.6
644.078	567.6
644.525	584.5
644.973	580.2
645.42	596
645.867	613
646.315	630.4
646.762	661
647.21	679.6
647.657	702.8
648.104	739.7
648.551	759.5
648.999	821.6
649.446	889.8
649.893	970.7
650.34	1110.4
650.787	1313.3
651.234	1625.3
651.682	2096.1
652.129	2845.9
652.576	4018
653.023	5839.5
653.47	7930.9
653.917	9840.2
654.363	11344.6
654.81	12535.6
655.257	11882.4
655.704	7839.2
656.151	4711.2
656.598	3110.7
657.044	2229.2
657.491	1738
657.938	1409
658.385	1171.7
658.831	1040.7
659.278	931
659.724	825.9
660.171	765.5
660.618	701.8
661.064	677.5
661.511	661.6
661.957	647.1
662.404	632.2
662.85	641.6
663.296	622.8
663.743	563.3
664.189	539.9
664.635	534.9
665.082	528.7
665.528	533.4
665.974	518.1
666.42	516
666.867	509.6
667.313	490.2
667.759	465.1
668.205	458.6
668.651	461.9
669.097	444
669.543	444.9
669.989	444.6
670.435	454.9
670.881	457.8
671.327	457.4
671.773	472.7
672.219	484.6
672.665	559.4
673.11	600.8
673.556	644.1
674.002	684.5
674.448	669.3
674.893	560.4
675.339	490.1
675.785	447.2
676.23	427.4
676.676	406.4
677.122	390.5
677.567	382
678.013	371.7
678.458	368
678.904	372.4
679.349	354.6
679.794	367.3
680.24	352.6
680.685	348.8
681.131	351.9
681.576	352.4
682.021	354.2
682.466	349.6
682.912	357.8
683.357	366.8
683.802	394.2
684.247	421.1
684.692	462.4
685.137	506.8
685.583	544.3
686.028	570.2
686.473	523.6
686.918	458.4
687.363	432
687.807	396
688.252	373.5
688.697	372.7
689.142	344.3
689.587	337.5
690.032	336.3
690.477	356.1
690.921	372.7
691.366	392
691.811	404.9
692.255	431.3
692.7	460.4
693.145	518.1
693.589	713.7
694.034	1170.6
694.478	1589.6
694.923	1779.2
695.367	2321.3
695.812	1232.3
696.256	512
696.701	376.1
697.145	353.6
697.59	337.7
698.034	322.1
698.478	328.1
698.922	328.6
699.367	324.2
699.811	342.9
700.255	353.3
700.699	388.2
701.143	428.4
701.588	486.4
702.032	520.6
702.476	528.1
702.92	506.1
703.364	503.3
703.808	660.7
704.252	1070.5
704.696	1501.3
705.14	1722.5
705.584	2188.9
706.027	1082.3
706.471	528.5
706.915	408.5
707.359	364.4
707.803	325.4
708.246	325.6
708.69	317.9
709.134	321
709.577	316.8
710.021	323
710.465	313.5
710.908	304.6
711.352	301.2
711.795	318.1
712.239	361
712.682	392.8
713.126	423.5
713.569	467.2
714.012	364
714.456	318.9
714.899	297.8
715.342	279.8
715.786	265.8
716.229	260.1
716.672	261.8
717.115	255.9
717.558	252
718.002	262.2
718.445	267.4
718.888	288.6
719.331	295.3
719.774	309.2
720.217	303.7
720.66	290.9
721.103	271.5
721.546	265.5
721.989	254.7
722.432	237.5
722.874	238.5
723.317	233.4
723.76	242.8
724.203	265.8
724.645	327.8
725.088	463.6
725.531	580.5
725.974	659.4
726.416	560.6
726.859	315.8
727.301	252.2
727.744	233.6
728.187	231.9
728.629	246.9
729.071	252
729.514	267.1
729.956	283.1
730.399	291.7
730.841	286.3
731.283	278.6
731.726	277.4
732.168	270.9
732.61	269.9
733.053	294.4
733.495	319.9
733.937	358.4
734.379	410.9
734.821	439.2
735.263	558.7
735.705	862.3
736.148	1645.9
736.59	2679.3
737.032	3141.2
737.474	2554.8
737.916	842.5
738.357	445.3
738.799	340.4
739.241	305
739.683	290
740.125	296.4
740.567	303.7
741.008	319.3
741.45	320.3
741.892	331.6
742.334	362.5
742.775	371.5
743.217	358.9
743.658	274.5
744.1	258.6
744.542	273.4
744.983	325.6
745.425	357.5
745.866	354.5
746.307	276.9
746.749	284.7
747.19	326.6
747.632	470.1
748.073	918.3
748.514	1938.8
748.956	2959.7
749.397	3699.1
749.838	3071
750.279	3065.4
750.72	1550
751.162	568
751.603	343.5
752.044	254.9
752.485	226.8
752.926	212.7
753.367	205.3
753.808	193.3
754.249	194
754.69	193.4
755.131	191.3
755.572	180.4
756.013	188.1
756.453	195.7
756.894	187.3
757.335	201.6
757.776	203.1
758.216	205.2
758.657	200.2
759.098	205
759.538	231.8
759.979	271.6
760.42	391
760.86	739.3
761.301	1913.5
761.741	4625.1
762.182	6636.8
762.622	4660
763.063	1356.1
763.503	557.3
763.943	337.7
764.384	270.5
764.824	241
765.264	231.9
765.705	207
766.145	183.1
766.585	173.6
767.025	175.3
767.465	171.5
767.906	174.2
768.346	199.6
768.786	205.6
769.226	215.1
769.666	317.8
770.106	638.5
770.546	1612.2
770.986	2726.5
771.426	2435.4
771.866	817.1
772.306	329.7
772.745	209.3
773.185	171.2
773.625	167.1
774.065	153.1
774.505	163.4
774.944	205
775.384	363.4
775.824	595.5
776.263	569.6
776.703	279.4
777.142	156.4
777.582	131.1
778.021	124.4
778.461	123.3
778.9	121.7
779.34	124.6
779.779	113.6
780.219	113.5
780.658	103.6
781.097	102.3
781.537	117.6
781.976	111.9
782.415	112.2
782.855	104.1
783.294	104.2
783.733	108.1
784.172	111
784.611	97.4
785.05	108.6
785.489	112.5
785.928	116.2
786.367	125.6
786.806	125.7
787.245	131.1
787.684	138.7
788.123	146.7
788.562	139
789.001	130.6
789.44	122.9
789.879	117.8
790.317	115.7
790.756	128
791.195	126.8
791.634	150.5
792.072	207
792.511	375.9
792.95	1044.8
793.388	2176.2
793.827	1952.4
794.265	683.3
794.704	285
795.142	185.8
795.581	152.4
796.019	135.8
796.458	132.7
796.896	120
797.334	137
797.773	160.5
798.211	220.1
798.649	458.5
799.087	1052.9
799.526	1660.1
799.964	2083.5
800.402	2043.9
800.84	789.1
801.278	311.1
801.716	190.4
802.154	155.7
802.592	143.5
803.03	144.3
803.468	139.6
803.906	149.2
804.344	154.6
804.782	143.2
805.22	133.7
805.658	134
806.096	155.1
806.533	162.2
806.971	177.2
807.409	228.9
807.847	327.6
808.284	703.1
808.722	1949.6
809.16	3412.2
