Data from 20171114-ORNL-Ar_H_NY_Subt18_08-06-58-678.txt Node
Date: Tue Nov 14 08:06:58 EST 2017
User: Ender
Spectrometer: HR+D1039
Trigger mode: 0
Integration Time (sec): 2.730000E-2
Scans to average: 10
Electric dark correction enabled: true
Nonlinearity correction enabled: false
Boxcar width: 0
XAxis mode: Wavelengths
Number of Pixels in Spectrum: 2048
>>>>>Begin Spectral Data<<<<<
187.836	-1.92
188.309	-1.92
188.782	-1.92
189.255	6.68
189.728	-5.02
190.201	6.78
190.674	-0.02
191.147	4.98
191.619	-8.32
192.092	6.68
192.565	3.58
193.038	-0.32
193.511	-2.72
193.984	0.38
194.456	-6.02
194.929	-3.82
195.402	1.58
195.874	-2.52
196.347	0.08
196.82	-9.32
197.292	3.38
197.765	-4.42
198.237	0.78
198.71	0.58
199.182	-2.22
199.655	1.98
200.127	4.08
200.6	-1.82
201.072	-7.62
201.544	-7.02
202.017	-2.52
202.489	6.38
202.961	-1.72
203.433	-0.82
203.906	-6.82
204.378	-8.82
204.85	0.18
205.322	-8.62
205.794	1.88
206.266	-7.22
206.739	-2.62
207.211	-0.12
207.683	-6.92
208.155	-4.92
208.627	-2.32
209.099	-1.82
209.57	-7.32
210.042	-6.82
210.514	-2.52
210.986	1.78
211.458	-7.52
211.93	-0.12
212.402	2.68
212.873	-8.82
213.345	-8.02
213.817	-10.92
214.288	0.18
214.76	-10.92
215.232	-3.62
215.703	-8.52
216.175	1.78
216.646	-6.42
217.118	-4.72
217.589	1.68
218.061	-1.12
218.532	2.68
219.004	-2.52
219.475	3.48
219.946	0.48
220.418	-0.82
220.889	7.58
221.36	3.08
221.832	-1.52
222.303	-6.92
222.774	4.78
223.245	-7.62
223.717	-1.22
224.188	-3.02
224.659	-3.12
225.13	0.58
225.601	-4.92
226.072	2.38
226.543	0.58
227.014	-0.02
227.485	-2.22
227.956	-5.72
228.427	-2.92
228.898	-0.12
229.369	2.18
229.839	-9.42
230.31	-3.52
230.781	2.88
231.252	-2.72
231.722	-7.72
232.193	-6.62
232.664	-2.02
233.135	0.08
233.605	-1.02
234.076	-6.22
234.546	4.18
235.017	-0.32
235.487	1.38
235.958	-6.22
236.428	-3.02
236.899	-4.02
237.369	-5.52
237.84	-4.92
238.31	-1.52
238.78	-5.12
239.251	-8.92
239.721	-6.82
240.191	-9.12
240.662	-3.02
241.132	-11.22
241.602	-4.22
242.072	2.38
242.542	-1.32
243.013	0.58
243.483	2.98
243.953	2.08
244.423	-1.02
244.893	-3.42
245.363	2.98
245.833	1.68
246.303	-8.12
246.773	-0.62
247.243	0.38
247.712	-4.22
248.182	9.28
248.652	7.38
249.122	-8.32
249.592	-0.82
250.061	5.78
250.531	9.58
251.001	-2.32
251.471	5.78
251.94	5.18
252.41	-0.52
252.879	-2.42
253.349	10.28
253.818	3.18
254.288	3.78
254.757	7.38
255.227	-4.32
255.696	3.98
256.166	5.18
256.635	-1.12
257.105	0.18
257.574	7.58
258.043	-4.52
258.513	1.48
258.982	-4.12
259.451	-3.72
259.92	0.28
260.389	0.48
260.859	8.38
261.328	5.78
261.797	5.28
262.266	-0.22
262.735	5.88
263.204	0.78
263.673	-2.22
264.142	0.48
264.611	-6.72
265.08	-5.02
265.549	-5.12
266.018	3.48
266.487	-1.92
266.955	-0.62
267.424	-9.22
267.893	1.48
268.362	-0.32
268.83	0.38
269.299	9.78
269.768	2.08
270.236	6.28
270.705	-4.92
271.174	2.38
271.642	-0.42
272.111	1.18
272.579	6.58
273.048	4.48
273.516	-1.52
273.985	2.28
274.453	5.88
274.922	7.18
275.39	11.48
275.858	0.98
276.327	8.78
276.795	15.28
277.263	-1.62
277.731	12.78
278.2	3.78
278.668	8.48
279.136	5.98
279.604	3.28
280.072	5.68
280.54	8.38
281.008	3.48
281.477	14.48
281.945	10.58
282.413	13.78
282.881	10.28
283.348	-0.12
283.816	7.88
284.284	5.28
284.752	20.98
285.22	10.68
285.688	9.78
286.156	9.48
286.623	12.58
287.091	3.98
287.559	11.58
288.026	10.98
288.494	13.18
288.962	0.08
289.429	3.58
289.897	18.98
290.364	6.78
290.832	13.98
291.3	10.78
291.767	14.18
292.234	15.78
292.702	7.78
293.169	10.48
293.637	15.08
294.104	18.18
294.571	4.68
295.039	9.18
295.506	10.58
295.973	11.68
296.44	10.68
296.908	13.78
297.375	18.18
297.842	18.58
298.309	12.28
298.776	2.88
299.243	15.08
299.71	7.68
300.177	17.08
300.644	14.58
301.111	10.88
301.578	19.78
302.045	10.78
302.512	22.68
302.979	23.48
303.446	12.88
303.913	14.78
304.379	16.78
304.846	23.88
305.313	16.58
305.78	17.18
306.246	23.48
306.713	25.48
307.18	22.68
307.646	20.38
308.113	25.28
308.579	19.68
309.046	23.38
309.512	16.58
309.979	16.08
310.445	17.88
310.912	23.28
311.378	22.68
311.845	28.08
312.311	21.58
312.777	29.08
313.244	30.18
313.71	26.38
314.176	31.98
314.642	23.28
315.109	22.28
315.575	31.38
316.041	29.08
316.507	23.28
316.973	26.18
317.439	28.58
317.905	22.28
318.371	28.98
318.837	23.78
319.303	23.68
319.769	28.48
320.235	36.18
320.701	32.48
321.167	35.48
321.633	23.98
322.099	25.38
322.564	42.08
323.03	32.58
323.496	36.18
323.962	41.68
324.427	31.58
324.893	34.58
325.359	32.38
325.824	32.08
326.29	28.58
326.755	38.28
327.221	35.18
327.686	36.48
328.152	37.88
328.617	32.98
329.083	36.98
329.548	48.58
330.014	39.68
330.479	33.48
330.944	40.18
331.41	34.58
331.875	41.48
332.34	32.98
332.805	37.78
333.271	37.78
333.736	31.48
334.201	40.88
334.666	45.18
335.131	45.48
335.596	45.28
336.061	49.48
336.526	33.98
336.991	43.78
337.456	50.98
337.921	47.28
338.386	37.58
338.851	40.88
339.316	43.68
339.781	43.98
340.246	45.38
340.711	41.08
341.175	45.28
341.64	40.58
342.105	47.18
342.569	51.58
343.034	51.98
343.499	54.28
343.963	46.38
344.428	65.18
344.893	57.48
345.357	54.38
345.822	57.28
346.286	66.98
346.751	62.78
347.215	58.58
347.679	64.18
348.144	82.98
348.608	73.88
349.073	61.78
349.537	70.88
350.001	62.58
350.465	74.48
350.93	69.78
351.394	75.48
351.858	63.68
352.322	75.08
352.786	74.48
353.25	86.78
353.715	95.38
354.179	86.08
354.643	101.28
355.107	105.98
355.571	91.28
356.035	92.68
356.498	98.98
356.962	99.88
357.426	100.48
357.89	99.38
358.354	77.18
358.818	76.98
359.281	68.48
359.745	68.88
360.209	65.88
360.673	66.48
361.136	71.48
361.6	76.48
362.064	72.78
362.527	75.78
362.991	85.28
363.454	73.98
363.918	67.88
364.381	77.88
364.845	71.48
365.308	82.88
365.772	81.38
366.235	75.88
366.698	75.58
367.162	80.88
367.625	74.98
368.088	75.68
368.552	81.88
369.015	83.58
369.478	88.88
369.941	82.48
370.404	81.98
370.867	94.48
371.331	98.78
371.794	100.78
372.257	90.18
372.72	97.48
373.183	99.68
373.646	89.48
374.109	90.18
374.572	91.78
375.035	95.68
375.497	97.48
375.96	94.38
376.423	103.38
376.886	102.98
377.349	98.88
377.811	95.18
378.274	96.88
378.737	105.88
379.199	96.38
379.662	104.28
380.125	99.68
380.587	104.78
381.05	103.18
381.512	113.38
381.975	117.68
382.437	108.88
382.9	113.88
383.362	108.68
383.825	114.38
384.287	116.88
384.75	112.38
385.212	119.58
385.674	119.38
386.136	125.28
386.599	107.98
387.061	112.08
387.523	113.98
387.985	123.58
388.447	133.78
388.91	119.48
389.372	124.18
389.834	121.68
390.296	120.78
390.758	127.08
391.22	133.98
391.682	136.88
392.144	148.58
392.606	133.38
393.068	135.88
393.529	145.08
393.991	135.38
394.453	126.18
394.915	131.28
395.377	133.28
395.838	129.18
396.3	133.68
396.762	138.78
397.224	137.18
397.685	129.78
398.147	134.68
398.608	131.58
399.07	125.48
399.531	135.38
399.993	137.88
400.454	155.78
400.916	137.28
401.377	141.48
401.839	147.58
402.3	150.58
402.762	163.78
403.223	166.78
403.684	164.58
404.145	152.68
404.607	163.28
405.068	153.48
405.529	165.68
405.99	177.18
406.451	167.38
406.913	172.38
407.374	164.68
407.835	163.38
408.296	158.08
408.757	164.38
409.218	182.58
409.679	176.28
410.14	173.78
410.601	173.08
411.062	180.08
411.522	172.98
411.983	176.68
412.444	172.88
412.905	186.48
413.366	181.88
413.826	199.18
414.287	218.58
414.748	271.18
415.208	253.68
415.669	219.08
416.13	210.28
416.59	202.88
417.051	224.08
417.511	220.68
417.972	240.78
418.432	253.88
418.893	294.18
419.353	264.18
419.814	205.08
420.274	187.48
420.734	192.18
421.195	198.28
421.655	184.88
422.115	192.58
422.576	196.48
423.036	204.68
423.496	202.08
423.956	216.38
424.416	237.58
424.876	270.58
425.336	271.78
425.797	264.28
426.257	259.68
426.717	238.78
427.177	236.08
427.637	221.68
428.097	231.78
428.556	241.58
429.016	260.38
429.476	260.58
429.936	269.38
430.396	275.18
430.856	282.68
431.315	310.98
431.775	339.18
432.235	378.88
432.694	347.08
433.154	351.88
433.614	384.98
434.073	328.58
434.533	280.38
434.993	265.18
435.452	279.78
435.912	294.28
436.371	277.58
436.83	284.78
437.29	263.08
437.749	243.68
438.209	252.38
438.668	276.38
439.127	282.58
439.587	272.98
440.046	253.08
440.505	260.58
440.964	276.38
441.424	318.48
441.883	314.38
442.342	260.78
442.801	232.88
443.26	223.08
443.719	230.78
444.178	218.78
444.637	218.38
445.096	229.18
445.555	231.58
446.014	236.28
446.473	232.78
446.932	241.58
447.391	236.98
447.849	232.58
448.308	225.28
448.767	230.38
449.226	244.08
449.685	247.88
450.143	256.18
450.602	246.28
451.061	233.68
451.519	244.18
451.978	239.78
452.436	235.28
452.895	249.48
453.353	257.38
453.812	251.38
454.27	251.18
454.729	251.88
455.187	248.78
455.646	255.88
456.104	261.18
456.562	267.68
457.021	283.38
457.479	274.28
457.937	289.88
458.395	272.38
458.854	260.48
459.312	270.48
459.77	282.48
460.228	264.08
460.686	258.88
461.144	261.78
461.602	253.18
462.06	254.18
462.518	270.68
462.976	266.08
463.434	271.18
463.892	279.48
464.35	295.38
464.808	296.68
465.266	287.58
465.724	284.58
466.181	291.18
466.639	276.38
467.097	300.68
467.555	318.58
468.012	317.58
468.47	322.68
468.928	338.88
469.385	358.58
469.843	359.48
470.3	363.08
470.758	372.88
471.215	397.68
471.673	419.28
472.13	416.58
472.588	436.98
473.045	388.08
473.503	395.18
473.96	410.88
474.417	425.18
474.875	443.68
475.332	493.98
475.789	474.98
476.246	474.28
476.704	506.28
477.161	520.18
477.618	540.18
478.075	576.98
478.532	631.08
478.989	694.28
479.446	808.68
479.903	777.48
480.36	802.58
480.817	842.28
481.274	931.98
481.731	1033.08
482.188	1120.18
482.645	1225.78
483.102	1324.08
483.558	1451.78
484.015	1490.88
484.472	1466.18
484.929	1427.78
485.385	1369.78
485.842	1354.18
486.299	1292.38
486.755	1255.58
487.212	1069.58
487.668	922.08
488.125	861.88
488.582	784.68
489.038	751.88
489.494	719.68
489.951	710.78
490.407	690.58
490.864	659.88
491.32	653.78
491.776	663.88
492.233	673.78
492.689	637.28
493.145	647.48
493.602	620.48
494.058	630.08
494.514	637.68
494.97	667.48
495.426	673.88
495.882	650.18
496.338	630.38
496.794	646.68
497.251	649.48
497.707	654.08
498.163	662.38
498.618	665.98
499.074	667.98
499.53	699.18
499.986	690.28
500.442	669.88
500.898	640.18
501.354	641.28
501.809	640.78
502.265	652.08
502.721	648.18
503.177	672.98
503.632	675.38
504.088	669.88
504.543	692.58
504.999	710.78
505.455	675.68
505.91	665.68
506.366	669.48
506.821	659.08
507.277	655.78
507.732	668.08
508.187	663.38
508.643	675.68
509.098	666.58
509.553	683.78
510.009	698.88
510.464	706.48
510.919	720.78
511.375	723.58
511.83	735.08
512.285	752.08
512.74	785.78
513.195	813.28
513.65	797.18
514.105	795.68
514.56	812.58
515.015	812.58
515.47	835.08
515.925	814.38
516.38	814.08
516.835	819.78
517.29	815.58
517.745	805.38
518.2	792.68
518.655	774.68
519.109	778.68
519.564	793.18
520.019	760.08
520.474	759.48
520.928	752.28
521.383	749.48
521.838	750.58
522.292	753.78
522.747	739.68
523.201	730.18
523.656	746.38
524.11	729.78
524.565	733.58
525.019	725.58
525.474	723.78
525.928	728.68
526.382	732.18
526.837	731.38
527.291	741.58
527.745	734.88
528.2	727.48
528.654	733.18
529.108	718.18
529.562	726.98
530.016	724.08
530.47	712.48
530.925	724.38
531.379	713.68
531.833	735.38
532.287	731.38
532.741	733.58
533.195	737.28
533.649	751.48
534.103	749.98
534.556	742.78
535.01	739.78
535.464	740.58
535.918	757.48
536.372	748.68
536.826	755.88
537.279	737.08
537.733	746.98
538.187	746.88
538.64	741.08
539.094	748.18
539.548	771.88
540.001	760.58
540.455	759.48
540.908	768.98
541.362	765.28
541.815	776.58
542.269	797.28
542.722	803.18
543.175	804.98
543.629	801.18
544.082	825.08
544.536	821.28
544.989	826.68
545.442	835.08
545.895	823.38
546.349	828.28
546.802	832.88
547.255	832.78
547.708	846.08
548.161	858.18
548.614	856.28
549.067	869.88
549.52	855.48
549.973	849.78
550.426	849.38
550.879	849.28
551.332	844.08
551.785	836.68
552.238	847.98
552.691	856.58
553.144	879.78
553.596	893.18
554.049	905.58
554.502	939.08
554.955	955.28
555.407	959.78
555.86	945.58
556.313	938.58
556.765	924.98
557.218	921.48
557.67	923.08
558.123	923.78
558.576	919.78
559.028	924.08
559.48	940.28
559.933	910.88
560.385	878.68
560.838	848.98
561.29	833.68
561.742	822.88
562.195	800.28
562.647	803.68
563.099	817.48
563.551	815.08
564.004	820.68
564.456	809.68
564.908	796.78
565.36	780.68
565.812	767.58
566.264	756.78
566.716	759.78
567.168	739.68
567.62	742.08
568.072	726.68
568.524	730.48
568.976	727.58
569.428	713.08
569.88	713.58
570.332	719.68
570.784	717.68
571.235	715.58
571.687	743.98
572.139	746.68
572.59	744.98
573.042	749.58
573.494	754.78
573.945	738.08
574.397	725.88
574.849	731.38
575.3	734.78
575.752	714.38
576.203	721.68
576.655	718.38
577.106	706.88
577.557	705.18
578.009	702.48
578.46	704.08
578.912	691.38
579.363	702.88
579.814	702.08
580.265	697.28
580.717	709.48
581.168	695.38
581.619	707.68
582.07	708.38
582.521	711.08
582.972	708.58
583.423	710.58
583.875	705.08
584.326	706.08
584.777	736.38
585.227	748.08
585.678	760.68
586.129	767.68
586.58	791.98
587.031	816.38
587.482	845.38
587.933	868.18
588.384	851.68
588.834	826.98
589.285	800.98
589.736	808.18
590.186	794.68
590.637	799.28
591.088	781.58
591.538	780.48
591.989	766.68
592.439	757.68
592.89	749.58
593.34	742.88
593.791	738.68
594.241	725.38
594.692	730.08
595.142	719.18
595.593	730.28
596.043	736.08
596.493	740.48
596.943	728.98
597.394	749.78
597.844	748.68
598.294	761.58
598.744	788.28
599.195	814.58
599.645	864.28
600.095	894.58
600.545	952.68
600.995	1003.08
601.445	1069.48
601.895	1125.88
602.345	1186.78
602.795	1168.38
603.245	1114.78
603.695	1063.68
604.145	1002.98
604.594	959.38
605.044	908.68
605.494	838.28
605.944	788.78
606.393	776.68
606.843	762.98
607.293	764.78
607.743	767.48
608.192	762.78
608.642	776.08
609.091	791.08
609.541	789.38
609.99	796.78
610.44	786.08
610.889	746.88
611.339	729.38
611.788	712.18
612.238	711.48
612.687	729.08
613.136	721.78
613.586	740.78
614.035	724.48
614.484	739.88
614.933	733.78
615.383	730.08
615.832	731.88
616.281	719.38
616.73	697.48
617.179	674.68
617.628	660.78
618.077	651.58
618.526	636.68
618.975	639.28
619.424	642.98
619.873	637.38
620.322	641.68
620.771	633.88
621.22	629.18
621.669	619.38
622.118	608.38
622.567	600.58
623.015	598.68
623.464	596.78
623.913	592.58
624.361	577.58
624.81	564.58
625.259	571.88
625.707	575.58
626.156	584.28
626.604	596.28
627.053	586.68
627.501	599.18
627.95	589.08
628.398	603.38
628.847	590.88
629.295	589.38
629.744	585.38
630.192	585.88
630.64	584.38
631.089	561.88
631.537	556.98
631.985	546.88
632.433	546.68
632.881	543.98
633.33	545.28
633.778	544.28
634.226	553.68
634.674	555.78
635.122	559.78
635.57	577.18
636.018	582.68
636.466	578.38
636.914	579.88
637.362	592.18
637.81	602.18
638.258	610.88
638.705	605.48
639.153	638.98
639.601	637.38
640.049	673.48
640.497	697.48
640.944	719.48
641.392	656.98
641.84	632.48
642.287	604.28
642.735	586.18
643.182	590.98
643.63	568.58
644.078	590.58
644.525	586.38
644.973	595.88
645.42	612.28
645.867	633.18
646.315	656.48
646.762	672.48
647.21	698.38
647.657	722.68
648.104	750.98
648.551	767.28
648.999	838.68
649.446	907.88
649.893	996.38
650.34	1132.98
650.787	1344.28
651.234	1657.18
651.682	2134.98
652.129	2876.18
652.576	4094.48
653.023	5967.68
653.47	8070.08
653.917	10032.08
654.363	11566.08
654.81	12742.88
655.257	12103.18
655.704	8016.78
656.151	4824.28
656.598	3170.58
657.044	2269.48
657.491	1761.78
657.938	1429.68
658.385	1214.08
658.831	1056.48
659.278	941.38
659.724	842.78
660.171	789.08
660.618	716.98
661.064	695.98
661.511	670.18
661.957	663.98
662.404	656.98
662.85	668.48
663.296	629.28
663.743	577.68
664.189	549.28
664.635	542.18
665.082	543.68
665.528	538.18
665.974	539.88
666.42	532.68
666.867	526.38
667.313	496.98
667.759	491.58
668.205	470.88
668.651	466.38
669.097	467.38
669.543	452.28
669.989	453.78
670.435	456.18
670.881	465.48
671.327	469.68
671.773	490.58
672.219	510.78
672.665	574.18
673.11	615.78
673.556	659.68
674.002	691.08
674.448	683.08
674.893	581.28
675.339	499.08
675.785	462.78
676.23	437.58
676.676	410.38
677.122	398.38
677.567	393.88
678.013	383.48
678.458	376.18
678.904	376.08
679.349	373.18
679.794	370.58
680.24	366.68
680.685	364.88
681.131	365.88
681.576	354.28
682.021	367.88
682.466	358.78
682.912	360.78
683.357	376.78
683.802	398.48
684.247	427.28
684.692	470.08
685.137	519.98
685.583	556.08
686.028	593.28
686.473	538.28
686.918	467.18
687.363	436.28
687.807	413.68
688.252	381.58
688.697	370.68
689.142	341.18
689.587	341.38
690.032	346.78
690.477	354.98
690.921	368.38
691.366	399.58
691.811	417.28
692.255	448.38
692.7	483.48
693.145	529.68
693.589	731.08
694.034	1187.58
694.478	1604.58
694.923	1829.48
695.367	2363.78
695.812	1251.58
696.256	517.78
696.701	395.68
697.145	358.78
697.59	336.98
698.034	330.48
698.478	341.68
698.922	335.38
699.367	329.48
699.811	351.38
700.255	358.98
700.699	395.28
701.143	437.08
701.588	482.98
702.032	540.08
702.476	533.68
702.92	516.28
703.364	509.08
703.808	672.38
704.252	1086.98
704.696	1525.38
705.14	1752.88
705.584	2238.88
706.027	1135.68
706.471	539.18
706.915	418.68
707.359	373.38
707.803	332.58
708.246	326.88
708.69	318.78
709.134	327.48
709.577	323.28
710.021	330.88
710.465	313.58
710.908	312.38
711.352	305.28
711.795	322.28
712.239	360.58
712.682	405.98
713.126	427.48
713.569	475.48
714.012	373.78
714.456	316.78
714.899	302.98
715.342	281.88
715.786	279.88
716.229	274.18
716.672	258.18
717.115	258.28
717.558	262.58
718.002	266.18
718.445	271.88
718.888	301.58
719.331	302.58
719.774	316.18
720.217	315.88
720.66	299.38
721.103	277.18
721.546	265.18
721.989	262.38
722.432	244.78
722.874	252.68
723.317	241.18
723.76	248.48
724.203	268.38
724.645	331.98
725.088	469.78
725.531	595.98
725.974	659.18
726.416	563.28
726.859	315.58
727.301	245.98
727.744	247.98
728.187	246.28
728.629	253.28
729.071	254.28
729.514	267.18
729.956	280.78
730.399	294.38
730.841	302.78
731.283	290.78
731.726	279.38
732.168	274.48
732.61	285.28
733.053	297.58
733.495	329.78
733.937	369.78
734.379	414.88
734.821	451.28
735.263	570.28
735.705	884.48
736.148	1658.18
736.59	2725.08
737.032	3186.18
737.474	2588.78
737.916	840.78
738.357	458.08
738.799	345.48
739.241	316.28
739.683	297.98
740.125	303.88
740.567	319.78
741.008	322.38
741.45	329.18
741.892	331.28
742.334	363.98
742.775	384.58
743.217	361.78
743.658	288.48
744.1	266.58
744.542	284.48
744.983	334.18
745.425	363.78
745.866	363.18
746.307	289.38
746.749	293.18
747.19	340.38
747.632	484.48
748.073	919.28
748.514	1956.88
748.956	3001.58
749.397	3764.18
749.838	3125.38
750.279	3103.78
750.72	1573.58
751.162	572.48
751.603	342.78
752.044	265.18
752.485	224.88
752.926	217.08
753.367	207.28
753.808	206.18
754.249	204.38
754.69	194.78
755.131	183.68
755.572	190.08
756.013	192.98
756.453	201.68
756.894	195.08
757.335	200.28
757.776	202.48
758.216	205.38
758.657	212.18
759.098	210.68
759.538	242.38
759.979	279.38
760.42	400.58
760.86	752.98
761.301	1948.28
761.741	4680.38
762.182	6732.28
762.622	4769.18
763.063	1380.28
763.503	567.48
