Data from 20171114-ORNL-Ar_H_NY_Subt18_08-09-02-668.txt Node
Date: Tue Nov 14 08:09:02 EST 2017
User: Ender
Spectrometer: HR+D1039
Trigger mode: 0
Integration Time (sec): 2.730000E-2
Scans to average: 10
Electric dark correction enabled: true
Nonlinearity correction enabled: false
Boxcar width: 0
XAxis mode: Wavelengths
Number of Pixels in Spectrum: 2048
>>>>>Begin Spectral Data<<<<<
187.836	-5.3
188.309	-5.3
188.782	-5.3
189.255	-5.1
189.728	-1.1
190.201	4.9
190.674	4.1
191.147	2.1
191.619	-6.3
192.092	5.9
192.565	3.2
193.038	-0.8
193.511	4.1
193.984	-3.4
194.456	2.5
194.929	-1.1
195.402	-0.5
195.874	-3.2
196.347	-0.2
196.82	-8.9
197.292	6.8
197.765	0.9
198.237	-10
198.71	7
199.182	0.4
199.655	-0
200.127	4.4
200.6	0.1
201.072	4.3
201.544	0.1
202.017	-7.5
202.489	5.1
202.961	-6
203.433	-8.3
203.906	-4
204.378	-0.3
204.85	-2.7
205.322	-9.8
205.794	-5.4
206.266	-4.3
206.739	-9
207.211	5.4
207.683	-4.4
208.155	-4.5
208.627	-13.1
209.099	-4.3
209.57	-11.8
210.042	-9.6
210.514	-4.8
210.986	-7.9
211.458	-14
211.93	-10.7
212.402	1.5
212.873	-8.9
213.345	-4.8
213.817	-11.3
214.288	-4.8
214.76	-12.3
215.232	-7.8
215.703	-3.9
216.175	-2.4
216.646	-11.2
217.118	-5.5
217.589	-2.4
218.061	-6.3
218.532	-8.9
219.004	-2.4
219.475	-6.4
219.946	-8.1
220.418	-5.9
220.889	-0.1
221.36	-2.3
221.832	-3.1
222.303	-13.9
222.774	-7.4
223.245	-15.4
223.717	-6.1
224.188	-3
224.659	-9.6
225.13	-6.3
225.601	-6
226.072	-0.4
226.543	-2.7
227.014	-1.7
227.485	-6.4
227.956	-3.7
228.427	-3.1
228.898	-1.1
229.369	0.7
229.839	-0
230.31	-8.8
230.781	-0.8
231.252	-1
231.722	-8.7
232.193	-4.2
232.664	-2.7
233.135	-6.4
233.605	0.8
234.076	-7.8
234.546	-0.8
235.017	1.7
235.487	-0.5
235.958	-2.1
236.428	-5.1
236.899	-3.1
237.369	2.3
237.84	-7.5
238.31	-2.4
238.78	-2
239.251	-6.2
239.721	-6.4
240.191	-5.3
240.662	-0.2
241.132	-0.2
241.602	-1.9
242.072	-1.8
242.542	6.2
243.013	-0.3
243.483	6.6
243.953	-2.2
244.423	-4.8
244.893	-9.2
245.363	-4.8
245.833	-3.5
246.303	-4.6
246.773	1.5
247.243	1.2
247.712	-1.5
248.182	1.8
248.652	2.9
249.122	-5.6
249.592	-0
250.061	0.1
250.531	5.5
251.001	-0.2
251.471	5
251.94	2.7
252.41	-1.8
252.879	-10.2
253.349	3.7
253.818	-1.3
254.288	-1.6
254.757	-2.3
255.227	-8.8
255.696	-1.5
256.166	0.8
256.635	4.3
257.105	-2.2
257.574	-1.8
258.043	-5.2
258.513	-4.5
258.982	-1.2
259.451	-7.8
259.92	3
260.389	-0.3
260.859	7.2
261.328	-0.7
261.797	5.1
262.266	0.6
262.735	1.9
263.204	-0.4
263.673	-0.4
264.142	2.5
264.611	-5.9
265.08	-2.3
265.549	-5
266.018	0.4
266.487	0.6
266.955	-6
267.424	-2.8
267.893	1.9
268.362	-1.1
268.83	5
269.299	7.4
269.768	-2.3
270.236	1.9
270.705	4.2
271.174	-1
271.642	1.4
272.111	-2.9
272.579	-0.9
273.048	-3.7
273.516	0.4
273.985	4.8
274.453	1.6
274.922	9
275.39	5.6
275.858	-3.7
276.327	7.1
276.795	7
277.263	-0.8
277.731	10.2
278.2	-1.3
278.668	1.4
279.136	0.9
279.604	1.7
280.072	10.5
280.54	1.9
281.008	3
281.477	8.4
281.945	3.7
282.413	12.3
282.881	6.7
283.348	0.5
283.816	10.4
284.284	6.6
284.752	15.2
285.22	5.1
285.688	5.3
286.156	9.5
286.623	11.3
287.091	10.7
287.559	7.4
288.026	5.6
288.494	8.5
288.962	-3.7
289.429	4.6
289.897	9.1
290.364	7.9
290.832	4.5
291.3	12.3
291.767	9.5
292.234	7.4
292.702	4
293.169	4.8
293.637	13.5
294.104	11.8
294.571	0.2
295.039	3.1
295.506	8.8
295.973	10.7
296.44	13
296.908	9.7
297.375	10
297.842	8.2
298.309	5.7
298.776	10.9
299.243	6.3
299.71	1.6
300.177	11.3
300.644	17.5
301.111	9.5
301.578	12.5
302.045	6.3
302.512	12.4
302.979	20.1
303.446	12.2
303.913	12.4
304.379	10.3
304.846	15.9
305.313	13.8
305.78	14
306.246	19.5
306.713	18.7
307.18	10
307.646	7.1
308.113	18.2
308.579	11.8
309.046	18.2
309.512	13.7
309.979	15.2
310.445	17.7
310.912	21.1
311.378	22.9
311.845	15.3
312.311	23.9
312.777	24.4
313.244	22.1
313.71	26.8
314.176	19.1
314.642	16.1
315.109	22.2
315.575	19.2
316.041	24.4
316.507	18.6
316.973	21
317.439	21.2
317.905	25.9
318.371	26.4
318.837	27.9
319.303	22.6
319.769	22.4
320.235	22.2
320.701	22.4
321.167	26.8
321.633	24
322.099	23.5
322.564	29.1
323.03	28
323.496	23.5
323.962	24.5
324.427	20.1
324.893	31.4
325.359	27.1
325.824	20.3
326.29	24.1
326.755	27.6
327.221	27.3
327.686	23.1
328.152	29.9
328.617	30.6
329.083	38.5
329.548	31.7
330.014	38.1
330.479	35.1
330.944	31.7
331.41	34.2
331.875	38.2
332.34	35.1
332.805	27.8
333.271	34.7
333.736	26.9
334.201	37.6
334.666	38.3
335.131	35.7
335.596	42.9
336.061	35.4
336.526	24
336.991	30.9
337.456	41.2
337.921	38.3
338.386	34.4
338.851	32.4
339.316	28.6
339.781	38
340.246	39.6
340.711	38.1
341.175	40.3
341.64	30.8
342.105	38
342.569	41.4
343.034	36.9
343.499	43.8
343.963	38.7
344.428	50.1
344.893	43.1
345.357	49.6
345.822	50.8
346.286	55.5
346.751	52.6
347.215	52.8
347.679	62.3
348.144	73.4
348.608	57.6
349.073	55.4
349.537	57.1
350.001	56
350.465	67
350.93	63.4
351.394	67.5
351.858	60.5
352.322	67
352.786	66.7
353.25	82
353.715	85.5
354.179	76.7
354.643	97.8
355.107	90.8
355.571	83.6
356.035	84.9
356.498	85.3
356.962	88.6
357.426	96.6
357.89	91
358.354	67.7
358.818	64
359.281	61.9
359.745	60.5
360.209	61.5
360.673	59.2
361.136	65
361.6	65.5
362.064	67.5
362.527	62.8
362.991	73.9
363.454	61.9
363.918	58.5
364.381	61.8
364.845	68.6
365.308	67.1
365.772	70.5
366.235	72
366.698	71
367.162	66.3
367.625	68.8
368.088	77
368.552	77.2
369.015	71.3
369.478	76.2
369.941	78.7
370.404	83.7
370.867	80.9
371.331	85.2
371.794	85.5
372.257	72.5
372.72	87.2
373.183	85.6
373.646	77.1
374.109	84.7
374.572	86
375.035	82.1
375.497	90.3
375.96	87.2
376.423	90.1
376.886	98.2
377.349	98.5
377.811	83.1
378.274	86.1
378.737	87
379.199	96.9
379.662	95.8
380.125	96.5
380.587	96.1
381.05	91.3
381.512	95.6
381.975	109.8
382.437	100.2
382.9	104.9
383.362	104.4
383.825	112
384.287	111.5
384.75	99.9
385.212	106.5
385.674	112.5
386.136	115.1
386.599	103
387.061	99.1
387.523	104.8
387.985	103.9
388.447	115.2
388.91	110
389.372	109.1
389.834	109.5
390.296	115.2
390.758	112.7
391.22	116.5
391.682	132.2
392.144	136.7
392.606	130.5
393.068	123.2
393.529	139.6
393.991	125.8
394.453	115.7
394.915	112.6
395.377	106.9
395.838	120
396.3	127
396.762	124.4
397.224	117.6
397.685	122.4
398.147	115.1
398.608	110.7
399.07	118.8
399.531	125.1
399.993	123.1
400.454	136.9
400.916	132.6
401.377	130.3
401.839	131.7
402.3	136.1
402.762	153.4
403.223	162.9
403.684	151
404.145	139.1
404.607	144.6
405.068	148.7
405.529	151.2
405.99	168.1
406.451	150.7
406.913	156.8
407.374	146.2
407.835	146.9
408.296	154.4
408.757	158.4
409.218	165.3
409.679	162.6
410.14	162.3
410.601	161.6
411.062	162.1
411.522	165.5
411.983	166.9
412.444	160.4
412.905	166.8
413.366	176.1
413.826	180.7
414.287	208.6
414.748	244.9
415.208	231.9
415.669	203.1
416.13	199.6
416.59	183.6
417.051	202.6
417.511	207.7
417.972	228.1
418.432	230.8
418.893	268.5
419.353	234.6
419.814	189.2
420.274	174.1
420.734	165
421.195	180.8
421.655	180.9
422.115	179.2
422.576	177.9
423.036	186
423.496	204.1
423.956	205.8
424.416	218.6
424.876	249.1
425.336	242.2
425.797	247.4
426.257	238.6
426.717	222.3
427.177	216.3
427.637	205.8
428.097	218.3
428.556	224.7
429.016	245.6
429.476	238.3
429.936	250.9
430.396	260.7
430.856	271.1
431.315	295.2
431.775	317.3
432.235	346.9
432.694	316.1
433.154	325.9
433.614	360.1
434.073	303.5
434.533	265.4
434.993	248.9
435.452	263.7
435.912	269
436.371	263.7
436.83	266.8
437.29	242.1
437.749	237.2
438.209	234.3
438.668	252.5
439.127	269.3
439.587	248.6
440.046	239.3
440.505	246.7
440.964	255.3
441.424	297.9
441.883	299.5
442.342	245.4
442.801	221.6
443.26	210.2
443.719	205.1
444.178	209.3
444.637	198.8
445.096	213.7
445.555	211.6
446.014	217.9
446.473	218.9
446.932	223.1
447.391	214.4
447.849	222.8
448.308	214.7
448.767	223
449.226	233.7
449.685	231
450.143	238.8
450.602	235.1
451.061	222
451.519	224.8
451.978	224.1
452.436	227.7
452.895	235.4
453.353	247
453.812	229.7
454.27	227.6
454.729	232.9
455.187	236
455.646	242.2
456.104	245.1
456.562	250.4
457.021	262.5
457.479	254.7
457.937	264.7
458.395	255.8
458.854	247.2
459.312	249.6
459.77	263.2
460.228	246
460.686	229.6
461.144	245.3
461.602	248.4
462.06	241
462.518	245.2
462.976	248.8
463.434	252
463.892	253.7
464.35	273.4
464.808	276.1
465.266	258.1
465.724	263
466.181	258.5
466.639	275.3
467.097	293.3
467.555	292
468.012	298.2
468.47	306.7
468.928	320.4
469.385	335.8
469.843	336.1
470.3	342.9
470.758	352.7
471.215	377.9
471.673	393.2
472.13	398.8
472.588	403.9
473.045	368.1
473.503	363.1
473.96	390
474.417	398.5
474.875	423.3
475.332	463.3
475.789	453.1
476.246	460.3
476.704	471.4
477.161	499.5
477.618	508.6
478.075	535.6
478.532	588.2
478.989	658.6
479.446	769
479.903	731.5
480.36	763.5
480.817	808.4
481.274	891.4
481.731	985.5
482.188	1047.2
482.645	1158.5
483.102	1260.1
483.558	1365.3
484.015	1409.5
484.472	1374.8
484.929	1352.8
485.385	1292.3
485.842	1279.3
486.299	1220.3
486.755	1197.4
487.212	1001.5
487.668	870.4
488.125	808.8
488.582	752
489.038	713.1
489.494	678
489.951	659.6
490.407	642.3
490.864	629.3
491.32	619.1
491.776	628.2
492.233	629.7
492.689	589.5
493.145	593.6
493.602	588
494.058	602.3
494.514	601.6
494.97	627.8
495.426	639.5
495.882	613.2
496.338	602
496.794	610.4
497.251	601.9
497.707	620.8
498.163	618.6
498.618	631.9
499.074	636.8
499.53	657.7
499.986	656.1
500.442	641.1
500.898	612.2
501.354	602.6
501.809	615
502.265	609.8
502.721	621.2
503.177	637.2
503.632	640.9
504.088	641.6
504.543	659.2
504.999	686.9
505.455	643
505.91	619.7
506.366	614.2
506.821	624.6
507.277	623.3
507.732	625.7
508.187	625.8
508.643	637.5
509.098	635.1
509.553	662.5
510.009	675.6
510.464	674.6
510.919	691.3
511.375	693.1
511.83	707.6
512.285	717.2
512.74	746.5
513.195	777.6
513.65	763.1
514.105	761.6
514.56	768.3
515.015	787.2
515.47	788.1
515.925	772.6
516.38	772.9
516.835	779
517.29	774.4
517.745	773.4
518.2	756.8
518.655	745.3
519.109	742.3
519.564	736.2
520.019	726.8
520.474	723.1
520.928	725.5
521.383	722.9
521.838	700.4
522.292	707.3
522.747	714.3
523.201	707.7
523.656	698
524.11	690.4
524.565	696.9
525.019	694.3
525.474	691.5
525.928	701.1
526.382	694.9
526.837	706.2
527.291	707.7
527.745	702.1
528.2	696.2
528.654	686
529.108	691.8
529.562	694.1
530.016	688.4
530.47	686.5
530.925	683.8
531.379	691.9
531.833	698.7
532.287	699.9
532.741	704.1
533.195	697.5
533.649	724.8
534.103	713.5
534.556	705.8
535.01	714.2
535.464	709.3
535.918	713.4
536.372	709.8
536.826	707
537.279	708.1
537.733	716.4
538.187	720.6
538.64	709.1
539.094	725
539.548	731.2
540.001	726
540.455	730.5
540.908	731.4
541.362	738.9
541.815	749.9
542.269	764.6
542.722	760.3
543.175	775
543.629	776.4
544.082	798.6
544.536	795.6
544.989	783
545.442	795.6
545.895	799.3
546.349	793.9
546.802	805.9
547.255	805.9
547.708	810.8
548.161	825.2
548.614	829.8
549.067	830.1
549.52	833.5
549.973	827.3
550.426	821.5
550.879	799.5
551.332	811.6
551.785	818.4
552.238	812.5
552.691	824.7
553.144	842.5
553.596	869.4
554.049	874.5
554.502	904.2
554.955	923.5
555.407	923.1
555.86	911.8
556.313	893.3
556.765	889.4
557.218	891.5
557.67	890.2
558.123	883.3
558.576	878.5
559.028	884.4
559.48	892.9
559.933	889.2
560.385	857.7
560.838	822.1
561.29	791.6
561.742	803.6
562.195	787.4
562.647	778.8
563.099	783.5
563.551	782
564.004	794.2
564.456	770.4
564.908	778.2
565.36	755.5
565.812	736
566.264	731.8
566.716	732.9
567.168	718.7
567.62	717
568.072	707.1
568.524	707.6
568.976	698.3
569.428	681
569.88	684.5
570.332	698
570.784	708.6
571.235	699.7
571.687	708.3
572.139	718.1
572.59	724.5
573.042	726.6
573.494	723.1
573.945	719.4
574.397	684.9
574.849	705.2
575.3	708.3
575.752	698.1
576.203	696.4
576.655	699.8
577.106	692.3
577.557	677.4
578.009	675.7
578.46	686.2
578.912	674.4
579.363	674.5
579.814	682.1
580.265	671.3
580.717	675.5
581.168	677.9
581.619	687.7
582.07	691.9
582.521	679.6
582.972	684.1
583.423	687.5
583.875	686.2
584.326	696.9
584.777	714.1
585.227	733
585.678	737.3
586.129	754.9
586.58	785.8
587.031	804.9
587.482	822.9
587.933	853.4
588.384	842.4
588.834	798.2
589.285	787.8
589.736	785
590.186	773.7
590.637	773.8
591.088	763.9
591.538	746
591.989	737.7
592.439	743.2
592.89	727.8
593.34	720.4
593.791	716.9
594.241	711.2
594.692	709.5
595.142	711.2
595.593	699.4
596.043	708
596.493	714.6
596.943	719.7
597.394	744.8
597.844	737.4
598.294	755.5
598.744	771.8
599.195	797.5
599.645	838.3
600.095	883.5
600.545	941
600.995	987.3
601.445	1056.6
601.895	1115.1
602.345	1160.8
602.795	1137.5
603.245	1087.7
603.695	1032.9
604.145	986.8
604.594	929.8
605.044	879
605.494	811
605.944	777.6
606.393	762.1
606.843	740.3
607.293	751.2
607.743	741.3
608.192	762.2
608.642	769.4
609.091	776.6
609.541	767.9
609.99	772.8
610.44	775
610.889	734.3
611.339	714.6
611.788	697
612.238	704.7
612.687	711.4
613.136	702.2
613.586	724.4
614.035	712.7
614.484	720.4
614.933	726.8
615.383	724.9
615.832	724.5
616.281	716.4
616.73	679.5
617.179	672.3
617.628	654.9
618.077	645
618.526	634.7
618.975	628.6
619.424	631.8
619.873	625.7
620.322	638.8
620.771	617.3
621.22	609.1
621.669	605.7
622.118	604.9
622.567	602.8
623.015	579.8
623.464	582.7
623.913	577.6
624.361	560.3
624.81	562.1
625.259	567.2
625.707	574.3
626.156	572.2
626.604	585.8
627.053	578
627.501	572.2
627.95	579.4
628.398	592.9
628.847	585.1
629.295	586.9
629.744	585.3
630.192	575.8
630.64	581.5
631.089	560.4
631.537	547.3
631.985	536.5
632.433	547.7
632.881	532.1
633.33	544.2
633.778	542.1
634.226	533.9
634.674	558
635.122	560.1
635.57	571.1
636.018	576.6
636.466	576.1
636.914	568.6
637.362	577.1
637.81	585
638.258	593.1
638.705	592.6
639.153	628.1
639.601	636.4
640.049	656.9
640.497	688.8
640.944	715.7
641.392	665.8
641.84	629.5
642.287	600.4
642.735	592.4
643.182	574.9
643.63	574.2
644.078	575.8
644.525	583.3
644.973	588.9
645.42	599.4
645.867	625.6
646.315	636.8
646.762	670.8
647.21	693.4
647.657	723.1
648.104	748.9
648.551	768.5
648.999	829.4
649.446	901.1
649.893	996.2
650.34	1125.5
650.787	1342.3
651.234	1664.8
651.682	2161
652.129	2920.4
652.576	4143.9
653.023	6031.1
653.47	8122.6
653.917	10003.1
654.363	11451.3
654.81	12591.8
655.257	11906.8
655.704	7902.5
656.151	4763
656.598	3145.1
657.044	2244.3
657.491	1759.3
657.938	1409.4
658.385	1193.8
658.831	1052.8
659.278	943
659.724	842.8
660.171	781
660.618	723.9
661.064	685.1
661.511	666.9
661.957	655.7
662.404	647
662.85	654.3
663.296	635.4
663.743	570.2
664.189	548.1
664.635	548
665.082	531.8
665.528	539.3
665.974	528.8
666.42	522.3
666.867	522.8
667.313	496.2
667.759	475.9
668.205	460.7
668.651	463.6
669.097	458.5
669.543	451.1
669.989	452.4
670.435	466.8
670.881	457.5
671.327	465.3
671.773	482.3
672.219	503.4
672.665	570.1
673.11	611
673.556	661.4
674.002	688.1
674.448	679.7
674.893	571.4
675.339	491
675.785	456.1
676.23	437.6
676.676	410.1
677.122	394.9
677.567	385.9
678.013	386.4
678.458	371.7
678.904	383.1
679.349	359.4
679.794	360
680.24	363.3
680.685	361.1
681.131	357.4
681.576	367.6
682.021	375.3
682.466	357.3
682.912	366.4
683.357	363
683.802	398.2
684.247	423.2
684.692	470.1
685.137	523.5
685.583	562.1
686.028	583.5
686.473	538.9
686.918	472.2
687.363	435.9
687.807	415.3
688.252	376
688.697	366.3
689.142	349.6
689.587	345.5
690.032	340.3
690.477	361.7
690.921	367.4
691.366	399.4
691.811	424
692.255	442
692.7	487.2
693.145	539.1
693.589	752.3
694.034	1232
694.478	1632.4
694.923	1814.5
695.367	2351.5
695.812	1258.5
696.256	514.2
696.701	389.6
697.145	355
697.59	338.3
698.034	336.2
698.478	337.3
698.922	332
699.367	336.2
699.811	347.2
700.255	361.6
700.699	406.6
701.143	439.2
701.588	485.5
702.032	538.8
702.476	527.8
702.92	509.4
703.364	528.5
703.808	696
704.252	1127.2
704.696	1556.8
705.14	1736
705.584	2202.7
706.027	1126.6
706.471	554.2
706.915	424
707.359	377.9
707.803	327
708.246	324.7
708.69	325.9
709.134	330.5
709.577	322.1
710.021	329.6
710.465	323.4
710.908	315.8
711.352	306.9
711.795	331.4
712.239	369
712.682	406.5
713.126	422.7
713.569	475.1
714.012	373.2
714.456	319.2
714.899	303.6
715.342	286.1
715.786	270.5
716.229	270.7
716.672	265
717.115	257.3
717.558	263.7
718.002	260.2
718.445	277.6
718.888	299.8
719.331	304.7
719.774	321.6
720.217	312.8
720.66	296
721.103	280.3
721.546	269.2
721.989	258.6
722.432	243.5
722.874	249.8
723.317	240.8
723.76	243.5
724.203	273.3
724.645	341.3
725.088	475.8
725.531	598
725.974	670.9
726.416	567.7
726.859	314.6
727.301	259
727.744	244.4
728.187	242.5
728.629	252.8
729.071	251.2
729.514	274.4
729.956	285.9
730.399	300
730.841	302.8
731.283	289.1
731.726	283.2
732.168	271.8
732.61	281.4
733.053	301.4
733.495	332.4
733.937	373.1
734.379	425.3
734.821	460.6
735.263	581.6
735.705	926.6
736.148	1736.2
736.59	2777.1
737.032	3160.4
737.474	2585.4
737.916	865.1
738.357	451.2
738.799	345.2
739.241	311.4
739.683	301.4
740.125	297.6
740.567	314.5
741.008	337.7
741.45	342.9
741.892	342.3
742.334	368.4
742.775	379.7
743.217	352.7
743.658	284
744.1	263.5
744.542	281.8
744.983	333.4
745.425	360.5
745.866	361.1
746.307	292.5
746.749	290.6
747.19	345.3
747.632	497.9
748.073	983.5
748.514	2044.8
748.956	3016.6
749.397	3797.4
749.838	3163.2
750.279	3076.2
750.72	1571.8
751.162	584.3
751.603	341
752.044	267.5
752.485	231.5
752.926	228.9
753.367	214.7
753.808	203.4
754.249	192.9
754.69	189.1
755.131	188.6
755.572	190
756.013	186
756.453	193.9
756.894	198.9
757.335	203.4
757.776	198.1
758.216	205
758.657	209.6
759.098	207.4
759.538	241.7
759.979	284.7
760.42	408
760.86	795.5
761.301	2063.7
761.741	4855.1
762.182	6673.5
762.622	4714.3
763.063	1392.8
763.503	574.5
763.943	340.3
764.384	285
764.824	257.9
765.264	242.8
765.705	220
766.145	193.6
766.585	189.5
767.025	171.8
767.465	171.9
767.906	176.9
768.346	208.6
768.786	212.8
769.226	235.9
769.666	329.9
770.106	689.5
770.546	1722
770.986	2772.6
771.426	2463.4
771.866	838.4
772.306	357.1
772.745	212.9
773.185	180.1
773.625	164.8
774.065	152.7
774.505	168.2
774.944	215.8
775.384	370
775.824	604.1
776.263	583.7
776.703	291.5
777.142	158.7
777.582	139.2
778.021	124.4
778.461	129.4
778.9	129.2
779.34	125.7
779.779	118
780.219	115.2
780.658	110.9
781.097	112.6
781.537	121
781.976	116.2
782.415	119.6
782.855	107.4
783.294	105.8
783.733	110
784.172	111.9
784.611	111.6
785.05	116.6
785.489	119.9
785.928	121.5
786.367	119.7
786.806	129.6
787.245	130.6
787.684	143.9
788.123	157.6
788.562	133.8
789.001	128.1
789.44	126.4
789.879	127
790.317	122.8
790.756	136.1
791.195	131.9
791.634	153.2
792.072	217.3
792.511	393.6
792.95	1125
793.388	2240.3
793.827	1971.8
794.265	704.6
794.704	294.9
795.142	195.2
795.581	156
796.019	142.6
796.458	134.7
796.896	130.5
797.334	137.1
797.773	166.6
798.211	242
798.649	484.2
799.087	1107.6
799.526	1710.6
799.964	2150.8
800.402	2083.5
800.84	797.4
801.278	324.9
801.716	192.4
802.154	161.4
802.592	152.1
803.03	147.7
803.468	138.7
803.906	152.1
804.344	152.5
804.782	141.5
805.22	136.9
805.658	138.9
806.096	155.5
806.533	163.1
806.971	187
807.409	234.6
807.847	348.3
808.284	746.5
808.722	2059.5
