Data from 20171114-ORNL-Ar_H_NY_Subt18_08-07-05-502.txt Node
Date: Tue Nov 14 08:07:05 EST 2017
User: Ender
Spectrometer: HR+D1039
Trigger mode: 0
Integration Time (sec): 2.730000E-2
Scans to average: 10
Electric dark correction enabled: true
Nonlinearity correction enabled: false
Boxcar width: 0
XAxis mode: Wavelengths
Number of Pixels in Spectrum: 2048
>>>>>Begin Spectral Data<<<<<
187.836	-6.59
188.309	-6.59
188.782	-6.59
189.255	-0.49
189.728	1.21
190.201	3.71
190.674	-3.09
191.147	1.21
191.619	-6.29
192.092	4.91
192.565	0.81
193.038	-0.29
193.511	0.81
193.984	-0.99
194.456	2.01
194.929	6.41
195.402	-4.39
195.874	1.01
196.347	-1.29
196.82	-6.59
197.292	1.71
197.765	-0.09
198.237	-9.79
198.71	4.31
199.182	0.11
199.655	1.51
200.127	3.71
200.6	-0.69
201.072	4.41
201.544	-2.99
202.017	-0.69
202.489	4.01
202.961	-0.39
203.433	-3.19
203.906	-5.79
204.378	-4.09
204.85	-6.09
205.322	-6.59
205.794	-3.19
206.266	-4.09
206.739	-9.89
207.211	-0.09
207.683	-6.29
208.155	-3.29
208.627	-9.19
209.099	2.71
209.57	-8.69
210.042	-4.39
210.514	-3.49
210.986	-4.19
211.458	-9.69
211.93	-4.69
212.402	4.61
212.873	-6.99
213.345	-3.69
213.817	-8.09
214.288	-3.89
214.76	-3.89
215.232	-1.29
215.703	-0.49
216.175	-4.09
216.646	-2.49
217.118	-6.79
217.589	1.71
218.061	-2.99
218.532	0.11
219.004	-1.39
219.475	-5.29
219.946	-0.19
220.418	-10.79
220.889	4.61
221.36	-3.39
221.832	0.41
222.303	-7.49
222.774	-0.29
223.245	-9.19
223.717	-6.59
224.188	-9.79
224.659	-2.89
225.13	1.21
225.601	-5.49
226.072	3.71
226.543	2.61
227.014	3.31
227.485	0.71
227.956	-10.19
228.427	-2.19
228.898	-0.69
229.369	1.81
229.839	-0.39
230.31	-1.39
230.781	-1.99
231.252	0.11
231.722	-5.99
232.193	-1.39
232.664	-0.49
233.135	-8.39
233.605	-2.39
234.076	-5.49
234.546	-2.89
235.017	2.11
235.487	0.31
235.958	-10.09
236.428	-5.99
236.899	-2.09
237.369	-2.39
237.84	-6.19
238.31	-4.39
238.78	2.51
239.251	-4.29
239.721	-3.79
240.191	-3.99
240.662	-4.09
241.132	-1.79
241.602	-11.59
242.072	-2.49
242.542	-1.09
243.013	-1.49
243.483	1.41
243.953	-0.29
244.423	-2.29
244.893	-5.19
245.363	3.31
245.833	-1.49
246.303	-0.79
246.773	4.81
247.243	1.61
247.712	1.81
248.182	4.31
248.652	1.41
249.122	-8.49
249.592	-4.99
250.061	-0.09
250.531	12.61
251.001	2.81
251.471	-1.19
251.94	11.01
252.41	-0.59
252.879	-9.89
253.349	9.31
253.818	3.41
254.288	-2.09
254.757	2.61
255.227	-6.19
255.696	2.31
256.166	2.31
256.635	6.01
257.105	0.31
257.574	-1.49
258.043	-2.99
258.513	-2.29
258.982	1.91
259.451	-2.99
259.92	2.91
260.389	1.31
260.859	3.11
261.328	-2.69
261.797	1.21
262.266	0.01
262.735	4.01
263.204	0.51
263.673	0.61
264.142	4.51
264.611	-12.69
265.08	2.31
265.549	-5.29
266.018	6.51
266.487	-2.19
266.955	-5.79
267.424	-2.29
267.893	3.01
268.362	-0.59
268.83	2.01
269.299	8.21
269.768	5.91
270.236	1.81
270.705	-0.09
271.174	0.91
271.642	-0.09
272.111	-1.59
272.579	-2.49
273.048	1.41
273.516	4.81
273.985	12.21
274.453	9.31
274.922	10.21
275.39	5.31
275.858	-2.49
276.327	10.21
276.795	12.11
277.263	7.91
277.731	10.91
278.2	5.91
278.668	12.61
279.136	5.81
279.604	4.81
280.072	10.61
280.54	2.11
281.008	3.21
281.477	8.11
281.945	11.01
282.413	9.01
282.881	10.41
283.348	5.01
283.816	10.71
284.284	9.21
284.752	12.71
285.22	12.51
285.688	12.81
286.156	6.71
286.623	12.91
287.091	12.21
287.559	12.61
288.026	6.41
288.494	15.11
288.962	0.91
289.429	9.11
289.897	7.61
290.364	9.91
290.832	15.11
291.3	9.41
291.767	10.51
292.234	17.31
292.702	3.91
293.169	14.81
293.637	15.11
294.104	14.71
294.571	1.31
295.039	6.71
295.506	14.01
295.973	11.61
296.44	7.61
296.908	9.01
297.375	10.91
297.842	12.21
298.309	10.71
298.776	8.01
299.243	16.11
299.71	9.21
300.177	16.31
300.644	18.21
301.111	18.01
301.578	18.71
302.045	12.61
302.512	19.11
302.979	21.81
303.446	13.51
303.913	11.01
304.379	13.61
304.846	24.71
305.313	19.11
305.78	17.21
306.246	24.71
306.713	19.91
307.18	16.91
307.646	22.41
308.113	21.01
308.579	20.11
309.046	23.61
309.512	20.11
309.979	13.21
310.445	23.01
310.912	22.41
311.378	25.91
311.845	13.81
312.311	26.31
312.777	26.01
313.244	27.81
313.71	35.81
314.176	20.31
314.642	19.61
315.109	18.61
315.575	24.01
316.041	27.41
316.507	21.21
316.973	26.11
317.439	26.11
317.905	33.41
318.371	33.61
318.837	26.21
319.303	24.71
319.769	23.91
320.235	21.91
320.701	26.51
321.167	26.91
321.633	24.81
322.099	32.91
322.564	35.11
323.03	33.11
323.496	34.41
323.962	35.11
324.427	21.81
324.893	33.61
325.359	29.31
325.824	29.61
326.29	31.61
326.755	32.41
327.221	29.51
327.686	31.61
328.152	31.81
328.617	38.11
329.083	39.71
329.548	42.11
330.014	44.31
330.479	29.01
330.944	38.91
331.41	28.91
331.875	38.41
332.34	36.61
332.805	36.01
333.271	40.71
333.736	35.71
334.201	46.91
334.666	42.81
335.131	47.01
335.596	45.51
336.061	46.01
336.526	37.71
336.991	47.21
337.456	55.01
337.921	40.51
338.386	33.41
338.851	34.71
339.316	42.11
339.781	41.51
340.246	47.61
340.711	41.31
341.175	50.61
341.64	38.61
342.105	42.31
342.569	50.11
343.034	56.01
343.499	49.51
343.963	43.11
344.428	59.61
344.893	56.11
345.357	55.81
345.822	46.71
346.286	57.31
346.751	60.21
347.215	55.81
347.679	62.31
348.144	83.91
348.608	69.41
349.073	56.21
349.537	66.11
350.001	64.71
350.465	74.41
350.93	70.91
351.394	68.61
351.858	61.01
352.322	76.81
352.786	70.41
353.25	82.11
353.715	91.31
354.179	86.41
354.643	102.21
355.107	103.01
355.571	88.31
356.035	86.01
356.498	100.01
356.962	99.21
357.426	109.51
357.89	99.71
358.354	82.41
358.818	72.81
359.281	75.31
359.745	64.51
360.209	72.11
360.673	71.01
361.136	66.61
361.6	74.41
362.064	69.51
362.527	81.51
362.991	83.71
363.454	80.51
363.918	69.61
364.381	74.51
364.845	75.61
365.308	85.31
365.772	80.21
366.235	82.41
366.698	73.51
367.162	75.01
367.625	77.31
368.088	85.91
368.552	82.51
369.015	80.91
369.478	83.31
369.941	90.41
370.404	86.51
370.867	91.51
371.331	96.41
371.794	98.51
372.257	93.21
372.72	99.01
373.183	91.11
373.646	87.21
374.109	95.31
374.572	90.91
375.035	95.11
375.497	97.41
375.96	100.71
376.423	99.01
376.886	105.71
377.349	102.81
377.811	101.71
378.274	93.41
378.737	96.21
379.199	102.21
379.662	94.61
380.125	107.41
380.587	100.91
381.05	102.81
381.512	110.31
381.975	118.51
382.437	111.21
382.9	109.01
383.362	118.01
383.825	122.81
384.287	126.61
384.75	119.91
385.212	114.41
385.674	128.21
386.136	120.21
386.599	111.41
387.061	117.81
387.523	116.81
387.985	122.81
388.447	125.51
388.91	122.41
389.372	122.01
389.834	122.91
390.296	118.61
390.758	127.41
391.22	128.31
391.682	136.01
392.144	150.01
392.606	139.71
393.068	140.21
393.529	150.11
393.991	134.61
394.453	131.51
394.915	131.71
395.377	130.01
395.838	130.11
396.3	135.11
396.762	144.91
397.224	124.91
397.685	129.41
398.147	126.01
398.608	133.91
399.07	126.61
399.531	135.21
399.993	142.31
400.454	155.21
400.916	147.01
401.377	142.01
401.839	149.41
402.3	150.71
402.762	159.61
403.223	167.61
403.684	161.41
404.145	157.81
404.607	154.31
405.068	157.21
405.529	166.91
405.99	171.51
406.451	175.71
406.913	171.81
407.374	166.41
407.835	161.71
408.296	166.71
408.757	164.61
409.218	179.21
409.679	176.21
410.14	180.21
410.601	171.91
411.062	183.51
411.522	182.31
411.983	173.61
412.444	176.11
412.905	182.41
413.366	182.61
413.826	186.61
414.287	222.11
414.748	267.91
415.208	257.11
415.669	216.31
416.13	212.11
416.59	205.11
417.051	218.81
417.511	228.31
417.972	241.91
418.432	253.71
418.893	289.91
419.353	262.31
419.814	206.41
420.274	195.31
420.734	180.21
421.195	199.01
421.655	188.61
422.115	193.71
422.576	192.91
423.036	206.81
423.496	213.91
423.956	224.71
424.416	238.51
424.876	269.31
425.336	267.21
425.797	264.11
426.257	260.61
426.717	243.41
427.177	234.81
427.637	226.91
428.097	235.51
428.556	251.11
429.016	274.11
429.476	266.01
429.936	271.31
430.396	277.11
430.856	288.01
431.315	305.81
431.775	335.81
432.235	373.41
432.694	343.11
433.154	355.01
433.614	383.91
434.073	336.91
434.533	283.71
434.993	275.11
435.452	277.21
435.912	294.81
436.371	287.21
436.83	284.61
437.29	265.71
437.749	247.21
438.209	244.91
438.668	276.31
439.127	288.01
439.587	268.21
440.046	253.91
440.505	271.61
440.964	281.91
441.424	315.11
441.883	318.31
442.342	270.61
442.801	233.31
443.26	227.01
443.719	226.01
444.178	227.61
444.637	215.01
445.096	232.11
445.555	227.11
446.014	236.21
446.473	236.11
446.932	242.81
447.391	239.71
447.849	244.31
448.308	234.11
448.767	233.91
449.226	250.61
449.685	244.81
450.143	259.41
450.602	255.81
451.061	242.31
451.519	240.51
451.978	234.61
452.436	240.81
452.895	246.71
453.353	259.31
453.812	256.01
454.27	245.41
454.729	246.71
455.187	250.21
455.646	251.71
456.104	256.61
456.562	270.91
457.021	277.81
457.479	275.31
457.937	277.71
458.395	278.91
458.854	259.61
459.312	265.81
459.77	282.31
460.228	270.91
460.686	255.61
461.144	266.41
461.602	261.01
462.06	257.51
462.518	267.31
462.976	259.61
463.434	271.01
463.892	275.51
464.35	289.01
464.808	299.71
465.266	287.91
465.724	278.51
466.181	287.41
466.639	287.21
467.097	305.01
467.555	321.81
468.012	315.21
468.47	322.61
468.928	344.91
469.385	356.01
469.843	367.61
470.3	368.91
470.758	378.21
471.215	396.31
471.673	421.51
472.13	419.31
472.588	427.31
473.045	389.51
473.503	393.11
473.96	416.41
474.417	415.31
474.875	451.91
475.332	491.91
475.789	480.01
476.246	487.41
476.704	508.51
477.161	527.71
477.618	541.81
478.075	579.41
478.532	634.01
478.989	708.11
479.446	796.11
479.903	771.81
480.36	798.11
480.817	847.01
481.274	950.71
481.731	1047.61
482.188	1116.91
482.645	1242.61
483.102	1321.61
483.558	1462.11
484.015	1499.71
484.472	1461.51
484.929	1419.21
485.385	1390.71
485.842	1354.01
486.299	1305.41
486.755	1254.61
487.212	1068.61
487.668	921.51
488.125	851.11
488.582	789.31
489.038	753.31
489.494	721.61
489.951	697.71
490.407	688.01
490.864	665.21
491.32	668.91
491.776	661.81
492.233	669.01
492.689	634.81
493.145	623.51
493.602	621.51
494.058	636.71
494.514	638.81
494.97	661.81
495.426	673.51
495.882	637.51
496.338	644.51
496.794	649.41
497.251	637.91
497.707	659.21
498.163	664.11
498.618	670.21
499.074	669.21
499.53	709.91
499.986	701.81
500.442	669.01
500.898	653.11
501.354	648.71
501.809	657.91
502.265	647.11
502.721	669.11
503.177	671.01
503.632	679.21
504.088	685.01
504.543	692.81
504.999	713.61
505.455	687.91
505.91	679.01
506.366	667.01
506.821	661.71
507.277	662.41
507.732	658.31
508.187	662.61
508.643	671.61
509.098	669.61
509.553	695.81
510.009	698.11
510.464	710.61
510.919	730.81
511.375	727.61
511.83	744.31
512.285	763.91
512.74	797.51
513.195	824.91
513.65	804.41
514.105	803.01
514.56	812.21
515.015	822.71
515.47	845.81
515.925	824.01
516.38	826.01
516.835	831.41
517.29	813.31
517.745	808.51
518.2	801.11
518.655	790.71
519.109	789.41
519.564	787.71
520.019	775.11
520.474	757.31
520.928	760.41
521.383	752.21
521.838	752.61
522.292	753.01
522.747	753.01
523.201	738.11
523.656	737.71
524.11	730.51
524.565	727.61
525.019	726.21
525.474	725.31
525.928	724.71
526.382	724.21
526.837	737.31
527.291	742.91
527.745	725.21
528.2	734.31
528.654	716.31
529.108	725.81
529.562	725.41
530.016	724.51
530.47	718.61
530.925	726.41
531.379	718.91
531.833	736.11
532.287	738.21
532.741	733.61
533.195	739.31
533.649	741.21
534.103	747.61
534.556	740.71
535.01	739.21
535.464	741.91
535.918	752.31
536.372	748.81
536.826	755.11
537.279	739.21
537.733	731.81
538.187	755.71
538.64	742.51
539.094	755.31
539.548	769.61
540.001	753.71
540.455	745.71
540.908	770.41
541.362	774.71
541.815	785.41
542.269	802.81
542.722	800.81
543.175	801.01
543.629	813.51
544.082	820.21
544.536	827.81
544.989	826.01
545.442	829.31
545.895	837.51
546.349	839.81
546.802	835.51
547.255	839.11
547.708	845.41
548.161	853.11
548.614	874.11
549.067	864.01
549.52	858.51
549.973	846.61
550.426	855.41
550.879	837.31
551.332	828.71
551.785	845.51
552.238	847.51
552.691	860.11
553.144	876.11
553.596	884.81
554.049	898.91
554.502	938.11
554.955	965.01
555.407	955.61
555.86	947.91
556.313	942.01
556.765	937.11
557.218	933.41
557.67	926.91
558.123	911.11
558.576	914.51
559.028	924.31
559.48	928.71
559.933	917.51
560.385	872.71
560.838	861.41
561.29	834.91
561.742	828.01
562.195	811.71
562.647	800.51
563.099	815.21
563.551	820.01
564.004	825.11
564.456	813.41
564.908	796.11
565.36	788.31
565.812	764.01
566.264	757.31
566.716	751.61
567.168	745.21
567.62	753.91
568.072	738.01
568.524	727.71
568.976	728.71
569.428	712.41
569.88	716.11
570.332	715.71
570.784	718.91
571.235	713.51
571.687	731.91
572.139	737.01
572.59	750.01
573.042	752.41
573.494	750.31
573.945	742.41
574.397	724.01
574.849	725.01
575.3	715.41
575.752	715.61
576.203	715.41
576.655	717.01
577.106	721.81
577.557	701.81
578.009	707.31
578.46	700.51
578.912	698.81
579.363	696.11
579.814	707.81
580.265	703.41
580.717	708.71
581.168	702.41
581.619	705.71
582.07	719.61
582.521	709.11
582.972	710.61
583.423	701.01
583.875	710.51
584.326	714.11
584.777	730.71
585.227	751.11
585.678	765.11
586.129	781.91
586.58	801.01
587.031	819.81
587.482	857.01
587.933	892.41
588.384	860.91
588.834	820.11
589.285	811.61
589.736	799.51
590.186	807.51
590.637	802.31
591.088	776.11
591.538	777.21
591.989	765.11
592.439	757.91
592.89	755.91
593.34	738.41
593.791	735.41
594.241	735.01
594.692	736.21
595.142	726.31
595.593	717.11
596.043	737.11
596.493	738.81
596.943	741.91
597.394	756.61
597.844	743.01
598.294	753.41
598.744	790.91
599.195	803.51
599.645	853.91
600.095	902.71
600.545	964.81
600.995	1009.01
601.445	1084.51
601.895	1141.61
602.345	1185.41
602.795	1162.21
603.245	1116.11
603.695	1055.91
604.145	1000.11
604.594	942.61
605.044	892.71
605.494	845.51
605.944	794.01
606.393	772.71
606.843	760.71
607.293	766.31
607.743	758.11
608.192	771.61
608.642	784.71
609.091	787.51
609.541	783.11
609.99	796.01
610.44	790.51
610.889	742.91
611.339	725.61
611.788	702.51
612.238	716.51
612.687	722.41
613.136	729.31
613.586	736.41
614.035	727.21
614.484	732.71
614.933	738.61
615.383	732.11
615.832	739.81
616.281	713.71
616.73	701.71
617.179	677.11
617.628	662.71
618.077	646.01
618.526	640.11
618.975	640.11
619.424	633.41
619.873	635.41
620.322	640.61
620.771	638.81
621.22	620.21
621.669	618.51
622.118	605.71
622.567	591.61
623.015	587.91
623.464	589.71
623.913	585.51
624.361	577.41
624.81	565.31
625.259	572.51
625.707	574.51
626.156	568.11
626.604	579.51
627.053	589.91
627.501	584.81
627.95	586.41
628.398	606.11
628.847	579.81
629.295	588.41
629.744	599.21
630.192	596.11
630.64	586.01
631.089	567.31
631.537	561.51
631.985	562.21
632.433	557.01
632.881	550.31
633.33	547.11
633.778	548.31
634.226	545.01
634.674	556.01
635.122	559.61
635.57	569.41
636.018	586.01
636.466	584.61
636.914	568.11
637.362	597.11
637.81	597.11
638.258	605.61
638.705	609.21
639.153	641.61
639.601	645.01
640.049	667.71
640.497	693.01
640.944	719.51
641.392	663.61
641.84	625.81
642.287	602.41
642.735	595.71
643.182	585.51
643.63	572.81
644.078	582.51
644.525	596.31
644.973	601.41
645.42	611.11
645.867	643.91
646.315	653.51
646.762	672.11
647.21	697.71
647.657	721.81
648.104	756.91
648.551	781.01
648.999	837.91
649.446	912.01
649.893	987.51
650.34	1143.31
650.787	1351.21
651.234	1648.71
651.682	2132.41
652.129	2878.31
652.576	4088.31
653.023	5992.11
653.47	8094.91
653.917	10053.61
654.363	11578.71
654.81	12760.41
655.257	12109.91
655.704	7998.31
656.151	4819.31
656.598	3182.31
657.044	2273.91
657.491	1790.81
657.938	1426.51
658.385	1190.41
658.831	1046.51
659.278	938.11
659.724	850.81
660.171	785.01
660.618	723.41
661.064	696.71
661.511	676.41
661.957	659.31
662.404	647.01
662.85	656.51
663.296	631.81
663.743	577.11
664.189	547.91
664.635	546.81
665.082	543.31
665.528	541.71
665.974	527.01
666.42	520.61
666.867	509.41
667.313	491.41
667.759	479.51
668.205	464.81
668.651	472.21
669.097	463.31
669.543	455.61
669.989	450.01
670.435	460.81
670.881	459.71
671.327	465.31
671.773	484.21
672.219	503.71
672.665	570.11
673.11	610.31
673.556	661.71
674.002	700.01
674.448	683.61
674.893	574.31
675.339	500.11
675.785	460.01
676.23	441.21
676.676	407.61
677.122	400.31
677.567	381.21
678.013	389.01
678.458	377.11
678.904	379.01
679.349	373.01
679.794	372.11
680.24	364.61
680.685	360.71
681.131	370.21
681.576	359.71
682.021	376.21
682.466	363.41
682.912	364.91
683.357	370.41
683.802	401.21
684.247	431.21
684.692	468.61
685.137	509.81
685.583	553.91
686.028	591.21
686.473	543.01
686.918	469.21
687.363	435.31
687.807	408.11
688.252	381.01
688.697	376.11
689.142	360.11
689.587	349.01
690.032	339.31
690.477	350.81
690.921	366.31
691.366	398.91
691.811	416.91
692.255	449.51
692.7	478.41
693.145	523.21
693.589	744.21
694.034	1199.91
694.478	1620.11
694.923	1831.51
695.367	2370.31
695.812	1252.81
696.256	530.61
696.701	388.81
697.145	357.21
697.59	343.71
698.034	334.01
698.478	340.11
698.922	338.61
699.367	335.11
699.811	347.01
700.255	367.21
700.699	396.71
701.143	439.61
701.588	500.01
702.032	532.91
702.476	528.61
702.92	515.01
703.364	515.31
703.808	676.31
704.252	1093.51
704.696	1530.11
705.14	1752.51
705.584	2231.21
706.027	1109.51
706.471	546.91
706.915	416.41
707.359	365.81
707.803	330.11
708.246	323.71
708.69	323.71
709.134	324.61
709.577	329.21
710.021	331.21
710.465	317.61
710.908	309.71
711.352	315.41
711.795	333.51
712.239	373.71
712.682	401.31
713.126	433.11
713.569	474.21
714.012	370.11
714.456	321.71
714.899	307.21
715.342	293.21
715.786	271.91
716.229	278.01
716.672	264.31
717.115	265.31
717.558	254.11
718.002	255.91
718.445	274.41
718.888	297.01
719.331	309.11
719.774	314.91
720.217	323.91
720.66	292.91
721.103	276.91
721.546	259.31
721.989	260.61
722.432	239.61
722.874	247.41
723.317	231.51
723.76	252.21
724.203	269.51
724.645	332.41
725.088	471.41
725.531	599.21
725.974	669.51
726.416	577.61
726.859	319.31
727.301	257.91
727.744	247.71
728.187	250.91
728.629	240.61
729.071	249.11
729.514	267.21
729.956	286.31
730.399	297.81
730.841	302.41
731.283	281.61
731.726	283.41
732.168	272.91
732.61	289.01
733.053	301.11
733.495	330.21
733.937	379.71
734.379	423.31
734.821	461.51
735.263	571.81
735.705	886.21
736.148	1666.21
736.59	2719.81
737.032	3193.21
737.474	2608.11
737.916	857.41
738.357	455.21
738.799	349.21
739.241	320.51
739.683	297.51
740.125	310.11
740.567	315.11
741.008	332.41
741.45	324.71
741.892	327.91
742.334	367.01
742.775	383.01
743.217	359.61
743.658	287.41
744.1	264.81
744.542	286.91
744.983	333.61
745.425	360.11
745.866	358.41
746.307	297.11
746.749	289.21
747.19	344.11
747.632	484.81
748.073	942.81
748.514	1975.41
748.956	2995.71
749.397	3775.21
749.838	3125.91
750.279	3090.41
750.72	1580.11
751.162	581.21
751.603	342.21
752.044	270.81
752.485	233.91
752.926	218.11
753.367	215.51
753.808	203.01
754.249	196.21
754.69	190.61
755.131	181.61
755.572	189.91
756.013	198.11
756.453	193.31
756.894	202.21
757.335	201.11
757.776	206.91
758.216	201.71
758.657	204.91
759.098	205.71
759.538	236.41
759.979	278.41
760.42	390.01
760.86	750.31
761.301	1940.61
761.741	4676.21
762.182	6724.71
762.622	4748.11
763.063	1392.61
763.503	572.41
