Data from 20171114-ORNL-Ar_H_NY_Subt18_08-04-28-814.txt Node
Date: Tue Nov 14 08:04:28 EST 2017
User: Ender
Spectrometer: HR+D1039
Trigger mode: 0
Integration Time (sec): 2.730000E-2
Scans to average: 10
Electric dark correction enabled: true
Nonlinearity correction enabled: false
Boxcar width: 0
XAxis mode: Wavelengths
Number of Pixels in Spectrum: 2048
>>>>>Begin Spectral Data<<<<<
187.836	-3.26
188.309	-3.26
188.782	-3.26
189.255	5.54
189.728	-3.36
190.201	2.84
190.674	-4.16
191.147	2.34
191.619	-5.76
192.092	-1.36
192.565	1.24
193.038	0.74
193.511	2.54
193.984	1.84
194.456	0.94
194.929	0.64
195.402	-2.36
195.874	1.54
196.347	-4.46
196.82	-7.36
197.292	4.34
197.765	-2.56
198.237	-2.96
198.71	2.24
199.182	3.84
199.655	0.04
200.127	1.64
200.6	-1.36
201.072	-0.66
201.544	-4.96
202.017	-7.66
202.489	3.74
202.961	-6.76
203.433	-3.56
203.906	-6.46
204.378	-0.66
204.85	0.84
205.322	-9.56
205.794	-3.06
206.266	-4.76
206.739	-14.06
207.211	4.84
207.683	-1.46
208.155	-5.06
208.627	-0.56
209.099	-5.66
209.57	-5.36
210.042	-6.56
210.514	-0.66
210.986	-2.36
211.458	-8.26
211.93	-4.56
212.402	2.84
212.873	-2.46
213.345	-9.16
213.817	-12.56
214.288	-3.26
214.76	-6.96
215.232	-5.76
215.703	0.64
216.175	-8.96
216.646	-3.16
217.118	-6.96
217.589	-5.96
218.061	0.84
218.532	-7.56
219.004	-1.56
219.475	-7.96
219.946	-4.56
220.418	-0.26
220.889	2.94
221.36	-4.36
221.832	-8.76
222.303	-7.36
222.774	-0.26
223.245	-9.36
223.717	-6.66
224.188	-6.56
224.659	-0.76
225.13	-11.36
225.601	-4.66
226.072	2.74
226.543	-6.66
227.014	0.34
227.485	-2.06
227.956	-0.46
228.427	-4.36
228.898	-3.36
229.369	5.94
229.839	-2.36
230.31	-3.76
230.781	2.94
231.252	-2.16
231.722	-2.36
232.193	-5.26
232.664	1.64
233.135	3.04
233.605	0.74
234.076	-1.86
234.546	6.14
235.017	6.74
235.487	1.84
235.958	2.94
236.428	-1.26
236.899	5.24
237.369	-0.36
237.84	-3.96
238.31	4.14
238.78	3.74
239.251	5.14
239.721	-3.06
240.191	6.34
240.662	3.14
241.132	0.44
241.602	-5.16
242.072	6.14
242.542	2.84
243.013	-1.06
243.483	6.64
243.953	-0.06
244.423	7.24
244.893	-0.26
245.363	2.84
245.833	2.04
246.303	-2.16
246.773	12.64
247.243	6.64
247.712	7.64
248.182	8.14
248.652	10.14
249.122	0.44
249.592	12.74
250.061	21.74
250.531	30.84
251.001	19.84
251.471	22.84
251.94	23.74
252.41	8.54
252.879	-0.36
253.349	10.54
253.818	10.14
254.288	11.44
254.757	2.24
255.227	2.64
255.696	4.14
256.166	8.54
256.635	8.94
257.105	11.74
257.574	7.04
258.043	12.54
258.513	17.84
258.982	23.44
259.451	13.44
259.92	17.44
260.389	13.44
260.859	17.54
261.328	17.04
261.797	18.14
262.266	10.94
262.735	8.64
263.204	13.04
263.673	6.14
264.142	4.24
264.611	0.24
265.08	3.84
265.549	3.74
266.018	5.04
266.487	0.34
266.955	-4.06
267.424	0.64
267.893	9.04
268.362	5.44
268.83	4.34
269.299	11.94
269.768	7.04
270.236	7.64
270.705	5.94
271.174	4.34
271.642	15.24
272.111	7.74
272.579	21.24
273.048	19.24
273.516	32.14
273.985	34.94
274.453	29.64
274.922	26.34
275.39	14.54
275.858	10.34
276.327	5.24
276.795	23.14
277.263	6.14
277.731	34.14
278.2	51.84
278.668	55.14
279.136	56.54
279.604	18.64
280.072	17.14
280.54	16.54
281.008	13.64
281.477	10.04
281.945	12.04
282.413	12.34
282.881	19.64
283.348	12.74
283.816	17.84
284.284	22.14
284.752	20.74
285.22	20.34
285.688	20.74
286.156	19.24
286.623	41.74
287.091	43.64
287.559	28.34
288.026	23.94
288.494	22.54
288.962	16.34
289.429	17.74
289.897	21.14
290.364	16.34
290.832	12.74
291.3	14.74
291.767	18.84
292.234	17.64
292.702	16.24
293.169	17.34
293.637	26.44
294.104	22.84
294.571	9.94
295.039	11.44
295.506	16.04
295.973	17.24
296.44	15.34
296.908	17.94
297.375	19.94
297.842	21.04
298.309	15.34
298.776	16.04
299.243	24.74
299.71	15.94
300.177	15.34
300.644	25.34
301.111	23.84
301.578	25.94
302.045	20.74
302.512	23.24
302.979	22.84
303.446	28.74
303.913	19.44
304.379	16.54
304.846	31.84
305.313	27.14
305.78	26.34
306.246	28.74
306.713	30.84
307.18	31.74
307.646	36.24
308.113	35.94
308.579	31.74
309.046	32.04
309.512	27.64
309.979	23.24
310.445	31.34
310.912	27.14
311.378	30.14
311.845	27.04
312.311	29.14
312.777	30.64
313.244	28.94
313.71	35.94
314.176	29.74
314.642	31.44
315.109	31.54
315.575	31.04
316.041	38.44
316.507	36.04
316.973	32.24
317.439	32.74
317.905	36.94
318.371	34.14
318.837	30.54
319.303	25.44
319.769	31.84
320.235	31.44
320.701	40.54
321.167	35.54
321.633	35.34
322.099	42.14
322.564	53.04
323.03	44.74
323.496	36.04
323.962	45.54
324.427	37.44
324.893	45.24
325.359	38.94
325.824	37.74
326.29	35.94
326.755	38.34
327.221	40.94
327.686	42.64
328.152	42.74
328.617	45.44
329.083	45.44
329.548	53.94
330.014	44.94
330.479	41.64
330.944	45.34
331.41	46.04
331.875	48.64
332.34	42.74
332.805	37.24
333.271	47.74
333.736	44.44
334.201	58.14
334.666	50.04
335.131	48.74
335.596	46.54
336.061	50.54
336.526	40.14
336.991	45.34
337.456	55.34
337.921	46.24
338.386	46.24
338.851	40.84
339.316	49.44
339.781	45.44
340.246	50.64
340.711	46.64
341.175	49.14
341.64	48.84
342.105	49.04
342.569	54.64
343.034	53.44
343.499	55.14
343.963	59.44
344.428	62.94
344.893	56.14
345.357	57.04
345.822	62.84
346.286	60.44
346.751	73.44
347.215	59.84
347.679	70.44
348.144	89.94
348.608	77.14
349.073	67.54
349.537	73.14
350.001	72.14
350.465	91.54
350.93	82.74
351.394	77.34
351.858	71.74
352.322	83.54
352.786	75.74
353.25	93.44
353.715	108.64
354.179	94.24
354.643	115.74
355.107	122.54
355.571	103.54
356.035	94.84
356.498	118.84
356.962	116.24
357.426	120.84
357.89	108.44
358.354	81.64
358.818	79.14
359.281	70.64
359.745	73.94
360.209	81.64
360.673	67.24
361.136	78.14
361.6	81.64
362.064	81.34
362.527	80.94
362.991	85.04
363.454	85.34
363.918	65.14
364.381	74.04
364.845	76.84
365.308	85.34
365.772	85.04
366.235	81.44
366.698	77.24
367.162	81.84
367.625	75.84
368.088	82.44
368.552	91.54
369.015	86.34
369.478	94.84
369.941	95.24
370.404	86.74
370.867	103.24
371.331	101.24
371.794	106.84
372.257	107.24
372.72	111.64
373.183	102.84
373.646	100.04
374.109	95.84
374.572	97.94
375.035	94.74
375.497	100.54
375.96	103.84
376.423	100.24
376.886	106.84
377.349	103.54
377.811	93.14
378.274	102.24
378.737	104.64
379.199	105.44
379.662	104.94
380.125	112.14
380.587	110.24
381.05	113.44
381.512	120.34
381.975	125.94
382.437	117.74
382.9	112.94
383.362	121.54
383.825	134.24
384.287	137.64
384.75	129.94
385.212	128.84
385.674	132.24
386.136	131.14
386.599	115.84
387.061	117.84
387.523	112.64
387.985	127.04
388.447	132.34
388.91	134.24
389.372	146.14
389.834	145.54
390.296	136.24
390.758	138.04
391.22	154.64
391.682	182.74
392.144	269.44
392.606	212.44
393.068	148.64
393.529	151.44
393.991	133.84
394.453	141.14
394.915	143.24
395.377	173.04
395.838	191.74
396.3	138.94
396.762	132.74
397.224	121.34
397.685	117.34
398.147	111.34
398.608	117.64
399.07	115.34
399.531	128.24
399.993	132.64
400.454	136.64
400.916	129.34
401.377	126.94
401.839	137.24
402.3	138.74
402.762	155.04
403.223	169.64
403.684	154.64
404.145	140.44
404.607	148.24
405.068	147.64
405.529	152.74
405.99	170.84
406.451	159.74
406.913	159.84
407.374	145.64
407.835	152.44
408.296	154.54
408.757	162.74
409.218	165.24
409.679	161.94
410.14	167.14
410.601	159.74
411.062	166.74
411.522	179.84
411.983	176.14
412.444	152.34
412.905	159.74
413.366	173.54
413.826	179.14
414.287	202.84
414.748	239.04
415.208	224.84
415.669	192.74
416.13	184.54
416.59	180.64
417.051	196.04
417.511	195.84
417.972	218.74
418.432	227.24
418.893	262.24
419.353	224.74
419.814	179.44
420.274	164.44
420.734	163.64
421.195	175.34
421.655	169.84
422.115	174.94
422.576	175.24
423.036	179.44
423.496	191.64
423.956	194.64
424.416	208.64
424.876	249.24
425.336	238.44
425.797	236.44
426.257	237.94
426.717	218.34
427.177	209.24
427.637	201.24
428.097	218.84
428.556	224.74
429.016	241.04
429.476	236.64
429.936	245.64
430.396	255.54
430.856	258.74
431.315	289.84
431.775	319.94
432.235	344.14
432.694	320.14
433.154	325.44
433.614	348.04
434.073	307.84
434.533	263.84
434.993	252.44
435.452	261.74
435.912	275.64
436.371	258.14
436.83	258.24
437.29	236.64
437.749	227.14
438.209	228.34
438.668	245.14
439.127	251.84
439.587	240.24
440.046	225.04
440.505	234.34
440.964	252.54
441.424	286.94
441.883	278.34
442.342	233.24
442.801	205.64
443.26	204.74
443.719	204.74
444.178	202.44
444.637	189.44
445.096	199.44
445.555	196.44
446.014	202.64
446.473	203.44
446.932	211.14
447.391	198.24
447.849	204.64
448.308	195.44
448.767	201.04
449.226	213.34
449.685	216.64
450.143	224.84
450.602	208.64
451.061	212.54
451.519	212.64
451.978	212.44
452.436	218.44
452.895	221.04
453.353	233.04
453.812	221.14
454.27	222.24
454.729	217.44
455.187	217.64
455.646	226.04
456.104	226.94
456.562	229.04
457.021	238.64
457.479	231.74
457.937	247.44
458.395	239.34
458.854	228.14
459.312	234.44
459.77	239.24
460.228	232.84
460.686	224.94
461.144	230.84
461.602	228.64
462.06	224.14
462.518	237.24
462.976	234.64
463.434	236.04
463.892	238.24
464.35	240.74
464.808	261.34
465.266	240.84
465.724	249.94
466.181	246.44
466.639	249.14
467.097	266.64
467.555	271.64
468.012	277.14
468.47	290.44
468.928	299.44
469.385	306.94
469.843	313.44
470.3	315.04
470.758	329.64
471.215	342.74
471.673	366.14
472.13	370.14
472.588	379.04
473.045	330.94
473.503	343.44
473.96	358.84
474.417	369.44
474.875	400.84
475.332	428.34
475.789	413.44
476.246	427.84
476.704	446.54
477.161	462.94
477.618	472.94
478.075	514.24
478.532	564.04
478.989	625.94
479.446	729.64
479.903	699.24
480.36	740.14
480.817	783.44
481.274	891.64
481.731	995.14
482.188	1063.64
482.645	1198.04
483.102	1281.24
483.558	1414.94
484.015	1477.64
484.472	1452.54
484.929	1399.64
485.385	1355.54
485.842	1327.34
486.299	1262.84
486.755	1181.24
487.212	986.64
487.668	850.44
488.125	783.94
488.582	721.04
489.038	683.14
489.494	663.64
489.951	639.24
490.407	608.94
490.864	594.14
491.32	584.34
491.776	585.24
492.233	594.54
492.689	554.54
493.145	544.94
493.602	535.04
494.058	556.14
494.514	558.44
494.97	577.14
495.426	595.74
495.882	563.84
496.338	567.24
496.794	570.64
497.251	559.94
497.707	578.14
498.163	573.44
498.618	582.04
499.074	586.74
499.53	620.54
499.986	618.04
500.442	586.14
500.898	566.84
501.354	570.84
501.809	580.34
502.265	585.14
502.721	603.74
503.177	605.24
503.632	610.04
504.088	617.74
504.543	649.04
504.999	633.94
505.455	603.04
505.91	569.34
506.366	570.44
506.821	568.04
507.277	568.24
507.732	569.44
508.187	568.24
508.643	574.14
509.098	578.94
509.553	591.74
510.009	594.94
510.464	607.14
510.919	626.54
511.375	630.04
511.83	656.34
512.285	661.84
512.74	691.34
513.195	706.94
513.65	699.84
514.105	697.14
514.56	714.54
515.015	716.84
515.47	741.74
515.925	714.54
516.38	716.84
516.835	720.04
517.29	720.44
517.745	708.54
518.2	702.44
518.655	680.04
519.109	684.14
519.564	676.54
520.019	663.44
520.474	657.64
520.928	657.24
521.383	652.24
521.838	637.84
522.292	657.14
522.747	642.94
523.201	637.14
523.656	623.84
524.11	625.14
524.565	631.94
525.019	621.84
525.474	626.74
525.928	635.64
526.382	635.24
526.837	626.94
527.291	639.14
527.745	627.94
528.2	631.94
528.654	628.84
529.108	617.74
529.562	627.24
530.016	631.54
530.47	625.14
530.925	622.94
531.379	628.44
531.833	631.44
532.287	639.54
532.741	642.94
533.195	639.24
533.649	637.84
534.103	653.54
534.556	644.64
535.01	641.24
535.464	636.84
535.918	659.84
536.372	650.14
536.826	647.64
537.279	631.34
537.733	642.14
538.187	638.34
538.64	643.04
539.094	646.74
539.548	656.94
540.001	659.44
540.455	650.94
540.908	659.34
541.362	665.14
541.815	668.64
542.269	680.24
542.722	691.14
543.175	695.94
543.629	682.64
544.082	708.74
544.536	705.64
544.989	700.14
545.442	718.74
545.895	718.24
546.349	710.04
546.802	706.84
547.255	704.14
547.708	715.04
548.161	731.54
548.614	727.74
549.067	738.44
549.52	721.94
549.973	721.44
550.426	724.44
550.879	716.34
551.332	707.54
551.785	723.94
552.238	723.14
552.691	720.04
553.144	738.94
553.596	760.44
554.049	773.14
554.502	800.54
554.955	814.14
555.407	812.74
555.86	808.54
556.313	797.94
556.765	787.24
557.218	802.44
557.67	797.84
558.123	770.64
558.576	765.54
559.028	784.04
559.48	794.54
559.933	771.44
560.385	750.84
560.838	712.84
561.29	689.74
561.742	689.64
562.195	677.84
562.647	679.64
563.099	681.44
563.551	687.74
564.004	697.24
564.456	690.24
564.908	674.24
565.36	664.94
565.812	642.24
566.264	651.24
566.716	644.74
567.168	637.94
567.62	638.24
568.072	618.14
568.524	622.84
568.976	602.94
569.428	589.74
569.88	593.64
570.332	592.04
570.784	601.44
571.235	599.14
571.687	609.54
572.139	612.14
572.59	631.74
573.042	624.74
573.494	630.64
573.945	620.54
574.397	607.94
574.849	616.64
575.3	613.94
575.752	605.54
576.203	598.04
576.655	604.04
577.106	588.24
577.557	586.94
578.009	588.84
578.46	579.54
578.912	577.54
579.363	593.24
579.814	580.24
580.265	575.84
580.717	597.14
581.168	587.54
581.619	599.74
582.07	602.54
582.521	588.04
582.972	585.14
583.423	591.94
583.875	593.64
584.326	609.24
584.777	652.54
585.227	726.34
585.678	796.44
586.129	883.44
586.58	949.94
587.031	1022.34
587.482	1178.64
587.933	1349.54
588.384	1157.34
588.834	850.04
589.285	703.94
589.736	678.14
590.186	670.34
590.637	660.34
591.088	641.44
591.538	644.04
591.989	645.04
592.439	629.34
592.89	624.34
593.34	614.54
593.791	618.34
594.241	611.74
594.692	617.94
595.142	598.44
595.593	604.74
596.043	608.64
596.493	620.64
596.943	617.74
597.394	626.24
597.844	616.64
598.294	634.84
598.744	649.84
599.195	669.94
599.645	706.54
600.095	735.44
600.545	782.14
600.995	827.04
601.445	882.34
601.895	933.44
602.345	985.34
602.795	974.54
603.245	925.34
603.695	868.74
604.145	827.34
604.594	789.54
605.044	741.84
605.494	685.14
605.944	654.04
606.393	647.94
606.843	631.34
607.293	625.04
607.743	625.34
608.192	641.74
608.642	649.94
609.091	657.14
609.541	663.94
609.99	657.64
610.44	660.84
610.889	625.74
611.339	596.54
611.788	584.94
612.238	599.74
612.687	617.54
613.136	613.74
613.586	623.84
614.035	624.64
614.484	640.44
614.933	646.24
615.383	632.04
615.832	629.74
616.281	613.84
616.73	580.94
617.179	569.44
617.628	569.14
618.077	545.74
618.526	521.74
618.975	521.84
619.424	512.94
619.873	510.94
620.322	523.14
620.771	511.54
621.22	513.64
621.669	509.44
622.118	501.44
622.567	499.14
623.015	482.74
623.464	482.54
623.913	468.54
624.361	463.94
624.81	470.34
625.259	475.84
625.707	478.54
626.156	471.84
626.604	478.84
627.053	475.44
627.501	470.24
627.95	475.24
628.398	498.34
628.847	479.04
629.295	480.04
629.744	490.04
630.192	480.44
630.64	479.94
631.089	476.44
631.537	489.54
631.985	489.84
632.433	494.74
632.881	506.54
633.33	552.04
633.778	532.14
634.226	474.14
634.674	479.24
635.122	480.04
635.57	502.94
636.018	528.84
636.466	487.54
636.914	471.34
637.362	477.14
637.81	486.84
638.258	483.24
638.705	493.24
639.153	515.44
639.601	508.54
640.049	535.84
640.497	561.24
640.944	583.24
641.392	536.04
641.84	511.94
642.287	483.54
642.735	481.04
643.182	480.84
643.63	481.74
644.078	479.44
644.525	498.34
644.973	497.64
645.42	498.84
645.867	524.14
646.315	530.94
646.762	556.24
647.21	570.04
647.657	596.34
648.104	628.44
648.551	646.54
648.999	699.94
649.446	763.04
649.893	839.34
650.34	964.94
650.787	1153.84
651.234	1432.64
651.682	1863.54
652.129	2534.04
652.576	3626.84
653.023	5407.34
653.47	7477.74
653.917	9444.44
654.363	11069.94
654.81	12471.54
655.257	11840.54
655.704	7647.84
656.151	4497.14
656.598	2905.84
657.044	2047.84
657.491	1576.84
657.938	1265.54
658.385	1039.84
658.831	910.94
659.278	816.44
659.724	719.54
660.171	658.04
660.618	602.24
661.064	572.04
661.511	554.14
661.957	536.54
662.404	532.34
662.85	535.74
663.296	509.34
663.743	462.14
664.189	448.34
664.635	444.04
665.082	438.24
665.528	445.54
665.974	431.64
666.42	431.34
666.867	425.04
667.313	401.94
667.759	407.94
668.205	391.44
668.651	402.24
669.097	411.44
669.543	416.14
669.989	401.74
670.435	379.24
670.881	373.54
671.327	362.44
671.773	382.94
672.219	397.04
672.665	443.34
673.11	473.54
673.556	507.14
674.002	551.24
674.448	546.14
674.893	453.24
675.339	398.24
675.785	371.44
676.23	350.84
676.676	321.34
677.122	313.44
677.567	309.24
678.013	304.14
678.458	293.04
678.904	300.54
679.349	286.54
679.794	295.64
680.24	286.84
680.685	288.44
681.131	286.54
681.576	280.84
682.021	289.64
682.466	286.24
682.912	284.24
683.357	289.14
683.802	315.24
684.247	332.64
684.692	378.54
685.137	404.54
685.583	448.34
686.028	463.04
686.473	428.64
686.918	363.34
687.363	341.74
687.807	324.54
688.252	302.84
688.697	287.74
689.142	270.74
689.587	265.14
690.032	269.24
690.477	280.44
690.921	280.24
691.366	309.74
691.811	325.34
692.255	354.04
692.7	382.14
693.145	413.44
693.589	552.74
694.034	910.44
694.478	1250.64
694.923	1456.14
695.367	1920.84
695.812	993.74
696.256	411.94
696.701	304.04
697.145	278.94
697.59	269.34
698.034	266.24
698.478	272.44
698.922	268.04
699.367	271.04
699.811	278.74
700.255	280.84
700.699	316.04
701.143	344.44
701.588	399.04
702.032	425.64
702.476	427.64
702.92	405.74
703.364	392.64
703.808	505.84
704.252	808.14
704.696	1184.54
705.14	1384.64
705.584	1800.54
706.027	882.14
706.471	432.64
706.915	331.04
707.359	286.64
707.803	259.24
708.246	258.64
708.69	255.44
709.134	259.14
709.577	260.44
710.021	262.74
710.465	256.34
710.908	244.44
711.352	242.34
711.795	257.64
712.239	286.24
712.682	305.04
713.126	339.24
713.569	387.84
714.012	306.24
714.456	265.14
714.899	249.84
715.342	226.04
715.786	214.14
716.229	210.14
716.672	216.14
717.115	202.64
717.558	209.94
718.002	200.74
718.445	215.24
718.888	228.74
719.331	238.44
719.774	247.54
720.217	251.54
720.66	232.24
721.103	217.94
721.546	204.34
721.989	200.84
722.432	186.14
722.874	189.54
723.317	191.44
723.76	187.64
724.203	212.54
724.645	254.94
725.088	350.54
725.531	457.44
725.974	525.44
726.416	453.64
726.859	245.14
727.301	204.14
727.744	199.74
728.187	185.44
728.629	189.14
729.071	196.34
729.514	210.54
729.956	218.44
730.399	230.64
730.841	233.14
731.283	221.54
731.726	213.44
732.168	208.94
732.61	219.14
733.053	227.34
733.495	259.24
733.937	276.54
734.379	330.24
734.821	353.24
735.263	437.54
735.705	662.94
736.148	1244.94
736.59	2083.84
737.032	2562.94
737.474	2095.44
737.916	669.24
738.357	351.54
738.799	271.24
739.241	247.54
739.683	229.44
740.125	233.14
740.567	238.74
741.008	255.74
741.45	258.74
741.892	254.24
742.334	286.74
742.775	288.64
743.217	283.34
743.658	214.54
744.1	202.94
744.542	210.14
744.983	252.34
745.425	284.04
745.866	287.54
746.307	228.14
746.749	228.44
747.19	258.24
747.632	360.64
748.073	687.14
748.514	1473.34
748.956	2346.64
749.397	2915.94
749.838	2441.24
750.279	2499.34
750.72	1255.74
751.162	449.84
751.603	261.74
752.044	211.44
752.485	166.94
752.926	167.94
753.367	168.24
753.808	162.74
754.249	154.14
754.69	147.34
755.131	148.54
755.572	140.24
756.013	149.64
756.453	149.34
756.894	148.74
757.335	151.14
757.776	155.44
758.216	156.14
758.657	158.74
759.098	166.34
759.538	179.04
759.979	213.44
760.42	296.74
760.86	553.84
761.301	1410.54
761.741	3528.94
762.182	5443.74
762.622	3831.44
763.063	1086.64
