Data from 20171114-ORNL-Ar_H_NY_Subt18_08-06-12-272.txt Node
Date: Tue Nov 14 08:06:12 EST 2017
User: Ender
Spectrometer: HR+D1039
Trigger mode: 0
Integration Time (sec): 2.730000E-2
Scans to average: 10
Electric dark correction enabled: true
Nonlinearity correction enabled: false
Boxcar width: 0
XAxis mode: Wavelengths
Number of Pixels in Spectrum: 2048
>>>>>Begin Spectral Data<<<<<
187.836	-2.66
188.309	-2.66
188.782	-2.66
189.255	-2.16
189.728	-1.36
190.201	-0.16
190.674	-4.56
191.147	3.54
191.619	-5.26
192.092	3.14
192.565	3.54
193.038	-1.66
193.511	3.54
193.984	1.54
194.456	-1.96
194.929	4.84
195.402	-2.86
195.874	2.54
196.347	3.54
196.82	-3.86
197.292	10.94
197.765	0.84
198.237	-4.46
198.71	1.04
199.182	2.24
199.655	1.54
200.127	5.54
200.6	-0.86
201.072	-1.06
201.544	-3.46
202.017	-3.26
202.489	8.44
202.961	-1.76
203.433	-1.86
203.906	-5.06
204.378	-4.36
204.85	-2.16
205.322	-9.26
205.794	-1.36
206.266	-4.46
206.739	-6.06
207.211	2.94
207.683	-6.86
208.155	-3.16
208.627	-0.96
209.099	-3.96
209.57	-6.86
210.042	-4.06
210.514	1.34
210.986	-8.76
211.458	-8.26
211.93	-2.26
212.402	1.94
212.873	-5.36
213.345	-8.76
213.817	-9.16
214.288	1.74
214.76	-8.36
215.232	-0.16
215.703	-7.26
216.175	-1.26
216.646	-2.26
217.118	-0.26
217.589	-3.66
218.061	1.94
218.532	-2.26
219.004	-2.06
219.475	0.34
219.946	-7.76
220.418	-3.66
220.889	5.84
221.36	-0.96
221.832	-0.66
222.303	-3.26
222.774	4.24
223.245	-2.96
223.717	-2.16
224.188	-7.16
224.659	-0.06
225.13	-1.76
225.601	-1.06
226.072	-1.26
226.543	5.74
227.014	0.34
227.485	-5.66
227.956	-4.36
228.427	-3.96
228.898	6.04
229.369	9.14
229.839	1.14
230.31	-7.96
230.781	2.44
231.252	-7.46
231.722	-4.86
232.193	1.44
232.664	5.34
233.135	4.84
233.605	4.94
234.076	-4.86
234.546	4.24
235.017	6.84
235.487	3.84
235.958	6.54
236.428	1.04
236.899	0.64
237.369	11.04
237.84	4.14
238.31	3.74
238.78	1.54
239.251	0.64
239.721	8.44
240.191	1.04
240.662	2.34
241.132	-1.86
241.602	-0.26
242.072	0.84
242.542	14.34
243.013	0.44
243.483	4.14
243.953	9.24
244.423	-1.96
244.893	-3.06
245.363	2.94
245.833	6.04
246.303	1.34
246.773	13.84
247.243	4.94
247.712	7.44
248.182	14.04
248.652	6.04
249.122	0.24
249.592	11.04
250.061	18.74
250.531	34.74
251.001	16.34
251.471	22.64
251.94	22.14
252.41	11.14
252.879	1.04
253.349	15.74
253.818	10.44
254.288	-1.06
254.757	2.14
255.227	-1.06
255.696	7.94
256.166	8.74
256.635	16.84
257.105	6.94
257.574	8.14
258.043	12.94
258.513	11.44
258.982	21.74
259.451	12.04
259.92	14.44
260.389	13.64
260.859	14.64
261.328	17.94
261.797	15.24
262.266	10.54
262.735	9.34
263.204	7.44
263.673	3.24
264.142	12.94
264.611	-1.36
265.08	2.84
265.549	3.54
266.018	9.94
266.487	-4.56
266.955	-0.56
267.424	4.84
267.893	9.94
268.362	5.94
268.83	7.54
269.299	15.04
269.768	12.84
270.236	5.44
270.705	5.84
271.174	8.44
271.642	7.84
272.111	11.94
272.579	17.44
273.048	29.74
273.516	34.84
273.985	32.74
274.453	26.04
274.922	20.94
275.39	12.64
275.858	4.84
276.327	15.44
276.795	23.44
277.263	8.84
277.731	29.04
278.2	55.04
278.668	66.14
279.136	50.14
279.604	20.44
280.072	13.94
280.54	13.04
281.008	12.14
281.477	23.84
281.945	13.64
282.413	18.24
282.881	20.14
283.348	10.54
283.816	21.04
284.284	16.54
284.752	26.74
285.22	20.34
285.688	28.04
286.156	20.64
286.623	51.04
287.091	60.84
287.559	34.54
288.026	21.04
288.494	23.04
288.962	4.94
289.429	13.74
289.897	20.44
290.364	19.04
290.832	19.84
291.3	20.64
291.767	22.94
292.234	17.84
292.702	15.34
293.169	18.94
293.637	31.94
294.104	21.04
294.571	8.24
295.039	13.14
295.506	16.54
295.973	17.14
296.44	15.74
296.908	18.84
297.375	22.34
297.842	20.64
298.309	14.84
298.776	13.44
299.243	22.54
299.71	17.84
300.177	20.64
300.644	18.74
301.111	20.74
301.578	25.84
302.045	18.24
302.512	22.44
302.979	28.04
303.446	18.94
303.913	16.84
304.379	21.84
304.846	29.74
305.313	23.74
305.78	27.84
306.246	27.04
306.713	29.04
307.18	33.94
307.646	35.24
308.113	29.04
308.579	34.84
309.046	24.84
309.512	33.54
309.979	25.24
310.445	33.74
310.912	38.24
311.378	37.64
311.845	35.64
312.311	28.84
312.777	34.14
313.244	30.44
313.71	40.34
314.176	37.64
314.642	32.94
315.109	35.34
315.575	37.24
316.041	39.34
316.507	38.44
316.973	40.44
317.439	37.24
317.905	39.84
318.371	36.54
318.837	43.44
319.303	38.14
319.769	38.94
320.235	35.34
320.701	37.24
321.167	39.94
321.633	38.64
322.099	43.34
322.564	43.24
323.03	41.84
323.496	38.14
323.962	42.14
324.427	39.84
324.893	39.14
325.359	47.94
325.824	39.34
326.29	41.14
326.755	43.14
327.221	43.24
327.686	40.04
328.152	55.64
328.617	48.54
329.083	50.84
329.548	56.44
330.014	51.14
330.479	40.94
330.944	49.24
331.41	53.64
331.875	49.84
332.34	51.44
332.805	51.14
333.271	50.14
333.736	52.14
334.201	53.74
334.666	54.94
335.131	54.84
335.596	49.14
336.061	59.44
336.526	48.34
336.991	53.14
337.456	60.54
337.921	50.24
338.386	44.14
338.851	49.64
339.316	50.04
339.781	43.24
340.246	57.34
340.711	50.34
341.175	55.64
341.64	45.24
342.105	52.34
342.569	55.14
343.034	63.54
343.499	58.84
343.963	59.14
344.428	65.44
344.893	62.94
345.357	59.14
345.822	61.24
346.286	75.24
346.751	80.14
347.215	73.44
347.679	73.64
348.144	108.64
348.608	87.14
349.073	72.84
349.537	72.34
350.001	90.54
350.465	92.64
350.93	89.14
351.394	87.94
351.858	75.24
352.322	95.04
352.786	88.74
353.25	107.44
353.715	113.24
354.179	103.34
354.643	122.14
355.107	132.84
355.571	117.44
356.035	114.14
356.498	124.24
356.962	129.34
357.426	140.94
357.89	122.44
358.354	95.34
358.818	87.14
359.281	88.84
359.745	83.74
360.209	74.74
360.673	79.84
361.136	84.24
361.6	89.14
362.064	89.64
362.527	89.14
362.991	94.94
363.454	81.34
363.918	84.34
364.381	85.74
364.845	87.44
365.308	85.64
365.772	93.54
366.235	94.34
366.698	85.94
367.162	90.44
367.625	87.74
368.088	92.94
368.552	94.94
369.015	96.54
369.478	103.84
369.941	99.04
370.404	101.04
370.867	103.44
371.331	110.14
371.794	122.24
372.257	115.54
372.72	118.24
373.183	110.04
373.646	104.64
374.109	105.44
374.572	103.44
375.035	112.94
375.497	119.04
375.96	114.24
376.423	104.64
376.886	118.04
377.349	120.54
377.811	105.64
378.274	110.64
378.737	115.14
379.199	123.34
379.662	126.24
380.125	123.84
380.587	121.54
381.05	126.14
381.512	139.84
381.975	136.94
382.437	139.14
382.9	136.04
383.362	137.64
383.825	139.14
384.287	151.94
384.75	153.64
385.212	150.24
385.674	147.04
386.136	143.34
386.599	134.34
387.061	133.34
387.523	136.04
387.985	136.84
388.447	151.04
388.91	148.54
389.372	160.14
389.834	160.64
390.296	150.54
390.758	161.24
391.22	173.64
391.682	210.64
392.144	311.44
392.606	232.94
393.068	174.04
393.529	175.64
393.991	154.74
394.453	146.94
394.915	166.44
395.377	203.34
395.838	228.64
396.3	159.54
396.762	145.34
397.224	144.94
397.685	128.64
398.147	134.54
398.608	136.14
399.07	132.94
399.531	135.24
399.993	148.34
400.454	154.74
400.916	153.24
401.377	155.04
401.839	145.94
402.3	158.84
402.762	171.94
403.223	187.74
403.684	178.44
404.145	168.64
404.607	162.94
405.068	165.04
405.529	174.44
405.99	192.54
406.451	185.04
406.913	178.94
407.374	169.44
407.835	164.04
408.296	177.44
408.757	176.54
409.218	193.54
409.679	185.14
410.14	183.64
410.601	184.74
411.062	190.84
411.522	199.94
411.983	194.84
412.444	184.84
412.905	184.64
413.366	191.54
413.826	195.64
414.287	225.64
414.748	266.54
415.208	254.64
415.669	215.04
416.13	209.94
416.59	207.34
417.051	218.64
417.511	226.94
417.972	237.74
418.432	258.84
418.893	296.64
419.353	258.54
419.814	208.54
420.274	186.64
420.734	190.14
421.195	202.04
421.655	203.04
422.115	206.24
422.576	201.74
423.036	192.84
423.496	204.24
423.956	221.74
424.416	239.44
424.876	271.54
425.336	268.24
425.797	267.94
426.257	257.14
426.717	246.54
427.177	246.04
427.637	229.14
428.097	245.64
428.556	255.34
429.016	282.54
429.476	276.54
429.936	286.24
430.396	289.44
430.856	306.14
431.315	327.94
431.775	356.64
432.235	395.14
432.694	366.44
433.154	376.24
433.614	400.14
434.073	351.74
434.533	289.64
434.993	278.14
435.452	290.44
435.912	302.14
436.371	309.74
436.83	291.84
437.29	282.14
437.749	257.14
438.209	250.34
438.668	285.84
439.127	298.64
439.587	274.34
440.046	254.84
440.505	270.74
440.964	284.14
441.424	335.64
441.883	331.44
442.342	272.14
442.801	234.04
443.26	228.74
443.719	232.14
444.178	227.24
444.637	213.04
445.096	225.64
445.555	218.44
446.014	232.04
446.473	238.24
446.932	242.74
447.391	235.94
447.849	238.44
448.308	226.94
448.767	225.14
449.226	238.04
449.685	241.74
450.143	258.64
450.602	249.44
451.061	234.14
451.519	240.44
451.978	238.04
452.436	235.24
452.895	241.94
453.353	259.14
453.812	245.14
454.27	240.54
454.729	252.94
455.187	242.54
455.646	250.94
456.104	254.64
456.562	271.74
457.021	274.74
457.479	267.04
457.937	276.64
458.395	278.14
458.854	259.24
459.312	258.84
459.77	283.64
460.228	264.14
460.686	246.74
461.144	261.84
461.602	245.54
462.06	251.84
462.518	258.04
462.976	263.64
463.434	268.54
463.892	274.04
464.35	280.14
464.808	291.14
465.266	271.34
465.724	285.04
466.181	279.34
466.639	271.14
467.097	298.44
467.555	304.94
468.012	309.24
468.47	320.04
468.928	334.84
469.385	353.94
469.843	355.04
470.3	350.54
470.758	366.84
471.215	391.54
471.673	416.64
472.13	416.24
472.588	434.14
473.045	382.64
473.503	386.04
473.96	402.64
474.417	415.54
474.875	446.14
475.332	484.84
475.789	469.14
476.246	477.34
476.704	493.74
477.161	520.74
477.618	534.54
478.075	573.34
478.532	638.64
478.989	712.44
479.446	820.94
479.903	782.54
480.36	824.24
480.817	891.34
481.274	995.24
481.731	1099.24
482.188	1203.74
482.645	1341.34
483.102	1454.94
483.558	1586.94
484.015	1635.34
484.472	1626.24
484.929	1564.24
485.385	1510.64
485.842	1467.04
486.299	1408.84
486.755	1333.54
487.212	1122.04
487.668	947.84
488.125	864.84
488.582	803.14
489.038	774.94
489.494	736.74
489.951	699.14
490.407	684.84
490.864	661.04
491.32	656.24
491.776	658.94
492.233	657.74
492.689	632.34
493.145	608.94
493.602	616.24
494.058	626.94
494.514	625.24
494.97	648.14
495.426	653.94
495.882	639.74
496.338	623.74
496.794	650.24
497.251	624.04
497.707	651.74
498.163	651.94
498.618	656.34
499.074	659.94
499.53	692.04
499.986	695.24
500.442	673.34
500.898	658.44
501.354	643.44
501.809	652.84
502.265	648.44
502.721	679.84
503.177	693.24
503.632	678.84
504.088	698.94
504.543	735.24
504.999	732.04
505.455	675.64
505.91	640.34
506.366	639.24
506.821	651.34
507.277	643.04
507.732	635.04
508.187	644.24
508.643	642.24
509.098	648.54
509.553	672.74
510.009	678.94
510.464	685.74
510.919	697.44
511.375	708.44
511.83	717.74
512.285	740.94
512.74	770.24
513.195	799.04
513.65	778.04
514.105	779.34
514.56	787.74
515.015	810.34
515.47	822.64
515.925	805.54
516.38	798.74
516.835	810.04
517.29	785.34
517.745	793.74
518.2	789.04
518.655	761.54
519.109	754.24
519.564	755.24
520.019	744.24
520.474	739.24
520.928	739.14
521.383	731.24
521.838	723.44
522.292	718.84
522.747	722.44
523.201	724.44
523.656	713.54
524.11	705.84
524.565	709.04
525.019	714.34
525.474	709.04
525.928	712.74
526.382	701.94
526.837	715.14
527.291	711.74
527.745	711.24
528.2	710.34
528.654	698.34
529.108	697.14
529.562	707.44
530.016	714.24
530.47	705.84
530.925	700.84
531.379	713.04
531.833	712.84
532.287	709.94
532.741	716.74
533.195	716.24
533.649	731.84
534.103	731.94
534.556	718.54
535.01	723.64
535.464	729.44
535.918	736.94
536.372	731.24
536.826	727.94
537.279	707.74
537.733	716.54
538.187	731.84
538.64	723.14
539.094	731.24
539.548	745.14
540.001	734.54
540.455	737.94
540.908	748.14
541.362	754.34
541.815	748.44
542.269	761.34
542.722	765.84
543.175	766.34
543.629	789.34
544.082	792.04
544.536	805.34
544.989	804.94
545.442	802.94
545.895	795.14
546.349	802.64
546.802	796.34
547.255	811.74
547.708	822.74
548.161	833.54
548.614	835.54
549.067	835.14
549.52	832.54
549.973	823.34
550.426	820.74
550.879	803.44
551.332	813.94
551.785	820.04
552.238	815.94
552.691	830.24
553.144	835.74
553.596	848.34
554.049	880.24
554.502	910.14
554.955	914.14
555.407	916.04
555.86	907.34
556.313	901.94
556.765	882.84
557.218	896.84
557.67	885.14
558.123	881.44
558.576	876.14
559.028	894.04
559.48	894.34
559.933	887.64
560.385	839.74
560.838	816.44
561.29	787.34
561.742	795.34
562.195	772.74
562.647	768.34
563.099	783.84
563.551	783.34
564.004	794.94
564.456	789.94
564.908	769.74
565.36	751.04
565.812	742.74
566.264	730.34
566.716	734.44
567.168	733.34
567.62	735.54
568.072	724.94
568.524	709.44
568.976	698.24
569.428	681.34
569.88	683.64
570.332	684.54
570.784	689.04
571.235	698.74
571.687	696.64
572.139	717.34
572.59	725.74
573.042	716.54
573.494	720.64
573.945	719.94
574.397	687.44
574.849	693.44
575.3	708.44
575.752	696.54
576.203	697.04
576.655	687.94
577.106	678.74
577.557	672.54
578.009	681.24
578.46	673.14
578.912	666.84
579.363	674.94
579.814	671.04
580.265	671.24
580.717	672.24
581.168	678.14
581.619	678.74
582.07	697.14
582.521	681.94
582.972	681.74
583.423	680.24
583.875	685.34
584.326	702.54
584.777	751.74
585.227	834.54
585.678	931.04
586.129	1017.74
586.58	1087.54
587.031	1187.94
587.482	1352.84
587.933	1548.64
588.384	1335.14
588.834	989.14
589.285	825.54
589.736	790.94
590.186	783.94
590.637	769.84
591.088	751.84
591.538	731.24
591.989	727.24
592.439	720.84
592.89	721.24
593.34	712.54
593.791	720.74
594.241	712.54
594.692	717.34
595.142	716.34
595.593	703.94
596.043	720.34
596.493	718.54
596.943	719.94
597.394	723.14
597.844	717.84
598.294	740.04
598.744	749.14
599.195	785.94
599.645	815.94
600.095	858.44
600.545	916.84
600.995	972.74
601.445	1027.04
601.895	1097.24
602.345	1142.34
602.795	1115.84
603.245	1079.74
603.695	1016.34
604.145	955.64
604.594	908.24
605.044	858.94
605.494	808.34
605.944	763.84
606.393	746.84
606.843	722.74
607.293	735.14
607.743	735.44
608.192	755.44
608.642	758.14
609.091	774.34
609.541	779.24
609.99	776.84
610.44	781.54
610.889	718.74
611.339	704.84
611.788	684.74
612.238	717.54
612.687	720.24
613.136	723.64
613.586	748.04
614.035	744.14
614.484	768.54
614.933	763.24
615.383	759.24
615.832	743.74
616.281	735.84
616.73	687.64
617.179	670.64
617.628	658.64
618.077	642.64
618.526	635.44
618.975	617.74
619.424	630.14
619.873	609.64
620.322	622.94
620.771	606.04
621.22	603.34
621.669	597.14
622.118	590.74
622.567	589.24
623.015	574.64
623.464	579.94
623.913	566.54
624.361	562.14
624.81	555.34
625.259	548.44
625.707	564.34
626.156	561.34
626.604	568.94
627.053	564.34
627.501	566.74
627.95	580.24
628.398	582.24
628.847	582.64
629.295	580.64
629.744	575.94
630.192	567.04
630.64	568.14
631.089	570.94
631.537	575.74
631.985	591.74
632.433	605.34
632.881	609.84
633.33	664.34
633.778	645.54
634.226	573.24
634.674	566.14
635.122	582.94
635.57	604.64
636.018	632.34
636.466	585.54
636.914	555.54
637.362	567.74
637.81	571.44
638.258	582.64
638.705	580.14
639.153	603.34
639.601	609.74
640.049	637.94
640.497	675.84
640.944	695.44
641.392	646.24
641.84	612.34
642.287	585.34
642.735	572.24
643.182	577.94
643.63	581.24
644.078	579.94
644.525	603.24
644.973	603.64
645.42	600.94
645.867	622.54
646.315	640.44
646.762	665.54
647.21	684.24
647.657	715.24
648.104	746.94
648.551	785.64
648.999	844.04
649.446	922.74
649.893	1010.44
650.34	1151.74
650.787	1401.74
651.234	1734.24
651.682	2288.54
652.129	3121.64
652.576	4500.34
653.023	6634.24
653.47	9147.04
653.917	11412.44
654.363	13206.74
654.81	14600.74
655.257	13907.64
655.704	9079.94
656.151	5351.04
656.598	3482.04
657.044	2443.84
657.491	1881.94
657.938	1495.64
658.385	1249.54
658.831	1078.04
659.278	962.24
659.724	851.34
660.171	792.54
660.618	723.14
661.064	691.94
661.511	674.14
661.957	659.94
662.404	644.54
662.85	646.14
663.296	624.54
663.743	562.14
664.189	532.54
664.635	530.44
665.082	524.54
665.528	526.94
665.974	517.64
666.42	503.34
666.867	504.04
667.313	482.44
667.759	482.74
668.205	481.44
668.651	490.74
669.097	484.94
669.543	510.54
669.989	474.54
670.435	443.94
670.881	447.04
671.327	449.94
671.773	466.74
672.219	490.54
672.665	539.44
673.11	571.64
673.556	627.94
674.002	657.94
674.448	653.64
674.893	546.94
675.339	467.54
675.785	438.14
676.23	417.54
676.676	388.54
677.122	376.34
677.567	374.14
678.013	367.54
678.458	360.14
678.904	356.84
679.349	351.64
679.794	349.94
680.24	351.54
680.685	355.24
681.131	341.74
681.576	338.94
682.021	350.04
682.466	343.34
682.912	345.84
683.357	347.84
683.802	387.84
684.247	405.94
684.692	450.24
685.137	487.54
685.583	528.14
686.028	561.64
686.473	523.94
686.918	438.54
687.363	411.84
687.807	386.44
688.252	362.24
688.697	353.84
689.142	333.54
689.587	329.24
690.032	319.74
690.477	350.14
690.921	350.54
691.366	392.44
691.811	400.74
692.255	424.04
692.7	450.34
693.145	499.34
693.589	698.94
694.034	1108.54
694.478	1517.24
694.923	1698.84
695.367	2226.24
695.812	1173.04
696.256	491.04
696.701	373.74
697.145	340.14
697.59	332.74
698.034	315.74
698.478	325.54
698.922	325.34
699.367	326.34
699.811	332.84
700.255	349.84
700.699	374.74
701.143	412.74
701.588	468.84
702.032	510.74
702.476	507.24
702.92	489.24
703.364	480.94
703.808	626.04
704.252	1004.14
704.696	1416.54
705.14	1643.74
705.584	2098.44
706.027	1050.44
706.471	515.74
706.915	389.84
707.359	353.54
707.803	316.94
708.246	300.24
708.69	309.84
709.134	309.84
709.577	306.44
710.021	307.94
710.465	304.04
710.908	286.84
711.352	297.14
711.795	314.04
712.239	339.04
712.682	373.64
713.126	408.74
713.569	451.54
714.012	361.24
714.456	317.94
714.899	297.14
715.342	270.54
715.786	261.44
716.229	252.94
716.672	254.84
717.115	245.74
717.558	247.74
718.002	244.24
718.445	264.34
718.888	281.34
719.331	282.74
719.774	298.44
720.217	302.74
720.66	282.04
721.103	259.74
721.546	253.04
721.989	255.44
722.432	228.64
722.874	232.44
723.317	231.54
723.76	234.04
724.203	252.94
724.645	314.24
725.088	437.84
725.531	555.94
725.974	626.44
726.416	541.54
726.859	299.74
727.301	243.94
727.744	236.54
728.187	228.44
728.629	235.34
729.071	240.94
729.514	251.44
729.956	270.24
730.399	281.14
730.841	279.54
731.283	279.04
731.726	262.94
732.168	256.14
732.61	269.64
733.053	284.94
733.495	315.64
733.937	350.54
734.379	396.64
734.821	425.34
735.263	531.14
735.705	812.84
736.148	1546.54
736.59	2513.44
737.032	2987.44
737.474	2440.34
737.916	791.74
738.357	425.64
738.799	323.54
739.241	297.74
739.683	272.14
740.125	287.04
740.567	294.14
741.008	310.64
741.45	309.74
741.892	316.64
742.334	345.24
742.775	348.94
743.217	341.44
743.658	271.44
744.1	247.64
744.542	252.14
744.983	302.94
745.425	334.24
745.866	336.74
746.307	286.74
746.749	279.94
747.19	323.84
747.632	437.44
748.073	843.04
748.514	1811.14
748.956	2810.64
749.397	3488.74
749.838	2904.54
750.279	2925.14
750.72	1473.24
751.162	531.74
751.603	313.74
752.044	248.84
752.485	214.34
752.926	208.84
753.367	198.14
753.808	194.14
754.249	186.54
754.69	186.64
755.131	179.64
755.572	179.24
756.013	178.94
756.453	186.44
756.894	181.14
757.335	184.34
757.776	196.84
758.216	198.74
758.657	193.04
759.098	203.54
759.538	224.74
759.979	254.34
760.42	366.64
760.86	687.84
761.301	1750.34
761.741	4285.74
762.182	6302.94
