Data from 20171114-ORNL-Ar_H_NY_Subt18_08-09-02-122.txt Node
Date: Tue Nov 14 08:09:02 EST 2017
User: Ender
Spectrometer: HR+D1039
Trigger mode: 0
Integration Time (sec): 2.730000E-2
Scans to average: 10
Electric dark correction enabled: true
Nonlinearity correction enabled: false
Boxcar width: 0
XAxis mode: Wavelengths
Number of Pixels in Spectrum: 2048
>>>>>Begin Spectral Data<<<<<
187.836	-4.7
188.309	-4.7
188.782	-4.7
189.255	6.1
189.728	-0.9
190.201	8.5
190.674	1.3
191.147	4
191.619	-8.7
192.092	-2.5
192.565	6.1
193.038	-2.6
193.511	3.7
193.984	0.5
194.456	-1.6
194.929	-2
195.402	-5.8
195.874	-1.4
196.347	1.9
196.82	-2.5
197.292	4.2
197.765	-1.4
198.237	-5.1
198.71	-0.9
199.182	-0.8
199.655	2.8
200.127	4.8
200.6	-3.6
201.072	2
201.544	-7
202.017	-4.3
202.489	1.1
202.961	-1.6
203.433	-5.3
203.906	-4.1
204.378	-7.4
204.85	-6.2
205.322	-14
205.794	-4.8
206.266	0.4
206.739	-12.5
207.211	-1.6
207.683	-7.7
208.155	-5.3
208.627	-2.8
209.099	-7.5
209.57	-8.5
210.042	-8.2
210.514	-3.6
210.986	-3.6
211.458	-12
211.93	-5.7
212.402	2.6
212.873	-10
213.345	-13.3
213.817	-12.3
214.288	-9.8
214.76	-8
215.232	-0.7
215.703	-2.6
216.175	-8.8
216.646	-5.2
217.118	-6.4
217.589	-4.4
218.061	-2.8
218.532	-8.1
219.004	0.9
219.475	-5.6
219.946	-4.3
220.418	-10.4
220.889	2.4
221.36	-2.1
221.832	-3.1
222.303	-5.2
222.774	1
223.245	-8.3
223.717	-8.8
224.188	-2.8
224.659	-0.2
225.13	-4.5
225.601	-7.9
226.072	2.5
226.543	1.4
227.014	3.7
227.485	-2.7
227.956	-3.7
228.427	-2.9
228.898	1.2
229.369	1.9
229.839	-5.3
230.31	-4.8
230.781	-1.4
231.252	-1.9
231.722	-12.5
232.193	-5.9
232.664	4
233.135	-6.2
233.605	-0.9
234.076	-6
234.546	-1.8
235.017	0.1
235.487	-5.4
235.958	-4.2
236.428	-9.9
236.899	3.8
237.369	-2.5
237.84	-4.5
238.31	1.6
238.78	-5.1
239.251	-9.2
239.721	-6.5
240.191	1.4
240.662	-1.8
241.132	0.4
241.602	-12.3
242.072	-4.9
242.542	1
243.013	-2.8
243.483	-4.9
243.953	-2.6
244.423	0.8
244.893	-12.3
245.363	-0.4
245.833	0.7
246.303	-1.8
246.773	2.5
247.243	-5.8
247.712	0.3
248.182	0.7
248.652	0
249.122	-9.7
249.592	-3.5
250.061	-4.3
250.531	7.2
251.001	5.7
251.471	1.8
251.94	5.2
252.41	-4.5
252.879	-4.6
253.349	0.6
253.818	2.5
254.288	1.8
254.757	-1.1
255.227	-10.6
255.696	-0.6
256.166	1.3
256.635	1
257.105	-1.2
257.574	0.2
258.043	4
258.513	-5
258.982	5
259.451	-9.9
259.92	5.5
260.389	-0.1
260.859	6.3
261.328	-1.1
261.797	3.5
262.266	-3.2
262.735	3.7
263.204	-3.7
263.673	-5.7
264.142	3.3
264.611	-7.4
265.08	-1.4
265.549	-3.1
266.018	-5.3
266.487	-7.7
266.955	-8.7
267.424	-3.8
267.893	-3.6
268.362	-2
268.83	1.6
269.299	9.5
269.768	2
270.236	-2.9
270.705	-1.4
271.174	-3.7
271.642	3.2
272.111	1.9
272.579	0.6
273.048	2.8
273.516	0.5
273.985	5.5
274.453	8.7
274.922	11.5
275.39	-3.7
275.858	-4.6
276.327	0.2
276.795	13.7
277.263	1.1
277.731	12.7
278.2	9.9
278.668	10.5
279.136	14.2
279.604	0.1
280.072	9.1
280.54	3.9
281.008	6.5
281.477	5.9
281.945	8.9
282.413	8.1
282.881	9.8
283.348	1.8
283.816	8.9
284.284	8.4
284.752	10.5
285.22	1.5
285.688	9.4
286.156	7.3
286.623	20.8
287.091	7.6
287.559	7.5
288.026	4.5
288.494	7.9
288.962	-0.3
289.429	1.9
289.897	14.7
290.364	5.8
290.832	13
291.3	4.1
291.767	6.6
292.234	9.6
292.702	4.3
293.169	10
293.637	14.7
294.104	14.3
294.571	4.8
295.039	7.5
295.506	4.9
295.973	14.9
296.44	6.1
296.908	7.6
297.375	6.8
297.842	14.8
298.309	11.1
298.776	6
299.243	13.3
299.71	10.2
300.177	13.3
300.644	10.8
301.111	10.7
301.578	11.6
302.045	12
302.512	11.4
302.979	15.5
303.446	14.2
303.913	13
304.379	9.7
304.846	19.4
305.313	17.6
305.78	18.8
306.246	16.1
306.713	14.5
307.18	12.4
307.646	16.3
308.113	20.1
308.579	15.8
309.046	17.9
309.512	21.2
309.979	12.3
310.445	20.3
310.912	22.1
311.378	25.3
311.845	18.3
312.311	21.2
312.777	22.5
313.244	21.6
313.71	25.4
314.176	22.2
314.642	16.8
315.109	15.1
315.575	23.8
316.041	32.5
316.507	19.5
316.973	25.7
317.439	19
317.905	23.2
318.371	19.9
318.837	23.4
319.303	20.8
319.769	22.4
320.235	19.9
320.701	26
321.167	30.7
321.633	23.8
322.099	23.4
322.564	34.3
323.03	28
323.496	24.4
323.962	27.4
324.427	26.9
324.893	30.6
325.359	26.2
325.824	30.2
326.29	29.1
326.755	25.6
327.221	25.6
327.686	31.3
328.152	35.6
328.617	27.6
329.083	35.4
329.548	41
330.014	31.3
330.479	30.5
330.944	36.2
331.41	34.6
331.875	30.4
332.34	33.3
332.805	30.9
333.271	35.6
333.736	26.5
334.201	34.7
334.666	37.8
335.131	37.7
335.596	37.1
336.061	37.5
336.526	32.8
336.991	43.4
337.456	40.4
337.921	30.8
338.386	33.6
338.851	33.6
339.316	34.3
339.781	35.4
340.246	37.8
340.711	34.2
341.175	39.3
341.64	29.5
342.105	40.1
342.569	46.2
343.034	50.1
343.499	44.7
343.963	49.4
344.428	55.2
344.893	54
345.357	48.9
345.822	47.3
346.286	52.2
346.751	59.7
347.215	59.9
347.679	55.7
348.144	69.5
348.608	64.3
349.073	54.5
349.537	50.5
350.001	62.2
350.465	71.1
350.93	66.1
351.394	65
351.858	54.3
352.322	74.9
352.786	65.7
353.25	83.8
353.715	84.7
354.179	75.8
354.643	89.5
355.107	99.7
355.571	81
356.035	85.3
356.498	90.5
356.962	87.3
357.426	93.5
357.89	91.3
358.354	73
358.818	70.2
359.281	65.4
359.745	61.1
360.209	64.1
360.673	57.6
361.136	66
361.6	70.7
362.064	68.5
362.527	62.3
362.991	79.6
363.454	66.7
363.918	66.6
364.381	63.5
364.845	72.1
365.308	70.2
365.772	73.5
366.235	72.3
366.698	69.5
367.162	70.1
367.625	74.3
368.088	74.6
368.552	73.8
369.015	75.5
369.478	76.1
369.941	81.6
370.404	75.3
370.867	89.5
371.331	81.9
371.794	96.5
372.257	82.6
372.72	92.2
373.183	89.6
373.646	78.3
374.109	80.5
374.572	83.2
375.035	88.7
375.497	91.7
375.96	96.7
376.423	90.3
376.886	97.9
377.349	88.4
377.811	85.9
378.274	94.4
378.737	92.8
379.199	99.6
379.662	94.7
380.125	95.7
380.587	94.8
381.05	95.9
381.512	95.6
381.975	111
382.437	106.2
382.9	99
383.362	108.7
383.825	115.7
384.287	110.2
384.75	105
385.212	107.1
385.674	119.7
386.136	117.4
386.599	107.2
387.061	100.9
387.523	104.2
387.985	110.8
388.447	119.6
388.91	114.7
389.372	118.7
389.834	120.7
390.296	110.1
390.758	123.8
391.22	121.5
391.682	144.3
392.144	163.3
392.606	143
393.068	123.7
393.529	133.4
393.991	132.9
394.453	119.5
394.915	123.1
395.377	134.5
395.838	138.1
396.3	128.1
396.762	131.9
397.224	124.2
397.685	117.4
398.147	114.6
398.608	125.2
399.07	123.2
399.531	124.7
399.993	131.7
400.454	145.9
400.916	138.9
401.377	133.1
401.839	142.7
402.3	145.6
402.762	151.6
403.223	160.1
403.684	156.2
404.145	145.9
404.607	148.4
405.068	157.8
405.529	154.8
405.99	166
406.451	162.8
406.913	154.1
407.374	156
407.835	150.2
408.296	158.7
408.757	154.3
409.218	165.9
409.679	164.8
410.14	161.4
410.601	159.3
411.062	160.6
411.522	169.2
411.983	168.6
412.444	159.8
412.905	169.2
413.366	164.8
413.826	181.3
414.287	210.7
414.748	247.9
415.208	232.9
415.669	202.8
416.13	198.1
416.59	199.3
417.051	207.2
417.511	213.5
417.972	222
418.432	238.7
418.893	280
419.353	238.1
419.814	182.6
420.274	178.8
420.734	177.7
421.195	194.1
421.655	183.5
422.115	184.3
422.576	184.6
423.036	194.3
423.496	192.3
423.956	213.1
424.416	223.2
424.876	252.1
425.336	246
425.797	257.7
426.257	240.2
426.717	225.9
427.177	223.3
427.637	205.7
428.097	227.1
428.556	233.5
429.016	246.5
429.476	244.1
429.936	256
430.396	258.8
430.856	274.6
431.315	295.4
431.775	325.3
432.235	355.7
432.694	333.4
433.154	334.1
433.614	362.7
434.073	314
434.533	272.8
434.993	256.1
435.452	261.3
435.912	274.7
436.371	268.1
436.83	264.6
437.29	247.3
437.749	233
438.209	235
438.668	262.8
439.127	277.3
439.587	245.8
440.046	237.7
440.505	254.9
440.964	263.1
441.424	309.4
441.883	294.9
442.342	249.8
442.801	217.1
443.26	215.5
443.719	214.1
444.178	216.3
444.637	209.8
445.096	209.8
445.555	214.4
446.014	226.3
446.473	221.4
446.932	226
447.391	222.4
447.849	221.6
448.308	213.8
448.767	216.5
449.226	228.7
449.685	229.1
450.143	240.5
450.602	231.7
451.061	230.1
451.519	232.1
451.978	226.8
452.436	231.6
452.895	234.4
453.353	248.1
453.812	231.2
454.27	233.4
454.729	229
455.187	236.9
455.646	238.2
456.104	244.1
456.562	250.4
457.021	266.7
457.479	251.6
457.937	275.1
458.395	259.9
458.854	245.9
459.312	240.5
459.77	261.5
460.228	255.9
460.686	241.1
461.144	247.5
461.602	241
462.06	243.7
462.518	249.9
462.976	257.4
463.434	251.4
463.892	255.4
464.35	264.5
464.808	275.6
465.266	264.6
465.724	259.9
466.181	265.8
466.639	267.5
467.097	283.9
467.555	292.8
468.012	301.4
468.47	310.6
468.928	320
469.385	339.5
469.843	344.6
470.3	338.7
470.758	357.5
471.215	377.5
471.673	396.8
472.13	392.5
472.588	408.9
473.045	367.4
473.503	370.6
473.96	390.1
474.417	404.6
474.875	424.5
475.332	465
475.789	449.9
476.246	463.2
476.704	482.1
477.161	497.6
477.618	519.9
478.075	542.9
478.532	598.4
478.989	658
479.446	772.1
479.903	738
480.36	765
480.817	809.4
481.274	899
481.731	982.4
482.188	1051
482.645	1176.2
483.102	1258.6
483.558	1379.7
484.015	1411.6
484.472	1398.7
484.929	1361.5
485.385	1317.7
485.842	1274.7
486.299	1233.4
486.755	1200.1
487.212	1018.2
487.668	875.4
488.125	811.5
488.582	754.4
489.038	722
489.494	689.8
489.951	663.4
490.407	641.9
490.864	629.8
491.32	618.2
491.776	624.1
492.233	630.3
492.689	597.4
493.145	590.4
493.602	581.1
494.058	604.5
494.514	585.8
494.97	623.6
495.426	639.4
495.882	606.1
496.338	593.8
496.794	608.9
497.251	593.4
497.707	609.5
498.163	619.4
498.618	623.4
499.074	626.1
499.53	653
499.986	654.9
500.442	628.6
500.898	603.7
501.354	603.5
501.809	598.4
502.265	620.3
502.721	631.4
503.177	631.1
503.632	624.3
504.088	640.9
504.543	661.3
504.999	680.3
505.455	642.2
505.91	625.2
506.366	620.7
506.821	615.3
507.277	632.4
507.732	617.7
508.187	618.3
508.643	638.2
509.098	635.4
509.553	646.9
510.009	665.4
510.464	673.3
510.919	679.2
511.375	693.6
511.83	700.9
512.285	716
512.74	748.9
513.195	775.8
513.65	746.7
514.105	754.7
514.56	749
515.015	767.4
515.47	783.3
515.925	765.5
516.38	784.1
516.835	785.5
517.29	769.4
517.745	761.6
518.2	754.2
518.655	744.9
519.109	723.6
519.564	728.9
520.019	720.9
520.474	721.9
520.928	719.1
521.383	710.3
521.838	702.7
522.292	702.3
522.747	703.2
523.201	690.5
523.656	691.2
524.11	694.2
524.565	688.2
525.019	687.8
525.474	696.9
525.928	691.1
526.382	687.8
526.837	698.2
527.291	695.5
527.745	694
528.2	689.9
528.654	685.3
529.108	679.5
529.562	683.6
530.016	684.3
530.47	685
530.925	685.1
531.379	692.2
531.833	693.7
532.287	694.5
532.741	700.3
533.195	692.1
533.649	713.7
534.103	709.8
534.556	694.2
535.01	701.1
535.464	690.4
535.918	711.2
536.372	702.2
536.826	707.7
537.279	705.9
537.733	701
538.187	712.9
538.64	702.6
539.094	724.4
539.548	731.4
540.001	713.1
540.455	718.8
540.908	737.2
541.362	738.5
541.815	743.6
542.269	749.6
542.722	747.5
543.175	754.4
543.629	769.2
544.082	784.7
544.536	783.6
544.989	790.3
545.442	793
545.895	795.2
546.349	799.6
546.802	789.1
547.255	784.7
547.708	804
548.161	807.5
548.614	814
549.067	821.9
549.52	812.8
549.973	811.3
550.426	803.3
550.879	795.2
551.332	805.2
551.785	810.4
552.238	806.4
552.691	824.9
553.144	829.4
553.596	841.4
554.049	866.8
554.502	893.6
554.955	908.4
555.407	907
555.86	896.4
556.313	885.4
556.765	882.4
557.218	881
557.67	862.1
558.123	879.6
558.576	873.1
559.028	883.6
559.48	887.1
559.933	874.4
560.385	840.4
560.838	819.3
561.29	789.5
561.742	791.2
562.195	775
562.647	767.4
563.099	784.6
563.551	773.5
564.004	787.4
564.456	774
564.908	761.4
565.36	731.4
565.812	727
566.264	719.7
566.716	716
567.168	704.5
567.62	716.8
568.072	699.5
568.524	694.7
568.976	690.3
569.428	682.3
569.88	685.4
570.332	700.3
570.784	691.2
571.235	693.5
571.687	695.7
572.139	714.7
572.59	706.9
573.042	711.5
573.494	717.3
573.945	703.1
574.397	686.4
574.849	691.5
575.3	697.6
575.752	689.1
576.203	674.2
576.655	681.6
577.106	678.4
577.557	669.2
578.009	674.9
578.46	669.8
578.912	666.1
579.363	677.8
579.814	674.4
580.265	668.2
580.717	666.3
581.168	674.4
581.619	685.1
582.07	681.7
582.521	678.9
582.972	672.7
583.423	672.4
583.875	683.1
584.326	689
584.777	714.2
585.227	737.5
585.678	767.2
586.129	791
586.58	810.1
587.031	848.2
587.482	895.1
587.933	949.7
588.384	903.7
588.834	818.5
589.285	780.8
589.736	782.7
590.186	776.7
590.637	770.9
591.088	747.4
591.538	727.4
591.989	746.5
592.439	722.7
592.89	725.4
593.34	708.1
593.791	709
594.241	695
594.692	704.9
595.142	701.2
595.593	700.7
596.043	719.3
596.493	714.7
596.943	709.4
597.394	720.4
597.844	715.5
598.294	746.2
598.744	760.4
599.195	788
599.645	832.5
600.095	863.4
600.545	920.4
600.995	974.9
601.445	1046.8
601.895	1105
602.345	1136
602.795	1126.9
603.245	1084.1
603.695	1012.3
604.145	964.7
604.594	919.7
605.044	860.9
605.494	800
605.944	767.9
606.393	744.7
606.843	732.5
607.293	734.7
607.743	726.6
608.192	744.7
608.642	760.9
609.091	762
609.541	769
609.99	765.3
610.44	764
610.889	715.5
611.339	700
611.788	684.1
612.238	692.2
612.687	718.1
613.136	709.6
613.586	721.5
614.035	718.7
614.484	718.6
614.933	725.3
615.383	719.7
615.832	720.3
616.281	717.5
616.73	677.8
617.179	656.9
617.628	651.2
618.077	642.9
618.526	620.4
618.975	613.2
619.424	618.5
619.873	616.5
620.322	622.4
620.771	611.4
621.22	612.9
621.669	595.1
622.118	586.2
622.567	579.4
623.015	573.3
623.464	572.4
623.913	568.4
624.361	554.2
624.81	548.4
625.259	558.1
625.707	555.3
626.156	556.3
626.604	569.1
627.053	560.8
627.501	573
627.95	576.4
628.398	588.1
628.847	576.6
629.295	573.8
629.744	583.3
630.192	567.4
630.64	564.1
631.089	549.2
631.537	550.2
631.985	535.8
632.433	541.8
632.881	542
633.33	558.2
633.778	535.8
634.226	539.8
634.674	545.7
635.122	557.7
635.57	566
636.018	576.3
636.466	565.8
636.914	555.8
637.362	577.7
637.81	585.8
638.258	588.5
638.705	587.3
639.153	625.2
639.601	620.5
640.049	656.1
640.497	679.7
640.944	703.6
641.392	645.7
641.84	618.4
642.287	583.4
642.735	558.1
643.182	566
643.63	562.9
644.078	579.5
644.525	573.4
644.973	587.9
645.42	594.8
645.867	618
646.315	634.7
646.762	660.6
647.21	697.6
647.657	707.6
648.104	741.2
648.551	757.8
648.999	816.4
649.446	905.2
649.893	990
650.34	1129.1
650.787	1348.1
651.234	1646.7
651.682	2123.5
652.129	2898.3
652.576	4180.3
653.023	6069.8
653.47	8195
653.917	10109.3
654.363	11526.6
654.81	12675.5
655.257	12038.8
655.704	7932.8
656.151	4786.2
656.598	3146.1
657.044	2252.5
657.491	1754
657.938	1407.3
658.385	1195.5
658.831	1037.4
659.278	931.2
659.724	819.6
660.171	773.5
660.618	712.1
661.064	679
661.511	661.1
661.957	654.7
662.404	634.5
662.85	655.7
663.296	628.2
663.743	553.6
664.189	539.3
664.635	537.3
665.082	534.3
665.528	526.7
665.974	520.6
666.42	513.1
666.867	510.5
667.313	490.9
667.759	471.5
668.205	460.7
668.651	467.7
669.097	456
669.543	448.9
669.989	456.7
670.435	458.5
670.881	457.5
671.327	465.3
671.773	479.1
672.219	506.3
672.665	561.8
673.11	600
673.556	639.5
674.002	687.2
674.448	674.3
674.893	563.8
675.339	489
675.785	455.9
676.23	440.7
676.676	407.7
677.122	393.5
677.567	379.2
678.013	376
678.458	369.2
678.904	375.8
679.349	357.5
679.794	356.4
680.24	362.7
680.685	357.7
681.131	355.9
681.576	358.8
682.021	361.7
682.466	354.1
682.912	357.8
683.357	358.1
683.802	397.4
684.247	430
684.692	470.7
685.137	511.3
685.583	543.2
686.028	581.2
686.473	530.5
686.918	465.4
687.363	431.9
687.807	401.1
688.252	381.9
688.697	363.3
689.142	344
689.587	341.7
690.032	325.7
690.477	347.6
690.921	361.2
691.366	397.9
691.811	422.5
692.255	442.1
692.7	478.1
693.145	530.4
693.589	746.3
694.034	1214.8
694.478	1611.9
694.923	1781.6
695.367	2299.4
695.812	1241.2
696.256	513.1
696.701	382.6
697.145	356.7
697.59	339.2
698.034	330.1
698.478	333.9
698.922	326.5
699.367	321.9
699.811	348.3
700.255	362.3
700.699	391.8
701.143	433.6
701.588	486.1
702.032	535.1
702.476	527.2
702.92	506.1
703.364	515.3
703.808	681.8
704.252	1112.4
704.696	1540.5
705.14	1699.1
705.584	2155.9
706.027	1084.3
706.471	541.5
706.915	408.4
707.359	357.9
707.803	326.6
708.246	314
708.69	309.9
709.134	326.9
709.577	328.2
710.021	327.6
710.465	321.3
710.908	308.3
711.352	304.1
711.795	321.2
712.239	371
712.682	398.1
713.126	430.5
713.569	460.2
714.012	370.9
714.456	317.4
714.899	295.1
715.342	280.6
715.786	272.6
716.229	264.1
716.672	268.5
717.115	256.5
717.558	254
718.002	253.4
718.445	263.5
718.888	293.8
719.331	301.1
719.774	324.5
720.217	309.8
720.66	295
721.103	275.6
721.546	247.2
721.989	259.2
722.432	236.7
722.874	249
723.317	237.3
723.76	247.6
724.203	273.3
724.645	334.3
725.088	463.7
725.531	591.3
725.974	654.4
726.416	565.3
726.859	313.7
727.301	256.2
727.744	241.8
728.187	238.6
728.629	241.8
729.071	248.2
729.514	262.7
729.956	274.5
730.399	290.2
730.841	302.2
731.283	286.2
731.726	278.5
732.168	269.3
732.61	275.7
733.053	300
733.495	330.2
733.937	371.9
734.379	410.9
734.821	469.7
735.263	574.9
735.705	896.4
736.148	1708
736.59	2726.9
737.032	3104
737.474	2539.7
737.916	850
738.357	446.3
738.799	335.6
739.241	311.4
739.683	289.6
740.125	301.1
740.567	305.3
741.008	327.8
741.45	326.4
741.892	331.7
742.334	360.4
742.775	369.9
743.217	356.6
743.658	282.1
744.1	267
744.542	276
744.983	332.8
745.425	349.9
745.866	359.5
746.307	287.9
746.749	293.1
747.19	340.2
747.632	484.4
748.073	960.4
748.514	2016.5
748.956	2958.4
749.397	3755.4
749.838	3093.3
750.279	3019.6
750.72	1560.7
751.162	574.4
751.603	332.1
752.044	267.4
752.485	231.4
752.926	220.2
753.367	211.8
753.808	200.7
754.249	192.5
754.69	192.1
755.131	181
755.572	187.3
756.013	189.4
756.453	182.5
756.894	194.2
757.335	196.6
757.776	202.5
758.216	200.3
758.657	204.6
759.098	209.4
759.538	240.3
759.979	280.3
760.42	408
760.86	783.5
761.301	2034.6
761.741	4748.5
762.182	6543.6
762.622	4618.8
763.063	1369.3
763.503	556.6
763.943	345.3
764.384	292.7
764.824	286.7
765.264	275.8
765.705	237.5
766.145	189.3
766.585	179.9
767.025	173.3
767.465	175.9
767.906	203.3
768.346	227.7
768.786	232
769.226	234.4
769.666	331.4
770.106	678.6
770.546	1682.2
770.986	2732.3
771.426	2425.4
771.866	821.6
772.306	340.3
772.745	208.7
773.185	176.6
773.625	169.5
774.065	154.6
774.505	173.8
774.944	232
775.384	425
775.824	695.7
776.263	657.3
776.703	319.2
777.142	174.1
777.582	134.5
778.021	132.9
778.461	132.6
778.9	129.4
779.34	132
779.779	118
780.219	113
780.658	108.4
781.097	111.4
781.537	114.7
781.976	107.8
782.415	112.9
782.855	105.1
783.294	109.4
783.733	105.2
784.172	112.4
784.611	106.2
785.05	108.1
785.489	113.3
785.928	120.6
786.367	123
786.806	117.6
787.245	128.5
787.684	139.7
788.123	148
788.562	133
789.001	131.3
789.44	120.5
789.879	122.3
790.317	124.3
790.756	130.9
791.195	129.5
791.634	153.6
792.072	219.8
792.511	407.1
792.95	1112.2
793.388	2200.6
793.827	1945.4
794.265	697.6
794.704	293.8
795.142	196.8
795.581	150.6
796.019	143.7
796.458	129.8
796.896	128.9
797.334	131.6
797.773	160
798.211	232.8
798.649	489.6
799.087	1101.2
799.526	1679
799.964	2117.1
800.402	2046.6
800.84	779
801.278	317.7
801.716	192.2
802.154	168
802.592	148
803.03	147.7
803.468	141.8
803.906	149.5
804.344	152.7
804.782	146
805.22	146.7
805.658	139.4
806.096	158.8
806.533	156.4
806.971	179.1
807.409	229.5
807.847	342.2
808.284	739
