Data from 20171114-ORNL-Ar_H_NY_Subt18_08-08-30-398.txt Node
Date: Tue Nov 14 08:08:30 EST 2017
User: Ender
Spectrometer: HR+D1039
Trigger mode: 0
Integration Time (sec): 2.730000E-2
Scans to average: 10
Electric dark correction enabled: true
Nonlinearity correction enabled: false
Boxcar width: 0
XAxis mode: Wavelengths
Number of Pixels in Spectrum: 2048
>>>>>Begin Spectral Data<<<<<
187.836	-1.52
188.309	-1.52
188.782	-1.52
189.255	2.58
189.728	1.68
190.201	6.58
190.674	-0.82
191.147	1.48
191.619	-7.32
192.092	3.18
192.565	-0.02
193.038	-4.22
193.511	1.58
193.984	-1.72
194.456	-0.62
194.929	0.68
195.402	-3.42
195.874	1.88
196.347	0.58
196.82	-6.32
197.292	6.68
197.765	-7.22
198.237	-2.32
198.71	1.68
199.182	-0.12
199.655	4.58
200.127	2.98
200.6	-2.92
201.072	-3.82
201.544	-4.42
202.017	1.48
202.489	5.98
202.961	-0.32
203.433	-5.92
203.906	-2.02
204.378	-3.52
204.85	-2.82
205.322	-5.02
205.794	-0.22
206.266	-3.72
206.739	-5.02
207.211	0.98
207.683	-5.72
208.155	0.28
208.627	-7.42
209.099	-2.62
209.57	-9.92
210.042	-3.02
210.514	-3.22
210.986	-3.82
211.458	-10.12
211.93	-6.22
212.402	2.28
212.873	-3.12
213.345	-4.62
213.817	-17.12
214.288	-2.92
214.76	-11.22
215.232	-0.62
215.703	-0.62
216.175	-0.52
216.646	-0.42
217.118	-1.32
217.589	2.78
218.061	-2.12
218.532	0.08
219.004	-2.42
219.475	-9.72
219.946	-5.92
220.418	-3.92
220.889	-0.42
221.36	0.98
221.832	-2.12
222.303	-7.82
222.774	-0.82
223.245	-5.72
223.717	-5.22
224.188	-4.82
224.659	-6.62
225.13	-4.72
225.601	-2.52
226.072	2.58
226.543	-1.22
227.014	4.68
227.485	-1.62
227.956	-6.82
228.427	-0.02
228.898	4.98
229.369	-2.72
229.839	-2.02
230.31	-4.32
230.781	3.28
231.252	-2.42
231.722	-11.12
232.193	-3.02
232.664	-3.62
233.135	1.78
233.605	-0.62
234.076	-6.12
234.546	-0.82
235.017	0.18
235.487	-2.32
235.958	-6.72
236.428	-7.12
236.899	0.58
237.369	3.68
237.84	-6.52
238.31	0.58
238.78	-2.32
239.251	-6.32
239.721	-1.22
240.191	-0.02
240.662	2.18
241.132	-1.72
241.602	-0.12
242.072	-1.22
242.542	4.88
243.013	-7.12
243.483	0.68
243.953	1.98
244.423	4.28
244.893	-4.22
245.363	-0.52
245.833	2.38
246.303	-5.32
246.773	1.18
247.243	-2.22
247.712	-1.32
248.182	2.58
248.652	4.88
249.122	-2.32
249.592	7.98
250.061	6.28
250.531	13.48
251.001	-3.02
251.471	6.98
251.94	15.08
252.41	-1.92
252.879	-5.12
253.349	10.28
253.818	9.68
254.288	3.18
254.757	-0.22
255.227	-6.52
255.696	-1.72
256.166	5.88
256.635	4.48
257.105	7.28
257.574	-0.62
258.043	-0.12
258.513	2.38
258.982	7.08
259.451	0.38
259.92	7.68
260.389	3.58
260.859	15.18
261.328	4.68
261.797	1.28
262.266	0.38
262.735	2.98
263.204	6.08
263.673	1.98
264.142	5.28
264.611	-2.52
265.08	0.28
265.549	0.48
266.018	9.98
266.487	-3.92
266.955	-0.72
267.424	-1.62
267.893	-1.12
268.362	1.98
268.83	5.58
269.299	10.68
269.768	2.78
270.236	4.18
270.705	-1.02
271.174	-1.02
271.642	8.48
272.111	4.78
272.579	10.88
273.048	5.18
273.516	6.38
273.985	5.98
274.453	6.88
274.922	10.68
275.39	5.28
275.858	5.38
276.327	7.28
276.795	17.28
277.263	4.58
277.731	12.28
278.2	9.98
278.668	11.88
279.136	12.98
279.604	6.38
280.072	11.88
280.54	11.98
281.008	11.88
281.477	10.98
281.945	6.88
282.413	12.98
282.881	10.08
283.348	5.98
283.816	8.88
284.284	5.78
284.752	20.48
285.22	14.48
285.688	11.18
286.156	12.58
286.623	23.78
287.091	15.28
287.559	10.08
288.026	16.68
288.494	16.98
288.962	0.98
289.429	8.68
289.897	18.48
290.364	16.78
290.832	16.58
291.3	13.08
291.767	12.48
292.234	18.48
292.702	13.48
293.169	14.08
293.637	15.28
294.104	21.58
294.571	15.08
295.039	13.08
295.506	12.48
295.973	7.98
296.44	20.58
296.908	21.88
297.375	16.78
297.842	19.98
298.309	12.78
298.776	16.58
299.243	19.28
299.71	11.38
300.177	20.08
300.644	15.98
301.111	19.28
301.578	25.38
302.045	16.38
302.512	22.28
302.979	20.18
303.446	20.48
303.913	22.68
304.379	14.98
304.846	25.48
305.313	26.88
305.78	20.38
306.246	26.78
306.713	23.68
307.18	23.88
307.646	20.88
308.113	27.68
308.579	16.68
309.046	25.88
309.512	28.18
309.979	20.58
310.445	23.68
310.912	25.88
311.378	32.28
311.845	32.08
312.311	39.28
312.777	28.28
313.244	32.98
313.71	39.78
314.176	25.58
314.642	23.28
315.109	32.58
315.575	31.48
316.041	36.08
316.507	31.38
316.973	33.08
317.439	29.38
317.905	29.88
318.371	33.78
318.837	25.08
319.303	30.88
319.769	29.28
320.235	26.38
320.701	34.88
321.167	36.78
321.633	33.48
322.099	36.58
322.564	40.58
323.03	33.18
323.496	37.68
323.962	39.18
324.427	35.48
324.893	44.28
325.359	36.58
325.824	42.78
326.29	35.98
326.755	41.28
327.221	39.08
327.686	36.38
328.152	47.18
328.617	36.78
329.083	45.08
329.548	51.18
330.014	44.78
330.479	36.38
330.944	43.38
331.41	42.68
331.875	45.88
332.34	38.48
332.805	43.08
333.271	44.48
333.736	43.98
334.201	46.38
334.666	40.98
335.131	53.68
335.596	46.18
336.061	44.18
336.526	32.78
336.991	47.98
337.456	52.38
337.921	46.68
338.386	46.28
338.851	41.38
339.316	44.78
339.781	46.18
340.246	53.48
340.711	45.58
341.175	51.68
341.64	44.78
342.105	49.68
342.569	60.38
343.034	53.68
343.499	57.38
343.963	50.38
344.428	62.88
344.893	64.28
345.357	66.68
345.822	60.78
346.286	66.18
346.751	74.38
347.215	66.48
347.679	76.58
348.144	97.48
348.608	81.78
349.073	68.68
349.537	78.38
350.001	80.58
350.465	89.58
350.93	80.78
351.394	72.58
351.858	68.38
352.322	91.68
352.786	85.18
353.25	101.68
353.715	110.68
354.179	103.78
354.643	114.48
355.107	127.98
355.571	104.68
356.035	106.08
356.498	120.88
356.962	119.58
357.426	124.98
357.89	116.88
358.354	92.18
358.818	89.58
359.281	74.58
359.745	74.78
360.209	78.58
360.673	68.18
361.136	85.58
361.6	83.78
362.064	82.58
362.527	79.18
362.991	97.58
363.454	80.98
363.918	78.18
364.381	84.58
364.845	86.48
365.308	90.78
365.772	82.98
366.235	90.28
366.698	86.28
367.162	82.98
367.625	89.98
368.088	91.88
368.552	94.28
369.015	92.18
369.478	94.58
369.941	99.78
370.404	91.78
370.867	94.28
371.331	103.08
371.794	113.68
372.257	107.08
372.72	111.88
373.183	108.38
373.646	93.88
374.109	99.58
374.572	105.28
375.035	103.58
375.497	106.58
375.96	108.78
376.423	107.38
376.886	110.28
377.349	110.38
377.811	106.88
378.274	107.18
378.737	102.98
379.199	109.58
379.662	112.18
380.125	112.58
380.587	106.18
381.05	115.18
381.512	120.08
381.975	135.18
382.437	127.98
382.9	115.08
383.362	131.18
383.825	130.18
384.287	127.08
384.75	123.38
385.212	135.78
385.674	137.88
386.136	134.78
386.599	123.68
387.061	128.88
387.523	131.88
387.985	127.48
388.447	139.68
388.91	129.98
389.372	132.18
389.834	135.08
390.296	140.68
390.758	141.08
391.22	140.28
391.682	161.78
392.144	167.28
392.606	156.98
393.068	144.18
393.529	155.18
393.991	144.48
394.453	138.88
394.915	133.58
395.377	149.78
395.838	153.08
396.3	142.48
396.762	137.68
397.224	140.68
397.685	137.78
398.147	127.88
398.608	140.58
399.07	138.38
399.531	142.98
399.993	149.78
400.454	163.18
400.916	158.08
401.377	150.48
401.839	162.68
402.3	156.78
402.762	176.48
403.223	180.48
403.684	178.58
404.145	174.98
404.607	170.08
405.068	170.98
405.529	170.98
405.99	197.28
406.451	183.88
406.913	180.38
407.374	169.68
407.835	168.68
408.296	170.38
408.757	175.78
409.218	193.28
409.679	184.98
410.14	181.58
410.601	187.68
411.062	190.78
411.522	184.48
411.983	189.58
412.444	188.58
412.905	199.98
413.366	196.08
413.826	208.48
414.287	226.88
414.748	279.28
415.208	266.58
415.669	229.18
416.13	227.58
416.59	216.08
417.051	227.78
417.511	231.78
417.972	252.68
418.432	269.48
418.893	310.48
419.353	274.58
419.814	217.88
420.274	203.98
420.734	190.98
421.195	210.08
421.655	204.58
422.115	202.28
422.576	210.28
423.036	218.68
423.496	222.58
423.956	227.78
424.416	250.08
424.876	277.48
425.336	280.78
425.797	283.68
426.257	263.28
426.717	255.18
427.177	245.08
427.637	240.58
428.097	251.38
428.556	259.28
429.016	285.28
429.476	277.88
429.936	282.68
430.396	291.08
430.856	303.88
431.315	321.38
431.775	358.88
432.235	400.78
432.694	370.18
433.154	369.88
433.614	404.08
434.073	351.08
434.533	297.38
434.993	281.58
435.452	294.08
435.912	309.18
436.371	300.38
436.83	297.78
437.29	274.68
437.749	259.98
438.209	262.28
438.668	290.08
439.127	301.08
439.587	271.28
440.046	268.58
440.505	278.48
440.964	298.38
441.424	349.18
441.883	330.28
442.342	277.78
442.801	239.58
443.26	242.98
443.719	242.38
444.178	236.18
444.637	231.08
445.096	241.18
445.555	242.58
446.014	242.98
446.473	244.48
446.932	254.18
447.391	244.08
447.849	243.58
448.308	238.78
448.767	237.78
449.226	255.28
449.685	256.98
450.143	272.88
450.602	254.28
451.061	242.48
451.519	250.28
451.978	247.48
452.436	248.98
452.895	260.48
453.353	274.58
453.812	254.48
454.27	262.98
454.729	261.08
455.187	254.98
455.646	258.08
456.104	272.58
456.562	284.88
457.021	287.18
457.479	280.88
457.937	297.18
458.395	283.68
458.854	265.08
459.312	278.08
459.77	304.28
460.228	277.78
460.686	270.58
461.144	276.68
461.602	267.48
462.06	260.18
462.518	277.28
462.976	274.98
463.434	281.68
463.892	279.68
464.35	292.88
464.808	299.28
465.266	280.58
465.724	286.08
466.181	295.28
466.639	290.08
467.097	318.78
467.555	322.38
468.012	325.58
468.47	341.28
468.928	356.28
469.385	362.78
469.843	371.78
470.3	369.08
470.758	395.18
471.215	412.38
471.673	440.08
472.13	439.48
472.588	449.18
473.045	407.18
473.503	397.28
473.96	426.38
474.417	431.58
474.875	456.88
475.332	498.98
475.789	490.48
476.246	504.38
476.704	511.68
477.161	537.28
477.618	544.88
478.075	590.48
478.532	645.78
478.989	719.08
479.446	837.88
479.903	793.18
480.36	831.38
480.817	870.68
481.274	971.68
481.731	1064.88
482.188	1145.28
482.645	1263.38
483.102	1359.88
483.558	1486.18
484.015	1525.58
484.472	1497.68
484.929	1440.18
485.385	1415.28
485.842	1375.58
486.299	1325.98
486.755	1299.08
487.212	1105.58
487.668	939.18
488.125	867.68
488.582	794.28
489.038	775.98
489.494	727.98
489.951	715.78
490.407	701.88
490.864	679.88
491.32	675.88
491.776	682.08
492.233	684.78
492.689	643.68
493.145	647.08
493.602	637.08
494.058	645.48
494.514	648.18
494.97	672.98
495.426	684.48
495.882	649.78
496.338	641.38
496.794	645.48
497.251	649.88
497.707	671.58
498.163	666.28
498.618	666.98
499.074	678.88
499.53	711.68
499.986	702.88
500.442	672.38
500.898	645.08
501.354	651.98
501.809	650.38
502.265	670.48
502.721	674.48
503.177	677.18
503.632	680.98
504.088	680.08
504.543	712.18
504.999	720.28
505.455	688.78
505.91	671.88
506.366	678.78
506.821	665.68
507.277	664.58
507.732	671.58
508.187	665.98
508.643	686.18
509.098	669.58
509.553	699.68
510.009	710.88
510.464	709.38
510.919	724.08
511.375	728.68
511.83	747.68
512.285	756.68
512.74	795.58
513.195	823.08
513.65	815.18
514.105	817.18
514.56	805.08
515.015	830.28
515.47	831.18
515.925	820.68
516.38	823.68
516.835	838.58
517.29	821.68
517.745	824.68
518.2	813.78
518.655	787.68
519.109	783.78
519.564	776.38
520.019	768.08
520.474	762.08
520.928	768.48
521.383	760.38
521.838	755.18
522.292	745.48
522.747	755.78
523.201	752.78
523.656	742.28
524.11	742.08
524.565	741.58
525.019	736.28
525.474	736.58
525.928	739.78
526.382	740.88
526.837	731.38
527.291	739.28
527.745	725.78
528.2	738.68
528.654	733.08
529.108	719.08
529.562	732.78
530.016	724.78
530.47	727.68
530.925	731.48
531.379	736.48
531.833	743.18
532.287	739.98
532.741	736.78
533.195	744.08
533.649	749.58
534.103	761.08
534.556	741.58
535.01	746.18
535.464	736.58
535.918	759.88
536.372	760.48
536.826	750.18
537.279	745.18
537.733	759.28
538.187	747.98
538.64	755.68
539.094	760.48
539.548	772.18
540.001	753.58
540.455	762.08
540.908	770.18
541.362	783.18
541.815	783.58
542.269	797.28
542.722	804.38
543.175	809.48
543.629	821.08
544.082	826.88
544.536	827.18
544.989	823.08
545.442	831.98
545.895	842.68
546.349	851.28
546.802	840.58
547.255	852.08
547.708	854.78
548.161	870.08
548.614	867.08
549.067	867.98
549.52	873.18
549.973	848.88
550.426	854.78
550.879	848.58
551.332	848.88
551.785	855.58
552.238	858.38
552.691	869.58
553.144	887.18
553.596	899.18
554.049	914.48
554.502	952.38
554.955	967.98
555.407	957.38
555.86	947.88
556.313	932.88
556.765	930.68
557.218	938.68
557.67	929.58
558.123	916.58
558.576	917.88
559.028	934.38
559.48	929.68
559.933	925.58
560.385	884.18
560.838	862.48
561.29	840.08
561.742	832.58
562.195	809.58
562.647	811.08
563.099	829.58
563.551	821.78
564.004	825.78
564.456	810.38
564.908	798.78
565.36	775.78
565.812	761.38
566.264	759.28
566.716	761.08
567.168	742.58
567.62	753.68
568.072	736.78
568.524	737.78
568.976	721.58
569.428	718.98
569.88	717.48
570.332	721.18
570.784	733.78
571.235	717.68
571.687	737.58
572.139	745.08
572.59	756.48
573.042	750.18
573.494	758.38
573.945	745.38
574.397	724.38
574.849	734.48
575.3	734.98
575.752	729.68
576.203	718.98
576.655	722.98
577.106	716.98
577.557	720.18
578.009	711.18
578.46	708.38
578.912	703.48
579.363	709.98
579.814	699.78
580.265	700.48
580.717	707.48
581.168	714.88
581.619	713.98
582.07	720.98
582.521	709.88
582.972	711.98
583.423	721.88
583.875	716.88
584.326	733.28
584.777	743.88
585.227	762.48
585.678	785.18
586.129	816.88
586.58	846.18
587.031	871.28
587.482	909.48
587.933	943.68
588.384	916.88
588.834	839.98
589.285	825.78
589.736	826.18
590.186	814.88
590.637	807.88
591.088	796.28
591.538	789.28
591.989	769.38
592.439	765.68
592.89	763.88
593.34	743.68
593.791	747.38
594.241	739.38
594.692	745.68
595.142	734.78
595.593	732.78
596.043	744.18
596.493	743.68
596.943	743.78
597.394	754.38
597.844	756.28
598.294	778.58
598.744	802.08
599.195	838.08
599.645	866.18
600.095	910.78
600.545	974.98
600.995	1014.68
601.445	1075.68
601.895	1139.68
602.345	1193.88
602.795	1180.68
603.245	1128.38
603.695	1073.78
604.145	1017.48
604.594	961.28
605.044	906.28
605.494	841.28
605.944	808.78
606.393	779.88
606.843	763.48
607.293	781.48
607.743	773.48
608.192	778.28
608.642	804.88
609.091	798.78
609.541	804.28
609.99	808.48
610.44	792.18
610.889	751.98
611.339	735.28
611.788	726.38
612.238	731.58
612.687	746.48
613.136	731.18
613.586	744.48
614.035	746.88
614.484	762.08
614.933	749.28
615.383	750.68
615.832	745.88
616.281	749.18
616.73	708.78
617.179	692.58
617.628	685.28
618.077	666.58
618.526	656.28
618.975	655.18
619.424	647.58
619.873	655.68
620.322	647.28
620.771	636.18
621.22	635.08
621.669	629.38
622.118	622.18
622.567	623.18
623.015	612.58
623.464	595.18
623.913	592.98
624.361	584.58
624.81	584.38
625.259	580.98
625.707	591.08
626.156	592.08
626.604	601.38
627.053	595.58
627.501	599.08
627.95	602.38
628.398	610.18
628.847	599.48
629.295	607.48
629.744	614.58
630.192	599.38
630.64	592.28
631.089	571.48
631.537	575.08
631.985	562.08
632.433	569.78
632.881	562.48
633.33	574.78
633.778	569.28
634.226	559.28
634.674	570.08
635.122	570.68
635.57	585.58
636.018	592.98
636.466	593.48
636.914	579.88
637.362	600.88
637.81	609.98
638.258	616.68
638.705	616.98
639.153	634.48
639.601	654.28
640.049	674.88
640.497	710.48
640.944	734.28
641.392	684.48
641.84	652.78
642.287	619.98
642.735	596.08
643.182	596.08
643.63	595.28
644.078	598.48
644.525	613.08
644.973	615.68
645.42	628.38
645.867	646.68
646.315	666.18
646.762	688.88
647.21	709.58
647.657	732.38
648.104	772.88
648.551	790.58
648.999	850.38
649.446	925.08
649.893	1026.58
650.34	1162.18
650.787	1398.08
651.234	1712.38
651.682	2226.68
652.129	2965.48
652.576	4264.58
653.023	6189.88
653.47	8395.98
653.917	10351.78
654.363	11803.28
654.81	13005.98
655.257	12288.48
655.704	8184.98
656.151	4935.18
656.598	3252.08
657.044	2343.98
657.491	1812.88
657.938	1454.18
658.385	1238.88
658.831	1092.48
659.278	968.08
659.724	866.98
660.171	802.58
660.618	745.58
661.064	707.88
661.511	688.88
661.957	680.18
662.404	666.78
662.85	667.18
663.296	644.58
663.743	582.18
664.189	571.28
664.635	560.28
665.082	559.88
665.528	557.28
665.974	550.18
666.42	538.68
666.867	540.28
667.313	510.88
667.759	491.78
668.205	478.58
668.651	481.48
669.097	480.48
669.543	477.38
669.989	464.58
670.435	474.48
670.881	469.98
671.327	486.28
671.773	505.38
672.219	525.48
672.665	580.48
673.11	618.48
673.556	673.58
674.002	713.28
674.448	686.88
674.893	582.98
675.339	515.18
675.785	471.98
676.23	452.28
676.676	424.08
677.122	402.78
677.567	408.18
678.013	387.58
678.458	380.38
678.904	388.88
679.349	370.68
679.794	380.58
680.24	372.98
680.685	373.18
681.131	368.08
681.576	375.78
682.021	371.38
682.466	377.98
682.912	370.28
683.357	374.18
683.802	403.98
684.247	443.08
684.692	485.88
685.137	535.28
685.583	564.28
686.028	603.38
686.473	553.38
686.918	479.88
687.363	437.88
687.807	426.48
688.252	391.08
688.697	364.68
689.142	356.58
689.587	353.68
690.032	342.98
690.477	368.58
690.921	382.48
691.366	411.28
691.811	423.08
692.255	461.68
692.7	496.68
693.145	541.48
693.589	765.28
694.034	1244.38
694.478	1666.98
694.923	1849.18
695.367	2387.88
695.812	1282.78
696.256	535.68
696.701	402.88
697.145	363.98
697.59	357.68
698.034	344.78
698.478	340.88
698.922	343.78
699.367	343.88
699.811	357.78
700.255	368.28
700.699	417.48
701.143	448.88
701.588	507.28
702.032	544.38
702.476	538.08
702.92	525.68
703.364	525.58
703.808	698.68
704.252	1130.18
704.696	1569.78
705.14	1781.88
705.584	2241.98
706.027	1141.98
706.471	559.58
706.915	421.68
707.359	375.98
707.803	339.08
708.246	332.38
708.69	338.58
709.134	333.88
709.577	336.88
710.021	343.48
710.465	325.68
710.908	321.88
711.352	315.28
711.795	337.78
712.239	383.08
712.682	411.08
713.126	436.58
713.569	483.28
714.012	385.78
714.456	321.88
714.899	310.18
715.342	290.58
715.786	276.78
716.229	275.58
716.672	272.18
717.115	268.98
717.558	264.58
718.002	261.98
718.445	277.48
718.888	299.08
719.331	314.58
719.774	323.38
720.217	320.88
720.66	303.68
721.103	280.78
721.546	269.98
721.989	270.38
722.432	256.28
722.874	253.58
723.317	248.28
723.76	254.18
724.203	278.18
724.645	355.38
725.088	476.58
725.531	608.58
725.974	678.68
726.416	588.48
726.859	325.38
727.301	263.38
727.744	252.38
728.187	252.08
728.629	250.28
729.071	261.48
729.514	273.58
729.956	284.48
730.399	304.08
730.841	312.58
731.283	298.88
731.726	282.68
732.168	277.68
732.61	295.28
733.053	307.28
733.495	340.08
733.937	376.38
734.379	431.48
734.821	470.78
735.263	588.18
735.705	923.88
736.148	1749.98
736.59	2790.38
737.032	3218.88
737.474	2627.28
737.916	876.88
738.357	460.28
738.799	356.78
739.241	320.28
739.683	303.98
740.125	314.18
740.567	323.08
741.008	336.98
741.45	340.58
741.892	335.48
742.334	379.08
742.775	389.28
743.217	365.08
743.658	291.18
744.1	278.38
744.542	284.78
744.983	340.98
745.425	372.08
745.866	366.98
746.307	305.18
746.749	302.28
747.19	354.98
747.632	501.28
748.073	982.48
748.514	2053.68
748.956	3057.38
749.397	3863.68
749.838	3201.88
750.279	3125.58
750.72	1596.58
751.162	587.68
751.603	342.88
752.044	270.98
752.485	231.98
752.926	222.98
753.367	219.88
753.808	213.38
754.249	201.08
754.69	202.78
755.131	202.18
755.572	195.18
756.013	192.28
756.453	196.58
756.894	204.88
757.335	208.08
757.776	208.28
758.216	218.48
758.657	213.28
759.098	213.08
759.538	242.08
759.979	290.58
760.42	408.88
760.86	788.28
761.301	2064.18
761.741	4837.78
762.182	6756.38
762.622	4783.38
