Data from 20171114-ORNL-Ar_H_NY_Subt18_08-04-40-006.txt Node
Date: Tue Nov 14 08:04:40 EST 2017
User: Ender
Spectrometer: HR+D1039
Trigger mode: 0
Integration Time (sec): 2.730000E-2
Scans to average: 10
Electric dark correction enabled: true
Nonlinearity correction enabled: false
Boxcar width: 0
XAxis mode: Wavelengths
Number of Pixels in Spectrum: 2048
>>>>>Begin Spectral Data<<<<<
187.836	-2.15
188.309	-2.15
188.782	-2.15
189.255	3.35
189.728	-3.05
190.201	4.45
190.674	0.95
191.147	-0.15
191.619	-12.75
192.092	-1.55
192.565	-0.15
193.038	5.95
193.511	0.25
193.984	3.85
194.456	-4.25
194.929	4.15
195.402	0.15
195.874	0.95
196.347	-2.35
196.82	-1.85
197.292	9.15
197.765	1.85
198.237	-4.55
198.71	6.05
199.182	-1.15
199.655	0.05
200.127	7.75
200.6	-2.85
201.072	-5.85
201.544	-1.35
202.017	-1.75
202.489	10.55
202.961	-1.75
203.433	-3.75
203.906	-6.85
204.378	-0.35
204.85	-4.25
205.322	-3.85
205.794	4.55
206.266	-4.95
206.739	-5.65
207.211	1.05
207.683	-7.35
208.155	-6.05
208.627	-5.75
209.099	-5.95
209.57	-2.45
210.042	-4.15
210.514	-12.55
210.986	0.95
211.458	-6.55
211.93	-2.45
212.402	-0.05
212.873	-0.05
213.345	-2.65
213.817	-5.85
214.288	-4.35
214.76	-6.85
215.232	-3.55
215.703	0.15
216.175	-1.05
216.646	-0.05
217.118	-4.75
217.589	-2.25
218.061	-1.25
218.532	-4.35
219.004	-1.65
219.475	-3.95
219.946	-6.35
220.418	-1.75
220.889	0.95
221.36	2.55
221.832	-3.65
222.303	-2.05
222.774	1.45
223.245	-10.75
223.717	-2.15
224.188	-9.95
224.659	-2.05
225.13	-3.95
225.601	-3.65
226.072	0.65
226.543	4.35
227.014	0.95
227.485	-2.05
227.956	-7.15
228.427	1.45
228.898	0.35
229.369	1.05
229.839	-4.55
230.31	-6.25
230.781	6.45
231.252	-0.95
231.722	-1.15
232.193	-0.25
232.664	-1.15
233.135	2.05
233.605	0.35
234.076	-10.95
234.546	0.85
235.017	6.45
235.487	6.05
235.958	1.45
236.428	0.45
236.899	1.85
237.369	8.15
237.84	2.65
238.31	12.05
238.78	2.45
239.251	3.65
239.721	2.55
240.191	2.25
240.662	2.55
241.132	3.35
241.602	0.35
242.072	-2.75
242.542	9.15
243.013	1.35
243.483	10.55
243.953	2.35
244.423	4.55
244.893	-4.45
245.363	8.55
245.833	4.85
246.303	2.35
246.773	14.95
247.243	3.65
247.712	6.15
248.182	6.75
248.652	11.25
249.122	-1.15
249.592	12.85
250.061	26.65
250.531	37.05
251.001	14.35
251.471	19.65
251.94	20.95
252.41	8.45
252.879	3.25
253.349	12.15
253.818	13.55
254.288	10.95
254.757	5.95
255.227	9.35
255.696	9.05
256.166	14.95
256.635	7.05
257.105	12.15
257.574	9.25
258.043	12.75
258.513	13.25
258.982	20.55
259.451	12.25
259.92	16.35
260.389	17.45
260.859	19.55
261.328	17.15
261.797	20.55
262.266	10.35
262.735	10.95
263.204	9.45
263.673	2.75
264.142	7.95
264.611	-3.15
265.08	-0.85
265.549	5.55
266.018	3.75
266.487	4.15
266.955	2.25
267.424	6.05
267.893	12.65
268.362	5.05
268.83	6.05
269.299	8.95
269.768	13.45
270.236	8.15
270.705	3.05
271.174	10.55
271.642	12.85
272.111	11.15
272.579	12.95
273.048	27.35
273.516	29.85
273.985	30.55
274.453	31.35
274.922	23.45
275.39	17.95
275.858	6.85
276.327	15.25
276.795	23.75
277.263	15.75
277.731	31.65
278.2	59.65
278.668	57.55
279.136	53.05
279.604	19.25
280.072	12.65
280.54	14.25
281.008	12.65
281.477	18.05
281.945	16.45
282.413	16.25
282.881	18.15
283.348	15.15
283.816	14.05
284.284	16.85
284.752	24.15
285.22	20.35
285.688	22.35
286.156	20.85
286.623	50.45
287.091	52.75
287.559	33.75
288.026	22.75
288.494	17.55
288.962	3.45
289.429	10.95
289.897	23.95
290.364	16.05
290.832	26.35
291.3	18.35
291.767	21.65
292.234	19.15
292.702	17.15
293.169	22.45
293.637	26.55
294.104	21.95
294.571	10.55
295.039	10.25
295.506	16.65
295.973	24.05
296.44	17.85
296.908	20.35
297.375	16.75
297.842	21.85
298.309	20.65
298.776	19.95
299.243	26.15
299.71	18.15
300.177	23.65
300.644	21.65
301.111	21.85
301.578	21.35
302.045	20.85
302.512	26.15
302.979	26.95
303.446	28.35
303.913	23.95
304.379	23.95
304.846	28.45
305.313	30.85
305.78	21.05
306.246	28.15
306.713	26.15
307.18	24.15
307.646	25.85
308.113	30.55
308.579	30.85
309.046	25.95
309.512	29.65
309.979	23.15
310.445	33.65
310.912	26.15
311.378	34.65
311.845	29.25
312.311	31.45
312.777	35.35
313.244	35.15
313.71	40.25
314.176	38.95
314.642	36.25
315.109	32.65
315.575	43.35
316.041	40.15
316.507	36.65
316.973	44.75
317.439	38.15
317.905	39.05
318.371	32.95
318.837	39.45
319.303	39.95
319.769	36.45
320.235	39.55
320.701	36.85
321.167	42.45
321.633	38.35
322.099	45.55
322.564	49.95
323.03	38.05
323.496	32.85
323.962	39.05
324.427	31.45
324.893	40.75
325.359	39.25
325.824	37.45
326.29	40.45
326.755	46.25
327.221	42.75
327.686	45.55
328.152	47.15
328.617	44.45
329.083	52.95
329.548	57.65
330.014	51.95
330.479	40.65
330.944	43.35
331.41	50.05
331.875	48.55
332.34	49.55
332.805	40.95
333.271	49.15
333.736	40.65
334.201	58.85
334.666	47.35
335.131	55.45
335.596	50.25
336.061	59.35
336.526	45.05
336.991	50.85
337.456	62.55
337.921	51.25
338.386	47.35
338.851	48.65
339.316	48.15
339.781	45.15
340.246	58.55
340.711	53.45
341.175	52.55
341.64	46.55
342.105	54.55
342.569	53.75
343.034	64.95
343.499	58.15
343.963	53.85
344.428	61.75
344.893	64.65
345.357	59.15
345.822	62.55
346.286	73.05
346.751	76.05
347.215	72.55
347.679	73.25
348.144	101.55
348.608	92.75
349.073	69.75
349.537	71.25
350.001	76.85
350.465	92.05
350.93	86.05
351.394	82.85
351.858	77.15
352.322	89.85
352.786	84.25
353.25	103.65
353.715	117.85
354.179	98.35
354.643	124.55
355.107	128.15
355.571	105.65
356.035	99.85
356.498	116.35
356.962	119.35
357.426	124.35
357.89	115.05
358.354	91.65
358.818	85.65
359.281	81.45
359.745	75.65
360.209	74.75
360.673	74.25
361.136	79.15
361.6	85.95
362.064	89.15
362.527	85.15
362.991	89.75
363.454	83.15
363.918	79.85
364.381	76.15
364.845	84.45
365.308	87.05
365.772	88.95
366.235	88.35
366.698	82.65
367.162	85.65
367.625	86.15
368.088	86.95
368.552	87.25
369.015	91.75
369.478	99.25
369.941	97.35
370.404	95.35
370.867	103.25
371.331	104.25
371.794	118.65
372.257	109.35
372.72	111.85
373.183	111.85
373.646	105.35
374.109	93.15
374.572	105.45
375.035	108.25
375.497	104.25
375.96	106.85
376.423	101.15
376.886	109.35
377.349	103.05
377.811	95.75
378.274	108.85
378.737	103.35
379.199	111.95
379.662	109.25
380.125	111.75
380.587	114.55
381.05	122.45
381.512	128.45
381.975	130.05
382.437	122.75
382.9	122.95
383.362	125.55
383.825	137.35
384.287	143.15
384.75	134.25
385.212	131.55
385.674	134.65
386.136	126.65
386.599	118.05
387.061	121.75
387.523	125.45
387.985	128.75
388.447	136.65
388.91	137.05
389.372	147.95
389.834	146.95
390.296	143.45
390.758	149.25
391.22	162.25
391.682	193.85
392.144	270.95
392.606	214.05
393.068	155.65
393.529	162.35
393.991	146.15
394.453	131.95
394.915	152.95
395.377	175.65
395.838	200.45
396.3	147.85
396.762	134.75
397.224	126.65
397.685	126.05
398.147	125.05
398.608	125.85
399.07	122.85
399.531	124.45
399.993	144.45
400.454	145.65
400.916	143.45
401.377	137.95
401.839	144.05
402.3	145.45
402.762	150.15
403.223	168.85
403.684	164.45
404.145	156.15
404.607	148.25
405.068	158.45
405.529	166.05
405.99	177.65
406.451	166.15
406.913	169.45
407.374	154.55
407.835	152.55
408.296	149.55
408.757	162.25
409.218	169.15
409.679	173.85
410.14	169.25
410.601	171.15
411.062	174.85
411.522	176.75
411.983	174.95
412.444	164.95
412.905	178.65
413.366	179.25
413.826	186.75
414.287	211.25
414.748	247.95
415.208	237.95
415.669	209.45
416.13	196.75
416.59	191.35
417.051	204.15
417.511	216.15
417.972	221.05
418.432	239.35
418.893	276.95
419.353	240.75
419.814	188.55
420.274	176.35
420.734	170.05
421.195	188.05
421.655	195.15
422.115	184.95
422.576	183.25
423.036	187.15
423.496	191.05
423.956	208.75
424.416	217.75
424.876	246.45
425.336	246.15
425.797	246.45
426.257	242.45
426.717	222.45
427.177	220.65
427.637	215.75
428.097	223.95
428.556	233.25
429.016	256.15
429.476	246.05
429.936	257.05
430.396	262.75
430.856	274.05
431.315	301.35
431.775	333.55
432.235	355.45
432.694	325.15
433.154	337.85
433.614	359.25
434.073	317.25
434.533	271.75
434.993	257.75
435.452	266.75
435.912	277.85
436.371	271.05
436.83	267.65
437.29	256.85
437.749	229.75
438.209	232.35
438.668	255.05
439.127	270.55
439.587	248.95
440.046	235.75
440.505	248.35
440.964	270.45
441.424	303.55
441.883	289.35
442.342	241.45
442.801	209.55
443.26	205.65
443.719	210.15
444.178	207.45
444.637	198.25
445.096	209.65
445.555	214.55
446.014	210.45
446.473	209.05
446.932	210.75
447.391	211.45
447.849	218.45
448.308	208.05
448.767	213.45
449.226	220.65
449.685	226.15
450.143	232.65
450.602	223.15
451.061	218.45
451.519	225.55
451.978	222.35
452.436	220.85
452.895	227.15
453.353	228.65
453.812	232.05
454.27	226.45
454.729	228.35
455.187	222.85
455.646	231.75
456.104	232.75
456.562	243.45
457.021	256.65
457.479	243.25
457.937	254.65
458.395	246.95
458.854	232.75
459.312	245.65
459.77	256.05
460.228	236.05
460.686	234.15
461.144	239.65
461.602	232.05
462.06	233.45
462.518	231.35
462.976	240.25
463.434	253.55
463.892	256.65
464.35	262.95
464.808	276.55
465.266	250.65
465.724	252.35
466.181	259.65
466.639	248.05
467.097	281.55
467.555	278.85
468.012	288.25
468.47	293.25
468.928	314.15
469.385	326.05
469.843	328.85
470.3	335.85
470.758	344.35
471.215	367.45
471.673	376.35
472.13	377.75
472.588	391.95
473.045	348.95
473.503	358.35
473.96	372.95
474.417	385.15
474.875	409.45
475.332	444.65
475.789	435.65
476.246	445.45
476.704	461.45
477.161	479.45
477.618	495.05
478.075	531.05
478.532	578.45
478.989	652.15
479.446	757.15
479.903	731.85
480.36	776.15
480.817	825.25
481.274	916.35
481.731	1015.65
482.188	1114.25
482.645	1238.55
483.102	1331.45
483.558	1463.25
484.015	1524.95
484.472	1498.05
484.929	1453.95
485.385	1404.15
485.842	1353.45
486.299	1292.65
486.755	1221.95
487.212	1033.25
487.668	878.15
488.125	805.95
488.582	743.15
489.038	718.45
489.494	683.55
489.951	654.45
490.407	637.65
490.864	615.85
491.32	609.15
491.776	603.45
492.233	614.15
492.689	585.65
493.145	586.35
493.602	566.85
494.058	590.25
494.514	592.15
494.97	610.35
495.426	617.65
495.882	597.75
496.338	595.15
496.794	608.85
497.251	593.35
497.707	619.45
498.163	615.45
498.618	609.75
499.074	612.75
499.53	642.25
499.986	646.75
500.442	628.65
500.898	597.75
501.354	592.85
501.809	595.85
502.265	608.55
502.721	618.85
503.177	633.15
503.632	633.45
504.088	640.55
504.543	674.65
504.999	670.35
505.455	627.85
505.91	603.45
506.366	601.75
506.821	596.45
507.277	596.15
507.732	598.45
508.187	598.15
508.643	602.05
509.098	602.65
509.553	629.35
510.009	633.75
510.464	638.05
510.919	654.85
511.375	668.45
511.83	675.75
512.285	689.25
512.74	725.15
513.195	750.35
513.65	732.35
514.105	728.25
514.56	741.15
515.015	764.55
515.47	771.75
515.925	758.75
516.38	758.05
516.835	764.35
517.29	748.45
517.745	750.05
518.2	726.35
518.655	708.65
519.109	716.95
519.564	697.95
520.019	696.95
520.474	688.75
520.928	696.25
521.383	681.65
521.838	692.95
522.292	678.85
522.747	675.35
523.201	673.65
523.656	667.35
524.11	657.25
524.565	655.75
525.019	660.95
525.474	659.95
525.928	668.05
526.382	651.15
526.837	658.75
527.291	661.65
527.745	663.45
528.2	656.45
528.654	656.05
529.108	651.05
529.562	651.55
530.016	652.95
530.47	655.65
530.925	661.15
531.379	661.95
531.833	675.05
532.287	673.85
532.741	668.95
533.195	668.25
533.649	677.65
534.103	686.55
534.556	675.75
535.01	679.75
535.464	676.55
535.918	690.15
536.372	693.55
536.826	682.85
537.279	670.95
537.733	678.55
538.187	680.25
538.64	672.25
539.094	680.75
539.548	687.55
540.001	688.75
540.455	688.55
540.908	690.85
541.362	695.55
541.815	710.25
542.269	712.15
542.722	713.55
543.175	723.55
543.629	729.25
544.082	734.95
544.536	752.35
544.989	739.05
545.442	742.05
545.895	754.95
546.349	738.35
546.802	744.85
547.255	747.25
547.708	760.45
548.161	757.45
548.614	774.05
549.067	787.95
549.52	769.55
549.973	766.15
550.426	755.65
550.879	756.95
551.332	752.85
551.785	758.75
552.238	761.35
552.691	774.95
553.144	788.45
553.596	802.95
554.049	817.95
554.502	850.75
554.955	861.85
555.407	859.85
555.86	860.25
556.313	832.75
556.765	838.45
557.218	829.05
557.67	832.55
558.123	829.95
558.576	820.25
559.028	826.25
559.48	834.25
559.933	820.15
560.385	793.15
560.838	763.85
561.29	732.15
561.742	722.05
562.195	712.65
562.647	708.65
563.099	725.45
563.551	728.65
564.004	733.15
564.456	722.35
564.908	708.95
565.36	691.35
565.812	684.65
566.264	688.25
566.716	675.25
567.168	669.85
567.62	672.45
568.072	657.35
568.524	644.25
568.976	644.45
569.428	618.65
569.88	623.05
570.332	628.05
570.784	638.15
571.235	637.25
571.687	643.95
572.139	643.05
572.59	670.65
573.042	663.45
573.494	657.35
573.945	652.85
574.397	629.35
574.849	644.95
575.3	652.05
575.752	629.35
576.203	628.15
576.655	639.35
577.106	624.65
577.557	617.25
578.009	618.95
578.46	621.35
578.912	618.65
579.363	621.35
579.814	621.95
580.265	618.95
580.717	618.65
581.168	614.85
581.619	631.95
582.07	633.35
582.521	625.05
582.972	621.85
583.423	626.25
583.875	628.35
584.326	639.75
584.777	683.25
585.227	744.65
585.678	830.25
586.129	909.65
586.58	969.55
587.031	1045.15
587.482	1187.45
587.933	1355.45
588.384	1183.45
588.834	889.45
589.285	732.35
589.736	717.05
590.186	709.35
590.637	698.65
591.088	682.95
591.538	672.35
591.989	670.55
592.439	667.75
592.89	663.75
593.34	642.25
593.791	649.25
594.241	652.25
594.692	652.15
595.142	644.05
595.593	639.95
596.043	647.85
596.493	657.95
596.943	648.35
597.394	663.05
597.844	639.45
598.294	668.25
598.744	687.45
599.195	697.45
599.645	742.45
600.095	772.55
600.545	832.15
600.995	877.95
601.445	936.65
601.895	998.15
602.345	1042.05
602.795	1023.15
603.245	963.75
603.695	928.55
604.145	874.45
604.594	829.65
605.044	785.35
605.494	732.05
605.944	691.05
606.393	684.45
606.843	671.75
607.293	662.65
607.743	664.55
608.192	674.45
608.642	685.15
609.091	696.05
609.541	695.55
609.99	693.55
610.44	687.75
610.889	653.75
611.339	628.45
611.788	624.35
612.238	641.35
612.687	659.25
613.136	653.65
613.586	663.95
614.035	660.25
614.484	673.55
614.933	681.85
615.383	662.05
615.832	669.45
616.281	651.15
616.73	617.25
617.179	602.65
617.628	590.95
618.077	562.65
618.526	559.35
618.975	567.05
619.424	552.45
619.873	552.15
620.322	549.15
620.771	546.35
621.22	544.35
621.669	528.95
622.118	523.45
622.567	522.95
623.015	510.25
623.464	516.05
623.913	500.65
624.361	498.25
624.81	491.15
625.259	499.65
625.707	497.75
626.156	500.85
626.604	503.15
627.053	503.05
627.501	507.65
627.95	506.75
628.398	523.75
628.847	507.95
629.295	515.95
629.744	502.95
630.192	515.35
630.64	511.25
631.089	509.05
631.537	510.35
631.985	512.55
632.433	528.05
632.881	534.05
633.33	580.15
633.778	558.35
634.226	505.65
634.674	500.25
635.122	515.35
635.57	525.85
636.018	548.25
636.466	520.15
636.914	496.65
637.362	508.65
637.81	509.15
638.258	513.35
638.705	515.95
639.153	545.95
639.601	545.35
640.049	573.75
640.497	598.75
640.944	615.65
641.392	569.55
641.84	549.15
642.287	514.35
642.735	500.65
643.182	514.05
643.63	510.25
644.078	500.75
644.525	529.75
644.973	530.05
645.42	536.95
645.867	547.95
646.315	565.15
646.762	583.75
647.21	604.55
647.657	635.35
648.104	654.65
648.551	677.85
648.999	740.75
649.446	805.05
649.893	880.45
650.34	1008.65
650.787	1207.45
651.234	1496.65
651.682	1938.85
652.129	2653.95
652.576	3814.35
653.023	5644.45
653.47	7775.15
653.917	9856.55
654.363	11486.35
654.81	12884.45
655.257	12286.25
655.704	7944.85
656.151	4680.25
656.598	3029.45
657.044	2144.55
657.491	1656.85
657.938	1324.85
658.385	1108.35
658.831	961.35
659.278	850.25
659.724	754.05
660.171	701.95
660.618	634.45
661.064	606.75
661.511	580.15
661.957	579.35
662.404	558.45
662.85	562.35
663.296	549.25
663.743	489.55
664.189	475.95
664.635	476.55
665.082	467.75
665.528	464.75
665.974	450.75
666.42	452.95
666.867	440.25
667.313	432.55
667.759	420.65
668.205	412.55
668.651	427.45
669.097	424.95
669.543	434.65
669.989	413.55
670.435	386.35
670.881	384.95
671.327	397.75
671.773	411.85
672.219	432.75
672.665	470.65
673.11	512.85
673.556	552.15
674.002	589.05
674.448	593.85
674.893	487.45
675.339	418.15
675.785	388.35
676.23	372.75
676.676	346.05
677.122	334.85
677.567	331.15
678.013	325.65
678.458	313.25
678.904	304.15
679.349	299.35
679.794	316.05
680.24	306.55
680.685	302.35
681.131	305.95
681.576	303.15
682.021	316.35
682.466	303.65
682.912	305.75
683.357	301.15
683.802	332.15
684.247	364.15
684.692	394.85
685.137	438.45
685.583	474.65
686.028	498.85
686.473	457.75
686.918	385.55
687.363	354.75
687.807	344.45
688.252	322.05
688.697	307.15
689.142	297.55
689.587	291.55
690.032	278.75
690.477	302.55
690.921	302.45
691.366	335.85
691.811	354.05
692.255	379.35
692.7	409.05
693.145	431.35
693.589	591.15
694.034	962.05
694.478	1332.55
694.923	1526.35
695.367	2022.45
695.812	1046.75
696.256	435.45
696.701	312.85
697.145	302.15
697.59	286.95
698.034	277.65
698.478	286.95
698.922	278.85
699.367	292.35
699.811	290.35
700.255	312.55
700.699	329.15
701.143	370.15
701.588	418.65
702.032	455.25
702.476	450.85
702.92	420.55
703.364	421.65
703.808	539.55
704.252	880.25
704.696	1251.65
705.14	1464.05
705.584	1894.85
706.027	942.15
706.471	456.05
706.915	346.55
707.359	301.95
707.803	277.95
708.246	275.05
708.69	274.85
709.134	273.05
709.577	274.05
710.021	273.45
710.465	273.05
710.908	261.25
711.352	252.25
711.795	266.75
712.239	296.75
712.682	329.55
713.126	365.95
713.569	398.35
714.012	322.45
714.456	279.75
714.899	257.85
715.342	241.85
715.786	218.15
716.229	224.55
716.672	226.65
717.115	220.05
717.558	218.25
718.002	215.75
718.445	226.65
718.888	248.85
719.331	252.55
719.774	271.35
720.217	268.65
720.66	241.45
721.103	220.95
721.546	222.55
721.989	218.15
722.432	200.65
722.874	205.85
723.317	192.35
723.76	197.85
724.203	222.75
724.645	266.65
725.088	380.55
725.531	489.65
725.974	563.05
726.416	477.95
726.859	262.55
727.301	214.75
727.744	212.65
728.187	205.05
728.629	202.45
729.071	202.95
729.514	221.25
729.956	238.35
730.399	241.15
730.841	252.25
731.283	235.35
731.726	228.75
732.168	224.15
732.61	233.05
733.053	248.15
733.495	267.85
733.937	307.55
734.379	348.25
734.821	374.45
735.263	457.95
735.705	696.55
736.148	1329.35
736.59	2222.15
737.032	2714.25
737.474	2207.75
737.916	706.75
738.357	372.45
738.799	283.15
739.241	260.75
739.683	244.15
740.125	250.85
740.567	257.45
741.008	271.85
741.45	272.45
741.892	266.25
742.334	300.65
742.775	316.65
743.217	300.55
743.658	234.05
744.1	215.85
744.542	224.75
744.983	264.45
745.425	298.45
745.866	303.25
746.307	247.25
746.749	244.45
747.19	278.05
747.632	374.55
748.073	722.15
748.514	1559.35
748.956	2480.05
749.397	3067.75
749.838	2578.55
750.279	2642.45
750.72	1321.75
751.162	474.35
751.603	278.95
752.044	221.25
752.485	185.25
752.926	180.05
753.367	171.55
753.808	169.55
754.249	161.55
754.69	161.65
755.131	160.45
755.572	158.25
756.013	151.25
756.453	160.75
756.894	159.65
757.335	164.65
757.776	164.75
758.216	168.55
758.657	171.05
759.098	174.45
759.538	195.15
759.979	232.75
760.42	315.15
760.86	583.25
761.301	1512.35
761.741	3758.45
762.182	5760.45
762.622	4070.45
