Data from 20171114-ORNL-Ar_H_NY_Subt18_08-06-08-723.txt Node
Date: Tue Nov 14 08:06:08 EST 2017
User: Ender
Spectrometer: HR+D1039
Trigger mode: 0
Integration Time (sec): 2.730000E-2
Scans to average: 10
Electric dark correction enabled: true
Nonlinearity correction enabled: false
Boxcar width: 0
XAxis mode: Wavelengths
Number of Pixels in Spectrum: 2048
>>>>>Begin Spectral Data<<<<<
187.836	-0.87
188.309	-0.87
188.782	-0.87
189.255	-2.87
189.728	-0.77
190.201	3.33
190.674	1.03
191.147	5.93
191.619	-6.37
192.092	3.33
192.565	3.13
193.038	-0.67
193.511	2.73
193.984	1.83
194.456	-4.97
194.929	-0.77
195.402	-5.47
195.874	1.43
196.347	-1.47
196.82	-10.47
197.292	8.53
197.765	0.23
198.237	-6.27
198.71	-0.77
199.182	-4.47
199.655	-0.47
200.127	3.03
200.6	-2.87
201.072	-2.47
201.544	-8.17
202.017	-2.57
202.489	-0.27
202.961	-3.47
203.433	-9.77
203.906	-9.17
204.378	-7.47
204.85	-12.27
205.322	-11.97
205.794	1.33
206.266	-1.17
206.739	-12.97
207.211	-1.97
207.683	-6.17
208.155	-13.07
208.627	-7.07
209.099	-6.77
209.57	-7.57
210.042	-4.27
210.514	-4.57
210.986	-2.97
211.458	-11.27
211.93	-5.17
212.402	1.73
212.873	-3.97
213.345	-6.67
213.817	-8.87
214.288	-8.77
214.76	-6.77
215.232	-8.07
215.703	-5.27
216.175	-5.17
216.646	-3.87
217.118	-3.77
217.589	-2.77
218.061	1.83
218.532	-9.27
219.004	0.03
219.475	-4.97
219.946	-3.57
220.418	0.53
220.889	4.83
221.36	-1.87
221.832	-10.17
222.303	-4.77
222.774	-0.27
223.245	-11.17
223.717	-10.37
224.188	-4.57
224.659	-7.47
225.13	-4.47
225.601	-10.17
226.072	-3.97
226.543	-1.87
227.014	-1.27
227.485	-1.07
227.956	-7.87
228.427	2.33
228.898	-2.37
229.369	1.33
229.839	-2.87
230.31	-11.87
230.781	4.13
231.252	-5.87
231.722	-8.87
232.193	-2.37
232.664	-0.27
233.135	4.23
233.605	-0.27
234.076	-8.67
234.546	-5.17
235.017	1.83
235.487	-1.07
235.958	0.63
236.428	0.03
236.899	-0.47
237.369	0.43
237.84	-3.97
238.31	6.33
238.78	0.93
239.251	-0.37
239.721	2.23
240.191	1.23
240.662	-5.27
241.132	-3.77
241.602	-2.07
242.072	2.43
242.542	9.23
243.013	-3.87
243.483	3.93
243.953	0.33
244.423	1.43
244.893	-4.27
245.363	2.13
245.833	-5.47
246.303	-4.57
246.773	5.93
247.243	4.93
247.712	-2.37
248.182	1.53
248.652	0.13
249.122	-1.57
249.592	7.43
250.061	18.53
250.531	32.53
251.001	19.73
251.471	19.43
251.94	17.93
252.41	4.23
252.879	-0.67
253.349	10.43
253.818	9.23
254.288	6.63
254.757	6.63
255.227	6.63
255.696	4.83
256.166	4.43
256.635	2.33
257.105	12.03
257.574	4.73
258.043	4.63
258.513	5.23
258.982	15.13
259.451	9.03
259.92	14.93
260.389	15.43
260.859	16.93
261.328	9.93
261.797	16.53
262.266	5.63
262.735	4.33
263.204	8.63
263.673	4.53
264.142	6.63
264.611	0.23
265.08	1.43
265.549	1.23
266.018	5.03
266.487	-2.07
266.955	-0.67
267.424	-1.57
267.893	0.83
268.362	0.63
268.83	3.53
269.299	11.13
269.768	8.43
270.236	4.23
270.705	0.83
271.174	2.23
271.642	3.73
272.111	9.43
272.579	18.43
273.048	19.13
273.516	24.33
273.985	25.53
274.453	27.33
274.922	15.23
275.39	14.83
275.858	5.23
276.327	8.73
276.795	15.13
277.263	11.43
277.731	27.43
278.2	52.93
278.668	63.53
279.136	52.53
279.604	15.13
280.072	14.03
280.54	10.13
281.008	7.13
281.477	15.83
281.945	11.83
282.413	8.73
282.881	14.13
283.348	12.53
283.816	14.73
284.284	12.53
284.752	16.53
285.22	17.13
285.688	10.63
286.156	14.13
286.623	48.83
287.091	51.83
287.559	26.83
288.026	16.63
288.494	20.23
288.962	4.73
289.429	14.33
289.897	18.93
290.364	16.33
290.832	14.23
291.3	16.83
291.767	16.93
292.234	21.03
292.702	16.03
293.169	19.43
293.637	22.23
294.104	17.93
294.571	5.73
295.039	13.43
295.506	11.13
295.973	18.63
296.44	15.73
296.908	22.13
297.375	14.13
297.842	18.23
298.309	19.43
298.776	12.13
299.243	24.13
299.71	11.93
300.177	22.53
300.644	22.63
301.111	20.83
301.578	22.63
302.045	13.43
302.512	24.93
302.979	26.23
303.446	25.03
303.913	22.23
304.379	16.73
304.846	26.03
305.313	24.83
305.78	17.83
306.246	26.83
306.713	24.53
307.18	31.03
307.646	29.63
308.113	29.33
308.579	32.23
309.046	22.13
309.512	30.83
309.979	20.33
310.445	30.43
310.912	27.83
311.378	36.33
311.845	30.63
312.311	27.93
312.777	32.63
313.244	30.13
313.71	39.13
314.176	33.03
314.642	33.63
315.109	34.03
315.575	40.73
316.041	45.53
316.507	36.93
316.973	37.63
317.439	30.23
317.905	35.63
318.371	39.13
318.837	31.23
319.303	37.43
319.769	38.63
320.235	40.33
320.701	34.43
321.167	34.63
321.633	30.73
322.099	47.33
322.564	46.13
323.03	38.73
323.496	38.23
323.962	40.53
324.427	32.33
324.893	41.53
325.359	38.63
325.824	37.83
326.29	35.83
326.755	37.83
327.221	45.13
327.686	39.03
328.152	50.83
328.617	44.43
329.083	49.93
329.548	51.73
330.014	43.83
330.479	47.03
330.944	43.83
331.41	45.73
331.875	46.93
332.34	40.33
332.805	48.23
333.271	44.33
333.736	40.93
334.201	47.63
334.666	54.43
335.131	48.93
335.596	48.33
336.061	51.93
336.526	41.43
336.991	51.33
337.456	57.13
337.921	46.13
338.386	49.13
338.851	51.43
339.316	44.73
339.781	46.53
340.246	48.63
340.711	48.03
341.175	53.03
341.64	45.13
342.105	55.73
342.569	59.13
343.034	58.03
343.499	53.83
343.963	60.93
344.428	67.83
344.893	63.13
345.357	59.83
345.822	63.13
346.286	63.93
346.751	68.23
347.215	73.23
347.679	82.73
348.144	107.03
348.608	80.33
349.073	71.63
349.537	81.13
350.001	83.63
350.465	90.03
350.93	84.73
351.394	87.03
351.858	76.43
352.322	88.73
352.786	86.53
353.25	102.43
353.715	113.43
354.179	104.83
354.643	124.83
355.107	134.93
355.571	108.23
356.035	107.13
356.498	124.23
356.962	126.03
357.426	128.23
357.89	120.53
358.354	96.03
358.818	92.43
359.281	83.43
359.745	76.83
360.209	71.53
360.673	81.83
361.136	83.93
361.6	89.53
362.064	88.43
362.527	87.53
362.991	90.43
363.454	78.13
363.918	81.93
364.381	80.63
364.845	82.93
365.308	89.73
365.772	94.33
366.235	88.23
366.698	85.93
367.162	87.83
367.625	92.43
368.088	90.03
368.552	91.43
369.015	87.83
369.478	101.33
369.941	105.83
370.404	87.83
370.867	111.63
371.331	114.83
371.794	123.23
372.257	110.73
372.72	113.93
373.183	116.13
373.646	104.93
374.109	103.43
374.572	103.33
375.035	103.93
375.497	115.73
375.96	104.43
376.423	107.63
376.886	113.43
377.349	114.43
377.811	102.23
378.274	104.83
378.737	110.03
379.199	116.23
379.662	117.23
380.125	114.73
380.587	122.93
381.05	125.13
381.512	131.43
381.975	139.23
382.437	130.23
382.9	132.33
383.362	139.03
383.825	141.13
384.287	160.73
384.75	137.93
385.212	139.63
385.674	146.53
386.136	139.73
386.599	130.73
387.061	130.83
387.523	136.33
387.985	141.23
388.447	148.63
388.91	142.33
389.372	163.13
389.834	159.83
390.296	149.53
390.758	156.23
391.22	171.13
391.682	214.43
392.144	300.43
392.606	230.43
393.068	175.13
393.529	169.33
393.991	157.83
394.453	148.03
394.915	164.13
395.377	194.73
395.838	219.53
396.3	157.43
396.762	146.43
397.224	138.83
397.685	136.93
398.147	141.33
398.608	128.33
399.07	134.03
399.531	136.43
399.993	151.43
400.454	151.73
400.916	154.73
401.377	143.53
401.839	148.23
402.3	161.13
402.762	170.83
403.223	191.13
403.684	173.53
404.145	169.23
404.607	163.23
405.068	172.13
405.529	172.13
405.99	198.23
406.451	184.73
406.913	178.53
407.374	175.23
407.835	163.53
408.296	168.33
408.757	182.33
409.218	191.23
409.679	187.43
410.14	179.93
410.601	180.33
411.062	185.03
411.522	197.63
411.983	201.43
412.444	180.43
412.905	188.73
413.366	188.23
413.826	201.83
414.287	221.83
414.748	273.03
415.208	253.23
415.669	216.23
416.13	208.63
416.59	210.23
417.051	218.03
417.511	218.43
417.972	234.43
418.432	248.13
418.893	289.63
419.353	256.43
419.814	204.73
420.274	183.73
420.734	187.33
421.195	203.13
421.655	204.63
422.115	199.93
422.576	202.13
423.036	207.03
423.496	201.33
423.956	220.93
424.416	232.73
424.876	268.43
425.336	268.33
425.797	267.33
426.257	265.13
426.717	248.33
427.177	239.13
427.637	230.93
428.097	240.63
428.556	250.33
429.016	282.13
429.476	276.53
429.936	292.03
430.396	275.93
430.856	303.03
431.315	320.63
431.775	369.53
432.235	391.23
432.694	361.63
433.154	379.73
433.614	411.33
434.073	352.83
434.533	288.93
434.993	284.53
435.452	284.63
435.912	303.33
436.371	299.63
436.83	290.13
437.29	276.53
437.749	252.83
438.209	250.33
438.668	280.53
439.127	296.03
439.587	275.33
440.046	258.53
440.505	266.03
440.964	286.93
441.424	337.33
441.883	320.33
442.342	268.33
442.801	227.93
443.26	225.13
443.719	227.33
444.178	225.73
444.637	218.43
445.096	228.53
445.555	232.43
446.014	232.13
446.473	235.93
446.932	240.33
447.391	231.93
447.849	236.13
448.308	223.03
448.767	219.53
449.226	244.73
449.685	250.03
450.143	263.13
450.602	245.63
451.061	232.33
451.519	238.23
451.978	236.13
452.436	242.93
452.895	244.23
453.353	259.83
453.812	245.53
454.27	241.53
454.729	249.43
455.187	243.83
455.646	255.23
456.104	255.93
456.562	266.63
457.021	276.23
457.479	265.83
457.937	285.53
458.395	273.33
458.854	254.93
459.312	265.63
459.77	288.93
460.228	260.53
460.686	250.23
461.144	259.33
461.602	254.93
462.06	249.13
462.518	263.23
462.976	256.73
463.434	266.03
463.892	269.13
464.35	284.23
464.808	300.23
465.266	279.53
465.724	282.73
466.181	293.93
466.639	278.23
467.097	301.83
467.555	307.53
468.012	316.73
468.47	316.53
468.928	344.53
469.385	358.23
469.843	363.43
470.3	361.83
470.758	378.83
471.215	404.23
471.673	418.43
472.13	420.03
472.588	430.53
473.045	386.33
473.503	392.03
473.96	400.63
474.417	412.13
474.875	438.13
475.332	482.73
475.789	475.83
476.246	478.43
476.704	501.73
477.161	524.23
477.618	541.43
478.075	575.93
478.532	641.73
478.989	714.13
479.446	839.33
479.903	799.43
480.36	839.53
480.817	888.73
481.274	986.63
481.731	1098.03
482.188	1207.63
482.645	1336.83
483.102	1447.83
483.558	1586.63
484.015	1652.03
484.472	1613.73
484.929	1556.73
485.385	1503.83
485.842	1477.93
486.299	1403.23
486.755	1327.03
487.212	1117.83
487.668	953.73
488.125	875.93
488.582	799.13
489.038	768.33
489.494	736.23
489.951	703.23
490.407	683.63
490.864	660.33
491.32	666.03
491.776	652.23
492.233	667.33
492.689	634.63
493.145	625.33
493.602	624.23
494.058	631.73
494.514	630.43
494.97	643.73
495.426	677.03
495.882	633.73
496.338	640.73
496.794	647.53
497.251	634.63
497.707	658.53
498.163	671.63
498.618	666.73
499.074	671.93
499.53	689.63
499.986	687.73
500.442	675.53
500.898	659.43
501.354	646.43
501.809	662.53
502.265	660.13
502.721	680.33
503.177	685.13
503.632	686.23
504.088	692.63
504.543	731.93
504.999	731.53
505.455	673.43
505.91	658.93
506.366	651.43
506.821	651.13
507.277	647.93
507.732	643.73
508.187	645.03
508.643	650.23
509.098	653.23
509.553	678.73
510.009	677.43
510.464	689.13
510.919	705.23
511.375	712.43
511.83	725.13
512.285	735.53
512.74	792.53
513.195	807.83
513.65	797.23
514.105	796.53
514.56	784.83
515.015	816.63
515.47	828.73
515.925	812.63
516.38	815.13
516.835	811.83
517.29	810.53
517.745	807.03
518.2	784.13
518.655	768.33
519.109	770.33
519.564	773.03
520.019	748.53
520.474	743.53
520.928	743.83
521.383	736.93
521.838	728.13
522.292	739.73
522.747	716.43
523.201	723.03
523.656	702.53
524.11	709.63
524.565	716.13
525.019	716.03
525.474	718.73
525.928	719.03
526.382	715.43
526.837	724.73
527.291	731.73
527.745	713.13
528.2	721.83
528.654	704.83
529.108	702.53
529.562	704.43
530.016	710.73
530.47	714.33
530.925	715.33
531.379	729.83
531.833	714.13
532.287	730.03
532.741	727.33
533.195	721.53
533.649	738.83
534.103	743.63
534.556	731.53
535.01	730.63
535.464	723.83
535.918	740.73
536.372	736.53
536.826	733.53
537.279	724.13
537.733	733.93
538.187	741.43
538.64	736.03
539.094	745.13
539.548	749.83
540.001	744.23
540.455	741.83
540.908	748.03
541.362	753.23
541.815	769.33
542.269	785.33
542.722	779.33
543.175	785.33
543.629	796.43
544.082	810.83
544.536	817.73
544.989	809.73
545.442	814.63
545.895	805.83
546.349	814.83
546.802	815.73
547.255	819.83
547.708	826.83
548.161	836.73
548.614	846.43
549.067	848.73
549.52	831.93
549.973	836.83
550.426	824.53
550.879	817.03
551.332	816.83
551.785	828.13
552.238	819.63
552.691	840.53
553.144	857.43
553.596	869.23
554.049	876.23
554.502	916.03
554.955	933.33
555.407	923.63
555.86	924.73
556.313	921.43
556.765	907.43
557.218	919.53
557.67	906.43
558.123	904.63
558.576	900.23
559.028	896.43
559.48	906.13
559.933	899.93
560.385	856.73
560.838	831.33
561.29	805.33
561.742	809.23
562.195	791.13
562.647	793.73
563.099	788.43
563.551	795.53
564.004	806.63
564.456	780.83
564.908	787.23
565.36	771.43
565.812	754.43
566.264	739.23
566.716	744.33
567.168	725.83
567.62	731.93
568.072	726.53
568.524	714.73
568.976	712.83
569.428	696.03
569.88	706.53
570.332	698.63
570.784	694.33
571.235	698.03
571.687	713.83
572.139	716.33
572.59	728.73
573.042	715.43
573.494	719.33
573.945	725.33
574.397	706.13
574.849	715.53
575.3	704.23
575.752	692.03
576.203	691.83
576.655	702.23
577.106	691.13
577.557	683.03
578.009	676.53
578.46	682.33
578.912	678.73
579.363	677.43
579.814	682.63
580.265	692.83
580.717	685.83
581.168	688.93
581.619	692.03
582.07	694.83
582.521	690.73
582.972	688.23
583.423	689.73
583.875	702.13
584.326	725.63
584.777	756.53
585.227	834.03
585.678	917.23
586.129	1011.23
586.58	1091.13
587.031	1165.53
587.482	1305.33
587.933	1500.93
588.384	1298.13
588.834	988.73
589.285	820.83
589.736	803.03
590.186	782.93
590.637	769.53
591.088	755.13
591.538	754.23
591.989	742.43
592.439	735.63
592.89	735.33
593.34	727.93
593.791	733.93
594.241	715.43
594.692	715.23
595.142	721.73
595.593	704.73
596.043	723.23
596.493	728.63
596.943	737.43
597.394	739.53
597.844	732.83
598.294	739.93
598.744	754.33
599.195	790.13
599.645	823.33
600.095	882.93
600.545	932.63
600.995	984.13
601.445	1041.93
601.895	1095.23
602.345	1157.13
602.795	1119.83
603.245	1078.53
603.695	1020.53
604.145	973.13
604.594	924.03
605.044	885.23
605.494	816.23
605.944	761.83
606.393	752.73
606.843	742.53
607.293	747.83
607.743	742.83
608.192	764.73
608.642	776.03
609.091	779.63
609.541	777.73
609.99	783.63
610.44	772.33
610.889	728.83
611.339	713.03
611.788	700.23
612.238	715.83
612.687	729.53
613.136	735.73
613.586	742.83
614.035	746.03
614.484	763.33
614.933	771.23
615.383	751.43
615.832	739.23
616.281	726.63
616.73	695.03
617.179	681.93
617.628	659.63
618.077	647.23
618.526	630.23
618.975	633.83
619.424	618.93
619.873	624.83
620.322	628.13
620.771	617.23
621.22	614.13
621.669	601.53
622.118	587.93
622.567	588.03
623.015	581.33
623.464	569.73
623.913	563.53
624.361	567.63
624.81	555.23
625.259	554.63
625.707	555.93
626.156	564.83
626.604	573.93
627.053	574.13
627.501	575.33
627.95	579.83
628.398	591.93
628.847	581.83
629.295	577.93
629.744	582.53
630.192	573.33
630.64	569.53
631.089	571.83
631.537	580.43
631.985	598.83
632.433	603.33
632.881	622.83
633.33	670.23
633.778	648.23
634.226	577.93
634.674	572.03
635.122	586.33
635.57	599.33
636.018	628.13
636.466	584.43
636.914	560.33
637.362	578.23
637.81	579.73
638.258	583.83
638.705	588.83
639.153	600.23
639.601	621.43
640.049	646.73
640.497	674.03
640.944	695.13
641.392	641.03
641.84	622.83
642.287	591.93
642.735	571.13
643.182	574.73
643.63	578.93
644.078	583.83
644.525	595.13
644.973	604.63
645.42	615.83
645.867	622.53
646.315	639.83
646.762	673.13
647.21	699.23
647.657	719.63
648.104	750.23
648.551	777.43
648.999	844.83
649.446	920.33
649.893	1013.33
650.34	1167.63
650.787	1396.03
651.234	1732.93
651.682	2251.43
652.129	3095.43
652.576	4455.13
653.023	6579.33
653.47	9004.13
653.917	11321.43
654.363	13037.13
654.81	14441.43
655.257	13748.63
655.704	9001.83
656.151	5315.03
656.598	3435.63
657.044	2444.53
657.491	1868.53
657.938	1503.83
658.385	1247.03
658.831	1078.83
659.278	961.63
659.724	851.73
660.171	792.03
660.618	721.93
661.064	702.53
661.511	668.73
661.957	655.83
662.404	642.43
662.85	650.33
663.296	640.53
663.743	563.33
664.189	529.83
664.635	540.83
665.082	529.33
665.528	531.33
665.974	516.13
666.42	519.13
666.867	507.63
667.313	492.03
667.759	488.83
668.205	477.93
668.651	482.73
669.097	490.73
669.543	504.83
669.989	473.63
670.435	451.63
670.881	447.13
671.327	457.33
671.773	474.73
672.219	495.73
672.665	549.63
673.11	587.83
673.556	629.03
674.002	665.43
674.448	667.03
674.893	549.93
675.339	475.33
675.785	431.03
676.23	416.03
676.676	390.63
677.122	389.23
677.567	379.33
678.013	370.53
678.458	366.33
678.904	356.43
679.349	351.23
679.794	352.43
680.24	352.33
680.685	351.93
681.131	354.73
681.576	348.43
682.021	357.63
682.466	350.13
682.912	343.83
683.357	352.63
683.802	376.33
684.247	407.93
684.692	456.73
685.137	493.73
685.583	540.83
686.028	563.83
686.473	524.73
686.918	444.63
687.363	416.73
687.807	390.63
688.252	375.93
688.697	359.83
689.142	327.03
689.587	333.33
690.032	326.73
690.477	345.93
690.921	349.33
691.366	384.33
691.811	403.33
692.255	427.53
692.7	457.63
693.145	502.43
693.589	687.83
694.034	1120.03
694.478	1542.03
694.923	1725.43
695.367	2278.43
695.812	1191.83
696.256	494.33
696.701	363.83
697.145	336.33
697.59	326.63
698.034	319.53
698.478	330.43
698.922	325.33
699.367	335.53
699.811	338.63
700.255	361.43
700.699	380.03
701.143	419.43
701.588	478.03
702.032	513.03
702.476	515.93
702.92	488.23
703.364	490.53
703.808	633.23
704.252	1027.33
704.696	1441.43
705.14	1661.83
705.584	2140.53
706.027	1062.73
706.471	526.73
706.915	405.73
707.359	349.93
707.803	318.63
708.246	308.33
708.69	304.73
709.134	310.13
709.577	306.33
710.021	313.23
710.465	308.43
710.908	298.53
711.352	294.83
711.795	306.63
712.239	357.33
712.682	389.33
713.126	415.13
713.569	464.83
714.012	371.23
714.456	314.13
714.899	299.63
715.342	276.13
715.786	262.43
716.229	254.03
716.672	247.03
717.115	236.33
717.558	248.43
718.002	246.93
718.445	264.23
718.888	282.33
719.331	290.53
719.774	305.73
720.217	301.23
720.66	284.83
721.103	268.13
721.546	248.63
721.989	242.83
722.432	232.03
722.874	237.93
723.317	229.43
723.76	238.93
724.203	260.03
724.645	309.93
725.088	437.73
725.531	565.83
725.974	637.63
726.416	560.73
726.859	310.43
727.301	241.53
727.744	237.53
728.187	226.63
728.629	241.93
729.071	243.03
729.514	255.23
729.956	272.43
730.399	273.73
730.841	290.13
731.283	268.13
731.726	259.53
732.168	249.83
732.61	269.83
733.053	288.63
733.495	307.93
733.937	352.63
734.379	392.03
734.821	433.13
735.263	537.23
735.705	812.53
736.148	1555.93
736.59	2552.73
737.032	3043.03
737.474	2473.93
737.916	799.33
738.357	428.53
738.799	327.93
739.241	293.93
739.683	280.13
740.125	291.23
740.567	293.13
741.008	312.13
741.45	304.03
741.892	317.73
742.334	342.43
742.775	358.33
743.217	345.43
743.658	268.03
744.1	246.73
744.542	252.43
744.983	309.63
745.425	336.83
745.866	345.03
746.307	277.93
746.749	282.93
747.19	321.33
747.632	450.33
748.073	862.23
748.514	1826.93
748.956	2821.13
749.397	3542.73
749.838	2939.83
750.279	2968.23
750.72	1496.33
751.162	538.23
751.603	314.53
752.044	250.53
752.485	216.33
752.926	208.73
753.367	203.73
753.808	190.23
754.249	183.03
754.69	187.13
755.131	177.63
755.572	179.63
756.013	174.13
756.453	175.73
756.894	188.53
757.335	191.43
757.776	194.83
758.216	187.43
758.657	191.23
759.098	198.23
759.538	225.33
759.979	264.63
760.42	366.33
760.86	692.43
761.301	1782.83
761.741	4349.03
762.182	6404.13
