Data from 20171114-ORNL-Ar_H_NY_Subt18_08-08-36-403.txt Node
Date: Tue Nov 14 08:08:36 EST 2017
User: Ender
Spectrometer: HR+D1039
Trigger mode: 0
Integration Time (sec): 2.730000E-2
Scans to average: 10
Electric dark correction enabled: true
Nonlinearity correction enabled: false
Boxcar width: 0
XAxis mode: Wavelengths
Number of Pixels in Spectrum: 2048
>>>>>Begin Spectral Data<<<<<
187.836	-0.6
188.309	-0.6
188.782	-0.6
189.255	-2.5
189.728	-3.2
190.201	3.9
190.674	1.4
191.147	5.7
191.619	-6.2
192.092	1.4
192.565	1
193.038	-2.4
193.511	-0.8
193.984	3.4
194.456	-3.6
194.929	-1.6
195.402	2
195.874	2.1
196.347	-4.7
196.82	-5.8
197.292	6
197.765	-5.3
198.237	-8.5
198.71	-1.5
199.182	-2.6
199.655	1
200.127	3.9
200.6	-4.8
201.072	-3.2
201.544	-5.5
202.017	0.3
202.489	8
202.961	-4.7
203.433	-1
203.906	-8.5
204.378	-8.7
204.85	-3.1
205.322	-8.2
205.794	-0.3
206.266	-3.2
206.739	-8.8
207.211	-2.2
207.683	-10.9
208.155	-11
208.627	-7.3
209.099	-4.2
209.57	-5.5
210.042	-3.3
210.514	-1
210.986	-4
211.458	-11.1
211.93	-5.2
212.402	-0.8
212.873	-5
213.345	-10.7
213.817	-13.1
214.288	-2.5
214.76	-12.7
215.232	-6
215.703	-3.7
216.175	-5.7
216.646	-9.5
217.118	-9.8
217.589	-5.8
218.061	-0.9
218.532	-6
219.004	-6.7
219.475	-8.3
219.946	-8.5
220.418	-9.8
220.889	-0.8
221.36	1.9
221.832	-9.2
222.303	-10.3
222.774	-4.4
223.245	-8
223.717	-1.5
224.188	-6.8
224.659	-7.7
225.13	-6.1
225.601	-2.1
226.072	0.4
226.543	-6.7
227.014	-1.9
227.485	-5.1
227.956	-10.8
228.427	-6.9
228.898	-3.4
229.369	2
229.839	-7
230.31	-10.3
230.781	-0.1
231.252	-5.3
231.722	-3.2
232.193	-10.7
232.664	-2.2
233.135	1.1
233.605	-2.7
234.076	-11.4
234.546	-3
235.017	-2.4
235.487	0.2
235.958	-3.2
236.428	-6.2
236.899	-2.7
237.369	0.3
237.84	-2
238.31	3
238.78	1
239.251	-7.4
239.721	-0.7
240.191	-1.1
240.662	-3.6
241.132	-6.2
241.602	-11.5
242.072	0.1
242.542	6.7
243.013	-2.4
243.483	6.6
243.953	3.3
244.423	0.5
244.893	-5.6
245.363	2.3
245.833	0.1
246.303	-3.3
246.773	6.5
247.243	-10.6
247.712	-1.8
248.182	7.9
248.652	1.3
249.122	-2.9
249.592	2.5
250.061	14.4
250.531	23.2
251.001	4.9
251.471	15.6
251.94	11.2
252.41	2.8
252.879	-3
253.349	7.2
253.818	4.5
254.288	3.6
254.757	-1.2
255.227	-3.1
255.696	1.5
256.166	5.7
256.635	0.2
257.105	5.9
257.574	1.9
258.043	2.7
258.513	1.4
258.982	16.9
259.451	5.1
259.92	8.3
260.389	9.5
260.859	7.2
261.328	9.2
261.797	10.8
262.266	-1.7
262.735	8.1
263.204	5.3
263.673	-2
264.142	-0.6
264.611	-8.1
265.08	-6.6
265.549	-4.2
266.018	7.7
266.487	-2
266.955	-2.5
267.424	-3.7
267.893	5.4
268.362	1.2
268.83	1.3
269.299	13.8
269.768	1.8
270.236	6.6
270.705	0.2
271.174	1.9
271.642	7.4
272.111	3.5
272.579	5
273.048	16.5
273.516	13
273.985	18.4
274.453	16.1
274.922	14.6
275.39	3.3
275.858	-4.4
276.327	8.5
276.795	11.3
277.263	5.8
277.731	19.2
278.2	32.9
278.668	35.2
279.136	37.6
279.604	7.9
280.072	15.7
280.54	10.1
281.008	3.4
281.477	12.3
281.945	11.5
282.413	14.1
282.881	13
283.348	6.1
283.816	10.6
284.284	3.7
284.752	14.9
285.22	7.7
285.688	8.9
286.156	9.9
286.623	27.7
287.091	32.4
287.559	21.4
288.026	13.6
288.494	9.7
288.962	5.9
289.429	3.1
289.897	13.5
290.364	8.1
290.832	10.9
291.3	7.7
291.767	17.6
292.234	15.1
292.702	6
293.169	11.8
293.637	16.3
294.104	18.8
294.571	8.5
295.039	5.7
295.506	11.1
295.973	14.7
296.44	12.6
296.908	11.7
297.375	11.8
297.842	14.5
298.309	7.6
298.776	6
299.243	13.3
299.71	10.8
300.177	18
300.644	14.5
301.111	12.7
301.578	17.5
302.045	10.3
302.512	19.3
302.979	19.2
303.446	16.5
303.913	13
304.379	15
304.846	22.2
305.313	22.5
305.78	16.7
306.246	21.6
306.713	16.7
307.18	18.6
307.646	21.1
308.113	15.6
308.579	20.8
309.046	25
309.512	22.1
309.979	13.9
310.445	20.3
310.912	26.9
311.378	23.3
311.845	20.1
312.311	22.1
312.777	29.1
313.244	23.8
313.71	31.7
314.176	28.3
314.642	25.2
315.109	26
315.575	26.9
316.041	33.1
316.507	21.4
316.973	27.8
317.439	26.7
317.905	30.7
318.371	28.3
318.837	25.7
319.303	24.7
319.769	30.6
320.235	27
320.701	26.8
321.167	25.9
321.633	19.1
322.099	33.5
322.564	35.6
323.03	24.4
323.496	35.9
323.962	38
324.427	32.1
324.893	38.9
325.359	31.4
325.824	37.3
326.29	28.8
326.755	31.1
327.221	31.6
327.686	32.6
328.152	35.4
328.617	32.4
329.083	37.6
329.548	44.1
330.014	43
330.479	33.7
330.944	31.4
331.41	37.2
331.875	40.9
332.34	30.7
332.805	37.1
333.271	34.6
333.736	35.3
334.201	43.9
334.666	47.1
335.131	43.8
335.596	44.7
336.061	44.8
336.526	36.7
336.991	40.5
337.456	46.7
337.921	42.3
338.386	38.5
338.851	39.2
339.316	41.2
339.781	41.4
340.246	49.7
340.711	37.5
341.175	44.2
341.64	36.8
342.105	46.6
342.569	44.3
343.034	50.3
343.499	48
343.963	48.9
344.428	56.6
344.893	52.5
345.357	53.7
345.822	49.8
346.286	60
346.751	58.3
347.215	59.9
347.679	62.2
348.144	81.2
348.608	68
349.073	64.6
349.537	66.2
350.001	68.1
350.465	76.9
350.93	59.6
351.394	71.9
351.858	65.7
352.322	81.9
352.786	68.9
353.25	85.9
353.715	95.1
354.179	86.7
354.643	110.7
355.107	105
355.571	91.2
356.035	90.5
356.498	104.1
356.962	105
357.426	108.8
357.89	101.3
358.354	73.2
358.818	70.7
359.281	68.1
359.745	67.8
360.209	68.4
360.673	65.4
361.136	72.7
361.6	76.4
362.064	77.1
362.527	66.8
362.991	78.7
363.454	75.5
363.918	75.8
364.381	73.7
364.845	75.5
365.308	80.3
365.772	75
366.235	78.8
366.698	75
367.162	79.2
367.625	85
368.088	78.3
368.552	81.2
369.015	83.7
369.478	88.6
369.941	92.4
370.404	79.6
370.867	98.3
371.331	99.6
371.794	104.9
372.257	96.1
372.72	103.2
373.183	101.5
373.646	90.9
374.109	94.8
374.572	98.2
375.035	95.2
375.497	99.6
375.96	96.2
376.423	96.1
376.886	96.9
377.349	102
377.811	90.7
378.274	100.6
378.737	97.8
379.199	100.2
379.662	97.5
380.125	106.2
380.587	109
381.05	114.7
381.512	118.4
381.975	119.9
382.437	117.8
382.9	115.1
383.362	127.3
383.825	137.2
384.287	135.4
384.75	120.2
385.212	127.5
385.674	128.1
386.136	124.5
386.599	120.7
387.061	119.3
387.523	118.1
387.985	132
388.447	140.3
388.91	137.5
389.372	143.6
389.834	142.1
390.296	132.7
390.758	137.8
391.22	153.1
391.682	183.6
392.144	259.1
392.606	205.9
393.068	156.6
393.529	153.9
393.991	143.5
394.453	136.4
394.915	141.7
395.377	171.2
395.838	193.1
396.3	145
396.762	128.5
397.224	123.9
397.685	123
398.147	122.9
398.608	122.2
399.07	116.4
399.531	130.1
399.993	136.2
400.454	144.7
400.916	130.3
401.377	139.6
401.839	143.8
402.3	144.3
402.762	159.1
403.223	176.2
403.684	157
404.145	148.2
404.607	156.5
405.068	160.9
405.529	152.8
405.99	182
406.451	173.1
406.913	165.7
407.374	162.3
407.835	150.4
408.296	164.7
408.757	164.8
409.218	177.8
409.679	170.4
410.14	167.7
410.601	169.7
411.062	175.3
411.522	177.5
411.983	175.2
412.444	164.1
412.905	172.7
413.366	170.6
413.826	187.5
414.287	211.6
414.748	252.2
415.208	239.2
415.669	208.4
416.13	195.5
416.59	195.2
417.051	211.1
417.511	217.1
417.972	225.1
418.432	234.2
418.893	279.4
419.353	239.1
419.814	187.1
420.274	167.3
420.734	174.7
421.195	191.4
421.655	190.9
422.115	188.3
422.576	187.7
423.036	194.7
423.496	200.2
423.956	210.9
424.416	222.5
424.876	251.9
425.336	251.4
425.797	252.4
426.257	243.4
426.717	233.3
427.177	228.8
427.637	218.2
428.097	224
428.556	241.6
429.016	260.6
429.476	253.5
429.936	269.1
430.396	271.3
430.856	272.9
431.315	297.6
431.775	342.9
432.235	367.2
432.694	343.1
433.154	359.2
433.614	379.5
434.073	328.5
434.533	286.9
434.993	262.1
435.452	276.6
435.912	279.4
436.371	270.5
436.83	271.2
437.29	262
437.749	241.2
438.209	238.1
438.668	263.8
439.127	280.7
439.587	254.5
440.046	241.2
440.505	255.1
440.964	263.2
441.424	310.2
441.883	302.2
442.342	251
442.801	223.3
443.26	219.6
443.719	222.8
444.178	215.2
444.637	201.1
445.096	225.9
445.555	218
446.014	221.9
446.473	229.6
446.932	233.2
447.391	220.6
447.849	221.7
448.308	206.7
448.767	215.8
449.226	224.7
449.685	231.2
450.143	242
450.602	233.6
451.061	223.9
451.519	230.4
451.978	225
452.436	224.5
452.895	240.4
453.353	244.2
453.812	237.7
454.27	235.4
454.729	231.5
455.187	237.1
455.646	241.7
456.104	234.6
456.562	250.3
457.021	263.2
457.479	255.1
457.937	266.3
458.395	257.8
458.854	239.4
459.312	248.2
459.77	261.4
460.228	257.5
460.686	238.6
461.144	248.7
461.602	237.6
462.06	236.8
462.518	248.5
462.976	252.3
463.434	252.1
463.892	258.7
464.35	262.1
464.808	281.8
465.266	259.9
465.724	264.4
466.181	267.3
466.639	269.5
467.097	284.4
467.555	289.8
468.012	291.2
468.47	303.4
468.928	314.6
469.385	326.9
469.843	336.2
470.3	340
470.758	360.1
471.215	376.5
471.673	394.6
472.13	393.6
472.588	409.2
473.045	361.1
473.503	371.1
473.96	380.7
474.417	388.8
474.875	424
475.332	468.4
475.789	442
476.246	449.1
476.704	472.6
477.161	494.4
477.618	507.9
478.075	541.1
478.532	602.8
478.989	667.2
479.446	781.5
479.903	741.9
480.36	773.4
480.817	831.8
481.274	932.1
481.731	1012.9
482.188	1105.6
482.645	1230.3
483.102	1335.4
483.558	1456.2
484.015	1494.3
484.472	1482.3
484.929	1431.8
485.385	1383.3
485.842	1351.4
486.299	1292.6
486.755	1242.3
487.212	1055.6
487.668	892.5
488.125	818.9
488.582	749
489.038	708.3
489.494	683
489.951	651.3
490.407	646.2
490.864	630.8
491.32	621.5
491.776	619.6
492.233	626.6
492.689	592.2
493.145	582.8
493.602	578.8
494.058	591.1
494.514	593.4
494.97	619.6
495.426	628.6
495.882	604.7
496.338	590.9
496.794	600.7
497.251	592.5
497.707	605.5
498.163	612.4
498.618	612.3
499.074	626.1
499.53	651.5
499.986	656.5
500.442	628
500.898	605.3
501.354	612.1
501.809	604.3
502.265	627.6
502.721	638.7
503.177	647.4
503.632	638.4
504.088	648.9
504.543	685.7
504.999	679.5
505.455	642.4
505.91	616.7
506.366	621.7
506.821	603.7
507.277	599.4
507.732	608.4
508.187	613.9
508.643	626.9
509.098	618.2
509.553	632
510.009	647
510.464	650.2
510.919	663.3
511.375	670.9
511.83	681.3
512.285	701.7
512.74	730.6
513.195	763.5
513.65	758.5
514.105	740.4
514.56	752.2
515.015	760.2
515.47	777.9
515.925	763.5
516.38	760.5
516.835	766.8
517.29	758.2
517.745	756.2
518.2	746.8
518.655	730.7
519.109	723.9
519.564	721.4
520.019	710.7
520.474	701.6
520.928	702.1
521.383	696.1
521.838	692.7
522.292	693.7
522.747	692.7
523.201	690.8
523.656	678.7
524.11	677.7
524.565	661.1
525.019	675.8
525.474	681.9
525.928	674.6
526.382	679.5
526.837	670.8
527.291	686.8
527.745	680.8
528.2	677.1
528.654	669.4
529.108	666.7
529.562	667.9
530.016	674.5
530.47	668.8
530.925	671.7
531.379	672.1
531.833	688.4
532.287	684.6
532.741	683.1
533.195	670.7
533.649	692.7
534.103	698.6
534.556	693.1
535.01	679.3
535.464	677.9
535.918	685.9
536.372	693.3
536.826	698.2
537.279	673.9
537.733	679.5
538.187	692.2
538.64	693.2
539.094	702.6
539.548	711.4
540.001	705.7
540.455	703.8
540.908	714.6
541.362	718
541.815	713.8
542.269	740.5
542.722	747.3
543.175	752.5
543.629	743.2
544.082	763
544.536	764.4
544.989	767.7
545.442	773.8
545.895	765.8
546.349	773.2
546.802	778
547.255	774.5
547.708	784.4
548.161	794
548.614	804.5
549.067	802.2
549.52	795.9
549.973	784.4
550.426	785.8
550.879	774
551.332	775.9
551.785	780.3
552.238	784.4
552.691	798
553.144	808.6
553.596	818.6
554.049	847.3
554.502	867.6
554.955	885.1
555.407	883.4
555.86	876.2
556.313	866.6
556.765	847.2
557.218	858.7
557.67	850.6
558.123	851.5
558.576	847.4
559.028	857.4
559.48	859.2
559.933	850.1
560.385	816.3
560.838	784.3
561.29	757.1
561.742	757.8
562.195	752.3
562.647	738.7
563.099	763.1
563.551	752.6
564.004	760.6
564.456	752.3
564.908	734.9
565.36	728.5
565.812	710.8
566.264	707.8
566.716	709.3
567.168	699.4
567.62	703.4
568.072	684
568.524	682.1
568.976	670.3
569.428	659.5
569.88	664.3
570.332	670.8
570.784	665.9
571.235	664.7
571.687	681.3
572.139	684.7
572.59	688.6
573.042	702
573.494	698.2
573.945	680.7
574.397	669.8
574.849	664.8
575.3	676
575.752	670.3
576.203	669.5
576.655	675
577.106	657.4
577.557	645.8
578.009	656.6
578.46	649.4
578.912	644
579.363	655.6
579.814	654.7
580.265	646.2
580.717	656.7
581.168	664.3
581.619	662.2
582.07	662.2
582.521	664.1
582.972	649.7
583.423	660.6
583.875	670.5
584.326	684.3
584.777	725
585.227	798.8
585.678	864.3
586.129	927.7
586.58	987.6
587.031	1046.6
587.482	1177.8
587.933	1320.7
588.384	1172.3
588.834	908.8
589.285	783.4
589.736	766.8
590.186	765.5
590.637	749.6
591.088	727.7
591.538	716.4
591.989	714.2
592.439	716.2
592.89	701
593.34	706
593.791	708
594.241	692.9
594.692	693.3
595.142	677.9
595.593	684.9
596.043	702
596.493	701.6
596.943	692.6
597.394	698.6
597.844	695
598.294	715.6
598.744	737.6
599.195	765.4
599.645	808.3
600.095	846.7
600.545	904.2
600.995	947.9
601.445	1003.5
601.895	1068.9
602.345	1111.7
602.795	1091.5
603.245	1048.2
603.695	996.7
604.145	936.4
604.594	895.9
605.044	846.7
605.494	772.1
605.944	741.3
606.393	732.3
606.843	717.1
607.293	719.4
607.743	720.6
608.192	734.6
608.642	747.4
609.091	752.5
609.541	766.8
609.99	754.5
610.44	762.2
610.889	716.1
611.339	688
611.788	678.4
612.238	686.7
612.687	710
613.136	706
613.586	713.3
614.035	710.5
614.484	741.3
614.933	737.5
615.383	723.1
615.832	718.9
616.281	709.5
616.73	684.1
617.179	654
617.628	640.6
618.077	630
618.526	614.6
618.975	601.5
619.424	610.7
619.873	603.1
620.322	607.8
620.771	598.4
621.22	589.7
621.669	585.5
622.118	575.2
622.567	582.1
623.015	561.7
623.464	559.1
623.913	553.9
624.361	541.3
624.81	538.7
625.259	544.1
625.707	539.2
626.156	542.8
626.604	557.3
627.053	552.6
627.501	554.7
627.95	559.6
628.398	568.4
628.847	553.6
629.295	564.4
629.744	566.5
630.192	558.9
630.64	559.2
631.089	556.1
631.537	569.3
631.985	571.2
632.433	584.8
632.881	585.6
633.33	633.2
633.778	610.5
634.226	553.4
634.674	552.7
635.122	567.3
635.57	579.1
636.018	608.3
636.466	569.7
636.914	549
637.362	566
637.81	570.2
638.258	571
638.705	569.4
639.153	599.2
639.601	596.1
640.049	631.7
640.497	671.9
640.944	683.6
641.392	638.2
641.84	610.6
642.287	577.7
642.735	551.6
643.182	558.2
643.63	567.9
644.078	572
644.525	581.6
644.973	584.2
645.42	597
645.867	622.7
646.315	632.5
646.762	649.7
647.21	667
647.657	695.8
648.104	735.1
648.551	750.2
648.999	818.3
649.446	894
649.893	987.2
650.34	1131.7
650.787	1372
651.234	1694.5
651.682	2216.4
652.129	3029.3
652.576	4336.4
653.023	6432.1
653.47	8726.8
653.917	10806.2
654.363	12371.5
654.81	13628.3
655.257	12966
655.704	8472
656.151	5025.3
656.598	3252.3
657.044	2327.8
657.491	1792.4
657.938	1430.2
658.385	1198.8
658.831	1048.1
659.278	941.5
659.724	838.4
660.171	768.4
660.618	709.1
661.064	673
661.511	648.3
661.957	639.8
662.404	635
662.85	642
663.296	620.4
663.743	550.6
664.189	544
664.635	527.2
665.082	520.5
665.528	514.9
665.974	513.5
666.42	504.2
666.867	492.7
667.313	479.2
667.759	477.2
668.205	457.4
668.651	462.5
669.097	472
669.543	476.5
669.989	454.6
670.435	439.8
670.881	452.7
671.327	450.6
671.773	461.2
672.219	485.1
672.665	534.7
673.11	580.4
673.556	616.6
674.002	652.9
674.448	642
674.893	532.5
675.339	472.7
675.785	434.1
676.23	410.2
676.676	387.8
677.122	375.6
677.567	361.6
678.013	367.2
678.458	359.1
678.904	356.3
679.349	340
679.794	354.5
680.24	341.8
680.685	344.6
681.131	341.4
681.576	343.7
682.021	349.1
682.466	351.6
682.912	342.7
683.357	352
683.802	378.6
684.247	406.2
684.692	457.3
685.137	489.2
685.583	530.5
686.028	554
686.473	509.6
686.918	438.9
687.363	411.3
687.807	391.2
688.252	361.1
688.697	352.2
689.142	330.6
689.587	328
690.032	320.1
690.477	339.5
690.921	341.2
691.366	379.1
691.811	397.1
692.255	426.1
692.7	453.6
693.145	512.2
693.589	712
694.034	1149.8
694.478	1545.1
694.923	1701.9
695.367	2222.3
695.812	1178.1
696.256	499.4
696.701	375.9
697.145	342.6
697.59	324
698.034	316.9
698.478	329.3
698.922	325
699.367	325.7
699.811	332
700.255	344.5
700.699	385.2
701.143	430.4
701.588	473.3
702.032	519.9
702.476	505
702.92	489.9
703.364	493.1
703.808	658.5
704.252	1066.4
704.696	1470.6
705.14	1657.4
705.584	2092.2
706.027	1051.9
706.471	516.7
706.915	392.9
707.359	348.8
707.803	314.3
708.246	309.8
708.69	305.3
709.134	306.5
709.577	306.7
710.021	314.1
710.465	299.5
710.908	299.1
711.352	300.4
711.795	308.7
712.239	357.2
712.682	387
713.126	414.3
713.569	455.6
714.012	361.2
714.456	313.1
714.899	296
715.342	274.6
715.786	263.2
716.229	263.4
716.672	245.7
717.115	240.6
717.558	251.3
718.002	252.5
718.445	258.7
718.888	284.1
719.331	290.6
719.774	302.9
720.217	300.1
720.66	286.9
721.103	261.1
721.546	250.3
721.989	244
722.432	237.7
722.874	236.9
723.317	228.9
723.76	235.7
724.203	258.6
724.645	321.2
725.088	452
725.531	556.4
725.974	637.3
726.416	539.3
726.859	307.2
727.301	238.4
727.744	235.8
728.187	230.3
728.629	234.8
729.071	241.3
729.514	253.8
729.956	270.8
730.399	285.7
730.841	291.2
731.283	271.3
731.726	265.5
732.168	256.9
732.61	268
733.053	288.5
733.495	320.8
733.937	356.9
734.379	398.4
734.821	441.3
735.263	560.5
735.705	862.4
736.148	1626.8
736.59	2594.8
737.032	2973.2
737.474	2434
737.916	801.4
738.357	431.3
738.799	328.4
739.241	302.8
739.683	282.9
740.125	293.8
740.567	287
741.008	310.2
741.45	312.9
741.892	320.1
742.334	346.2
742.775	356.6
743.217	334.6
743.658	270.2
744.1	243.6
744.542	263.2
744.983	311.7
745.425	342.5
745.866	339.5
746.307	275.5
746.749	286.8
747.19	328.5
747.632	475
748.073	918.4
748.514	1921.5
748.956	2835.3
749.397	3578
749.838	2964.6
750.279	2880.1
750.72	1484.9
751.162	546.8
751.603	321.6
752.044	245.7
752.485	216
752.926	204.7
753.367	193
753.808	191.5
754.249	188.4
754.69	183.8
755.131	180.9
755.572	186.1
756.013	175
756.453	180.4
756.894	186.4
757.335	184.9
757.776	197.1
758.216	196.1
758.657	193.2
759.098	200.9
759.538	224.6
759.979	266.8
760.42	381.1
760.86	741.6
761.301	1936.6
761.741	4511
762.182	6289.3
762.622	4410.2
763.063	1303.1
763.503	544.3
763.943	344.9
764.384	327.9
764.824	362.3
765.264	385
765.705	281.3
766.145	198.5
766.585	187.2
767.025	179.5
767.465	185.5
767.906	226
768.346	285.6
768.786	300.5
769.226	253
769.666	325.3
770.106	640.4
770.546	1615
770.986	2610.2
771.426	2306.5
771.866	789.4
772.306	325.7
772.745	206.5
773.185	164.2
773.625	163.2
774.065	156.4
774.505	189.9
774.944	292.1
775.384	615.1
775.824	1054.8
776.263	1009.2
776.703	444.1
777.142	206.7
777.582	145.5
778.021	138.1
778.461	136.9
778.9	132
779.34	129.5
779.779	118.2
780.219	107.5
780.658	100.9
781.097	108.6
781.537	117.5
781.976	106.2
782.415	105.5
782.855	105.5
783.294	110.5
783.733	109.8
784.172	104.5
784.611	102.9
785.05	108.6
785.489	112.7
785.928	121.4
786.367	126
786.806	119.6
787.245	120.6
787.684	132.8
788.123	148.1
788.562	131.2
789.001	126.5
789.44	115.8
789.879	116.5
790.317	114.4
790.756	126.7
791.195	129.3
791.634	147.9
792.072	211.1
792.511	385.5
792.95	1048.7
793.388	2116
793.827	1884
794.265	668.5
794.704	280.8
795.142	175.9
795.581	158.1
796.019	136.1
796.458	131
796.896	123.1
797.334	130.6
797.773	159.3
798.211	231.8
798.649	455.3
799.087	1034
799.526	1594.3
799.964	2024.3
800.402	1949.7
800.84	749.4
801.278	309
801.716	185.5
802.154	153.1
802.592	138.5
803.03	139.1
803.468	136.3
803.906	148.4
804.344	150.9
804.782	137.8
805.22	137.7
805.658	127.9
806.096	149.2
806.533	155.4
806.971	175.9
807.409	218.4
