Data from 20171114-ORNL-Ar_H_NY_Subt18_08-09-11-130.txt Node
Date: Tue Nov 14 08:09:11 EST 2017
User: Ender
Spectrometer: HR+D1039
Trigger mode: 0
Integration Time (sec): 2.730000E-2
Scans to average: 10
Electric dark correction enabled: true
Nonlinearity correction enabled: false
Boxcar width: 0
XAxis mode: Wavelengths
Number of Pixels in Spectrum: 2048
>>>>>Begin Spectral Data<<<<<
187.836	-6.71
188.309	-6.71
188.782	-6.71
189.255	-0.71
189.728	2.99
190.201	3.49
190.674	2.99
191.147	1.99
191.619	-9.81
192.092	1.39
192.565	5.09
193.038	0.99
193.511	0.79
193.984	2.59
194.456	-3.21
194.929	-0.71
195.402	-0.81
195.874	-0.31
196.347	0.79
196.82	-4.71
197.292	7.29
197.765	-1.01
198.237	-5.01
198.71	-0.81
199.182	-0.01
199.655	1.09
200.127	7.09
200.6	3.19
201.072	-0.71
201.544	-3.71
202.017	2.59
202.489	3.59
202.961	-1.61
203.433	-5.91
203.906	-9.01
204.378	-3.91
204.85	-4.11
205.322	-7.01
205.794	-0.11
206.266	-2.91
206.739	-9.11
207.211	2.49
207.683	-6.21
208.155	-7.11
208.627	-1.31
209.099	-2.91
209.57	-7.91
210.042	-4.81
210.514	0.69
210.986	-2.91
211.458	-6.71
211.93	-1.01
212.402	0.59
212.873	-2.11
213.345	-6.11
213.817	-7.51
214.288	-4.51
214.76	-8.41
215.232	-3.51
215.703	-2.81
216.175	0.29
216.646	-4.81
217.118	-4.81
217.589	-1.31
218.061	0.79
218.532	-7.21
219.004	-1.71
219.475	-2.81
219.946	0.39
220.418	-7.41
220.889	2.09
221.36	3.79
221.832	-0.21
222.303	-5.01
222.774	0.99
223.245	-11.31
223.717	-10.41
224.188	-5.21
224.659	-9.41
225.13	-5.21
225.601	1.89
226.072	0.29
226.543	3.19
227.014	2.89
227.485	-4.91
227.956	-8.01
228.427	-0.71
228.898	-1.21
229.369	-0.21
229.839	-6.61
230.31	-8.41
230.781	-5.21
231.252	-3.71
231.722	-5.11
232.193	-4.61
232.664	-3.91
233.135	-2.11
233.605	-1.01
234.076	-6.21
234.546	0.29
235.017	1.19
235.487	1.29
235.958	-3.61
236.428	-5.41
236.899	-3.11
237.369	-3.61
237.84	-8.31
238.31	0.59
238.78	-2.61
239.251	-0.71
239.721	0.59
240.191	-1.61
240.662	-2.11
241.132	-4.51
241.602	-2.01
242.072	-1.01
242.542	3.29
243.013	-7.41
243.483	5.29
243.953	-5.41
244.423	-5.21
244.893	-10.91
245.363	-0.61
245.833	-4.31
246.303	-9.31
246.773	2.29
247.243	-5.81
247.712	5.79
248.182	1.69
248.652	4.99
249.122	-6.81
249.592	4.39
250.061	5.09
250.531	9.09
251.001	0.69
251.471	0.29
251.94	6.39
252.41	3.19
252.879	0.29
253.349	11.19
253.818	3.99
254.288	5.29
254.757	2.29
255.227	-2.01
255.696	-6.21
256.166	4.59
256.635	5.39
257.105	0.99
257.574	-2.61
258.043	0.79
258.513	3.99
258.982	1.79
259.451	-0.61
259.92	1.09
260.389	7.59
260.859	8.29
261.328	0.49
261.797	2.49
262.266	1.89
262.735	9.59
263.204	-2.61
263.673	-3.61
264.142	2.09
264.611	-6.11
265.08	-3.11
265.549	-2.01
266.018	9.09
266.487	-2.81
266.955	-3.11
267.424	-0.41
267.893	7.39
268.362	0.29
268.83	-0.01
269.299	1.79
269.768	3.49
270.236	-1.31
270.705	-2.81
271.174	-1.51
271.642	-0.91
272.111	5.29
272.579	-0.81
273.048	2.99
273.516	1.09
273.985	2.19
274.453	7.09
274.922	10.39
275.39	2.99
275.858	-2.41
276.327	7.69
276.795	6.69
277.263	3.89
277.731	14.79
278.2	5.89
278.668	7.29
279.136	8.99
279.604	-0.61
280.072	5.39
280.54	8.99
281.008	4.09
281.477	7.69
281.945	1.29
282.413	5.39
282.881	12.39
283.348	2.29
283.816	8.09
284.284	8.99
284.752	11.19
285.22	5.29
285.688	0.49
286.156	-2.41
286.623	17.69
287.091	10.39
287.559	7.09
288.026	9.39
288.494	15.89
288.962	-1.31
289.429	2.49
289.897	8.89
290.364	7.49
290.832	11.69
291.3	8.09
291.767	6.99
292.234	10.09
292.702	7.39
293.169	7.99
293.637	12.49
294.104	13.59
294.571	1.39
295.039	4.89
295.506	2.39
295.973	9.59
296.44	12.49
296.908	10.89
297.375	9.89
297.842	6.89
298.309	10.49
298.776	5.39
299.243	17.09
299.71	4.49
300.177	11.99
300.644	10.09
301.111	12.69
301.578	10.39
302.045	11.99
302.512	17.89
302.979	12.79
303.446	16.59
303.913	7.49
304.379	10.39
304.846	19.69
305.313	16.79
305.78	19.19
306.246	18.59
306.713	19.29
307.18	14.99
307.646	20.59
308.113	14.79
308.579	21.49
309.046	21.39
309.512	12.19
309.979	11.29
310.445	22.19
310.912	21.69
311.378	22.69
311.845	22.79
312.311	20.29
312.777	21.59
313.244	23.79
313.71	31.79
314.176	21.29
314.642	21.79
315.109	21.29
315.575	26.29
316.041	25.69
316.507	18.89
316.973	27.59
317.439	18.39
317.905	25.89
318.371	28.19
318.837	23.59
319.303	17.39
319.769	24.29
320.235	23.09
320.701	22.89
321.167	26.89
321.633	23.29
322.099	26.99
322.564	33.69
323.03	25.79
323.496	24.89
323.962	23.79
324.427	25.39
324.893	27.99
325.359	25.89
325.824	24.99
326.29	31.39
326.755	26.29
327.221	29.89
327.686	32.89
328.152	36.49
328.617	32.79
329.083	31.59
329.548	40.99
330.014	38.69
330.479	29.99
330.944	31.59
331.41	33.99
331.875	35.59
332.34	27.99
332.805	33.29
333.271	34.69
333.736	27.19
334.201	33.89
334.666	35.69
335.131	38.69
335.596	40.39
336.061	32.39
336.526	29.49
336.991	39.99
337.456	47.49
337.921	45.29
338.386	33.39
338.851	36.49
339.316	37.49
339.781	35.49
340.246	45.49
340.711	33.59
341.175	38.39
341.64	29.29
342.105	44.59
342.569	43.89
343.034	53.49
343.499	45.19
343.963	38.99
344.428	57.49
344.893	46.29
345.357	44.89
345.822	41.59
346.286	50.89
346.751	52.79
347.215	50.99
347.679	54.09
348.144	70.79
348.608	58.59
349.073	53.09
349.537	57.69
350.001	59.29
350.465	66.09
350.93	56.69
351.394	68.09
351.858	55.29
352.322	66.49
352.786	65.39
353.25	78.29
353.715	86.39
354.179	74.39
354.643	96.59
355.107	94.89
355.571	82.39
356.035	81.49
356.498	84.69
356.962	87.29
357.426	94.69
357.89	93.19
358.354	69.69
358.818	71.79
359.281	62.19
359.745	63.89
360.209	64.79
360.673	62.29
361.136	61.59
361.6	62.19
362.064	69.49
362.527	68.59
362.991	74.09
363.454	67.99
363.918	65.59
364.381	65.29
364.845	66.79
365.308	75.89
365.772	74.29
366.235	72.59
366.698	67.19
367.162	74.69
367.625	67.29
368.088	74.59
368.552	68.99
369.015	72.19
369.478	77.29
369.941	86.19
370.404	78.89
370.867	89.39
371.331	89.09
371.794	95.99
372.257	79.59
372.72	87.19
373.183	88.99
373.646	84.39
374.109	89.09
374.572	88.79
375.035	88.79
375.497	85.39
375.96	91.69
376.423	88.19
376.886	100.79
377.349	93.69
377.811	94.69
378.274	92.29
378.737	88.19
379.199	91.39
379.662	95.19
380.125	98.79
380.587	92.69
381.05	99.99
381.512	99.29
381.975	109.69
382.437	104.39
382.9	105.69
383.362	108.19
383.825	114.89
384.287	114.59
384.75	113.59
385.212	113.49
385.674	116.69
386.136	119.39
386.599	107.99
387.061	114.49
387.523	110.79
387.985	110.89
388.447	121.39
388.91	113.89
389.372	112.59
389.834	122.59
390.296	112.99
390.758	117.09
391.22	130.19
391.682	140.99
392.144	151.59
392.606	133.19
393.068	130.99
393.529	137.49
393.991	127.49
394.453	122.69
394.915	124.49
395.377	123.89
395.838	128.29
396.3	123.69
396.762	124.19
397.224	120.09
397.685	116.29
398.147	123.39
398.608	116.59
399.07	122.09
399.531	123.99
399.993	132.59
400.454	146.09
400.916	134.89
401.377	136.99
401.839	139.79
402.3	142.79
402.762	154.49
403.223	160.19
403.684	155.19
404.145	147.69
404.607	148.59
405.068	148.99
405.529	159.99
405.99	169.29
406.451	156.79
406.913	155.49
407.374	154.89
407.835	151.89
408.296	157.59
408.757	162.09
409.218	165.69
409.679	169.99
410.14	159.89
410.601	165.09
411.062	169.79
411.522	170.19
411.983	160.69
412.444	164.59
412.905	172.59
413.366	176.39
413.826	185.89
414.287	202.69
414.748	255.99
415.208	240.19
415.669	201.89
416.13	200.39
416.59	200.29
417.051	205.29
417.511	210.89
417.972	232.89
418.432	237.59
418.893	282.19
419.353	236.99
419.814	194.29
420.274	180.29
420.734	169.69
421.195	186.19
421.655	180.09
422.115	185.49
422.576	187.39
423.036	190.09
423.496	201.49
423.956	209.79
424.416	225.89
424.876	257.99
425.336	244.19
425.797	246.39
426.257	251.69
426.717	235.89
427.177	223.79
427.637	210.29
428.097	221.89
428.556	234.59
429.016	254.79
429.476	251.09
429.936	263.19
430.396	258.59
430.856	274.19
431.315	301.69
431.775	323.29
432.235	357.49
432.694	336.29
433.154	349.89
433.614	375.29
434.073	303.09
434.533	274.39
434.993	256.79
435.452	266.99
435.912	271.89
436.371	267.09
436.83	265.29
437.29	256.39
437.749	239.09
438.209	235.89
438.668	258.19
439.127	270.79
439.587	253.89
440.046	234.19
440.505	242.89
440.964	269.49
441.424	307.19
441.883	293.19
442.342	251.09
442.801	227.19
443.26	222.59
443.719	220.49
444.178	223.29
444.637	208.99
445.096	218.89
445.555	218.29
446.014	222.19
446.473	228.59
446.932	232.79
447.391	224.79
447.849	224.69
448.308	221.69
448.767	224.29
449.226	236.59
449.685	234.79
450.143	249.69
450.602	235.79
451.061	227.09
451.519	236.29
451.978	226.89
452.436	224.59
452.895	240.29
453.353	247.79
453.812	234.39
454.27	235.19
454.729	232.99
455.187	241.49
455.646	240.39
456.104	251.19
456.562	258.59
457.021	258.09
457.479	258.19
457.937	274.39
458.395	263.59
458.854	251.99
459.312	253.49
459.77	275.89
460.228	253.49
460.686	245.99
461.144	253.09
461.602	248.59
462.06	242.99
462.518	257.09
462.976	251.09
463.434	255.79
463.892	257.49
464.35	275.79
464.808	290.99
465.266	267.99
465.724	270.99
466.181	276.59
466.639	272.69
467.097	286.49
467.555	301.69
468.012	292.69
468.47	310.39
468.928	326.69
469.385	340.59
469.843	347.39
470.3	347.79
470.758	360.49
471.215	383.39
471.673	399.89
472.13	402.69
472.588	416.29
473.045	373.89
473.503	385.29
473.96	399.69
474.417	399.09
474.875	431.09
475.332	465.09
475.789	455.89
476.246	475.49
476.704	490.19
477.161	505.99
477.618	513.69
478.075	557.49
478.532	595.49
478.989	674.99
479.446	767.09
479.903	743.19
480.36	781.19
480.817	813.99
481.274	905.49
481.731	986.29
482.188	1069.39
482.645	1188.89
483.102	1269.19
483.558	1387.99
484.015	1432.49
484.472	1408.59
484.929	1379.29
485.385	1332.79
485.842	1292.79
486.299	1244.89
486.755	1197.79
487.212	1027.59
487.668	883.29
488.125	814.89
488.582	747.39
489.038	726.89
489.494	697.89
489.951	664.99
490.407	646.69
490.864	634.39
491.32	632.59
491.776	635.49
492.233	633.29
492.689	605.89
493.145	603.29
493.602	599.99
494.058	610.59
494.514	606.49
494.97	634.39
495.426	651.19
495.882	625.89
496.338	600.59
496.794	615.29
497.251	616.39
497.707	622.39
498.163	618.19
498.618	634.49
499.074	638.59
499.53	663.69
499.986	652.99
500.442	645.69
500.898	626.79
501.354	616.99
501.809	624.49
502.265	626.29
502.721	628.69
503.177	643.99
503.632	642.19
504.088	645.59
504.543	684.19
504.999	690.59
505.455	648.69
505.91	644.79
506.366	640.69
506.821	634.89
507.277	635.49
507.732	638.79
508.187	633.39
508.643	647.89
509.098	642.39
509.553	661.79
510.009	681.29
510.464	669.59
510.919	691.89
511.375	688.49
511.83	721.09
512.285	727.09
512.74	760.19
513.195	779.49
513.65	766.19
514.105	776.29
514.56	779.19
515.015	796.19
515.47	803.99
515.925	791.89
516.38	782.49
516.835	790.19
517.29	776.49
517.745	782.19
518.2	768.89
518.655	759.19
519.109	754.39
519.564	754.49
520.019	734.69
520.474	722.19
520.928	730.69
521.383	723.19
521.838	727.69
522.292	724.19
522.747	714.19
523.201	717.89
523.656	716.89
524.11	703.69
524.565	705.29
525.019	707.59
525.474	706.19
525.928	692.89
526.382	707.49
526.837	708.59
527.291	704.99
527.745	715.29
528.2	711.39
528.654	697.79
529.108	696.09
529.562	690.49
530.016	693.39
530.47	694.29
530.925	694.49
531.379	698.79
531.833	710.99
532.287	698.69
532.741	694.19
533.195	708.49
533.649	719.99
534.103	722.19
534.556	703.59
535.01	725.39
535.464	713.79
535.918	722.79
536.372	721.99
536.826	731.39
537.279	709.99
537.733	717.79
538.187	724.59
538.64	718.99
539.094	730.59
539.548	735.29
540.001	726.59
540.455	730.99
540.908	743.49
541.362	749.69
541.815	758.89
542.269	764.09
542.722	766.29
543.175	777.59
543.629	776.59
544.082	802.99
544.536	796.19
544.989	791.39
545.442	808.29
545.895	803.09
546.349	816.09
546.802	803.59
547.255	813.39
547.708	816.39
548.161	824.89
548.614	837.29
549.067	844.49
549.52	828.49
549.973	824.59
550.426	823.39
550.879	811.79
551.332	821.59
551.785	830.29
552.238	821.29
552.691	839.89
553.144	850.59
553.596	854.89
554.049	878.69
554.502	904.49
554.955	922.19
555.407	926.99
555.86	914.19
556.313	909.49
556.765	883.39
557.218	897.49
557.67	893.29
558.123	893.19
558.576	893.09
559.028	888.79
559.48	900.39
559.933	895.79
560.385	856.89
560.838	832.09
561.29	804.79
561.742	800.49
562.195	785.59
562.647	780.89
563.099	797.39
563.551	791.59
564.004	797.59
564.456	778.89
564.908	776.29
565.36	757.79
565.812	748.99
566.264	738.39
566.716	739.49
567.168	717.79
567.62	717.29
568.072	710.29
568.524	705.59
568.976	698.69
569.428	687.79
569.88	699.29
570.332	702.19
570.784	714.49
571.235	703.19
571.687	709.79
572.139	720.89
572.59	731.39
573.042	727.29
573.494	729.09
573.945	713.59
574.397	705.39
574.849	714.59
575.3	704.69
575.752	690.39
576.203	692.99
576.655	703.69
577.106	684.29
577.557	686.89
578.009	688.49
578.46	677.89
578.912	684.19
579.363	670.69
579.814	679.39
580.265	678.99
580.717	686.39
581.168	690.19
581.619	699.99
582.07	705.49
582.521	694.59
582.972	676.99
583.423	699.79
583.875	689.69
584.326	704.29
584.777	716.09
585.227	757.19
585.678	766.89
586.129	799.59
586.58	828.59
587.031	846.99
587.482	888.19
587.933	945.09
588.384	896.99
588.834	814.29
589.285	792.59
589.736	789.49
590.186	788.89
590.637	779.49
591.088	759.19
591.538	750.89
591.989	750.39
592.439	740.89
592.89	740.09
593.34	731.89
593.791	719.89
594.241	731.19
594.692	719.39
595.142	714.29
595.593	707.59
596.043	715.39
596.493	727.79
596.943	721.79
597.394	736.29
597.844	733.89
598.294	745.09
598.744	779.99
599.195	801.69
599.645	846.69
600.095	895.39
600.545	949.29
600.995	1005.69
601.445	1064.59
601.895	1118.89
602.345	1170.29
602.795	1146.39
603.245	1103.09
603.695	1042.79
604.145	995.99
604.594	930.39
605.044	892.79
605.494	825.09
605.944	780.29
606.393	765.29
606.843	750.99
607.293	750.49
607.743	742.19
608.192	757.39
608.642	766.59
609.091	779.59
609.541	789.09
609.99	781.49
610.44	776.79
610.889	740.49
611.339	717.39
611.788	695.69
612.238	710.99
612.687	720.79
613.136	717.19
613.586	729.79
614.035	716.79
614.484	740.39
614.933	736.49
615.383	724.19
615.832	722.89
616.281	728.39
616.73	684.79
617.179	679.09
617.628	654.29
618.077	649.39
618.526	643.09
618.975	631.59
619.424	642.49
619.873	633.99
620.322	642.09
620.771	623.59
621.22	615.09
621.669	600.89
622.118	610.79
622.567	597.59
623.015	587.49
623.464	580.89
623.913	579.49
624.361	562.79
624.81	558.49
625.259	565.29
625.707	568.59
626.156	577.59
626.604	594.49
627.053	589.69
627.501	578.79
627.95	575.89
628.398	601.69
628.847	590.89
629.295	584.39
629.744	604.29
630.192	593.69
630.64	583.59
631.089	563.89
631.537	556.19
631.985	550.69
632.433	553.99
632.881	552.09
633.33	562.19
633.778	545.39
634.226	552.29
634.674	558.89
635.122	561.59
635.57	582.09
636.018	579.39
636.466	578.19
636.914	572.79
637.362	589.49
637.81	595.19
638.258	603.79
638.705	593.39
639.153	625.89
639.601	646.79
640.049	668.19
640.497	703.89
640.944	724.79
641.392	662.79
641.84	625.49
642.287	600.69
642.735	579.79
643.182	581.69
643.63	581.29
644.078	578.39
644.525	589.69
644.973	596.79
645.42	616.59
645.867	630.29
646.315	645.69
646.762	668.69
647.21	701.99
647.657	714.09
648.104	749.39
648.551	777.79
648.999	830.89
649.446	914.79
649.893	1004.49
650.34	1130.79
650.787	1362.19
651.234	1679.69
651.682	2172.99
652.129	2941.69
652.576	4197.69
653.023	6134.89
653.47	8261.19
653.917	10194.19
654.363	11685.09
654.81	12769.39
655.257	12114.69
655.704	8038.79
656.151	4828.59
656.598	3170.89
657.044	2277.59
657.491	1770.39
657.938	1421.79
658.385	1211.29
658.831	1050.29
659.278	939.29
659.724	848.29
660.171	790.19
660.618	725.89
661.064	690.49
661.511	670.59
661.957	656.89
662.404	646.69
662.85	666.89
663.296	633.29
663.743	573.79
664.189	553.69
664.635	545.79
665.082	549.29
665.528	539.19
665.974	526.19
666.42	519.99
666.867	535.79
667.313	508.99
667.759	485.49
668.205	461.39
668.651	473.79
669.097	462.79
669.543	455.69
669.989	458.89
670.435	467.89
670.881	464.79
671.327	470.09
671.773	491.09
672.219	509.49
672.665	579.19
673.11	608.99
673.556	661.99
674.002	696.19
674.448	687.39
674.893	583.79
675.339	501.39
675.785	460.09
676.23	440.09
676.676	402.49
677.122	396.09
677.567	396.89
678.013	387.99
678.458	381.69
678.904	384.19
679.349	367.79
679.794	368.69
680.24	361.79
680.685	363.79
681.131	361.79
681.576	367.69
682.021	375.19
682.466	362.59
682.912	361.89
683.357	379.99
683.802	401.69
684.247	432.69
684.692	481.29
685.137	517.59
685.583	564.39
686.028	588.99
686.473	543.69
686.918	467.99
687.363	434.39
687.807	410.59
688.252	379.49
688.697	371.79
689.142	348.39
689.587	348.29
690.032	348.59
690.477	360.29
690.921	375.79
691.366	405.89
691.811	428.69
692.255	448.29
692.7	490.79
693.145	539.89
693.589	761.99
694.034	1241.89
694.478	1656.29
694.923	1830.19
695.367	2343.19
695.812	1258.39
696.256	530.49
696.701	389.99
697.145	358.29
697.59	341.49
698.034	339.89
698.478	338.99
698.922	340.89
699.367	342.49
699.811	347.09
700.255	366.69
700.699	404.59
701.143	447.99
701.588	500.19
702.032	539.69
702.476	547.69
702.92	514.69
703.364	526.99
703.808	712.39
704.252	1139.39
704.696	1567.09
705.14	1759.09
705.584	2237.09
706.027	1137.99
706.471	547.99
706.915	427.59
707.359	373.49
707.803	338.29
708.246	325.79
708.69	325.79
709.134	328.89
709.577	326.09
710.021	329.99
710.465	329.39
710.908	312.69
711.352	317.19
711.795	323.19
712.239	380.69
712.682	410.39
713.126	430.69
713.569	482.19
714.012	373.59
714.456	316.69
714.899	306.39
715.342	284.29
715.786	269.19
716.229	269.69
716.672	263.69
717.115	257.69
717.558	262.59
718.002	266.09
718.445	278.59
718.888	299.29
719.331	308.29
719.774	324.99
720.217	320.69
720.66	309.19
721.103	279.89
721.546	268.79
721.989	263.49
722.432	245.29
722.874	248.59
723.317	248.29
723.76	244.49
724.203	271.19
724.645	344.49
725.088	482.19
725.531	605.69
725.974	674.39
726.416	585.79
726.859	320.39
727.301	262.59
727.744	249.59
728.187	241.89
728.629	253.99
729.071	255.39
729.514	271.09
729.956	291.59
730.399	300.59
730.841	307.59
731.283	291.39
731.726	279.69
732.168	274.09
732.61	281.09
733.053	297.09
733.495	341.39
733.937	369.59
734.379	428.99
734.821	475.09
735.263	594.09
735.705	927.29
736.148	1754.59
736.59	2812.09
737.032	3179.19
737.474	2616.99
737.916	861.29
738.357	449.39
738.799	339.69
739.241	308.49
739.683	301.19
740.125	314.59
740.567	318.39
741.008	336.79
741.45	333.59
741.892	341.89
742.334	374.49
742.775	387.29
743.217	367.49
743.658	287.99
744.1	271.59
744.542	285.79
744.983	332.79
745.425	364.09
745.866	366.79
746.307	286.69
746.749	298.89
747.19	346.99
747.632	506.69
748.073	994.09
748.514	2063.29
748.956	3051.29
749.397	3842.39
749.838	3183.09
750.279	3100.59
750.72	1582.29
751.162	594.09
751.603	341.29
752.044	272.09
752.485	229.39
752.926	227.69
753.367	213.29
753.808	201.99
754.249	205.09
754.69	196.19
755.131	191.59
755.572	190.19
756.013	187.39
756.453	195.29
756.894	202.69
757.335	202.89
757.776	210.39
758.216	208.79
758.657	209.09
759.098	217.09
759.538	243.59
759.979	293.99
760.42	407.89
760.86	789.99
761.301	2080.29
761.741	4878.29
762.182	6702.09
762.622	4721.69
763.063	1396.79
763.503	566.09
763.943	342.89
764.384	300.79
