Data from 20171114-ORNL-Ar_H_NY_Subt18_08-08-56-390.txt Node
Date: Tue Nov 14 08:08:56 EST 2017
User: Ender
Spectrometer: HR+D1039
Trigger mode: 0
Integration Time (sec): 2.730000E-2
Scans to average: 10
Electric dark correction enabled: true
Nonlinearity correction enabled: false
Boxcar width: 0
XAxis mode: Wavelengths
Number of Pixels in Spectrum: 2048
>>>>>Begin Spectral Data<<<<<
187.836	-9.56
188.309	-9.56
188.782	-9.56
189.255	-1.76
189.728	-4.06
190.201	7.74
190.674	2.04
191.147	-0.36
191.619	-3.26
192.092	3.64
192.565	5.04
193.038	-6.36
193.511	7.64
193.984	2.94
194.456	-0.46
194.929	-1.76
195.402	-2.66
195.874	1.14
196.347	2.94
196.82	-1.56
197.292	-0.96
197.765	-3.76
198.237	-6.06
198.71	-0.36
199.182	-4.66
199.655	4.04
200.127	4.44
200.6	-1.66
201.072	0.44
201.544	-8.76
202.017	-4.86
202.489	1.04
202.961	-0.36
203.433	1.14
203.906	-6.36
204.378	-7.56
204.85	-6.26
205.322	-6.66
205.794	-2.06
206.266	-2.16
206.739	-9.66
207.211	3.94
207.683	-3.46
208.155	-9.06
208.627	-7.66
209.099	-3.76
209.57	-5.06
210.042	-8.06
210.514	-0.36
210.986	-1.16
211.458	-3.96
211.93	-2.76
212.402	1.14
212.873	-9.66
213.345	-10.16
213.817	-8.06
214.288	-3.36
214.76	-15.06
215.232	-7.16
215.703	-2.96
216.175	-2.66
216.646	-3.46
217.118	-8.36
217.589	-2.56
218.061	-1.46
218.532	-9.66
219.004	-2.76
219.475	-8.96
219.946	-5.66
220.418	-3.06
220.889	-2.56
221.36	-3.66
221.832	-3.16
222.303	-9.26
222.774	-2.36
223.245	-7.76
223.717	-8.66
224.188	-3.36
224.659	-8.56
225.13	-6.06
225.601	-0.06
226.072	-3.86
226.543	-0.26
227.014	-3.36
227.485	1.34
227.956	-3.96
228.427	-1.56
228.898	-4.76
229.369	1.94
229.839	-9.26
230.31	-6.56
230.781	1.84
231.252	-7.76
231.722	-2.66
232.193	-8.86
232.664	-2.66
233.135	-6.06
233.605	-1.76
234.076	-8.16
234.546	-8.66
235.017	2.54
235.487	-4.96
235.958	-2.86
236.428	-3.86
236.899	-4.86
237.369	0.54
237.84	-6.36
238.31	2.34
238.78	-3.76
239.251	-8.56
239.721	-6.86
240.191	-3.86
240.662	-9.96
241.132	-0.46
241.602	-11.16
242.072	2.94
242.542	7.14
243.013	-7.46
243.483	4.84
243.953	1.34
244.423	0.74
244.893	-7.06
245.363	-0.86
245.833	0.54
246.303	-6.16
246.773	3.74
247.243	-6.86
247.712	-4.46
248.182	1.64
248.652	4.64
249.122	-9.26
249.592	4.04
250.061	-3.66
250.531	10.44
251.001	-4.56
251.471	-1.36
251.94	8.24
252.41	-2.36
252.879	-2.06
253.349	3.24
253.818	6.54
254.288	-3.66
254.757	3.34
255.227	0.84
255.696	-2.66
256.166	4.14
256.635	-3.06
257.105	7.24
257.574	-6.16
258.043	4.04
258.513	-3.96
258.982	0.44
259.451	-2.96
259.92	2.74
260.389	0.94
260.859	6.94
261.328	4.44
261.797	3.84
262.266	1.94
262.735	2.64
263.204	-2.16
263.673	-4.16
264.142	-5.96
264.611	-8.36
265.08	-4.76
265.549	-1.26
266.018	-4.16
266.487	-3.86
266.955	-6.76
267.424	-3.26
267.893	1.54
268.362	-0.26
268.83	3.84
269.299	0.24
269.768	5.84
270.236	0.14
270.705	-4.06
271.174	-4.56
271.642	-1.76
272.111	-0.36
272.579	6.44
273.048	3.04
273.516	1.94
273.985	2.14
274.453	6.34
274.922	8.44
275.39	-3.66
275.858	-6.66
276.327	5.54
276.795	12.94
277.263	0.84
277.731	13.54
278.2	17.64
278.668	5.74
279.136	11.14
279.604	3.64
280.072	8.44
280.54	7.64
281.008	6.64
281.477	10.84
281.945	-1.16
282.413	8.54
282.881	3.94
283.348	5.74
283.816	7.54
284.284	16.64
284.752	13.24
285.22	7.64
285.688	16.24
286.156	1.64
286.623	19.04
287.091	13.44
287.559	14.74
288.026	8.34
288.494	13.64
288.962	-5.06
289.429	4.94
289.897	15.54
290.364	8.64
290.832	12.04
291.3	8.94
291.767	11.74
292.234	5.84
292.702	10.94
293.169	13.34
293.637	17.54
294.104	9.94
294.571	2.94
295.039	7.34
295.506	7.44
295.973	10.94
296.44	3.44
296.908	9.04
297.375	9.04
297.842	11.44
298.309	13.74
298.776	6.04
299.243	12.34
299.71	6.34
300.177	14.84
300.644	6.74
301.111	11.04
301.578	10.64
302.045	5.34
302.512	14.94
302.979	13.34
303.446	17.24
303.913	14.04
304.379	12.24
304.846	18.54
305.313	17.14
305.78	17.04
306.246	20.24
306.713	19.14
307.18	22.14
307.646	23.54
308.113	14.64
308.579	10.44
309.046	15.84
309.512	23.14
309.979	6.74
310.445	25.04
310.912	20.74
311.378	21.84
311.845	21.24
312.311	21.14
312.777	28.24
313.244	20.54
313.71	28.54
314.176	26.04
314.642	24.54
315.109	22.04
315.575	31.54
316.041	22.44
316.507	21.14
316.973	28.64
317.439	19.94
317.905	25.44
318.371	28.54
318.837	25.84
319.303	20.34
319.769	25.24
320.235	26.54
320.701	19.84
321.167	28.34
321.633	19.24
322.099	31.64
322.564	32.74
323.03	35.24
323.496	28.64
323.962	34.64
324.427	24.64
324.893	33.74
325.359	29.44
325.824	32.24
326.29	28.64
326.755	28.44
327.221	32.24
327.686	27.04
328.152	40.04
328.617	28.94
329.083	34.74
329.548	42.44
330.014	39.04
330.479	30.44
330.944	36.64
331.41	33.94
331.875	36.14
332.34	36.74
332.805	34.64
333.271	32.94
333.736	31.64
334.201	38.24
334.666	45.34
335.131	39.24
335.596	41.04
336.061	44.04
336.526	32.64
336.991	47.84
337.456	46.04
337.921	46.04
338.386	33.94
338.851	41.84
339.316	41.84
339.781	39.44
340.246	40.94
340.711	36.44
341.175	45.74
341.64	34.34
342.105	42.44
342.569	40.74
343.034	43.74
343.499	46.44
343.963	44.74
344.428	56.74
344.893	52.94
345.357	51.84
345.822	52.74
346.286	62.54
346.751	58.24
347.215	56.14
347.679	57.24
348.144	83.04
348.608	70.44
349.073	55.44
349.537	67.24
350.001	65.64
350.465	75.34
350.93	61.14
351.394	70.54
351.858	52.04
352.322	73.84
352.786	70.44
353.25	85.04
353.715	93.14
354.179	81.84
354.643	102.54
355.107	101.34
355.571	90.54
356.035	75.84
356.498	93.14
356.962	97.24
357.426	110.24
357.89	91.24
358.354	80.74
358.818	71.44
359.281	71.74
359.745	65.34
360.209	68.54
360.673	67.94
361.136	69.44
361.6	73.34
362.064	69.84
362.527	75.34
362.991	87.94
363.454	69.54
363.918	72.14
364.381	64.84
364.845	72.94
365.308	71.44
365.772	77.94
366.235	75.54
366.698	71.74
367.162	74.54
367.625	71.64
368.088	77.14
368.552	79.54
369.015	74.34
369.478	81.74
369.941	89.74
370.404	81.94
370.867	87.04
371.331	87.14
371.794	95.24
372.257	91.24
372.72	96.24
373.183	91.64
373.646	86.94
374.109	94.14
374.572	95.64
375.035	96.54
375.497	95.24
375.96	92.44
376.423	98.94
376.886	99.24
377.349	103.44
377.811	98.34
378.274	93.74
378.737	89.84
379.199	99.14
379.662	99.34
380.125	96.54
380.587	94.84
381.05	100.94
381.512	104.34
381.975	114.14
382.437	123.44
382.9	109.74
383.362	115.74
383.825	121.84
384.287	115.04
384.75	117.44
385.212	121.64
385.674	127.84
386.136	125.74
386.599	120.54
387.061	121.84
387.523	113.14
387.985	124.44
388.447	129.84
388.91	120.34
389.372	122.24
389.834	127.94
390.296	118.94
390.758	127.84
391.22	134.74
391.682	143.04
392.144	169.44
392.606	147.84
393.068	141.04
393.529	150.94
393.991	141.34
394.453	132.04
394.915	135.04
395.377	134.24
395.838	143.14
396.3	134.14
396.762	136.54
397.224	133.74
397.685	121.54
398.147	125.84
398.608	122.84
399.07	123.24
399.531	134.54
399.993	133.84
400.454	143.84
400.916	143.34
401.377	139.84
401.839	141.24
402.3	149.64
402.762	160.04
403.223	176.74
403.684	160.44
404.145	155.64
404.607	160.44
405.068	159.14
405.529	170.54
405.99	176.24
406.451	170.24
406.913	170.44
407.374	159.14
407.835	153.84
408.296	160.54
408.757	171.74
409.218	173.54
409.679	176.14
410.14	170.84
410.601	178.44
411.062	177.64
411.522	173.34
411.983	180.44
412.444	174.24
412.905	182.54
413.366	181.94
413.826	191.64
414.287	211.94
414.748	259.84
415.208	240.94
415.669	218.74
416.13	213.64
416.59	208.34
417.051	217.14
417.511	226.64
417.972	240.24
418.432	242.94
418.893	293.54
419.353	255.84
419.814	212.44
420.274	187.14
420.734	184.04
421.195	198.04
421.655	187.14
422.115	194.54
422.576	199.44
423.036	205.64
423.496	215.64
423.956	219.94
424.416	236.94
424.876	269.34
425.336	258.24
425.797	260.94
426.257	261.14
426.717	239.64
427.177	232.34
427.637	214.04
428.097	233.14
428.556	243.34
429.016	269.34
429.476	255.84
429.936	275.54
430.396	265.14
430.856	287.44
431.315	311.04
431.775	338.84
432.235	373.04
432.694	348.24
433.154	353.14
433.614	378.54
434.073	328.94
434.533	282.24
434.993	262.24
435.452	279.04
435.912	287.74
436.371	285.54
436.83	278.24
437.29	263.34
437.749	245.54
438.209	242.54
438.668	270.34
439.127	282.84
439.587	260.04
440.046	253.04
440.505	262.04
440.964	279.74
441.424	314.14
441.883	305.94
442.342	261.94
442.801	233.64
443.26	235.14
443.719	223.94
444.178	229.34
444.637	221.94
445.096	224.74
445.555	234.74
446.014	227.04
446.473	231.64
446.932	235.84
447.391	234.14
447.849	233.14
448.308	223.64
448.767	229.34
449.226	245.14
449.685	246.14
450.143	252.04
450.602	253.04
451.061	237.54
451.519	235.54
451.978	242.64
452.436	244.44
452.895	248.04
453.353	262.84
453.812	245.74
454.27	246.44
454.729	248.64
455.187	252.94
455.646	248.64
456.104	259.64
456.562	267.54
457.021	278.24
457.479	264.04
457.937	274.24
458.395	268.64
458.854	257.54
459.312	264.44
459.77	277.64
460.228	266.94
460.686	249.74
461.144	252.14
461.602	253.44
462.06	252.34
462.518	265.94
462.976	262.34
463.434	267.94
463.892	276.84
464.35	283.14
464.808	296.84
465.266	278.64
465.724	274.44
466.181	280.34
466.639	279.14
467.097	297.14
467.555	312.14
468.012	310.04
468.47	317.14
468.928	338.54
469.385	352.74
469.843	362.74
470.3	365.04
470.758	364.44
471.215	392.34
471.673	415.44
472.13	417.34
472.588	435.64
473.045	391.04
473.503	393.14
473.96	408.54
474.417	412.14
474.875	447.44
475.332	494.44
475.789	487.74
476.246	480.04
476.704	493.04
477.161	520.14
477.618	536.84
478.075	561.44
478.532	620.54
478.989	695.54
479.446	798.04
479.903	767.14
480.36	789.74
480.817	853.54
481.274	951.24
481.731	1038.54
482.188	1110.24
482.645	1244.34
483.102	1313.34
483.558	1442.84
484.015	1485.74
484.472	1447.64
484.929	1429.64
485.385	1378.44
485.842	1358.64
486.299	1294.34
486.755	1251.34
487.212	1065.14
487.668	908.14
488.125	851.94
488.582	780.24
489.038	749.94
489.494	715.44
489.951	691.64
490.407	679.84
490.864	657.44
491.32	655.64
491.776	655.94
492.233	668.64
492.689	628.34
493.145	624.54
493.602	612.14
494.058	627.54
494.514	639.04
494.97	653.24
495.426	656.14
495.882	647.64
496.338	632.94
496.794	644.94
497.251	626.84
497.707	652.04
498.163	657.34
498.618	652.14
499.074	659.54
499.53	676.24
499.986	692.24
500.442	669.94
500.898	635.04
501.354	633.64
501.809	647.14
502.265	647.14
502.721	659.74
503.177	670.34
503.632	675.94
504.088	670.34
504.543	693.04
504.999	713.44
505.455	675.84
505.91	656.04
506.366	650.44
506.821	659.34
507.277	667.84
507.732	654.34
508.187	655.84
508.643	661.04
509.098	657.64
509.553	671.24
510.009	695.94
510.464	696.34
510.919	716.74
511.375	722.14
511.83	731.44
512.285	746.24
512.74	780.34
513.195	806.24
513.65	799.14
514.105	792.44
514.56	801.04
515.015	812.64
515.47	832.84
515.925	810.14
516.38	806.14
516.835	814.74
517.29	798.14
517.745	797.94
518.2	791.84
518.655	780.94
519.109	764.14
519.564	777.64
520.019	751.34
520.474	754.54
520.928	749.64
521.383	745.84
521.838	739.84
522.292	741.74
522.747	728.44
523.201	721.34
523.656	729.74
524.11	719.14
524.565	720.44
525.019	724.64
525.474	726.64
525.928	720.44
526.382	720.74
526.837	724.64
527.291	731.04
527.745	727.24
528.2	726.54
528.654	721.44
529.108	724.34
529.562	715.44
530.016	712.24
530.47	722.64
530.925	715.24
531.379	722.94
531.833	732.44
532.287	730.74
532.741	727.44
533.195	727.34
533.649	730.84
534.103	740.34
534.556	726.34
535.01	734.84
535.464	733.04
535.918	738.44
536.372	748.34
536.826	745.44
537.279	736.04
537.733	742.34
538.187	736.24
538.64	736.14
539.094	753.64
539.548	749.14
540.001	755.94
540.455	743.54
540.908	770.04
541.362	773.54
541.815	786.54
542.269	792.34
542.722	795.54
543.175	802.34
543.629	808.94
544.082	824.54
544.536	830.34
544.989	813.94
545.442	835.14
545.895	826.24
546.349	824.34
546.802	822.04
547.255	831.54
547.708	834.64
548.161	866.64
548.614	852.64
549.067	868.34
549.52	853.74
549.973	845.84
550.426	853.04
550.879	834.54
551.332	839.84
551.785	839.04
552.238	854.34
552.691	855.54
553.144	872.34
553.596	891.84
554.049	908.14
554.502	942.44
554.955	946.74
555.407	953.44
555.86	939.74
556.313	931.94
556.765	922.74
557.218	925.14
557.67	904.14
558.123	907.74
558.576	915.84
559.028	911.54
559.48	923.64
559.933	909.04
560.385	874.34
560.838	842.34
561.29	827.94
561.742	829.04
562.195	803.04
562.647	805.64
563.099	819.34
563.551	805.34
564.004	816.54
564.456	812.94
564.908	797.54
565.36	782.44
565.812	764.24
566.264	752.24
566.716	749.94
567.168	737.24
567.62	748.44
568.072	727.34
568.524	733.84
568.976	724.44
569.428	712.34
569.88	710.34
570.332	720.64
570.784	731.04
571.235	728.14
571.687	731.34
572.139	738.24
572.59	750.74
573.042	750.34
573.494	752.04
573.945	738.14
574.397	724.64
574.849	723.74
575.3	725.84
575.752	710.14
576.203	711.54
576.655	734.34
577.106	713.84
577.557	711.14
578.009	698.04
578.46	706.84
578.912	693.74
579.363	695.04
579.814	694.04
580.265	689.64
580.717	703.44
581.168	697.24
581.619	724.34
582.07	710.64
582.521	706.74
582.972	695.34
583.423	710.74
583.875	707.24
584.326	715.64
584.777	735.64
585.227	769.54
585.678	808.64
586.129	829.44
586.58	863.84
587.031	895.74
587.482	953.34
587.933	1010.04
588.384	966.14
588.834	859.24
589.285	814.74
589.736	815.84
590.186	808.44
590.637	806.64
591.088	781.64
591.538	783.64
591.989	769.04
592.439	757.74
592.89	751.84
593.34	740.14
593.791	750.74
594.241	730.04
594.692	743.44
595.142	727.14
595.593	728.94
596.043	736.74
596.493	741.34
596.943	744.34
597.394	754.64
597.844	752.74
598.294	769.14
598.744	801.74
599.195	817.34
599.645	882.54
600.095	903.84
600.545	987.54
600.995	1024.34
601.445	1083.14
601.895	1157.64
602.345	1199.84
602.795	1189.34
603.245	1124.64
603.695	1063.24
604.145	1012.04
604.594	956.24
605.044	916.34
605.494	843.14
605.944	794.34
606.393	773.84
606.843	754.74
607.293	762.94
607.743	773.74
608.192	785.14
608.642	787.34
609.091	801.94
609.541	804.84
609.99	805.94
610.44	787.24
610.889	762.84
611.339	727.24
611.788	721.34
612.238	727.14
612.687	742.34
613.136	737.54
613.586	753.64
614.035	734.24
614.484	757.14
614.933	757.94
615.383	751.04
615.832	755.64
616.281	739.24
616.73	712.04
617.179	691.44
617.628	675.04
618.077	661.74
618.526	649.74
618.975	643.04
619.424	649.34
619.873	651.84
620.322	644.94
620.771	637.84
621.22	628.44
621.669	624.94
622.118	617.84
622.567	611.24
623.015	594.74
623.464	597.64
623.913	594.84
624.361	581.34
624.81	569.84
625.259	580.44
625.707	591.54
626.156	580.44
626.604	595.34
627.053	603.14
627.501	598.14
627.95	599.34
628.398	603.04
628.847	600.84
629.295	606.54
629.744	615.84
630.192	597.04
630.64	594.94
631.089	577.54
631.537	571.74
631.985	568.24
632.433	570.64
632.881	573.04
633.33	590.64
633.778	575.14
634.226	565.74
634.674	576.54
635.122	578.84
635.57	586.84
636.018	595.64
636.466	587.94
636.914	582.44
637.362	608.54
637.81	598.84
638.258	613.44
638.705	614.64
639.153	648.04
639.601	664.64
640.049	684.24
640.497	704.74
640.944	729.64
641.392	677.54
641.84	634.44
642.287	615.14
642.735	587.14
643.182	605.94
643.63	593.54
644.078	599.14
644.525	612.74
644.973	632.64
645.42	622.24
645.867	654.94
646.315	661.14
646.762	693.34
647.21	720.14
647.657	732.74
648.104	774.14
648.551	795.74
648.999	860.74
649.446	928.14
649.893	1020.64
650.34	1179.54
650.787	1401.74
651.234	1736.04
651.682	2238.64
652.129	3048.94
652.576	4321.54
653.023	6320.94
653.47	8497.34
653.917	10527.74
654.363	12046.14
654.81	13163.04
655.257	12478.84
655.704	8312.94
656.151	4995.94
656.598	3274.84
657.044	2335.24
657.491	1820.74
657.938	1482.94
658.385	1243.24
658.831	1095.14
659.278	985.14
659.724	867.74
660.171	804.14
660.618	735.94
661.064	710.34
661.511	692.44
661.957	669.14
662.404	662.84
662.85	666.04
663.296	641.14
663.743	583.24
664.189	567.94
664.635	562.84
665.082	567.54
665.528	556.24
665.974	544.54
666.42	540.64
666.867	534.04
667.313	512.04
667.759	492.64
668.205	472.74
668.651	485.84
669.097	484.64
669.543	482.04
669.989	479.44
670.435	474.34
670.881	473.94
671.327	479.14
671.773	497.94
672.219	534.24
672.665	592.14
673.11	634.44
673.556	670.84
674.002	717.44
674.448	696.94
674.893	582.94
675.339	510.94
675.785	481.14
676.23	448.34
676.676	420.34
677.122	408.84
677.567	398.44
678.013	390.14
678.458	383.44
678.904	385.54
679.349	378.54
679.794	376.54
680.24	374.54
680.685	375.64
681.131	374.24
681.576	368.64
682.021	376.54
682.466	381.44
682.912	375.24
683.357	384.44
683.802	409.04
684.247	444.74
684.692	476.64
685.137	530.94
685.583	581.74
686.028	601.64
686.473	545.24
686.918	478.14
687.363	441.84
687.807	416.94
688.252	400.14
688.697	382.04
689.142	369.14
689.587	352.54
690.032	345.84
690.477	372.54
690.921	382.64
691.366	407.84
691.811	422.44
692.255	454.94
692.7	498.54
693.145	545.14
693.589	769.54
694.034	1256.34
694.478	1678.34
694.923	1852.74
695.367	2397.44
695.812	1280.04
696.256	545.14
696.701	401.24
697.145	364.94
697.59	341.94
698.034	339.74
698.478	340.84
698.922	339.24
699.367	342.74
699.811	360.64
700.255	376.34
700.699	407.24
701.143	453.94
701.588	505.74
702.032	545.74
702.476	549.34
702.92	529.04
703.364	549.44
703.808	702.04
704.252	1159.34
704.696	1598.24
705.14	1791.54
705.584	2263.24
706.027	1145.64
706.471	560.54
706.915	438.64
707.359	378.34
707.803	339.54
708.246	336.14
708.69	326.54
709.134	327.44
709.577	333.94
710.021	339.44
710.465	323.44
710.908	321.54
711.352	326.24
711.795	341.64
712.239	380.94
712.682	415.54
713.126	450.74
713.569	485.44
714.012	383.14
714.456	322.44
714.899	304.74
715.342	298.14
715.786	284.44
716.229	277.54
716.672	271.74
717.115	270.94
717.558	269.54
718.002	276.84
718.445	280.24
718.888	306.34
719.331	317.34
719.774	325.24
720.217	325.84
720.66	305.14
721.103	289.44
721.546	271.94
721.989	268.14
722.432	255.14
722.874	255.34
723.317	249.44
723.76	253.44
724.203	273.14
724.645	348.14
725.088	489.84
725.531	617.54
725.974	683.64
726.416	595.94
726.859	330.44
727.301	268.54
727.744	250.14
728.187	256.44
728.629	256.34
729.071	264.94
729.514	277.94
729.956	294.34
730.399	307.64
730.841	311.14
731.283	293.44
731.726	282.34
732.168	286.84
732.61	288.94
733.053	310.74
733.495	348.74
733.937	387.24
734.379	425.14
734.821	480.24
735.263	606.44
735.705	942.84
736.148	1786.14
736.59	2827.54
737.032	3270.14
737.474	2673.34
737.916	884.44
738.357	465.54
738.799	360.94
739.241	323.34
739.683	312.24
740.125	319.74
740.567	319.94
741.008	347.84
741.45	328.44
741.892	345.34
742.334	380.74
742.775	395.64
743.217	374.24
743.658	289.34
744.1	279.64
744.542	282.44
744.983	348.14
745.425	371.14
745.866	372.34
746.307	295.34
746.749	308.84
747.19	359.24
747.632	514.04
748.073	1006.34
748.514	2101.44
748.956	3112.44
749.397	3919.84
749.838	3229.44
750.279	3151.04
750.72	1623.04
751.162	597.04
751.603	350.24
752.044	273.94
752.485	231.54
752.926	229.94
753.367	209.64
753.808	214.64
754.249	207.84
754.69	198.24
755.131	196.14
755.572	200.74
756.013	201.84
756.453	195.14
756.894	203.24
757.335	201.44
757.776	212.14
758.216	210.34
758.657	213.74
759.098	217.14
759.538	247.94
759.979	296.04
760.42	418.04
760.86	812.24
761.301	2098.14
761.741	4942.14
762.182	6838.54
762.622	4853.84
763.063	1418.84
763.503	585.54
