Data from 20171114-ORNL-Ar_H_NY_Subt18_08-07-24-337.txt Node
Date: Tue Nov 14 08:07:24 EST 2017
User: Ender
Spectrometer: HR+D1039
Trigger mode: 0
Integration Time (sec): 2.730000E-2
Scans to average: 10
Electric dark correction enabled: true
Nonlinearity correction enabled: false
Boxcar width: 0
XAxis mode: Wavelengths
Number of Pixels in Spectrum: 2048
>>>>>Begin Spectral Data<<<<<
187.836	-4.65
188.309	-4.65
188.782	-4.65
189.255	-0.05
189.728	4.25
190.201	0.95
190.674	-3.45
191.147	-0.65
191.619	-5.05
192.092	0.05
192.565	10.35
193.038	2.15
193.511	2.35
193.984	1.15
194.456	-1.25
194.929	-2.25
195.402	-0.85
195.874	-3.05
196.347	-1.85
196.82	-3.35
197.292	8.55
197.765	1.15
198.237	-5.85
198.71	-2.45
199.182	-3.75
199.655	3.15
200.127	-0.45
200.6	-2.35
201.072	-2.45
201.544	-4.15
202.017	-5.35
202.489	4.75
202.961	-6.75
203.433	-1.55
203.906	-6.85
204.378	-6.55
204.85	-4.85
205.322	-9.55
205.794	-0.65
206.266	-5.85
206.739	-6.05
207.211	-3.75
207.683	-4.95
208.155	-0.55
208.627	-6.05
209.099	-6.45
209.57	-12.65
210.042	1.25
210.514	0.15
210.986	-1.95
211.458	-7.35
211.93	-4.85
212.402	4.05
212.873	-7.15
213.345	-10.75
213.817	-10.95
214.288	-1.35
214.76	-10.25
215.232	-3.25
215.703	-1.05
216.175	-0.95
216.646	-1.85
217.118	-7.55
217.589	-9.75
218.061	-3.25
218.532	-8.45
219.004	-8.45
219.475	-5.25
219.946	-3.15
220.418	-4.75
220.889	-1.25
221.36	-1.55
221.832	3.85
222.303	-10.35
222.774	-1.25
223.245	-9.05
223.717	-3.45
224.188	-4.65
224.659	-7.55
225.13	-7.15
225.601	-3.95
226.072	6.25
226.543	-2.85
227.014	-3.75
227.485	-2.55
227.956	-5.05
228.427	0.55
228.898	4.65
229.369	0.45
229.839	-9.15
230.31	-9.05
230.781	2.95
231.252	-0.85
231.722	-6.15
232.193	0.45
232.664	-2.55
233.135	0.05
233.605	-1.75
234.076	-5.65
234.546	-1.25
235.017	9.45
235.487	2.75
235.958	-3.35
236.428	-4.55
236.899	1.35
237.369	4.85
237.84	-2.75
238.31	4.55
238.78	7.25
239.251	-0.15
239.721	0.75
240.191	1.95
240.662	-9.65
241.132	-8.25
241.602	-7.95
242.072	4.15
242.542	2.95
243.013	-3.45
243.483	4.35
243.953	0.15
244.423	-8.75
244.893	-10.75
245.363	-2.65
245.833	0.65
246.303	-2.75
246.773	3.55
247.243	3.35
247.712	0.15
248.182	2.95
248.652	-1.85
249.122	-6.35
249.592	-0.45
250.061	12.55
250.531	20.65
251.001	13.05
251.471	15.65
251.94	12.25
252.41	2.85
252.879	-0.75
253.349	6.75
253.818	7.55
254.288	5.65
254.757	4.45
255.227	-5.05
255.696	-2.95
256.166	2.25
256.635	3.95
257.105	8.45
257.574	0.35
258.043	3.75
258.513	2.05
258.982	7.65
259.451	7.55
259.92	5.15
260.389	4.45
260.859	12.45
261.328	9.65
261.797	10.75
262.266	1.15
262.735	3.25
263.204	1.65
263.673	2.75
264.142	-1.25
264.611	-6.05
265.08	-4.85
265.549	-1.05
266.018	3.85
266.487	-2.75
266.955	1.35
267.424	-6.15
267.893	-0.25
268.362	1.95
268.83	-0.05
269.299	1.25
269.768	1.35
270.236	2.75
270.705	4.05
271.174	2.05
271.642	1.05
272.111	4.85
272.579	12.95
273.048	20.25
273.516	17.15
273.985	18.25
274.453	23.55
274.922	11.45
275.39	2.65
275.858	-2.45
276.327	10.15
276.795	11.05
277.263	4.35
277.731	20.95
278.2	33.05
278.668	36.85
279.136	33.25
279.604	9.95
280.072	2.55
280.54	5.65
281.008	3.15
281.477	3.55
281.945	6.15
282.413	5.85
282.881	7.95
283.348	3.05
283.816	9.95
284.284	10.95
284.752	15.65
285.22	7.05
285.688	8.55
286.156	13.05
286.623	35.95
287.091	38.65
287.559	14.35
288.026	8.25
288.494	6.95
288.962	-0.55
289.429	4.25
289.897	14.05
290.364	11.15
290.832	15.05
291.3	3.55
291.767	6.25
292.234	8.25
292.702	2.35
293.169	10.05
293.637	8.85
294.104	13.25
294.571	1.15
295.039	6.15
295.506	7.25
295.973	17.05
296.44	9.65
296.908	11.55
297.375	11.05
297.842	15.75
298.309	12.95
298.776	1.55
299.243	5.15
299.71	0.75
300.177	14.85
300.644	16.75
301.111	13.05
301.578	14.55
302.045	6.95
302.512	17.15
302.979	17.75
303.446	10.15
303.913	13.15
304.379	5.55
304.846	14.65
305.313	17.05
305.78	17.35
306.246	18.65
306.713	23.45
307.18	10.55
307.646	15.85
308.113	17.85
308.579	15.75
309.046	22.95
309.512	17.45
309.979	14.65
310.445	14.05
310.912	21.65
311.378	14.05
311.845	12.55
312.311	24.55
312.777	22.85
313.244	19.85
313.71	27.15
314.176	21.65
314.642	18.55
315.109	19.65
315.575	21.25
316.041	24.25
316.507	23.25
316.973	31.45
317.439	25.25
317.905	22.95
318.371	25.45
318.837	24.65
319.303	22.85
319.769	25.55
320.235	20.35
320.701	27.95
321.167	25.95
321.633	20.25
322.099	24.75
322.564	30.65
323.03	27.65
323.496	26.55
323.962	30.95
324.427	27.95
324.893	27.45
325.359	27.05
325.824	28.15
326.29	27.75
326.755	33.15
327.221	26.45
327.686	31.15
328.152	32.55
328.617	32.25
329.083	32.05
329.548	36.05
330.014	32.85
330.479	27.85
330.944	35.95
331.41	34.05
331.875	31.55
332.34	30.75
332.805	34.05
333.271	39.35
333.736	34.95
334.201	42.25
334.666	43.65
335.131	42.95
335.596	40.75
336.061	38.45
336.526	24.05
336.991	33.95
337.456	43.25
337.921	34.65
338.386	30.85
338.851	26.05
339.316	37.75
339.781	36.85
340.246	39.05
340.711	34.15
341.175	45.85
341.64	30.75
342.105	30.35
342.569	42.95
343.034	44.75
343.499	46.25
343.963	34.15
344.428	54.35
344.893	50.15
345.357	45.35
345.822	45.05
346.286	55.55
346.751	53.05
347.215	53.95
347.679	55.55
348.144	66.65
348.608	68.15
349.073	56.85
349.537	61.65
350.001	58.35
350.465	65.55
350.93	62.75
351.394	62.05
351.858	57.45
352.322	68.85
352.786	65.75
353.25	73.85
353.715	87.95
354.179	77.35
354.643	91.15
355.107	96.05
355.571	88.25
356.035	81.85
356.498	88.05
356.962	94.25
357.426	101.35
357.89	93.65
358.354	72.85
358.818	60.05
359.281	68.25
359.745	63.25
360.209	69.15
360.673	61.25
361.136	68.25
361.6	66.35
362.064	67.45
362.527	66.05
362.991	79.45
363.454	75.35
363.918	64.35
364.381	64.55
364.845	67.35
365.308	74.25
365.772	75.25
366.235	72.45
366.698	68.85
367.162	67.55
367.625	65.75
368.088	73.15
368.552	72.15
369.015	73.85
369.478	83.15
369.941	82.75
370.404	86.25
370.867	89.25
371.331	93.25
371.794	95.75
372.257	88.75
372.72	94.15
373.183	88.15
373.646	88.95
374.109	84.95
374.572	93.75
375.035	96.85
375.497	86.25
375.96	87.15
376.423	81.95
376.886	90.15
377.349	94.05
377.811	87.65
378.274	96.05
378.737	96.85
379.199	93.65
379.662	94.65
380.125	103.25
380.587	94.75
381.05	108.15
381.512	119.75
381.975	120.85
382.437	116.05
382.9	111.15
383.362	108.05
383.825	122.05
384.287	121.55
384.75	117.35
385.212	121.15
385.674	115.45
386.136	118.05
386.599	112.25
387.061	118.85
387.523	116.05
387.985	118.45
388.447	129.85
388.91	132.05
389.372	138.65
389.834	133.35
390.296	130.45
390.758	134.85
391.22	146.15
391.682	182.25
392.144	257.15
392.606	203.75
393.068	150.45
393.529	146.65
393.991	143.35
394.453	140.35
394.915	139.15
395.377	165.45
395.838	193.55
396.3	140.65
396.762	129.95
397.224	121.25
397.685	114.25
398.147	117.05
398.608	113.95
399.07	123.35
399.531	117.85
399.993	129.05
400.454	135.95
400.916	125.95
401.377	125.65
401.839	131.55
402.3	136.45
402.762	146.05
403.223	157.25
403.684	155.45
404.145	143.45
404.607	143.75
405.068	143.65
405.529	154.05
405.99	173.15
406.451	148.85
406.913	155.95
407.374	145.25
407.835	148.75
408.296	152.55
408.757	152.25
409.218	166.35
409.679	162.85
410.14	156.75
410.601	161.65
411.062	170.75
411.522	177.25
411.983	175.45
412.444	159.95
412.905	165.95
413.366	164.55
413.826	175.35
414.287	199.95
414.748	241.25
415.208	225.55
415.669	191.55
416.13	196.75
416.59	184.05
417.051	194.95
417.511	199.85
417.972	225.05
418.432	222.15
418.893	266.05
419.353	235.85
419.814	186.65
420.274	164.25
420.734	175.35
421.195	186.75
421.655	179.75
422.115	179.65
422.576	181.45
423.036	182.65
423.496	197.15
423.956	203.45
424.416	212.45
424.876	243.75
425.336	241.25
425.797	244.95
426.257	243.35
426.717	214.75
427.177	217.55
427.637	214.25
428.097	221.85
428.556	225.45
429.016	252.75
429.476	252.35
429.936	252.95
430.396	254.35
430.856	267.55
431.315	294.85
431.775	329.25
432.235	354.15
432.694	330.65
433.154	342.95
433.614	366.75
434.073	316.05
434.533	272.85
434.993	259.55
435.452	258.55
435.912	265.75
436.371	257.55
436.83	268.65
437.29	241.55
437.749	235.85
438.209	230.05
438.668	253.15
439.127	265.25
439.587	251.65
440.046	235.05
440.505	233.85
440.964	256.35
441.424	296.45
441.883	294.75
442.342	234.25
442.801	207.75
443.26	204.05
443.719	216.85
444.178	213.05
444.637	203.05
445.096	208.35
445.555	212.05
446.014	208.75
446.473	216.75
446.932	225.85
447.391	217.85
447.849	214.35
448.308	212.25
448.767	211.05
449.226	229.45
449.685	227.55
450.143	226.75
450.602	227.15
451.061	216.75
451.519	219.65
451.978	221.95
452.436	223.15
452.895	223.35
453.353	246.15
453.812	233.75
454.27	230.65
454.729	222.65
455.187	223.45
455.646	230.05
456.104	235.05
456.562	246.35
457.021	248.05
457.479	240.55
457.937	253.45
458.395	250.75
458.854	231.95
459.312	239.45
459.77	257.95
460.228	240.55
460.686	228.95
461.144	232.05
461.602	226.75
462.06	223.85
462.518	240.35
462.976	249.25
463.434	249.15
463.892	242.15
464.35	262.55
464.808	272.25
465.266	250.75
465.724	256.95
466.181	261.25
466.639	254.25
467.097	272.15
467.555	281.15
468.012	286.95
468.47	295.55
468.928	313.15
469.385	321.65
469.843	329.65
470.3	326.55
470.758	344.05
471.215	360.35
471.673	383.05
472.13	383.35
472.588	400.15
473.045	361.85
473.503	356.15
473.96	371.25
474.417	384.45
474.875	413.55
475.332	462.05
475.789	434.65
476.246	444.85
476.704	459.25
477.161	487.15
477.618	505.45
478.075	544.15
478.532	578.65
478.989	662.65
479.446	763.85
479.903	735.55
480.36	775.15
480.817	834.45
481.274	925.85
481.731	1017.55
482.188	1123.45
482.645	1244.95
483.102	1340.45
483.558	1481.05
484.015	1539.95
484.472	1524.55
484.929	1484.15
485.385	1416.15
485.842	1377.65
486.299	1302.75
486.755	1240.95
487.212	1050.15
487.668	893.25
488.125	816.45
488.582	745.85
489.038	714.85
489.494	681.35
489.951	650.25
490.407	642.75
490.864	624.95
491.32	609.05
491.776	615.75
492.233	609.85
492.689	582.55
493.145	570.15
493.602	570.15
494.058	588.45
494.514	595.15
494.97	602.95
495.426	620.05
495.882	601.65
496.338	579.05
496.794	590.95
497.251	586.45
497.707	605.75
498.163	607.45
498.618	614.75
499.074	612.65
499.53	632.45
499.986	637.65
500.442	624.25
500.898	594.95
501.354	607.35
501.809	605.95
502.265	605.05
502.721	628.35
503.177	646.35
503.632	635.65
504.088	645.85
504.543	675.15
504.999	670.55
505.455	626.55
505.91	599.45
506.366	605.35
506.821	606.85
507.277	587.35
507.732	606.35
508.187	602.65
508.643	601.45
509.098	610.25
509.553	632.95
510.009	639.75
510.464	653.65
510.919	662.45
511.375	660.15
511.83	674.65
512.285	691.15
512.74	729.65
513.195	749.25
513.65	733.75
514.105	739.45
514.56	748.85
515.015	759.85
515.47	779.65
515.925	752.65
516.38	747.45
516.835	767.45
517.29	756.65
517.745	750.45
518.2	727.35
518.655	725.45
519.109	715.35
519.564	713.95
520.019	705.25
520.474	697.05
520.928	698.15
521.383	685.25
521.838	687.25
522.292	684.35
522.747	679.45
523.201	676.75
523.656	671.25
524.11	662.05
524.565	667.55
525.019	662.15
525.474	676.65
525.928	672.45
526.382	662.65
526.837	672.15
527.291	675.25
527.745	677.05
528.2	669.25
528.654	682.75
529.108	672.35
529.562	674.65
530.016	669.65
530.47	658.05
530.925	664.75
531.379	679.05
531.833	685.05
532.287	675.95
532.741	672.95
533.195	679.55
533.649	691.25
534.103	695.85
534.556	682.55
535.01	688.75
535.464	680.55
535.918	677.15
536.372	692.45
536.826	689.75
537.279	686.35
537.733	686.85
538.187	689.95
538.64	684.85
539.094	696.05
539.548	695.35
540.001	699.55
540.455	700.05
540.908	707.55
541.362	713.15
541.815	708.75
542.269	726.35
542.722	728.45
543.175	742.95
543.629	744.75
544.082	763.35
544.536	758.35
544.989	754.25
545.442	767.75
545.895	754.45
546.349	760.65
546.802	764.85
547.255	772.15
547.708	777.05
548.161	789.45
548.614	788.15
549.067	796.15
549.52	795.15
549.973	782.15
550.426	787.75
550.879	769.25
551.332	773.75
551.785	775.85
552.238	776.45
552.691	788.25
553.144	801.85
553.596	820.65
554.049	834.05
554.502	855.15
554.955	876.45
555.407	875.65
555.86	869.15
556.313	865.85
556.765	838.45
557.218	852.15
557.67	844.25
558.123	853.25
558.576	838.85
559.028	843.05
559.48	845.85
559.933	841.15
560.385	807.35
560.838	788.05
561.29	758.25
561.742	754.75
562.195	737.65
562.647	741.45
563.099	749.65
563.551	743.65
564.004	757.25
564.456	749.65
564.908	747.85
565.36	724.35
565.812	693.65
566.264	699.65
566.716	707.85
567.168	688.25
567.62	698.15
568.072	685.05
568.524	669.75
568.976	673.25
569.428	657.15
569.88	648.05
570.332	651.05
570.784	656.75
571.235	655.15
571.687	677.45
572.139	673.75
572.59	692.95
573.042	674.15
573.494	689.15
573.945	678.25
574.397	657.25
574.849	665.95
575.3	661.65
575.752	663.85
576.203	654.85
576.655	659.15
577.106	649.45
577.557	642.15
578.009	648.75
578.46	645.45
578.912	638.15
579.363	641.85
579.814	650.25
580.265	638.95
580.717	640.65
581.168	654.15
581.619	652.85
582.07	654.55
582.521	654.75
582.972	654.75
583.423	647.15
583.875	656.05
584.326	687.75
584.777	723.45
585.227	794.25
585.678	878.85
586.129	955.75
586.58	1025.95
587.031	1116.65
587.482	1248.95
587.933	1418.15
588.384	1231.45
588.834	923.65
589.285	778.35
589.736	758.95
590.186	754.65
590.637	749.05
591.088	726.65
591.538	712.45
591.989	702.75
592.439	708.75
592.89	703.75
593.34	686.05
593.791	689.75
594.241	675.65
594.692	687.15
595.142	685.75
595.593	687.55
596.043	681.45
596.493	688.25
596.943	692.75
597.394	696.65
597.844	700.45
598.294	696.75
598.744	728.95
599.195	749.15
599.645	793.15
600.095	831.25
600.545	880.95
600.995	936.55
601.445	1001.55
601.895	1063.65
602.345	1110.15
602.795	1089.55
603.245	1033.15
603.695	981.55
604.145	920.15
604.594	877.55
605.044	833.85
605.494	771.65
605.944	724.85
606.393	716.15
606.843	706.65
607.293	712.75
607.743	714.35
608.192	727.35
608.642	732.85
609.091	749.85
609.541	745.65
609.99	743.45
610.44	736.55
610.889	693.55
611.339	677.65
611.788	661.75
612.238	682.35
612.687	696.05
613.136	705.85
613.586	717.25
614.035	720.15
614.484	731.85
614.933	733.35
615.383	733.25
615.832	721.95
616.281	701.05
616.73	662.85
617.179	656.15
617.628	635.55
618.077	605.95
618.526	599.25
618.975	599.65
619.424	591.05
619.873	594.55
620.322	600.85
620.771	588.85
621.22	589.05
621.669	577.55
622.118	565.65
622.567	557.95
623.015	558.65
623.464	550.45
623.913	549.75
624.361	524.85
624.81	543.75
625.259	551.55
625.707	542.95
626.156	538.05
626.604	548.75
627.053	548.15
627.501	549.05
627.95	537.05
628.398	567.75
628.847	554.95
629.295	545.75
629.744	560.45
630.192	553.15
630.64	545.35
631.089	538.65
631.537	557.15
631.985	563.85
632.433	576.75
632.881	581.45
633.33	631.55
633.778	615.45
634.226	546.35
634.674	545.75
635.122	557.55
635.57	580.95
636.018	596.85
636.466	562.05
636.914	538.25
637.362	548.95
637.81	552.65
638.258	560.85
638.705	566.65
639.153	594.15
639.601	600.05
640.049	624.65
640.497	654.55
640.944	679.05
641.392	624.55
641.84	590.75
642.287	572.25
642.735	546.05
643.182	562.05
643.63	555.85
644.078	556.65
644.525	579.75
644.973	567.75
645.42	578.25
645.867	595.05
646.315	619.55
646.762	644.05
647.21	665.05
647.657	693.45
648.104	731.85
648.551	739.75
648.999	814.85
649.446	886.75
649.893	990.05
650.34	1125.45
650.787	1345.15
651.234	1678.35
651.682	2212.65
652.129	3027.55
652.576	4385.35
653.023	6475.15
653.47	8902.25
653.917	11079.15
654.363	12732.05
654.81	14090.15
655.257	13364.05
655.704	8680.05
656.151	5125.45
656.598	3313.95
657.044	2342.65
657.491	1805.55
657.938	1448.35
658.385	1198.95
658.831	1047.45
659.278	919.85
659.724	833.65
660.171	770.15
660.618	702.45
661.064	662.55
661.511	642.35
661.957	634.95
662.404	622.95
662.85	627.15
663.296	603.65
663.743	548.15
664.189	531.85
664.635	520.85
665.082	507.55
665.528	506.45
665.974	500.25
666.42	497.55
666.867	481.95
667.313	482.65
667.759	462.65
668.205	471.05
668.651	464.35
669.097	459.55
669.543	473.05
669.989	450.35
670.435	437.75
670.881	438.55
671.327	437.45
671.773	447.05
672.219	474.85
672.665	526.45
673.11	569.45
673.556	606.05
674.002	651.25
674.448	637.35
674.893	534.15
675.339	460.75
675.785	423.25
676.23	406.35
676.676	376.15
677.122	368.35
677.567	364.15
678.013	364.15
678.458	351.35
678.904	353.15
679.349	339.25
679.794	351.85
680.24	340.65
680.685	340.65
681.131	336.25
681.576	341.15
682.021	345.05
682.466	338.55
682.912	337.05
683.357	343.15
683.802	369.35
684.247	404.05
684.692	443.95
685.137	477.55
685.583	518.65
686.028	552.85
686.473	498.35
686.918	430.05
687.363	399.35
687.807	378.85
688.252	345.55
688.697	344.15
689.142	325.55
689.587	319.45
690.032	311.35
690.477	331.45
690.921	341.65
691.366	368.75
691.811	392.25
692.255	423.85
692.7	458.35
693.145	488.75
693.589	688.65
694.034	1112.25
694.478	1509.55
694.923	1687.45
695.367	2211.65
695.812	1160.65
696.256	484.05
696.701	355.15
697.145	337.45
697.59	317.45
698.034	306.85
698.478	311.05
698.922	318.05
699.367	320.55
699.811	328.35
700.255	346.95
700.699	375.35
701.143	416.45
701.588	462.55
702.032	497.35
702.476	496.25
702.92	473.25
703.364	482.05
703.808	621.15
704.252	1024.05
704.696	1424.75
705.14	1630.45
705.584	2072.75
706.027	1033.15
706.471	504.05
706.915	378.25
707.359	340.15
707.803	307.35
708.246	301.05
708.69	304.75
709.134	298.35
709.577	306.55
710.021	310.55
710.465	297.05
710.908	291.25
711.352	289.95
711.795	308.15
712.239	340.85
712.682	372.65
713.126	410.85
713.569	449.55
714.012	363.55
714.456	309.35
714.899	292.55
715.342	264.05
715.786	246.85
716.229	244.15
716.672	253.25
717.115	240.85
717.558	247.05
718.002	239.35
718.445	253.15
718.888	288.35
719.331	282.25
719.774	298.05
720.217	299.95
720.66	270.25
721.103	260.75
721.546	235.55
721.989	242.25
722.432	220.85
722.874	227.95
723.317	218.75
723.76	228.25
724.203	254.95
724.645	303.95
725.088	431.95
725.531	557.05
725.974	627.85
726.416	535.25
726.859	300.45
727.301	225.75
727.744	226.25
728.187	218.75
728.629	233.35
729.071	236.45
729.514	247.35
729.956	263.95
730.399	273.45
730.841	281.55
731.283	264.55
731.726	260.35
732.168	247.05
732.61	253.35
733.053	283.35
733.495	300.65
733.937	337.35
734.379	395.65
734.821	419.55
735.263	528.55
735.705	824.45
736.148	1559.65
736.59	2527.85
737.032	2985.85
737.474	2399.55
737.916	778.75
738.357	410.55
738.799	318.85
739.241	289.05
739.683	273.85
740.125	288.55
740.567	285.05
741.008	310.55
741.45	299.45
741.892	307.85
742.334	332.75
742.775	350.25
743.217	322.05
743.658	256.95
744.1	238.35
744.542	256.45
744.983	296.35
745.425	336.25
745.866	332.05
746.307	274.05
746.749	272.75
747.19	313.15
747.632	454.65
748.073	873.85
748.514	1845.05
748.956	2780.55
749.397	3511.35
749.838	2893.85
750.279	2878.65
750.72	1450.05
751.162	537.65
751.603	311.55
752.044	249.75
752.485	209.15
752.926	203.85
753.367	201.55
753.808	189.85
754.249	179.75
754.69	183.85
755.131	179.65
755.572	179.95
756.013	180.75
756.453	181.05
756.894	182.95
757.335	188.45
757.776	190.25
758.216	189.55
758.657	195.35
759.098	198.25
759.538	223.95
759.979	256.55
760.42	367.65
760.86	695.35
761.301	1814.75
761.741	4381.45
762.182	6264.35
762.622	4394.95
763.063	1270.35
763.503	520.15
