Data from 20171114-ORNL-Ar_H_NY_Subt18_08-06-13-091.txt Node
Date: Tue Nov 14 08:06:13 EST 2017
User: Ender
Spectrometer: HR+D1039
Trigger mode: 0
Integration Time (sec): 2.730000E-2
Scans to average: 10
Electric dark correction enabled: true
Nonlinearity correction enabled: false
Boxcar width: 0
XAxis mode: Wavelengths
Number of Pixels in Spectrum: 2048
>>>>>Begin Spectral Data<<<<<
187.836	-3.08
188.309	-3.08
188.782	-3.08
189.255	0.72
189.728	-6.88
190.201	4.23
190.674	2.23
191.147	6.72
191.619	-5.88
192.092	3.73
192.565	4.52
193.038	-0.88
193.511	-0.08
193.984	2.02
194.456	-1.48
194.929	-2.38
195.402	-1.58
195.874	-1.98
196.347	-2.88
196.82	-4.27
197.292	7.23
197.765	-2.67
198.237	-6.07
198.71	1.52
199.182	-2.08
199.655	3.23
200.127	4.72
200.6	-6.58
201.072	2.42
201.544	-3.57
202.017	-1.48
202.489	2.62
202.961	-2.77
203.433	-5.58
203.906	-5.17
204.378	-4.67
204.85	-0.88
205.322	-5.88
205.794	-3.68
206.266	3.52
206.739	-10.48
207.211	5.73
207.683	-6.57
208.155	-9.48
208.627	-4.67
209.099	2.33
209.57	-7.27
210.042	-3.48
210.514	-2.47
210.986	1.93
211.458	-10.38
211.93	-5.28
212.402	5.92
212.873	-2.48
213.345	-4.98
213.817	-11.27
214.288	-2.18
214.76	-6.27
215.232	0.23
215.703	0.33
216.175	-6.88
216.646	-4.88
217.118	-10.27
217.589	-7.77
218.061	-2.08
218.532	-5.17
219.004	-1.88
219.475	-4.07
219.946	-4.98
220.418	-1.77
220.889	6.42
221.36	-4.47
221.832	-4.48
222.303	-10.98
222.774	-3.88
223.245	-7.38
223.717	-4.27
224.188	-5.17
224.659	-6.28
225.13	-6.88
225.601	0.92
226.072	-0.77
226.543	-2.18
227.014	-2.68
227.485	0.32
227.956	-6.17
228.427	-0.67
228.898	3.83
229.369	2.73
229.839	-1.08
230.31	-7.18
230.781	3.33
231.252	-8.77
231.722	-9.58
232.193	-1.57
232.664	0.52
233.135	3.32
233.605	3.73
234.076	-3.38
234.546	4.22
235.017	3.12
235.487	5.83
235.958	5.73
236.428	-2.58
236.899	-1.38
237.369	2.23
237.84	-4.67
238.31	5.62
238.78	5.43
239.251	-2.97
239.721	0.73
240.191	-2.57
240.662	-0.77
241.132	-0.88
241.602	1.32
242.072	2.02
242.542	4.73
243.013	0.23
243.483	1.52
243.953	2.43
244.423	-2.77
244.893	1.23
245.363	3.72
245.833	5.52
246.303	-5.27
246.773	9.52
247.243	7.72
247.712	5.62
248.182	10.02
248.652	1.52
249.122	-6.98
249.592	7.92
250.061	23.62
250.531	34.23
251.001	13.03
251.471	20.02
251.94	14.72
252.41	7.03
252.879	5.52
253.349	15.12
253.818	9.33
254.288	2.43
254.757	5.62
255.227	0.43
255.696	3.02
256.166	5.23
256.635	8.02
257.105	9.23
257.574	9.82
258.043	6.33
258.513	10.82
258.982	14.03
259.451	7.42
259.92	15.42
260.389	13.23
260.859	19.62
261.328	15.43
261.797	19.93
262.266	14.62
262.735	13.43
263.204	12.23
263.673	-0.08
264.142	2.73
264.611	-6.48
265.08	1.52
265.549	2.93
266.018	8.33
266.487	7.92
266.955	-0.77
267.424	0.73
267.893	4.93
268.362	-2.88
268.83	9.23
269.299	11.33
269.768	10.82
270.236	10.62
270.705	1.73
271.174	7.03
271.642	5.52
272.111	9.83
272.579	23.32
273.048	27.42
273.516	31.33
273.985	31.43
274.453	26.23
274.922	19.52
275.39	9.92
275.858	2.92
276.327	9.62
276.795	20.83
277.263	15.92
277.731	29.32
278.2	57.22
278.668	64.52
279.136	48.52
279.604	29.43
280.072	19.62
280.54	13.73
281.008	9.82
281.477	16.52
281.945	17.42
282.413	9.02
282.881	14.52
283.348	8.83
283.816	15.23
284.284	18.23
284.752	17.12
285.22	11.62
285.688	17.92
286.156	18.73
286.623	39.33
287.091	54.52
287.559	30.73
288.026	18.62
288.494	17.02
288.962	11.52
289.429	10.92
289.897	22.12
290.364	14.52
290.832	16.33
291.3	18.62
291.767	22.33
292.234	19.12
292.702	20.73
293.169	16.62
293.637	26.02
294.104	20.52
294.571	13.52
295.039	17.02
295.506	18.02
295.973	16.82
296.44	19.62
296.908	17.83
297.375	23.02
297.842	20.52
298.309	15.52
298.776	15.23
299.243	16.82
299.71	15.23
300.177	18.33
300.644	26.33
301.111	21.12
301.578	28.42
302.045	17.73
302.512	20.23
302.979	26.73
303.446	26.82
303.913	19.62
304.379	22.33
304.846	24.73
305.313	27.92
305.78	18.92
306.246	29.33
306.713	31.42
307.18	32.43
307.646	30.82
308.113	29.92
308.579	28.42
309.046	25.73
309.512	30.33
309.979	18.62
310.445	23.62
310.912	25.92
311.378	31.42
311.845	32.33
312.311	37.02
312.777	31.32
313.244	29.53
313.71	37.62
314.176	36.12
314.642	34.73
315.109	32.52
315.575	36.43
316.041	38.12
316.507	35.72
316.973	38.32
317.439	33.33
317.905	32.23
318.371	39.23
318.837	31.33
319.303	35.32
319.769	33.12
320.235	43.62
320.701	37.32
321.167	39.22
321.633	37.43
322.099	42.82
322.564	47.12
323.03	43.23
323.496	43.23
323.962	45.12
324.427	40.12
324.893	42.92
325.359	43.82
325.824	37.92
326.29	41.82
326.755	39.52
327.221	42.42
327.686	41.73
328.152	54.33
328.617	45.43
329.083	48.12
329.548	60.92
330.014	45.62
330.479	39.02
330.944	52.42
331.41	48.82
331.875	46.83
332.34	42.12
332.805	45.42
333.271	50.12
333.736	47.92
334.201	55.93
334.666	57.82
335.131	52.42
335.596	50.62
336.061	53.42
336.526	43.12
336.991	47.93
337.456	64.03
337.921	57.42
338.386	48.42
338.851	50.62
339.316	53.73
339.781	48.93
340.246	55.23
340.711	49.42
341.175	50.62
341.64	47.73
342.105	52.73
342.569	57.92
343.034	59.32
343.499	61.42
343.963	57.73
344.428	71.62
344.893	62.92
345.357	69.02
345.822	63.32
346.286	63.73
346.751	79.62
347.215	72.83
347.679	79.23
348.144	97.82
348.608	86.73
349.073	75.42
349.537	79.52
350.001	91.23
350.465	96.73
350.93	87.12
351.394	93.43
351.858	75.23
352.322	90.93
352.786	91.93
353.25	104.32
353.715	112.93
354.179	103.42
354.643	130.03
355.107	137.92
355.571	110.23
356.035	105.23
356.498	119.82
356.962	128.52
357.426	136.62
357.89	123.33
358.354	94.73
358.818	90.92
359.281	86.12
359.745	82.93
360.209	86.33
360.673	80.43
361.136	85.23
361.6	92.82
362.064	85.23
362.527	86.82
362.991	98.52
363.454	78.23
363.918	81.52
364.381	84.52
364.845	81.12
365.308	89.62
365.772	91.42
366.235	93.23
366.698	88.73
367.162	99.52
367.625	90.82
368.088	97.73
368.552	91.62
369.015	94.73
369.478	107.23
369.941	102.92
370.404	98.52
370.867	112.12
371.331	112.92
371.794	121.92
372.257	112.52
372.72	125.52
373.183	112.23
373.646	106.73
374.109	112.62
374.572	108.52
375.035	111.02
375.497	117.02
375.96	113.52
376.423	110.72
376.886	119.03
377.349	117.82
377.811	110.02
378.274	119.53
378.737	119.82
379.199	116.33
379.662	120.23
380.125	123.93
380.587	128.02
381.05	125.53
381.512	136.52
381.975	139.02
382.437	130.02
382.9	127.62
383.362	135.12
383.825	152.23
384.287	149.12
384.75	146.32
385.212	144.42
385.674	147.22
386.136	143.03
386.599	134.12
387.061	135.53
387.523	137.73
387.985	141.42
388.447	154.23
388.91	152.02
389.372	164.83
389.834	159.82
390.296	162.62
390.758	155.33
391.22	179.92
391.682	219.73
392.144	299.43
392.606	231.92
393.068	176.53
393.529	177.42
393.991	153.12
394.453	156.52
394.915	157.72
395.377	190.52
395.838	224.62
396.3	159.42
396.762	155.23
397.224	144.23
397.685	137.02
398.147	138.83
398.608	138.12
399.07	137.83
399.531	148.73
399.993	151.12
400.454	161.92
400.916	157.42
401.377	154.83
401.839	162.32
402.3	158.02
402.762	178.92
403.223	184.32
403.684	185.02
404.145	173.72
404.607	168.92
405.068	175.92
405.529	177.02
405.99	192.43
406.451	190.02
406.913	182.02
407.374	166.62
407.835	168.62
408.296	181.23
408.757	183.52
409.218	198.43
409.679	187.33
410.14	190.03
410.601	187.23
411.062	198.73
411.522	203.02
411.983	209.12
412.444	185.93
412.905	189.53
413.366	199.72
413.826	199.22
414.287	227.52
414.748	278.63
415.208	262.72
415.669	223.52
416.13	211.22
416.59	211.22
417.051	226.72
417.511	232.62
417.972	249.83
418.432	258.32
418.893	303.02
419.353	261.03
419.814	203.52
420.274	198.12
420.734	186.82
421.195	208.02
421.655	209.33
422.115	203.33
422.576	199.02
423.036	205.12
423.496	216.12
423.956	232.92
424.416	244.62
424.876	285.72
425.336	272.92
425.797	273.03
426.257	270.62
426.717	260.23
427.177	257.73
427.637	237.62
428.097	242.92
428.556	262.73
429.016	285.82
429.476	279.42
429.936	293.53
430.396	303.23
430.856	302.42
431.315	330.42
431.775	367.52
432.235	399.73
432.694	368.83
433.154	381.13
433.614	418.83
434.073	347.62
434.533	296.72
434.993	290.73
435.452	296.43
435.912	306.83
436.371	297.42
436.83	300.83
437.29	281.52
437.749	261.13
438.209	266.23
438.668	287.73
439.127	303.02
439.587	285.73
440.046	255.52
440.505	270.03
440.964	292.72
441.424	339.53
441.883	330.22
442.342	274.53
442.801	237.13
443.26	227.43
443.719	228.63
444.178	229.62
444.637	227.62
445.096	226.72
445.555	237.52
446.014	242.72
446.473	240.52
446.932	242.42
447.391	240.62
447.849	237.92
448.308	233.63
448.767	235.62
449.226	242.33
449.685	249.23
450.143	258.52
450.602	244.92
451.061	231.43
451.519	248.23
451.978	237.73
452.436	247.82
452.895	246.53
453.353	264.03
453.812	242.73
454.27	250.62
454.729	255.03
455.187	259.23
455.646	257.62
456.104	260.73
456.562	279.12
457.021	282.52
457.479	282.32
457.937	287.03
458.395	278.03
458.854	260.63
459.312	269.02
459.77	293.13
460.228	264.42
460.686	253.82
461.144	262.23
461.602	257.92
462.06	256.53
462.518	269.53
462.976	265.72
463.434	274.02
463.892	272.93
464.35	292.52
464.808	299.93
465.266	278.52
465.724	283.83
466.181	287.82
466.639	284.23
467.097	296.52
467.555	310.02
468.012	317.52
468.47	326.32
468.928	349.42
469.385	359.33
469.843	368.62
470.3	362.12
470.758	380.93
471.215	409.93
471.673	423.52
472.13	437.42
472.588	439.23
473.045	388.12
473.503	394.62
473.96	411.12
474.417	419.93
474.875	457.83
475.332	497.93
475.789	477.53
476.246	483.33
476.704	519.33
477.161	537.23
477.618	549.12
478.075	587.62
478.532	639.43
478.989	722.23
479.446	834.53
479.903	810.62
480.36	846.12
480.817	902.72
481.274	998.93
481.731	1112.62
482.188	1194.12
482.645	1342.03
483.102	1454.83
483.558	1614.62
484.015	1658.93
484.472	1636.43
484.929	1575.82
485.385	1537.02
485.842	1486.72
486.299	1419.52
486.755	1351.12
487.212	1143.72
487.668	969.92
488.125	893.73
488.582	812.12
489.038	779.52
489.494	748.92
489.951	723.93
490.407	698.53
490.864	683.22
491.32	680.43
491.776	663.32
492.233	681.92
492.689	632.73
493.145	634.72
493.602	621.23
494.058	636.82
494.514	645.33
494.97	667.33
495.426	684.63
495.882	653.52
496.338	648.73
496.794	656.32
497.251	640.73
497.707	665.03
498.163	666.93
498.618	669.42
499.074	673.02
499.53	711.72
499.986	706.72
500.442	678.92
500.898	665.03
501.354	654.52
501.809	657.62
502.265	683.32
502.721	676.52
503.177	697.83
503.632	692.73
504.088	710.72
504.543	744.33
504.999	736.82
505.455	684.33
505.91	656.23
506.366	656.02
506.821	649.02
507.277	654.83
507.732	656.33
508.187	654.02
508.643	659.32
509.098	661.23
509.553	679.62
510.009	690.03
510.464	702.82
510.919	715.82
511.375	728.72
511.83	738.12
512.285	742.22
512.74	794.63
513.195	820.32
513.65	803.42
514.105	799.52
514.56	799.92
515.015	831.03
515.47	841.02
515.925	828.23
516.38	821.12
516.835	818.12
517.29	807.12
517.745	800.12
518.2	797.12
518.655	786.42
519.109	774.62
519.564	763.72
520.019	762.82
520.474	752.42
520.928	746.92
521.383	753.72
521.838	747.02
522.292	743.23
522.747	737.52
523.201	725.83
523.656	721.23
524.11	723.83
524.565	714.32
525.019	715.42
525.474	733.52
525.928	732.03
526.382	725.32
526.837	727.73
527.291	717.62
527.745	718.02
528.2	733.83
528.654	719.82
529.108	727.43
529.562	713.23
530.016	720.83
530.47	719.82
530.925	722.12
531.379	716.32
531.833	729.62
532.287	728.42
532.741	726.92
533.195	729.53
533.649	744.43
534.103	748.23
534.556	739.02
535.01	737.62
535.464	740.62
535.918	742.62
536.372	740.42
536.826	744.42
537.279	736.33
537.733	742.93
538.187	736.02
538.64	745.22
539.094	746.23
539.548	759.03
540.001	750.12
540.455	747.02
540.908	755.02
541.362	770.23
541.815	767.93
542.269	788.12
542.722	784.43
543.175	807.23
543.629	801.12
544.082	811.43
544.536	812.43
544.989	814.53
545.442	829.82
545.895	811.12
546.349	812.42
546.802	817.62
547.255	821.02
547.708	840.23
548.161	854.02
548.614	852.52
549.067	867.52
549.52	840.32
549.973	845.93
550.426	841.62
550.879	831.32
551.332	823.92
551.785	840.52
552.238	833.32
552.691	850.53
553.144	866.83
553.596	884.33
554.049	897.62
554.502	936.32
554.955	945.22
555.407	949.73
555.86	928.73
556.313	927.52
556.765	918.72
557.218	915.53
557.67	914.52
558.123	914.62
558.576	901.93
559.028	914.42
559.48	915.83
559.933	903.23
560.385	870.12
560.838	842.42
561.29	816.62
561.742	807.62
562.195	799.23
562.647	797.33
563.099	799.52
563.551	786.02
564.004	813.52
564.456	813.22
564.908	779.62
565.36	763.62
565.812	763.72
566.264	756.03
566.716	760.42
567.168	739.83
567.62	750.72
568.072	717.23
568.524	718.33
568.976	717.02
569.428	688.52
569.88	705.82
570.332	706.03
570.784	695.52
571.235	711.53
571.687	716.43
572.139	730.12
572.59	738.52
573.042	739.52
573.494	738.53
573.945	727.92
574.397	703.73
574.849	716.52
575.3	718.93
575.752	705.62
576.203	703.62
576.655	718.12
577.106	691.23
577.557	691.12
578.009	689.12
578.46	691.83
578.912	690.22
579.363	684.43
579.814	682.72
580.265	690.72
580.717	691.62
581.168	695.82
581.619	699.23
582.07	703.92
582.521	698.72
582.972	690.92
583.423	695.72
583.875	707.52
584.326	723.83
584.777	762.22
585.227	834.02
585.678	933.73
586.129	1017.72
586.58	1084.33
587.031	1171.32
587.482	1306.12
587.933	1503.82
588.384	1305.32
588.834	988.52
589.285	833.03
589.736	810.62
590.186	792.83
590.637	783.52
591.088	765.23
591.538	766.73
591.989	754.43
592.439	741.33
592.89	742.42
593.34	738.73
593.791	746.22
594.241	722.03
594.692	730.13
595.142	728.32
595.593	725.43
596.043	730.03
596.493	735.13
596.943	739.53
597.394	734.02
597.844	738.82
598.294	750.92
598.744	769.93
599.195	795.63
599.645	839.13
600.095	880.92
600.545	942.53
600.995	996.22
601.445	1054.52
601.895	1113.33
602.345	1166.03
602.795	1151.03
603.245	1103.22
603.695	1040.33
604.145	977.73
604.594	929.42
605.044	878.12
605.494	809.92
605.944	771.32
606.393	757.83
606.843	742.12
607.293	737.23
607.743	756.93
608.192	760.62
608.642	776.23
609.091	784.83
609.541	791.73
609.99	797.33
610.44	787.62
610.889	747.03
611.339	719.83
611.788	707.42
612.238	714.22
612.687	742.52
613.136	745.32
613.586	754.72
614.035	764.12
614.484	765.52
614.933	774.43
615.383	755.73
615.832	762.83
616.281	739.62
616.73	698.73
617.179	684.12
617.628	675.42
618.077	643.43
618.526	639.02
618.975	631.62
619.424	630.42
619.873	626.42
620.322	636.23
620.771	617.93
621.22	615.33
621.669	607.12
622.118	609.42
622.567	593.03
623.015	589.52
623.464	583.12
623.913	585.42
624.361	557.33
624.81	563.62
625.259	573.03
625.707	573.73
626.156	570.12
626.604	577.42
627.053	559.83
627.501	577.22
627.95	587.23
628.398	587.62
628.847	580.92
629.295	587.52
629.744	588.33
630.192	587.42
630.64	587.42
631.089	580.12
631.537	592.82
631.985	598.73
632.433	606.02
632.881	618.03
633.33	670.12
633.778	640.32
634.226	582.92
634.674	578.12
635.122	589.83
635.57	605.62
636.018	641.52
636.466	587.63
636.914	570.43
637.362	585.73
637.81	595.33
638.258	592.12
638.705	589.82
639.153	625.23
639.601	623.32
640.049	645.42
640.497	688.83
640.944	705.42
641.392	651.73
641.84	619.22
642.287	589.02
642.735	575.22
643.182	582.12
643.63	590.82
644.078	593.33
644.525	604.92
644.973	614.12
645.42	618.53
645.867	629.93
646.315	649.12
646.762	675.42
647.21	700.92
647.657	714.62
648.104	757.62
648.551	783.82
648.999	850.52
649.446	929.82
649.893	1021.72
650.34	1181.12
650.787	1406.92
651.234	1753.43
651.682	2275.22
652.129	3128.12
652.576	4507.23
653.023	6601.72
653.47	9060.12
653.917	11353.22
654.363	13119.93
654.81	14507.12
655.257	13762.73
655.704	9048.62
656.151	5369.32
656.598	3476.03
657.044	2460.93
657.491	1888.93
657.938	1516.72
658.385	1250.02
658.831	1093.53
659.278	979.82
659.724	870.33
660.171	796.02
660.618	734.82
661.064	707.42
661.511	670.02
661.957	664.42
662.404	650.93
662.85	660.83
663.296	637.12
663.743	569.42
664.189	548.83
664.635	543.62
665.082	543.52
665.528	541.83
665.974	537.93
666.42	515.33
666.867	513.23
667.313	498.13
667.759	488.62
668.205	490.62
668.651	486.92
669.097	497.52
669.543	504.72
669.989	474.43
670.435	461.53
670.881	453.33
671.327	467.02
671.773	474.42
672.219	493.42
672.665	551.83
673.11	596.02
673.556	638.73
674.002	682.63
674.448	669.33
674.893	559.02
675.339	484.53
675.785	444.32
676.23	418.33
676.676	401.23
677.122	392.12
677.567	381.93
678.013	377.32
678.458	363.02
678.904	367.62
679.349	356.02
679.794	361.02
680.24	354.03
680.685	353.93
681.131	355.82
681.576	359.42
682.021	358.02
682.466	358.12
682.912	359.02
683.357	362.52
683.802	386.23
684.247	418.12
684.692	461.92
685.137	501.73
685.583	540.32
686.028	565.42
686.473	512.42
686.918	446.62
687.363	420.53
687.807	396.92
688.252	365.22
688.697	359.12
689.142	342.32
689.587	341.12
690.032	332.92
690.477	346.83
690.921	354.83
691.366	384.23
691.811	407.72
692.255	433.63
692.7	457.23
693.145	504.42
693.589	699.83
694.034	1141.82
694.478	1552.33
694.923	1760.62
695.367	2292.53
695.812	1206.83
696.256	507.02
696.701	380.12
697.145	346.52
697.59	332.22
698.034	321.92
698.478	328.12
698.922	333.42
699.367	335.82
699.811	347.52
700.255	357.03
700.699	385.63
701.143	433.23
701.588	482.92
702.032	521.02
702.476	521.83
702.92	497.53
703.364	491.92
703.808	643.92
704.252	1037.82
704.696	1471.52
705.14	1684.72
705.584	2155.22
706.027	1062.83
706.471	518.72
706.915	402.92
707.359	350.02
707.803	318.62
708.246	316.42
708.69	317.62
709.134	326.32
709.577	311.43
710.021	317.92
710.465	308.42
710.908	308.32
711.352	304.02
711.795	322.22
712.239	355.32
712.682	384.62
713.126	418.33
713.569	468.02
714.012	372.93
714.456	321.03
714.899	295.63
715.342	283.33
715.786	262.52
716.229	257.22
716.672	257.12
717.115	252.23
717.558	257.23
718.002	262.12
718.445	264.52
718.888	293.12
719.331	300.62
719.774	314.73
720.217	305.82
720.66	290.83
721.103	271.62
721.546	260.03
721.989	246.83
722.432	241.02
722.874	246.62
723.317	227.52
723.76	237.02
724.203	260.42
724.645	314.43
725.088	454.33
725.531	574.12
725.974	649.12
726.416	555.12
726.859	306.72
727.301	247.73
727.744	236.12
728.187	232.73
728.629	250.02
729.071	252.13
729.514	267.43
729.956	270.03
730.399	280.62
730.841	294.62
731.283	279.83
731.726	273.92
732.168	262.43
732.61	273.02
733.053	289.33
733.495	321.03
733.937	353.92
734.379	405.33
734.821	437.23
735.263	541.12
735.705	846.02
736.148	1577.72
736.59	2591.12
737.032	3083.73
737.474	2483.32
737.916	806.82
738.357	423.82
738.799	338.62
739.241	302.02
739.683	289.33
740.125	292.32
740.567	304.62
741.008	318.33
741.45	307.13
741.892	319.23
742.334	353.73
742.775	357.12
743.217	332.92
743.658	272.62
744.1	245.62
744.542	265.23
744.983	315.02
745.425	345.42
745.866	346.32
746.307	284.23
746.749	285.23
747.19	325.53
747.632	455.83
748.073	873.42
748.514	1855.63
748.956	2871.12
749.397	3577.43
749.838	2975.93
750.279	2985.93
750.72	1511.42
751.162	540.93
751.603	326.33
752.044	248.22
752.485	211.63
752.926	206.22
753.367	205.02
753.808	194.83
754.249	192.12
754.69	187.43
755.131	179.52
755.572	186.52
756.013	180.92
756.453	190.43
756.894	189.93
757.335	190.12
757.776	199.62
758.216	202.22
758.657	198.83
759.098	214.02
759.538	223.93
759.979	271.22
760.42	371.32
760.86	698.43
761.301	1808.62
761.741	4402.73
762.182	6467.43
