Data from 20171114-ORNL-Ar_H_NY_Subt18_08-08-27-122.txt Node
Date: Tue Nov 14 08:08:27 EST 2017
User: Ender
Spectrometer: HR+D1039
Trigger mode: 0
Integration Time (sec): 2.730000E-2
Scans to average: 10
Electric dark correction enabled: true
Nonlinearity correction enabled: false
Boxcar width: 0
XAxis mode: Wavelengths
Number of Pixels in Spectrum: 2048
>>>>>Begin Spectral Data<<<<<
187.836	-1.73
188.309	-1.73
188.782	-1.73
189.255	-1.03
189.728	-2.23
190.201	9.17
190.674	3.57
191.147	1.87
191.619	-5.13
192.092	2.97
192.565	3.17
193.038	-1.53
193.511	-2.13
193.984	0.07
194.456	-3.83
194.929	0.97
195.402	-1.93
195.874	-2.23
196.347	-1.13
196.82	-3.83
197.292	-0.03
197.765	-3.93
198.237	-7.93
198.71	-2.73
199.182	-3.63
199.655	4.87
200.127	3.37
200.6	2.17
201.072	-1.63
201.544	-3.43
202.017	-9.53
202.489	-0.13
202.961	-4.03
203.433	-5.33
203.906	-6.83
204.378	-10.83
204.85	-4.73
205.322	-10.23
205.794	-0.63
206.266	-3.33
206.739	-9.33
207.211	-2.13
207.683	-9.63
208.155	-6.73
208.627	-3.63
209.099	-3.13
209.57	-9.33
210.042	2.67
210.514	-3.53
210.986	-1.83
211.458	-9.83
211.93	-8.03
212.402	-3.63
212.873	-10.83
213.345	-12.53
213.817	-11.63
214.288	-2.93
214.76	-10.53
215.232	0.57
215.703	-1.23
216.175	0.57
216.646	-5.43
217.118	-10.33
217.589	-6.43
218.061	-4.23
218.532	-3.93
219.004	1.17
219.475	-3.23
219.946	1.87
220.418	-7.03
220.889	1.27
221.36	-4.83
221.832	-3.83
222.303	-8.23
222.774	-0.23
223.245	-7.53
223.717	-6.03
224.188	-4.13
224.659	-12.43
225.13	-0.53
225.601	-3.23
226.072	-4.13
226.543	-1.33
227.014	-0.93
227.485	-2.03
227.956	-5.73
228.427	-1.43
228.898	-2.73
229.369	0.47
229.839	-4.43
230.31	-10.73
230.781	-0.93
231.252	-1.23
231.722	-2.43
232.193	-3.23
232.664	0.67
233.135	-4.73
233.605	-5.63
234.076	-7.63
234.546	-2.93
235.017	5.37
235.487	-2.03
235.958	2.97
236.428	-4.03
236.899	1.47
237.369	-1.43
237.84	-5.93
238.31	1.47
238.78	-0.03
239.251	-1.33
239.721	-3.33
240.191	-2.73
240.662	-0.13
241.132	-2.13
241.602	-7.53
242.072	0.67
242.542	5.57
243.013	-7.23
243.483	-0.63
243.953	1.37
244.423	-1.43
244.893	-8.93
245.363	-3.03
245.833	1.57
246.303	-6.83
246.773	3.17
247.243	-3.63
247.712	-2.23
248.182	1.07
248.652	2.37
249.122	-2.33
249.592	3.67
250.061	2.27
250.531	10.27
251.001	-5.73
251.471	4.47
251.94	7.07
252.41	-1.83
252.879	-3.43
253.349	8.87
253.818	3.47
254.288	6.17
254.757	1.57
255.227	-2.93
255.696	6.57
256.166	5.27
256.635	3.77
257.105	3.47
257.574	2.67
258.043	1.47
258.513	1.27
258.982	4.97
259.451	-4.43
259.92	2.57
260.389	-1.13
260.859	2.37
261.328	-0.23
261.797	6.57
262.266	10.17
262.735	10.57
263.204	1.27
263.673	2.27
264.142	7.97
264.611	-4.23
265.08	-5.93
265.549	5.97
266.018	6.47
266.487	1.87
266.955	4.77
267.424	-0.43
267.893	9.47
268.362	3.57
268.83	4.27
269.299	9.87
269.768	-2.53
270.236	0.87
270.705	-0.33
271.174	0.17
271.642	2.47
272.111	0.67
272.579	7.67
273.048	3.87
273.516	7.27
273.985	10.17
274.453	7.87
274.922	11.37
275.39	8.67
275.858	-2.03
276.327	12.57
276.795	11.17
277.263	4.87
277.731	14.67
278.2	14.67
278.668	8.47
279.136	12.17
279.604	3.47
280.072	5.87
280.54	7.87
281.008	11.47
281.477	14.27
281.945	14.07
282.413	8.77
282.881	17.27
283.348	2.07
283.816	9.37
284.284	14.37
284.752	18.27
285.22	13.47
285.688	10.37
286.156	7.07
286.623	17.47
287.091	11.97
287.559	11.87
288.026	15.17
288.494	10.57
288.962	8.87
289.429	9.07
289.897	23.17
290.364	16.27
290.832	20.07
291.3	18.47
291.767	14.57
292.234	16.17
292.702	9.17
293.169	20.37
293.637	22.87
294.104	21.67
294.571	10.47
295.039	15.57
295.506	11.37
295.973	18.97
296.44	12.97
296.908	16.47
297.375	12.47
297.842	19.27
298.309	19.67
298.776	16.07
299.243	18.47
299.71	15.57
300.177	17.97
300.644	19.47
301.111	16.17
301.578	25.47
302.045	17.17
302.512	21.77
302.979	25.07
303.446	23.57
303.913	15.67
304.379	15.27
304.846	24.87
305.313	22.17
305.78	16.37
306.246	28.37
306.713	24.97
307.18	23.37
307.646	25.97
308.113	29.37
308.579	22.57
309.046	20.57
309.512	24.07
309.979	15.67
310.445	30.77
310.912	30.77
311.378	28.87
311.845	29.67
312.311	34.27
312.777	33.47
313.244	28.87
313.71	35.97
314.176	31.17
314.642	25.37
315.109	30.77
315.575	30.67
316.041	38.37
316.507	27.47
316.973	37.37
317.439	38.97
317.905	32.37
318.371	31.47
318.837	38.77
319.303	30.87
319.769	35.97
320.235	27.27
320.701	34.17
321.167	39.17
321.633	31.37
322.099	31.67
322.564	43.07
323.03	35.87
323.496	35.87
323.962	34.47
324.427	39.17
324.893	36.97
325.359	32.87
325.824	36.87
326.29	33.27
326.755	41.37
327.221	41.77
327.686	39.77
328.152	47.47
328.617	38.27
329.083	44.57
329.548	53.57
330.014	48.67
330.479	46.87
330.944	45.67
331.41	50.07
331.875	46.57
332.34	39.67
332.805	41.47
333.271	47.47
333.736	46.17
334.201	51.67
334.666	43.37
335.131	50.47
335.596	52.17
336.061	44.97
336.526	42.97
336.991	48.37
337.456	58.47
337.921	49.57
338.386	46.27
338.851	45.87
339.316	54.77
339.781	45.27
340.246	60.47
340.711	51.07
341.175	53.57
341.64	42.87
342.105	50.27
342.569	56.27
343.034	62.07
343.499	61.77
343.963	58.07
344.428	60.27
344.893	60.57
345.357	65.67
345.822	60.67
346.286	73.37
346.751	74.57
347.215	71.07
347.679	83.67
348.144	101.47
348.608	89.47
349.073	73.47
349.537	76.87
350.001	80.07
350.465	86.97
350.93	89.27
351.394	86.97
351.858	83.17
352.322	87.07
352.786	84.27
353.25	105.87
353.715	113.47
354.179	104.37
354.643	123.57
355.107	129.97
355.571	104.57
356.035	104.97
356.498	112.67
356.962	124.97
357.426	131.97
357.89	119.37
358.354	94.87
358.818	82.17
359.281	77.37
359.745	78.67
360.209	76.37
360.673	67.57
361.136	82.87
361.6	86.07
362.064	90.87
362.527	79.57
362.991	93.57
363.454	85.87
363.918	79.47
364.381	75.67
364.845	89.27
365.308	90.57
365.772	85.67
366.235	93.97
366.698	88.07
367.162	88.87
367.625	86.07
368.088	91.57
368.552	90.67
369.015	93.77
369.478	88.57
369.941	96.07
370.404	99.47
370.867	99.57
371.331	111.97
371.794	117.47
372.257	104.67
372.72	104.87
373.183	105.77
373.646	98.07
374.109	105.77
374.572	104.97
375.035	108.77
375.497	111.87
375.96	110.07
376.423	104.97
376.886	117.87
377.349	113.57
377.811	104.87
378.274	106.67
378.737	112.57
379.199	112.77
379.662	112.47
380.125	112.47
380.587	115.97
381.05	118.57
381.512	124.47
381.975	134.27
382.437	131.67
382.9	120.37
383.362	128.77
383.825	140.97
384.287	136.97
384.75	123.87
385.212	129.27
385.674	137.27
386.136	136.17
386.599	125.27
387.061	125.77
387.523	132.07
387.985	127.27
388.447	143.17
388.91	133.97
389.372	140.67
389.834	139.37
390.296	129.27
390.758	142.57
391.22	140.47
391.682	159.17
392.144	165.87
392.606	153.67
393.068	144.17
393.529	159.47
393.991	146.07
394.453	147.57
394.915	141.97
395.377	146.37
395.838	149.97
396.3	145.97
396.762	143.97
397.224	139.97
397.685	132.27
398.147	136.17
398.608	139.27
399.07	140.17
399.531	149.87
399.993	157.07
400.454	163.07
400.916	158.67
401.377	153.87
401.839	166.97
402.3	165.57
402.762	178.27
403.223	194.77
403.684	177.77
404.145	170.27
404.607	171.17
405.068	177.77
405.529	182.77
405.99	192.47
406.451	191.47
406.913	180.77
407.374	176.87
407.835	169.47
408.296	178.57
408.757	183.67
409.218	203.47
409.679	191.97
410.14	188.97
410.601	185.67
411.062	188.47
411.522	186.27
411.983	186.57
412.444	187.67
412.905	197.47
413.366	193.97
413.826	211.97
414.287	236.17
414.748	291.67
415.208	281.47
415.669	229.07
416.13	225.57
416.59	218.47
417.051	231.57
417.511	239.67
417.972	258.17
418.432	269.27
418.893	312.37
419.353	275.07
419.814	221.27
420.274	201.07
420.734	195.47
421.195	213.37
421.655	210.27
422.115	207.87
422.576	209.07
423.036	218.07
423.496	230.57
423.956	234.17
424.416	249.77
424.876	283.27
425.336	279.47
425.797	284.27
426.257	272.17
426.717	258.87
427.177	247.67
427.637	242.77
428.097	249.97
428.556	258.67
429.016	283.87
429.476	275.67
429.936	287.07
430.396	290.27
430.856	306.77
431.315	336.47
431.775	366.47
432.235	395.97
432.694	369.67
433.154	385.57
433.614	411.77
434.073	360.67
434.533	302.77
434.993	287.87
435.452	299.47
435.912	313.27
436.371	304.97
436.83	300.87
437.29	286.07
437.749	269.97
438.209	267.07
438.668	302.17
439.127	311.47
439.587	285.57
440.046	274.27
440.505	281.57
440.964	296.97
441.424	345.67
441.883	337.57
442.342	278.67
442.801	255.67
443.26	246.47
443.719	240.17
444.178	241.27
444.637	228.77
445.096	239.77
445.555	245.07
446.014	243.27
446.473	244.97
446.932	256.97
447.391	248.07
447.849	246.47
448.308	239.27
448.767	243.37
449.226	255.27
449.685	249.87
450.143	267.77
450.602	255.47
451.061	239.87
451.519	252.37
451.978	257.57
452.436	255.87
452.895	259.87
453.353	279.37
453.812	265.27
454.27	259.97
454.729	257.57
455.187	267.07
455.646	266.07
456.104	270.27
456.562	290.27
457.021	286.17
457.479	287.37
457.937	306.17
458.395	282.77
458.854	271.77
459.312	288.07
459.77	310.27
460.228	283.97
460.686	265.17
461.144	276.07
461.602	268.17
462.06	268.57
462.518	278.27
462.976	283.27
463.434	284.87
463.892	284.97
464.35	296.97
464.808	313.17
465.266	293.07
465.724	292.77
466.181	301.27
466.639	298.07
467.097	322.67
467.555	329.47
468.012	333.07
468.47	346.07
468.928	357.17
469.385	369.27
469.843	382.37
470.3	377.77
470.758	396.97
471.215	416.07
471.673	445.87
472.13	441.07
472.588	453.67
473.045	413.97
473.503	422.87
473.96	436.87
474.417	447.97
474.875	466.57
475.332	508.67
475.789	501.17
476.246	499.77
476.704	519.87
477.161	547.27
477.618	562.37
478.075	605.67
478.532	660.97
478.989	741.07
479.446	851.37
479.903	808.77
480.36	829.77
480.817	891.67
481.274	988.37
481.731	1070.97
482.188	1166.47
482.645	1281.17
483.102	1383.37
483.558	1509.67
484.015	1532.67
484.472	1516.17
484.929	1475.07
485.385	1424.87
485.842	1400.37
486.299	1354.37
486.755	1319.57
487.212	1118.67
487.668	964.67
488.125	882.87
488.582	820.97
489.038	790.17
489.494	755.67
489.951	728.67
490.407	701.87
490.864	697.37
491.32	685.47
491.776	678.47
492.233	690.97
492.689	657.47
493.145	653.17
493.602	648.57
494.058	665.17
494.514	669.67
494.97	684.77
495.426	693.77
495.882	656.57
496.338	659.67
496.794	670.57
497.251	663.97
497.707	668.87
498.163	674.07
498.618	678.77
499.074	686.57
499.53	710.77
499.986	717.67
500.442	687.37
500.898	660.87
501.354	653.27
501.809	674.57
502.265	674.17
502.721	681.07
503.177	690.67
503.632	688.97
504.088	698.77
504.543	715.97
504.999	734.87
505.455	698.47
505.91	685.07
506.366	680.57
506.821	681.97
507.277	681.77
507.732	686.17
508.187	682.17
508.643	689.77
509.098	679.77
509.553	708.27
510.009	716.07
510.464	729.77
510.919	747.97
511.375	750.57
511.83	763.77
512.285	779.67
512.74	821.17
513.195	833.87
513.65	824.77
514.105	821.67
514.56	817.97
515.015	844.07
515.47	854.97
515.925	843.07
516.38	844.57
516.835	859.47
517.29	834.57
517.745	834.37
518.2	819.87
518.655	808.47
519.109	799.17
519.564	796.07
520.019	781.07
520.474	777.67
520.928	777.47
521.383	765.87
521.838	765.17
522.292	771.37
522.747	756.07
523.201	759.27
523.656	758.67
524.11	750.17
524.565	752.57
525.019	745.97
525.474	752.77
525.928	756.57
526.382	747.77
526.837	755.17
527.291	752.47
527.745	748.37
528.2	744.97
528.654	747.27
529.108	749.27
529.562	738.57
530.016	741.87
530.47	736.77
530.925	745.37
531.379	745.17
531.833	752.87
532.287	746.47
532.741	745.87
533.195	752.77
533.649	763.47
534.103	769.47
534.556	762.07
535.01	766.97
535.464	749.87
535.918	763.97
536.372	775.57
536.826	777.57
537.279	754.07
537.733	761.07
538.187	754.57
538.64	762.87
539.094	776.67
539.548	790.77
540.001	781.57
540.455	777.67
540.908	791.67
541.362	797.57
541.815	807.17
542.269	814.47
542.722	810.07
543.175	822.17
543.629	836.27
544.082	843.97
544.536	850.77
544.989	845.87
545.442	859.27
545.895	856.17
546.349	861.17
546.802	851.07
547.255	862.07
547.708	866.57
548.161	875.17
548.614	883.47
549.067	896.47
549.52	875.27
549.973	874.67
550.426	871.47
550.879	857.57
551.332	867.37
551.785	876.07
552.238	868.07
552.691	879.67
553.144	908.37
553.596	913.57
554.049	934.87
554.502	958.27
554.955	985.17
555.407	979.07
555.86	976.67
556.313	951.47
556.765	956.87
557.218	958.37
557.67	957.77
558.123	943.07
558.576	940.47
559.028	941.97
559.48	955.37
559.933	939.37
560.385	913.67
560.838	878.57
561.29	852.27
561.742	855.47
562.195	828.57
562.647	832.27
563.099	841.87
563.551	831.27
564.004	844.57
564.456	829.47
564.908	824.17
565.36	797.07
565.812	788.07
566.264	780.77
566.716	769.27
567.168	761.07
567.62	765.87
568.072	755.97
568.524	740.67
568.976	741.87
569.428	737.07
569.88	735.07
570.332	734.67
570.784	743.27
571.235	740.47
571.687	756.97
572.139	762.17
572.59	769.47
573.042	771.47
573.494	760.97
573.945	765.17
574.397	744.57
574.849	747.27
575.3	746.77
575.752	742.37
576.203	730.87
576.655	742.37
577.106	719.57
577.557	708.57
578.009	725.57
578.46	716.77
578.912	716.87
579.363	721.37
579.814	710.37
580.265	719.17
580.717	725.17
581.168	719.77
581.619	724.67
582.07	733.77
582.521	723.47
582.972	725.47
583.423	734.47
583.875	729.97
584.326	734.67
584.777	747.87
585.227	789.47
585.678	801.87
586.129	813.87
586.58	843.67
587.031	869.27
587.482	913.37
587.933	949.07
588.384	916.37
588.834	862.37
589.285	832.67
589.736	826.67
590.186	834.77
590.637	812.77
591.088	798.17
591.538	800.87
591.989	783.47
592.439	775.47
592.89	767.27
593.34	750.57
593.791	744.57
594.241	751.77
594.692	748.67
595.142	739.67
595.593	744.77
596.043	753.77
596.493	762.47
596.943	762.57
597.394	767.07
597.844	777.97
598.294	787.17
598.744	813.77
599.195	842.57
599.645	894.27
600.095	931.47
600.545	989.17
600.995	1045.67
601.445	1092.47
601.895	1163.07
602.345	1216.27
602.795	1191.87
603.245	1144.47
603.695	1093.07
604.145	1041.17
604.594	978.27
605.044	928.77
605.494	859.87
605.944	829.67
606.393	796.17
606.843	786.77
607.293	781.87
607.743	783.67
608.192	804.17
608.642	811.27
609.091	815.37
609.541	817.57
609.99	822.27
610.44	822.07
610.889	771.67
611.339	745.87
611.788	724.57
612.238	738.17
612.687	758.97
613.136	752.27
613.586	762.47
614.035	753.07
614.484	765.57
614.933	759.97
615.383	765.07
615.832	757.17
616.281	753.57
616.73	721.17
617.179	698.17
617.628	687.07
618.077	672.57
618.526	670.97
618.975	660.77
619.424	658.97
619.873	658.87
620.322	663.67
620.771	654.77
621.22	652.77
621.669	627.77
622.118	630.57
622.567	633.87
623.015	609.37
623.464	604.07
623.913	608.17
624.361	589.27
624.81	593.07
625.259	598.87
625.707	591.67
626.156	586.37
626.604	613.47
627.053	605.07
627.501	609.67
627.95	619.47
628.398	632.97
628.847	613.97
629.295	619.57
629.744	608.87
630.192	613.87
630.64	601.17
631.089	597.97
631.537	583.37
631.985	569.27
632.433	570.37
632.881	567.97
633.33	578.57
633.778	573.17
634.226	560.27
634.674	580.37
635.122	583.77
635.57	600.17
636.018	605.57
636.466	610.37
636.914	599.87
637.362	619.47
637.81	625.67
638.258	627.77
638.705	624.57
639.153	660.07
639.601	665.67
640.049	690.97
640.497	727.27
640.944	738.77
641.392	691.07
641.84	663.17
642.287	625.37
642.735	605.07
643.182	594.47
643.63	619.87
644.078	601.27
644.525	605.27
644.973	626.07
645.42	627.97
645.867	651.77
646.315	682.57
646.762	704.97
647.21	724.77
647.657	752.77
648.104	780.27
648.551	808.27
648.999	873.47
649.446	956.77
649.893	1031.67
650.34	1194.37
650.787	1404.77
651.234	1735.57
651.682	2255.57
652.129	3046.77
652.576	4332.37
653.023	6284.07
653.47	8465.17
653.917	10489.07
654.363	11994.77
654.81	13168.97
655.257	12442.37
655.704	8312.77
656.151	5001.47
656.598	3304.77
657.044	2359.37
657.491	1832.47
657.938	1491.57
658.385	1266.57
658.831	1094.67
659.278	990.47
659.724	882.67
660.171	815.87
660.618	753.37
661.064	718.97
661.511	705.67
661.957	686.77
662.404	674.47
662.85	693.57
663.296	649.77
663.743	599.97
664.189	582.77
664.635	569.37
665.082	569.67
665.528	574.17
665.974	552.87
666.42	540.87
666.867	538.77
667.313	519.57
667.759	505.07
668.205	485.57
668.651	483.77
669.097	481.07
669.543	481.47
669.989	477.67
670.435	484.07
670.881	482.17
671.327	475.17
671.773	500.87
672.219	528.17
672.665	591.07
673.11	630.27
673.556	676.27
674.002	715.47
674.448	716.17
674.893	605.27
675.339	521.27
675.785	485.67
676.23	455.17
676.676	429.97
677.122	425.47
677.567	412.67
678.013	404.07
678.458	391.37
678.904	389.87
679.349	383.27
679.794	395.97
680.24	376.77
680.685	377.37
681.131	379.87
681.576	386.77
682.021	379.27
682.466	372.57
682.912	383.07
683.357	390.47
683.802	411.87
684.247	441.07
684.692	494.97
685.137	548.57
685.583	582.47
686.028	609.67
686.473	560.37
686.918	482.47
687.363	460.77
687.807	434.67
688.252	397.27
688.697	392.97
689.142	370.97
689.587	367.17
690.032	351.57
690.477	372.07
690.921	379.87
691.366	412.27
691.811	437.27
692.255	466.37
692.7	505.87
693.145	552.47
693.589	779.27
694.034	1252.07
694.478	1688.17
694.923	1871.87
695.367	2409.67
695.812	1288.77
696.256	544.57
696.701	404.57
697.145	367.07
697.59	357.47
698.034	346.47
698.478	347.57
698.922	351.47
699.367	351.97
699.811	360.97
700.255	387.77
700.699	413.07
701.143	456.87
701.588	512.67
702.032	553.77
702.476	553.07
702.92	531.47
703.364	539.27
703.808	712.27
704.252	1159.27
704.696	1609.37
705.14	1800.17
705.584	2283.17
706.027	1154.27
706.471	570.67
706.915	427.07
707.359	384.07
707.803	350.97
708.246	337.17
708.69	337.77
709.134	340.07
709.577	333.67
710.021	342.37
710.465	336.27
710.908	324.37
711.352	324.07
711.795	339.17
712.239	388.87
712.682	422.47
713.126	442.77
713.569	491.37
714.012	388.57
714.456	329.07
714.899	314.57
715.342	291.77
715.786	291.37
716.229	277.77
716.672	283.07
717.115	265.67
717.558	268.17
718.002	275.27
718.445	285.77
718.888	306.37
719.331	316.47
719.774	329.57
720.217	328.67
720.66	307.57
721.103	287.87
721.546	272.47
721.989	274.07
722.432	253.87
722.874	252.37
723.317	247.97
723.76	251.17
724.203	278.77
724.645	353.87
725.088	487.07
725.531	613.17
725.974	687.17
726.416	588.67
726.859	335.27
727.301	266.77
727.744	254.57
728.187	246.57
728.629	260.47
729.071	265.47
729.514	283.97
729.956	294.97
730.399	309.07
730.841	311.97
731.283	300.77
731.726	288.27
732.168	285.97
732.61	294.07
733.053	311.47
733.495	346.87
733.937	387.37
734.379	435.67
734.821	478.57
735.263	597.47
735.705	934.17
736.148	1761.07
736.59	2848.17
737.032	3269.17
737.474	2683.47
737.916	903.17
738.357	473.47
738.799	360.27
739.241	322.17
739.683	311.07
740.125	313.07
740.567	328.27
741.008	342.57
741.45	347.67
741.892	347.27
742.334	388.77
742.775	387.97
743.217	374.27
743.658	298.37
744.1	284.17
744.542	286.67
744.983	346.77
745.425	375.67
745.866	375.37
746.307	307.97
746.749	305.57
747.19	356.27
747.632	504.07
748.073	993.57
748.514	2084.67
748.956	3118.97
749.397	3920.47
749.838	3253.17
750.279	3185.47
750.72	1629.37
751.162	611.57
751.603	349.47
752.044	274.77
752.485	235.97
752.926	226.87
753.367	224.27
753.808	215.17
754.249	206.57
754.69	204.47
755.131	202.57
755.572	196.07
756.013	197.57
756.453	207.37
756.894	196.87
757.335	211.67
757.776	209.37
758.216	212.87
758.657	214.77
759.098	219.47
759.538	248.47
759.979	295.37
760.42	416.17
760.86	783.67
761.301	2096.07
761.741	4898.17
762.182	6848.87
