Data from 20171114-ORNL-Ar_H_NY_Subt18_08-07-20-243.txt Node
Date: Tue Nov 14 08:07:20 EST 2017
User: Ender
Spectrometer: HR+D1039
Trigger mode: 0
Integration Time (sec): 2.730000E-2
Scans to average: 10
Electric dark correction enabled: true
Nonlinearity correction enabled: false
Boxcar width: 0
XAxis mode: Wavelengths
Number of Pixels in Spectrum: 2048
>>>>>Begin Spectral Data<<<<<
187.836	-4.28
188.309	-4.28
188.782	-4.28
189.255	-0.48
189.728	-5.18
190.201	11.62
190.674	0.32
191.147	2.52
191.619	-5.78
192.092	-0.18
192.565	6.12
193.038	1.02
193.511	-3.98
193.984	-4.88
194.456	-1.88
194.929	2.62
195.402	0.02
195.874	2.32
196.347	4.72
196.82	-5.48
197.292	7.02
197.765	0.12
198.237	-4.68
198.71	0.92
199.182	1.32
199.655	3.52
200.127	2.52
200.6	-4.18
201.072	-5.78
201.544	-5.98
202.017	-3.58
202.489	3.42
202.961	2.62
203.433	-2.78
203.906	-1.08
204.378	-1.28
204.85	0.22
205.322	-12.08
205.794	-6.98
206.266	-6.88
206.739	-5.88
207.211	7.12
207.683	-7.08
208.155	-1.08
208.627	-8.38
209.099	-3.68
209.57	-7.18
210.042	-3.28
210.514	-8.48
210.986	-5.98
211.458	-6.28
211.93	2.92
212.402	1.92
212.873	-6.58
213.345	-9.38
213.817	-13.78
214.288	1.72
214.76	-12.68
215.232	2.52
215.703	-0.88
216.175	-3.68
216.646	-5.08
217.118	-14.28
217.589	-6.98
218.061	-3.58
218.532	-5.28
219.004	-4.28
219.475	-4.28
219.946	0.12
220.418	-5.68
220.889	2.52
221.36	-3.08
221.832	-7.58
222.303	-8.68
222.774	-1.28
223.245	-9.68
223.717	-5.88
224.188	-1.48
224.659	-8.58
225.13	-3.08
225.601	-3.38
226.072	2.12
226.543	-3.88
227.014	-3.18
227.485	-0.48
227.956	-7.88
228.427	-4.88
228.898	-1.08
229.369	0.92
229.839	-7.58
230.31	-7.88
230.781	-2.38
231.252	-7.68
231.722	-11.98
232.193	-3.38
232.664	1.12
233.135	-2.08
233.605	-9.68
234.076	-4.98
234.546	-3.08
235.017	1.72
235.487	-5.58
235.958	-5.98
236.428	-0.28
236.899	-2.18
237.369	2.52
237.84	-8.28
238.31	0.12
238.78	-2.08
239.251	-10.48
239.721	-1.28
240.191	-5.88
240.662	-4.18
241.132	-4.48
241.602	-6.08
242.072	-0.58
242.542	6.62
243.013	4.02
243.483	-0.78
243.953	1.42
244.423	-2.28
244.893	-7.78
245.363	-4.58
245.833	-0.78
246.303	-9.48
246.773	3.02
247.243	-0.78
247.712	-5.38
248.182	-1.48
248.652	-0.08
249.122	-6.78
249.592	4.22
250.061	3.32
250.531	6.82
251.001	-4.48
251.471	6.32
251.94	8.72
252.41	0.62
252.879	-7.18
253.349	9.82
253.818	1.22
254.288	-0.18
254.757	-3.98
255.227	-7.08
255.696	-5.48
256.166	-0.68
256.635	-1.68
257.105	-0.78
257.574	-3.68
258.043	-1.68
258.513	-3.08
258.982	2.42
259.451	-5.98
259.92	1.32
260.389	4.02
260.859	9.72
261.328	5.52
261.797	5.82
262.266	1.72
262.735	4.12
263.204	4.52
263.673	1.82
264.142	0.82
264.611	-6.08
265.08	-4.28
265.549	0.52
266.018	1.82
266.487	-5.78
266.955	-6.78
267.424	-7.78
267.893	3.32
268.362	-2.18
268.83	-6.58
269.299	6.62
269.768	-0.68
270.236	-1.28
270.705	-6.68
271.174	-5.38
271.642	2.02
272.111	-3.38
272.579	-2.58
273.048	4.72
273.516	4.82
273.985	11.32
274.453	5.52
274.922	10.92
275.39	3.72
275.858	-0.78
276.327	9.82
276.795	10.22
277.263	-0.38
277.731	5.92
278.2	1.82
278.668	6.02
279.136	10.62
279.604	4.92
280.072	9.72
280.54	6.42
281.008	5.62
281.477	9.92
281.945	8.82
282.413	11.92
282.881	10.52
283.348	3.32
283.816	7.32
284.284	3.32
284.752	15.42
285.22	9.32
285.688	6.12
286.156	5.02
286.623	15.42
287.091	7.02
287.559	5.12
288.026	11.72
288.494	2.72
288.962	-4.58
289.429	0.32
289.897	6.42
290.364	7.12
290.832	12.52
291.3	7.82
291.767	9.12
292.234	8.92
292.702	6.42
293.169	9.82
293.637	15.62
294.104	17.62
294.571	3.12
295.039	8.02
295.506	3.92
295.973	6.72
296.44	11.32
296.908	9.72
297.375	10.92
297.842	15.22
298.309	14.42
298.776	5.42
299.243	12.72
299.71	7.22
300.177	13.12
300.644	18.92
301.111	12.52
301.578	14.82
302.045	8.62
302.512	17.62
302.979	17.92
303.446	10.52
303.913	8.32
304.379	11.62
304.846	19.82
305.313	14.42
305.78	9.42
306.246	18.82
306.713	20.92
307.18	14.52
307.646	16.72
308.113	21.52
308.579	9.42
309.046	15.72
309.512	18.82
309.979	11.22
310.445	18.42
310.912	18.42
311.378	26.32
311.845	23.72
312.311	20.62
312.777	26.82
313.244	23.52
313.71	29.92
314.176	23.52
314.642	21.92
315.109	20.42
315.575	21.52
316.041	27.92
316.507	22.82
316.973	23.52
317.439	22.72
317.905	27.42
318.371	31.62
318.837	27.92
319.303	21.82
319.769	26.32
320.235	28.82
320.701	33.42
321.167	26.32
321.633	20.82
322.099	25.32
322.564	32.52
323.03	23.22
323.496	26.82
323.962	33.72
324.427	33.42
324.893	29.42
325.359	24.92
325.824	28.92
326.29	28.72
326.755	32.72
327.221	30.32
327.686	30.32
328.152	37.12
328.617	28.92
329.083	37.02
329.548	38.12
330.014	34.72
330.479	32.82
330.944	34.72
331.41	29.22
331.875	39.22
332.34	31.42
332.805	33.82
333.271	35.62
333.736	29.52
334.201	40.42
334.666	38.32
335.131	41.42
335.596	38.62
336.061	41.82
336.526	36.32
336.991	38.52
337.456	45.92
337.921	38.22
338.386	37.52
338.851	32.12
339.316	37.32
339.781	37.32
340.246	47.12
340.711	37.52
341.175	42.22
341.64	41.72
342.105	46.32
342.569	50.42
343.034	48.72
343.499	46.62
343.963	43.82
344.428	48.12
344.893	45.92
345.357	49.92
345.822	46.12
346.286	60.32
346.751	62.12
347.215	52.92
347.679	55.02
348.144	75.82
348.608	65.72
349.073	57.02
349.537	56.52
350.001	66.32
350.465	71.62
350.93	63.62
351.394	64.82
351.858	66.92
352.322	68.82
352.786	71.32
353.25	77.42
353.715	91.22
354.179	81.92
354.643	94.82
355.107	98.62
355.571	84.32
356.035	81.22
356.498	92.92
356.962	87.52
357.426	96.42
357.89	93.02
358.354	76.12
358.818	72.82
359.281	65.22
359.745	61.82
360.209	65.82
360.673	58.22
361.136	62.62
361.6	73.52
362.064	67.72
362.527	79.12
362.991	81.32
363.454	64.42
363.918	67.22
364.381	73.22
364.845	64.92
365.308	73.72
365.772	78.92
366.235	82.02
366.698	68.42
367.162	72.02
367.625	75.32
368.088	79.42
368.552	77.92
369.015	78.52
369.478	87.92
369.941	84.92
370.404	79.02
370.867	91.52
371.331	92.02
371.794	94.42
372.257	88.32
372.72	97.02
373.183	94.32
373.646	84.02
374.109	84.52
374.572	97.82
375.035	89.32
375.497	93.62
375.96	97.62
376.423	87.62
376.886	104.32
377.349	107.52
377.811	92.82
378.274	94.02
378.737	95.02
379.199	96.32
379.662	95.32
380.125	104.52
380.587	99.92
381.05	98.62
381.512	99.02
381.975	112.22
382.437	104.12
382.9	105.22
383.362	111.22
383.825	122.52
384.287	116.32
384.75	111.92
385.212	122.52
385.674	121.72
386.136	120.02
386.599	109.22
387.061	116.32
387.523	109.62
387.985	122.02
388.447	124.22
388.91	111.52
389.372	123.62
389.834	127.72
390.296	117.82
390.758	124.72
391.22	129.62
391.682	147.62
392.144	140.32
392.606	137.92
393.068	131.72
393.529	143.82
393.991	131.32
394.453	122.42
394.915	123.02
395.377	133.62
395.838	130.22
396.3	130.02
396.762	132.52
397.224	126.82
397.685	125.22
398.147	133.72
398.608	125.12
399.07	133.82
399.531	135.62
399.993	135.12
400.454	144.72
400.916	143.62
401.377	142.82
401.839	142.62
402.3	146.82
402.762	161.82
403.223	171.22
403.684	163.12
404.145	152.32
404.607	153.32
405.068	153.52
405.529	159.32
405.99	176.92
406.451	163.32
406.913	163.72
407.374	161.42
407.835	160.72
408.296	165.72
408.757	164.72
409.218	184.12
409.679	167.32
410.14	168.42
410.601	173.12
411.062	180.22
411.522	180.52
411.983	167.52
412.444	166.82
412.905	174.72
413.366	180.42
413.826	200.92
414.287	213.23
414.748	264.73
415.208	250.32
415.669	216.72
416.13	212.32
416.59	206.82
417.051	216.42
417.511	217.52
417.972	239.72
418.432	253.12
418.893	290.42
419.353	251.52
419.814	201.42
420.274	186.62
420.734	182.02
421.195	195.52
421.655	186.22
422.115	204.12
422.576	198.52
423.036	201.22
423.496	212.32
423.956	217.22
424.416	230.92
424.876	270.62
425.336	263.12
425.797	259.92
426.257	256.52
426.717	234.22
427.177	233.12
427.637	224.42
428.097	230.52
428.556	243.23
429.016	269.52
429.476	254.12
429.936	270.42
430.396	277.02
430.856	288.82
431.315	302.22
431.775	333.32
432.235	361.02
432.694	344.62
433.154	343.42
433.614	380.82
434.073	323.12
434.533	282.02
434.993	267.82
435.452	273.12
435.912	285.22
436.371	280.12
436.83	271.62
437.29	256.72
437.749	240.32
438.209	245.22
438.668	270.02
439.127	281.42
439.587	266.83
440.046	246.52
440.505	258.22
440.964	271.72
441.424	313.12
441.883	304.22
442.342	257.42
442.801	227.73
443.26	217.52
443.719	229.52
444.178	223.72
444.637	215.62
445.096	219.02
445.555	227.72
446.014	229.62
446.473	231.42
446.932	240.92
447.391	236.42
447.849	236.12
448.308	219.73
448.767	225.72
449.226	248.22
449.685	245.32
450.143	256.02
450.602	245.12
451.061	235.72
451.519	233.33
451.978	238.12
452.436	240.52
452.895	247.83
453.353	260.12
453.812	248.52
454.27	240.52
454.729	247.62
455.187	255.02
455.646	254.92
456.104	257.42
456.562	269.12
457.021	278.92
457.479	264.32
457.937	286.62
458.395	268.72
458.854	254.52
459.312	266.42
459.77	286.32
460.228	263.52
460.686	254.42
461.144	257.52
461.602	259.72
462.06	262.02
462.518	270.32
462.976	261.42
463.434	266.82
463.892	267.42
464.35	286.82
464.808	290.23
465.266	270.23
465.724	279.12
466.181	275.42
466.639	282.22
467.097	300.82
467.555	314.42
468.012	316.72
468.47	317.62
468.928	340.72
469.385	352.83
469.843	363.82
470.3	364.62
470.758	377.42
471.215	398.02
471.673	414.42
472.13	414.82
472.588	427.52
473.045	382.02
473.503	395.83
473.96	409.52
474.417	420.42
474.875	446.92
475.332	477.12
475.789	471.02
476.246	476.22
476.704	495.62
477.161	513.82
477.618	535.22
478.075	570.72
478.532	620.92
478.989	694.73
479.446	791.52
479.903	768.33
480.36	792.72
480.817	833.22
481.274	939.02
481.731	1028.52
482.188	1104.03
482.645	1222.62
483.102	1327.32
483.558	1436.82
484.015	1479.43
484.472	1441.42
484.929	1402.12
485.385	1372.92
485.842	1340.32
486.299	1292.12
486.755	1247.12
487.212	1052.72
487.668	917.32
488.125	845.62
488.582	773.52
489.038	749.22
489.494	716.92
489.951	691.42
490.407	687.52
490.864	661.42
491.32	660.92
491.776	658.92
492.233	663.32
492.689	623.82
493.145	615.72
493.602	621.32
494.058	635.52
494.514	629.22
494.97	655.02
495.426	658.02
495.882	646.62
496.338	618.52
496.794	644.12
497.251	634.52
497.707	650.83
498.163	649.12
498.618	649.32
499.074	657.73
499.53	686.32
499.986	687.52
500.442	659.42
500.898	643.52
501.354	637.32
501.809	638.72
502.265	649.12
502.721	652.22
503.177	650.83
503.632	668.92
504.088	667.32
504.543	690.72
504.999	708.02
505.455	678.32
505.91	652.92
506.366	658.12
506.821	649.82
507.277	650.52
507.732	653.12
508.187	655.42
508.643	673.23
509.098	664.82
509.553	684.72
510.009	688.12
510.464	698.62
510.919	714.42
511.375	724.92
511.83	735.42
512.285	752.82
512.74	777.62
513.195	797.32
513.65	797.02
514.105	787.42
514.56	793.02
515.015	816.42
515.47	826.82
515.925	808.22
516.38	808.42
516.835	821.62
517.29	807.83
517.745	796.52
518.2	787.82
518.655	777.62
519.109	779.22
519.564	767.52
520.019	758.02
520.474	752.52
520.928	754.22
521.383	748.32
521.838	734.02
522.292	734.52
522.747	739.62
523.201	737.42
523.656	723.02
524.11	731.22
524.565	732.12
525.019	715.32
525.474	714.92
525.928	726.33
526.382	714.12
526.837	724.82
527.291	726.72
527.745	725.42
528.2	720.92
528.654	715.92
529.108	707.22
529.562	723.12
530.016	711.12
530.47	719.42
530.925	719.72
531.379	713.82
531.833	718.82
532.287	725.22
532.741	719.22
533.195	726.82
533.649	735.82
534.103	747.12
534.556	736.32
535.01	735.32
535.464	722.82
535.918	739.83
536.372	745.72
536.826	743.62
537.279	726.82
537.733	740.12
538.187	737.42
538.64	738.92
539.094	738.82
539.548	751.72
540.001	744.92
540.455	746.92
540.908	760.62
541.362	764.42
541.815	764.62
542.269	791.12
542.722	785.72
543.175	802.12
543.629	794.42
544.082	819.22
544.536	811.52
544.989	822.22
545.442	826.72
545.895	814.42
546.349	822.12
546.802	827.02
547.255	829.32
547.708	841.82
548.161	843.02
548.614	852.12
549.067	857.52
549.52	849.73
549.973	848.12
550.426	835.72
550.879	829.42
551.332	836.22
551.785	834.52
552.238	841.32
552.691	840.42
553.144	872.92
553.596	877.62
554.049	899.32
554.502	926.52
554.955	936.42
555.407	940.62
555.86	944.22
556.313	922.52
556.765	921.12
557.218	918.12
557.67	907.32
558.123	910.92
558.576	913.02
559.028	912.02
559.48	919.92
559.933	915.42
560.385	872.72
560.838	850.32
561.29	826.42
561.742	826.52
562.195	802.62
562.647	800.72
563.099	805.02
563.551	806.73
564.004	827.52
564.456	803.92
564.908	785.22
565.36	772.82
565.812	761.02
566.264	743.83
566.716	745.42
567.168	733.12
567.62	734.22
568.072	723.02
568.524	723.83
568.976	719.02
569.428	705.12
569.88	709.52
570.332	706.92
570.784	716.32
571.235	703.92
571.687	722.92
572.139	728.92
572.59	736.02
573.042	743.02
573.494	749.82
573.945	731.22
574.397	719.82
574.849	711.62
575.3	723.73
575.752	707.72
576.203	699.32
576.655	717.12
577.106	690.12
577.557	691.33
578.009	690.83
578.46	701.42
578.912	688.32
579.363	687.42
579.814	687.02
580.265	699.82
580.717	688.62
581.168	693.62
581.619	699.72
582.07	709.22
582.521	690.82
582.972	686.72
583.423	699.92
583.875	693.92
584.326	709.42
584.777	721.52
585.227	736.72
585.678	746.72
586.129	758.32
586.58	787.83
587.031	804.12
587.482	851.42
587.933	880.92
588.384	845.92
588.834	812.73
589.285	790.12
589.736	802.92
590.186	793.22
590.637	789.12
591.088	774.22
591.538	762.73
591.989	744.32
592.439	752.22
592.89	735.52
593.34	733.32
593.791	722.32
594.241	724.92
594.692	723.02
595.142	724.62
595.593	717.92
596.043	723.22
596.493	734.42
596.943	726.12
597.394	736.92
597.844	737.02
598.294	754.12
598.744	779.22
599.195	796.92
599.645	850.62
600.095	892.52
600.545	945.22
600.995	995.82
601.445	1054.82
601.895	1126.22
602.345	1175.92
602.795	1146.62
603.245	1095.92
603.695	1058.52
604.145	990.23
604.594	942.22
605.044	902.42
605.494	826.72
605.944	774.92
606.393	762.82
606.843	753.72
607.293	755.52
607.743	743.82
608.192	768.52
608.642	780.32
609.091	790.52
609.541	788.62
609.99	782.83
610.44	773.12
610.889	739.62
611.339	723.52
611.788	696.42
612.238	713.12
612.687	727.02
613.136	712.02
613.586	725.22
614.035	717.33
614.484	725.92
614.933	731.32
615.383	730.02
615.832	728.02
616.281	714.12
616.73	683.62
617.179	675.22
617.628	653.22
618.077	654.42
618.526	638.82
618.975	626.02
619.424	628.72
619.873	628.92
620.322	638.12
620.771	615.82
621.22	615.42
621.669	611.22
622.118	610.82
622.567	596.33
623.015	580.02
623.464	576.42
623.913	570.02
624.361	565.52
624.81	563.02
625.259	555.42
625.707	576.02
626.156	576.82
626.604	583.82
627.053	583.82
627.501	582.32
627.95	586.12
628.398	591.82
628.847	577.52
629.295	584.32
629.744	586.52
630.192	578.62
630.64	571.32
631.089	557.32
631.537	543.52
631.985	540.52
632.433	549.92
632.881	541.22
633.33	547.52
633.778	544.12
634.226	537.83
634.674	548.02
635.122	552.92
635.57	570.92
636.018	574.72
636.466	584.32
636.914	564.62
637.362	579.92
637.81	588.52
638.258	585.33
638.705	598.52
639.153	619.82
639.601	630.92
640.049	662.02
640.497	700.62
640.944	717.02
641.392	653.32
641.84	631.12
642.287	601.73
642.735	578.92
643.182	582.02
643.63	569.12
644.078	585.52
644.525	585.92
644.973	600.02
645.42	600.12
645.867	623.62
646.315	648.12
646.762	667.12
647.21	703.12
647.657	705.02
648.104	738.12
648.551	759.02
648.999	821.62
649.446	897.52
649.893	973.92
650.34	1122.12
650.787	1325.92
651.234	1619.32
651.682	2109.62
652.129	2843.92
652.576	4041.12
653.023	5927.82
653.47	7973.12
653.917	9952.02
654.363	11452.23
654.81	12602.02
655.257	11963.62
655.704	7891.53
656.151	4717.72
656.598	3113.93
657.044	2240.12
657.491	1740.72
657.938	1406.32
658.385	1197.22
658.831	1032.22
659.278	929.92
659.724	827.92
660.171	778.12
660.618	715.82
661.064	682.02
661.511	660.62
661.957	652.72
662.404	648.12
662.85	655.83
663.296	618.22
663.743	561.62
664.189	545.82
664.635	537.02
665.082	532.42
665.528	527.32
665.974	514.22
666.42	526.42
666.867	507.22
667.313	494.02
667.759	472.72
668.205	464.72
668.651	461.52
669.097	453.72
669.543	450.92
669.989	443.62
670.435	454.83
670.881	465.02
671.327	460.02
671.773	475.92
672.219	505.12
672.665	560.32
673.11	594.32
673.556	646.22
674.002	686.02
674.448	674.02
674.893	561.32
675.339	495.02
675.785	449.12
676.23	430.02
676.676	401.12
677.122	392.02
677.567	372.62
678.013	381.22
678.458	366.92
678.904	368.83
679.349	358.52
679.794	363.12
680.24	360.42
680.685	354.92
681.131	352.52
681.576	353.02
682.021	364.12
682.466	350.52
682.912	362.42
683.357	371.42
683.802	395.83
684.247	423.52
684.692	466.32
685.137	505.62
685.583	546.02
686.028	585.32
686.473	532.72
686.918	461.82
687.363	430.92
687.807	402.52
688.252	370.22
688.697	364.02
689.142	341.82
689.587	338.72
690.032	330.22
690.477	354.32
690.921	360.32
691.366	396.72
691.811	420.92
692.255	445.73
692.7	477.73
693.145	521.62
693.589	730.92
694.034	1177.42
694.478	1601.42
694.923	1800.53
695.367	2342.82
695.812	1232.92
696.256	519.82
696.701	374.02
697.145	353.23
697.59	332.52
698.034	327.42
698.478	339.22
698.922	326.33
699.367	334.92
699.811	339.52
700.255	361.12
700.699	400.32
701.143	435.62
701.588	483.22
702.032	526.92
702.476	528.62
702.92	502.92
703.364	508.12
703.808	662.22
704.252	1086.92
704.696	1516.62
705.14	1717.72
705.584	2202.12
706.027	1109.32
706.471	536.62
706.915	407.02
707.359	361.42
707.803	332.62
708.246	322.72
708.69	325.72
709.134	323.72
709.577	319.62
710.021	328.02
710.465	313.42
710.908	315.62
711.352	312.92
711.795	325.32
712.239	366.52
712.682	395.02
713.126	420.22
713.569	470.52
714.012	368.92
714.456	305.62
714.899	297.82
715.342	277.72
715.786	272.32
716.229	267.32
716.672	265.02
717.115	253.62
717.558	252.02
718.002	257.02
718.445	275.73
718.888	292.12
719.331	300.92
719.774	309.52
720.217	308.82
720.66	290.02
721.103	277.52
721.546	266.02
721.989	258.92
722.432	236.23
722.874	246.42
723.317	232.62
723.76	238.82
724.203	268.02
724.645	330.52
725.088	466.42
725.531	588.12
725.974	655.32
726.416	564.12
726.859	310.82
727.301	256.23
727.744	247.22
728.187	240.22
728.629	244.22
729.071	248.23
729.514	264.22
729.956	280.42
730.399	287.82
730.841	295.12
731.283	275.22
731.726	272.22
732.168	274.22
732.61	279.92
733.053	297.72
733.495	320.92
733.937	366.42
734.379	412.22
734.821	446.92
735.263	568.72
735.705	875.32
736.148	1664.32
736.59	2720.32
737.032	3176.93
737.474	2584.43
737.916	846.52
738.357	444.42
738.799	345.72
739.241	311.12
739.683	285.92
740.125	300.92
740.567	309.32
741.008	322.62
741.45	333.92
741.892	330.82
742.334	355.22
742.775	370.32
743.217	350.82
743.658	274.92
744.1	256.02
744.542	275.73
744.983	331.02
745.425	353.62
745.866	360.52
746.307	289.02
746.749	286.52
747.19	339.62
747.632	467.52
748.073	934.82
748.514	1962.42
748.956	2964.22
749.397	3756.22
749.838	3099.02
750.279	3071.22
750.72	1563.12
751.162	574.92
751.603	332.62
752.044	262.22
752.485	229.02
752.926	217.62
753.367	204.22
753.808	200.22
754.249	200.42
754.69	198.42
755.131	185.12
755.572	189.52
756.013	181.82
756.453	187.92
756.894	191.32
757.335	196.83
757.776	195.02
758.216	203.22
758.657	204.83
759.098	211.82
759.538	226.12
759.979	275.72
760.42	392.73
760.86	752.62
761.301	1939.42
761.741	4666.62
762.182	6669.02
762.622	4726.23
763.063	1363.32
763.503	554.52
763.943	337.52
