Data from 20171114-ORNL-Ar_H_NY_Subt18_08-03-44-319.txt Node
Date: Tue Nov 14 08:03:44 EST 2017
User: Ender
Spectrometer: HR+D1039
Trigger mode: 0
Integration Time (sec): 2.730000E-2
Scans to average: 10
Electric dark correction enabled: true
Nonlinearity correction enabled: false
Boxcar width: 0
XAxis mode: Wavelengths
Number of Pixels in Spectrum: 2048
>>>>>Begin Spectral Data<<<<<
187.836	-2.81
188.309	-2.81
188.782	-2.81
189.255	3.39
189.728	-4.81
190.201	4.49
190.674	3.79
191.147	0.79
191.619	-6.41
192.092	1.59
192.565	10.09
193.038	-6.31
193.511	-0.51
193.984	-0.61
194.456	-1.51
194.929	-0.61
195.402	-3.11
195.874	2.59
196.347	2.29
196.82	-3.01
197.292	12.49
197.765	-1.21
198.237	-7.51
198.71	0.69
199.182	-1.61
199.655	6.09
200.127	6.49
200.6	-5.61
201.072	-3.01
201.544	-2.01
202.017	-3.01
202.489	-0.41
202.961	-1.81
203.433	-2.71
203.906	-3.11
204.378	-8.61
204.85	-2.11
205.322	-8.91
205.794	-3.21
206.266	-4.91
206.739	-3.61
207.211	5.29
207.683	-9.71
208.155	-3.31
208.627	-2.41
209.099	-6.61
209.57	-13.31
210.042	-10.01
210.514	0.49
210.986	1.99
211.458	-8.01
211.93	-3.91
212.402	4.79
212.873	-4.61
213.345	-7.51
213.817	-9.21
214.288	-0.41
214.76	-13.21
215.232	-0.21
215.703	-0.31
216.175	-3.71
216.646	-4.91
217.118	-8.91
217.589	-7.91
218.061	-5.41
218.532	-8.41
219.004	-9.51
219.475	-6.31
219.946	-2.91
220.418	-8.21
220.889	-3.21
221.36	-0.81
221.832	1.69
222.303	-5.71
222.774	0.69
223.245	-12.31
223.717	-4.91
224.188	-0.71
224.659	-4.01
225.13	-4.01
225.601	-5.01
226.072	0.79
226.543	0.99
227.014	1.69
227.485	-2.61
227.956	-6.01
228.427	-5.91
228.898	7.19
229.369	0.39
229.839	-0.91
230.31	-4.01
230.781	1.99
231.252	-9.31
231.722	-0.61
232.193	0.09
232.664	1.29
233.135	-5.01
233.605	-5.01
234.076	-8.81
234.546	-2.41
235.017	3.69
235.487	-0.01
235.958	-7.31
236.428	-3.61
236.899	-2.61
237.369	-3.71
237.84	-9.91
238.31	-0.61
238.78	1.39
239.251	-11.01
239.721	-2.91
240.191	-0.91
240.662	-0.61
241.132	-4.51
241.602	-4.81
242.072	3.69
242.542	0.79
243.013	0.19
243.483	3.99
243.953	-2.01
244.423	0.49
244.893	-9.81
245.363	0.09
245.833	1.99
246.303	-3.11
246.773	1.89
247.243	-1.21
247.712	0.69
248.182	1.29
248.652	0.59
249.122	-4.41
249.592	-0.51
250.061	1.09
250.531	4.99
251.001	-0.81
251.471	3.19
251.94	8.29
252.41	-5.01
252.879	-7.41
253.349	4.99
253.818	2.39
254.288	-3.21
254.757	-4.31
255.227	-6.81
255.696	1.29
256.166	8.99
256.635	8.09
257.105	5.49
257.574	0.09
258.043	1.49
258.513	-2.61
258.982	2.29
259.451	-2.11
259.92	-0.91
260.389	-2.61
260.859	7.39
261.328	-1.91
261.797	2.69
262.266	-0.01
262.735	7.19
263.204	2.59
263.673	1.19
264.142	6.49
264.611	-4.81
265.08	-4.81
265.549	-3.11
266.018	1.09
266.487	-3.71
266.955	-3.11
267.424	0.69
267.893	1.69
268.362	-2.81
268.83	2.69
269.299	10.19
269.768	3.29
270.236	-1.61
270.705	2.19
271.174	1.49
271.642	-0.01
272.111	-1.81
272.579	5.29
273.048	3.89
273.516	0.19
273.985	2.09
274.453	5.79
274.922	17.39
275.39	3.09
275.858	-5.01
276.327	6.49
276.795	10.89
277.263	-0.51
277.731	11.39
278.2	3.79
278.668	8.39
279.136	9.89
279.604	-1.91
280.072	5.19
280.54	9.99
281.008	5.49
281.477	8.69
281.945	8.39
282.413	11.79
282.881	12.49
283.348	-4.11
283.816	10.69
284.284	6.49
284.752	11.69
285.22	5.99
285.688	3.79
286.156	6.29
286.623	13.09
287.091	3.49
287.559	3.89
288.026	4.99
288.494	13.39
288.962	4.19
289.429	9.79
289.897	11.09
290.364	8.39
290.832	6.39
291.3	7.79
291.767	9.09
292.234	6.59
292.702	2.49
293.169	13.89
293.637	20.79
294.104	13.59
294.571	0.29
295.039	6.79
295.506	10.39
295.973	10.89
296.44	10.79
296.908	12.09
297.375	9.19
297.842	7.79
298.309	13.89
298.776	4.59
299.243	18.09
299.71	3.39
300.177	10.09
300.644	12.89
301.111	10.99
301.578	17.29
302.045	9.49
302.512	18.39
302.979	16.99
303.446	15.59
303.913	15.39
304.379	8.49
304.846	22.19
305.313	15.99
305.78	13.69
306.246	21.19
306.713	12.79
307.18	14.69
307.646	24.79
308.113	19.69
308.579	14.69
309.046	21.89
309.512	24.09
309.979	20.79
310.445	23.79
310.912	25.19
311.378	21.39
311.845	20.59
312.311	24.19
312.777	22.49
313.244	21.59
313.71	25.19
314.176	19.29
314.642	25.09
315.109	23.99
315.575	27.49
316.041	31.19
316.507	17.99
316.973	29.99
317.439	23.09
317.905	30.19
318.371	24.09
318.837	22.19
319.303	27.69
319.769	28.09
320.235	31.39
320.701	27.79
321.167	30.69
321.633	24.39
322.099	31.69
322.564	35.09
323.03	30.79
323.496	40.29
323.962	29.39
324.427	28.89
324.893	32.59
325.359	36.89
325.824	27.49
326.29	32.79
326.755	32.99
327.221	31.79
327.686	33.09
328.152	45.19
328.617	34.59
329.083	39.49
329.548	47.39
330.014	39.59
330.479	31.29
330.944	37.49
331.41	33.89
331.875	47.19
332.34	34.19
332.805	40.19
333.271	37.89
333.736	31.89
334.201	44.49
334.666	46.69
335.131	47.69
335.596	49.49
336.061	45.89
336.526	37.49
336.991	44.29
337.456	47.49
337.921	49.69
338.386	39.89
338.851	43.89
339.316	47.29
339.781	46.09
340.246	52.99
340.711	47.99
341.175	47.49
341.64	46.79
342.105	44.99
342.569	51.49
343.034	53.99
343.499	53.39
343.963	48.99
344.428	59.89
344.893	57.39
345.357	57.29
345.822	59.99
346.286	69.59
346.751	71.09
347.215	59.49
347.679	65.19
348.144	79.59
348.608	77.49
349.073	65.19
349.537	71.39
350.001	71.99
350.465	79.79
350.93	72.69
351.394	76.49
351.858	63.09
352.322	82.99
352.786	76.59
353.25	85.19
353.715	99.19
354.179	86.59
354.643	102.19
355.107	105.69
355.571	92.69
356.035	94.59
356.498	95.29
356.962	98.09
357.426	109.39
357.89	103.29
358.354	82.19
358.818	83.19
359.281	72.79
359.745	71.79
360.209	75.19
360.673	74.89
361.136	82.29
361.6	80.09
362.064	85.39
362.527	82.79
362.991	90.39
363.454	81.79
363.918	77.49
364.381	82.19
364.845	85.69
365.308	89.49
365.772	92.19
366.235	90.69
366.698	84.69
367.162	86.09
367.625	86.29
368.088	96.79
368.552	90.99
369.015	90.39
369.478	95.59
369.941	98.69
370.404	104.79
370.867	99.29
371.331	102.79
371.794	102.49
372.257	100.09
372.72	104.79
373.183	104.59
373.646	93.89
374.109	94.49
374.572	101.89
375.035	108.69
375.497	108.09
375.96	106.29
376.423	107.59
376.886	115.59
377.349	117.79
377.811	111.19
378.274	105.09
378.737	109.29
379.199	118.39
379.662	114.89
380.125	118.09
380.587	114.79
381.05	118.19
381.512	120.69
381.975	130.69
382.437	125.69
382.9	128.39
383.362	130.19
383.825	137.39
384.287	130.19
384.75	129.69
385.212	134.49
385.674	136.89
386.136	134.59
386.599	128.09
387.061	136.99
387.523	133.09
387.985	134.59
388.447	143.79
388.91	136.69
389.372	141.09
389.834	143.39
390.296	134.89
390.758	139.69
391.22	145.99
391.682	151.79
392.144	159.59
392.606	153.59
393.068	145.19
393.529	159.29
393.991	154.79
394.453	150.49
394.915	141.59
395.377	147.19
395.838	150.89
396.3	146.49
396.762	149.59
397.224	155.59
397.685	149.49
398.147	153.89
398.608	155.49
399.07	155.69
399.531	157.19
399.993	158.99
400.454	175.19
400.916	167.49
401.377	164.39
401.839	166.79
402.3	175.99
402.762	184.59
403.223	194.69
403.684	190.49
404.145	186.29
404.607	175.29
405.068	184.29
405.529	181.59
405.99	196.89
406.451	185.59
406.913	192.19
407.374	187.69
407.835	184.79
408.296	193.09
408.757	191.19
409.218	206.49
409.679	196.69
410.14	198.69
410.601	187.39
411.062	198.29
411.522	201.89
411.983	196.49
412.444	195.69
412.905	202.39
413.366	208.69
413.826	228.69
414.287	248.89
414.748	298.89
415.208	286.69
415.669	241.29
416.13	232.89
416.59	233.49
417.051	242.29
417.511	257.49
417.972	290.09
418.432	284.79
418.893	348.69
419.353	292.09
419.814	231.99
420.274	202.69
420.734	198.59
421.195	216.09
421.655	212.79
422.115	212.99
422.576	216.79
423.036	227.09
423.496	235.39
423.956	247.09
424.416	255.99
424.876	295.59
425.336	295.99
425.797	299.49
426.257	284.19
426.717	261.89
427.177	262.59
427.637	254.69
428.097	255.79
428.556	276.39
429.016	295.39
429.476	282.09
429.936	294.39
430.396	300.89
430.856	312.99
431.315	334.59
431.775	365.09
432.235	399.79
432.694	378.69
433.154	385.59
433.614	400.79
434.073	351.99
434.533	295.89
434.993	285.59
435.452	287.39
435.912	296.79
436.371	298.29
436.83	297.59
437.29	281.69
437.749	273.09
438.209	270.69
438.668	286.99
439.127	292.89
439.587	277.69
440.046	258.99
440.505	275.09
440.964	284.09
441.424	322.59
441.883	309.59
442.342	270.59
442.801	246.69
443.26	246.49
443.719	256.29
444.178	252.19
444.637	236.39
445.096	249.39
445.555	249.69
446.014	244.99
446.473	250.49
446.932	250.69
447.391	257.39
447.849	257.69
448.308	250.09
448.767	242.39
449.226	259.99
449.685	263.79
450.143	273.99
450.602	256.79
451.061	249.79
451.519	262.99
451.978	255.79
452.436	251.89
452.895	260.09
453.353	268.29
453.812	263.39
454.27	253.79
454.729	262.39
455.187	252.29
455.646	262.89
456.104	267.39
456.562	278.79
457.021	284.29
457.479	278.59
457.937	280.89
458.395	274.89
458.854	269.19
459.312	264.79
459.77	279.59
460.228	272.59
460.686	263.39
461.144	274.59
461.602	263.59
462.06	272.69
462.518	284.29
462.976	280.59
463.434	281.59
463.892	284.69
464.35	292.19
464.808	297.79
465.266	284.09
465.724	289.69
466.181	297.59
466.639	291.99
467.097	312.69
467.555	313.99
468.012	318.79
468.47	324.39
468.928	344.59
469.385	349.19
469.843	361.89
470.3	364.99
470.758	366.89
471.215	382.39
471.673	403.29
472.13	413.59
472.588	426.09
473.045	387.79
473.503	404.09
473.96	418.99
474.417	423.89
474.875	439.59
475.332	475.49
475.789	475.49
476.246	479.59
476.704	498.49
477.161	521.09
477.618	526.79
478.075	560.79
478.532	608.29
478.989	672.59
479.446	756.09
479.903	738.29
480.36	785.69
480.817	820.89
481.274	905.59
481.731	1008.49
482.188	1085.59
482.645	1202.49
483.102	1297.09
483.558	1402.59
484.015	1451.99
484.472	1432.79
484.929	1396.69
485.385	1344.59
485.842	1325.29
486.299	1275.79
486.755	1220.99
487.212	1064.39
487.668	922.79
488.125	860.39
488.582	776.39
489.038	747.29
489.494	711.49
489.951	678.89
490.407	681.09
490.864	649.59
491.32	652.09
491.776	640.79
492.233	648.99
492.689	610.89
493.145	612.99
493.602	599.79
494.058	611.89
494.514	611.89
494.97	630.29
495.426	631.99
495.882	616.59
496.338	598.69
496.794	605.99
497.251	604.49
497.707	616.19
498.163	619.19
498.618	633.19
499.074	630.79
499.53	643.69
499.986	642.79
500.442	625.09
500.898	606.59
501.354	613.79
501.809	616.19
502.265	612.29
502.721	621.69
503.177	631.59
503.632	624.09
504.088	639.79
504.543	649.29
504.999	666.79
505.455	637.19
505.91	622.59
506.366	629.59
506.821	626.19
507.277	631.89
507.732	625.39
508.187	617.89
508.643	639.29
509.098	636.29
509.553	651.79
510.009	660.99
510.464	650.09
510.919	680.39
511.375	673.19
511.83	691.09
512.285	690.39
512.74	719.39
513.195	732.69
513.65	736.29
514.105	734.79
514.56	733.19
515.015	749.49
515.47	759.79
515.925	739.09
516.38	747.79
516.835	756.39
517.29	748.79
517.745	734.99
518.2	737.79
518.655	728.89
519.109	713.39
519.564	707.49
520.019	698.99
520.474	684.29
520.928	676.59
521.383	679.29
521.838	674.79
522.292	679.39
522.747	682.09
523.201	677.59
523.656	665.69
524.11	670.89
524.565	666.09
525.019	669.99
525.474	668.49
525.928	665.69
526.382	658.59
526.837	659.89
527.291	660.09
527.745	653.69
528.2	662.69
528.654	651.89
529.108	640.59
529.562	638.19
530.016	637.99
530.47	648.19
530.925	646.29
531.379	647.29
531.833	646.89
532.287	647.89
532.741	646.09
533.195	644.29
533.649	648.49
534.103	659.19
534.556	645.69
535.01	642.69
535.464	636.89
535.918	640.69
536.372	647.19
536.826	645.69
537.279	636.59
537.733	646.49
538.187	646.99
538.64	649.09
539.094	655.99
539.548	664.39
540.001	661.19
540.455	660.69
540.908	663.29
541.362	670.49
541.815	679.69
542.269	682.09
542.722	693.99
543.175	678.39
543.629	699.69
544.082	713.79
544.536	719.59
544.989	713.99
545.442	707.99
545.895	710.49
546.349	719.59
546.802	714.09
547.255	719.29
547.708	724.69
548.161	736.09
548.614	728.79
549.067	741.79
549.52	723.49
549.973	730.69
550.426	720.99
550.879	705.69
551.332	708.89
551.785	721.59
552.238	721.79
552.691	730.59
553.144	731.69
553.596	744.99
554.049	762.19
554.502	786.29
554.955	796.29
555.407	794.49
555.86	787.39
556.313	765.49
556.765	761.79
557.218	766.19
557.67	757.09
558.123	760.79
558.576	754.19
559.028	761.79
559.48	761.79
559.933	762.69
560.385	731.49
560.838	710.59
561.29	689.29
561.742	687.89
562.195	662.69
562.647	668.79
563.099	670.19
563.551	666.89
564.004	681.19
564.456	674.29
564.908	663.29
565.36	642.89
565.812	624.29
566.264	624.69
566.716	618.49
567.168	603.89
567.62	605.29
568.072	591.29
568.524	592.19
568.976	589.99
569.428	579.29
569.88	586.79
570.332	581.89
570.784	591.39
571.235	579.09
571.687	591.29
572.139	596.69
572.59	604.89
573.042	603.09
573.494	601.89
573.945	593.89
574.397	581.19
574.849	581.39
575.3	584.79
575.752	582.19
576.203	567.79
576.655	577.59
577.106	566.99
577.557	555.29
578.009	564.39
578.46	558.59
578.912	540.39
579.363	559.59
579.814	547.59
580.265	548.39
580.717	551.69
581.168	560.29
581.619	557.59
582.07	563.69
582.521	553.79
582.972	556.99
583.423	553.09
583.875	561.59
584.326	558.09
584.777	563.69
585.227	592.79
585.678	594.19
586.129	620.99
586.58	637.39
587.031	644.69
587.482	684.29
587.933	708.59
588.384	680.69
588.834	653.39
589.285	640.59
589.736	627.49
590.186	628.99
590.637	631.29
591.088	612.69
591.538	603.69
591.989	585.99
592.439	590.99
592.89	578.49
593.34	566.39
593.791	566.99
594.241	565.49
594.692	564.79
595.142	559.49
595.593	543.09
596.043	562.19
596.493	568.99
596.943	571.49
597.394	573.19
597.844	572.59
598.294	585.49
598.744	609.09
599.195	621.79
599.645	662.99
600.095	668.69
600.545	719.59
600.995	766.79
601.445	805.79
601.895	866.89
602.345	898.99
602.795	888.89
603.245	855.49
603.695	812.69
604.145	761.69
604.594	726.89
605.044	687.09
605.494	642.59
605.944	586.09
606.393	576.09
606.843	571.99
607.293	577.19
607.743	563.99
608.192	577.69
608.642	584.99
609.091	596.89
609.541	598.29
609.99	593.49
610.44	588.09
610.889	551.59
611.339	543.89
611.788	530.89
612.238	545.59
612.687	550.19
613.136	541.39
613.586	554.79
614.035	545.89
614.484	554.09
614.933	549.99
615.383	547.49
615.832	546.59
616.281	540.09
616.73	521.19
617.179	508.29
617.628	512.99
618.077	497.39
618.526	486.99
618.975	478.49
619.424	475.49
619.873	473.89
620.322	483.09
620.771	462.19
621.22	461.69
621.669	459.19
622.118	457.09
622.567	442.99
623.015	435.49
623.464	434.09
623.913	433.49
624.361	420.39
624.81	424.49
625.259	422.89
625.707	428.49
626.156	425.59
626.604	440.09
627.053	432.09
627.501	423.59
627.95	433.69
628.398	446.59
628.847	439.19
629.295	442.89
629.744	439.79
630.192	428.49
630.64	422.89
631.089	421.19
631.537	413.19
631.985	390.49
632.433	403.29
632.881	398.79
633.33	398.59
633.778	398.69
634.226	394.79
634.674	403.39
635.122	407.39
635.57	413.49
636.018	410.09
636.466	430.29
636.914	423.09
637.362	431.79
637.81	435.69
638.258	433.19
638.705	429.49
639.153	453.59
639.601	462.79
640.049	492.99
640.497	510.79
640.944	528.89
641.392	483.49
641.84	463.69
642.287	440.29
642.735	426.59
643.182	426.49
643.63	422.49
644.078	421.49
644.525	433.29
644.973	436.49
645.42	444.29
645.867	456.69
646.315	478.39
646.762	487.39
647.21	511.09
647.657	522.39
648.104	543.99
648.551	561.49
648.999	595.69
649.446	648.89
649.893	701.39
650.34	801.39
650.787	948.09
651.234	1154.49
651.682	1464.59
652.129	1974.79
652.576	2768.49
653.023	4042.99
653.47	5608.29
653.917	7081.79
654.363	8275.79
654.81	9383.89
655.257	8905.29
655.704	5912.69
656.151	3531.89
656.598	2318.49
657.044	1676.09
657.491	1292.49
657.938	1039.99
658.385	867.89
658.831	759.29
659.278	686.69
659.724	603.79
660.171	565.79
660.618	509.89
661.064	483.99
661.511	474.39
661.957	457.49
662.404	445.99
662.85	453.29
663.296	429.19
663.743	408.89
664.189	395.49
664.635	393.69
665.082	386.79
665.528	379.09
665.974	380.89
666.42	366.39
666.867	368.29
667.313	349.59
667.759	342.99
668.205	330.19
668.651	329.59
669.097	328.29
669.543	322.89
669.989	325.89
670.435	329.49
670.881	327.09
671.327	332.49
671.773	348.69
672.219	362.29
672.665	392.29
673.11	423.19
673.556	463.59
674.002	496.49
674.448	482.19
674.893	419.59
675.339	355.79
675.785	327.79
676.23	314.39
676.676	287.69
677.122	284.49
677.567	267.09
678.013	277.19
678.458	262.99
678.904	268.39
679.349	254.99
679.794	259.49
680.24	261.69
680.685	250.49
681.131	253.09
681.576	254.69
682.021	257.49
682.466	252.99
682.912	252.69
683.357	251.79
683.802	272.89
684.247	295.69
684.692	319.69
685.137	349.19
685.583	384.79
686.028	413.19
686.473	382.39
686.918	328.39
687.363	309.69
687.807	284.89
688.252	265.69
688.697	262.89
689.142	246.39
689.587	242.09
690.032	223.99
690.477	249.59
690.921	248.39
691.366	282.49
691.811	292.09
692.255	308.69
692.7	335.09
693.145	355.19
693.589	481.49
694.034	796.29
694.478	1099.79
694.923	1287.29
695.367	1730.09
695.812	907.99
696.256	372.29
696.701	265.59
697.145	250.89
697.59	234.99
698.034	234.99
698.478	231.09
698.922	232.89
699.367	234.59
699.811	240.39
700.255	249.19
700.699	271.99
701.143	309.79
701.588	338.29
702.032	376.29
702.476	377.39
702.92	361.69
703.364	350.49
703.808	443.99
704.252	719.39
704.696	1034.79
705.14	1236.89
705.584	1622.89
706.027	803.09
706.471	386.79
706.915	291.39
707.359	259.29
707.803	233.59
708.246	219.69
708.69	228.99
709.134	229.59
709.577	230.89
710.021	230.19
710.465	224.29
710.908	215.69
711.352	209.89
711.795	222.69
712.239	250.39
712.682	266.79
713.126	293.99
713.569	338.09
714.012	268.29
714.456	217.29
714.899	211.39
715.342	195.19
715.786	189.39
716.229	191.29
716.672	184.39
717.115	175.89
717.558	179.79
718.002	179.89
718.445	185.79
718.888	207.99
719.331	203.69
719.774	221.89
720.217	221.69
720.66	206.89
721.103	191.79
721.546	175.29
721.989	180.99
722.432	163.59
722.874	175.29
723.317	166.39
723.76	166.19
724.203	182.29
724.645	212.09
725.088	305.19
725.531	400.29
725.974	473.69
726.416	408.19
726.859	233.39
727.301	173.29
727.744	169.19
728.187	165.49
728.629	176.59
729.071	178.39
729.514	182.79
729.956	196.69
730.399	202.49
730.841	211.49
731.283	198.29
731.726	194.19
732.168	183.19
732.61	187.39
733.053	203.59
733.495	212.79
733.937	242.69
734.379	278.99
734.821	306.49
735.263	377.99
735.705	574.19
736.148	1083.79
736.59	1843.29
737.032	2325.79
737.474	1900.79
737.916	606.09
738.357	304.49
738.799	231.79
739.241	216.89
739.683	200.39
740.125	210.39
740.567	217.09
741.008	235.39
741.45	232.99
741.892	234.39
742.334	255.69
742.775	278.09
743.217	260.89
743.658	199.09
744.1	182.39
744.542	191.09
744.983	242.59
745.425	274.39
745.866	271.89
746.307	200.39
746.749	192.69
747.19	229.89
747.632	303.09
748.073	598.19
748.514	1277.49
748.956	2073.99
749.397	2600.69
749.838	2172.79
750.279	2249.39
750.72	1147.09
751.162	411.59
751.603	232.19
752.044	185.59
752.485	157.99
752.926	152.49
753.367	146.89
753.808	135.39
754.249	130.99
754.69	133.39
755.131	125.39
755.572	135.49
756.013	133.99
756.453	135.39
756.894	130.59
757.335	130.29
757.776	140.49
758.216	139.19
758.657	140.19
759.098	141.99
759.538	156.69
759.979	188.39
760.42	256.49
760.86	483.39
761.301	1252.89
761.741	3140.99
762.182	5011.19
762.622	3565.39
763.063	990.59
763.503	392.89
763.943	242.89
