Data from 20171114-ORNL-Ar_H_NY_Subt18_08-08-42-165.txt Node
Date: Tue Nov 14 08:08:42 EST 2017
User: Ender
Spectrometer: HR+D1039
Trigger mode: 0
Integration Time (sec): 2.730000E-2
Scans to average: 10
Electric dark correction enabled: true
Nonlinearity correction enabled: false
Boxcar width: 0
XAxis mode: Wavelengths
Number of Pixels in Spectrum: 2048
>>>>>Begin Spectral Data<<<<<
187.836	-1.53
188.309	-1.53
188.782	-1.53
189.255	0.07
189.728	4.37
190.201	6.37
190.674	5.27
191.147	-1.43
191.619	-8.63
192.092	-2.73
192.565	3.77
193.038	5.47
193.511	-3.53
193.984	1.07
194.456	-5.93
194.929	0.37
195.402	-2.93
195.874	-0.03
196.347	-1.33
196.82	-11.73
197.292	2.57
197.765	-6.43
198.237	-9.23
198.71	-3.13
199.182	-4.23
199.655	1.37
200.127	0.67
200.6	0.87
201.072	-5.03
201.544	-4.03
202.017	-7.03
202.489	3.17
202.961	-3.13
203.433	-5.23
203.906	-10.33
204.378	-4.93
204.85	-1.23
205.322	-8.43
205.794	-3.83
206.266	-7.73
206.739	-11.53
207.211	-2.63
207.683	-0.33
208.155	-4.53
208.627	-3.13
209.099	-3.83
209.57	-15.53
210.042	-10.23
210.514	-6.13
210.986	-1.43
211.458	-5.33
211.93	-3.23
212.402	-0.13
212.873	-7.03
213.345	-8.53
213.817	-14.83
214.288	-3.03
214.76	-12.63
215.232	-2.53
215.703	-9.03
216.175	-7.63
216.646	-8.23
217.118	-6.63
217.589	-5.63
218.061	-6.73
218.532	-7.23
219.004	-3.03
219.475	-6.03
219.946	-11.03
220.418	-8.33
220.889	-0.33
221.36	2.17
221.832	-6.33
222.303	-6.83
222.774	3.57
223.245	-11.83
223.717	-4.23
224.188	-11.53
224.659	-10.63
225.13	-9.73
225.601	-0.63
226.072	-3.33
226.543	-1.03
227.014	-5.03
227.485	-7.33
227.956	-7.33
228.427	-3.73
228.898	-4.43
229.369	0.57
229.839	-6.53
230.31	-10.63
230.781	4.17
231.252	-8.83
231.722	-8.63
232.193	-4.53
232.664	0.97
233.135	-3.13
233.605	-9.83
234.076	-4.23
234.546	-8.13
235.017	3.27
235.487	0.27
235.958	-3.53
236.428	-11.93
236.899	-9.63
237.369	-4.73
237.84	-5.73
238.31	-3.93
238.78	-5.53
239.251	-2.83
239.721	-5.23
240.191	-6.83
240.662	-2.73
241.132	-2.83
241.602	-2.63
242.072	-3.03
242.542	-0.13
243.013	-5.93
243.483	1.67
243.953	-0.93
244.423	-3.03
244.893	-6.83
245.363	1.07
245.833	2.97
246.303	-7.53
246.773	-1.53
247.243	-3.23
247.712	-5.73
248.182	2.67
248.652	-0.33
249.122	-4.93
249.592	4.07
250.061	4.17
250.531	7.57
251.001	1.87
251.471	10.27
251.94	9.67
252.41	0.77
252.879	-11.23
253.349	8.77
253.818	3.97
254.288	3.97
254.757	-5.23
255.227	-4.33
255.696	1.97
256.166	5.07
256.635	2.57
257.105	2.07
257.574	4.47
258.043	-3.43
258.513	-4.83
258.982	3.37
259.451	-3.93
259.92	-1.53
260.389	1.57
260.859	7.87
261.328	4.27
261.797	5.37
262.266	-1.83
262.735	6.27
263.204	2.67
263.673	0.27
264.142	2.37
264.611	-6.93
265.08	-5.93
265.549	-2.73
266.018	-4.63
266.487	-7.23
266.955	-0.43
267.424	-3.43
267.893	6.87
268.362	-3.83
268.83	-0.93
269.299	-0.53
269.768	1.17
270.236	1.47
270.705	-2.63
271.174	3.47
271.642	3.77
272.111	0.57
272.579	3.37
273.048	9.67
273.516	5.87
273.985	1.77
274.453	9.87
274.922	7.87
275.39	2.87
275.858	-4.23
276.327	7.87
276.795	11.77
277.263	6.27
277.731	14.37
278.2	16.97
278.668	19.97
279.136	14.07
279.604	1.77
280.072	2.87
280.54	9.27
281.008	0.47
281.477	13.37
281.945	4.37
282.413	5.87
282.881	8.27
283.348	1.37
283.816	5.07
284.284	10.07
284.752	13.57
285.22	9.27
285.688	4.57
286.156	7.17
286.623	23.97
287.091	17.27
287.559	12.67
288.026	11.97
288.494	9.67
288.962	0.27
289.429	2.47
289.897	13.67
290.364	2.87
290.832	12.17
291.3	10.27
291.767	9.27
292.234	15.67
292.702	5.67
293.169	14.67
293.637	16.07
294.104	14.37
294.571	8.97
295.039	9.97
295.506	6.27
295.973	12.27
296.44	7.27
296.908	6.97
297.375	6.67
297.842	13.07
298.309	14.87
298.776	7.77
299.243	19.27
299.71	4.27
300.177	11.77
300.644	12.87
301.111	8.47
301.578	11.17
302.045	8.47
302.512	15.07
302.979	14.47
303.446	18.27
303.913	12.07
304.379	12.77
304.846	16.27
305.313	19.37
305.78	18.87
306.246	24.47
306.713	15.87
307.18	14.77
307.646	26.97
308.113	19.27
308.579	18.67
309.046	16.77
309.512	19.37
309.979	12.77
310.445	17.77
310.912	21.27
311.378	22.37
311.845	22.27
312.311	16.27
312.777	21.47
313.244	24.47
313.71	30.97
314.176	20.87
314.642	19.67
315.109	25.67
315.575	28.77
316.041	26.17
316.507	25.27
316.973	28.57
317.439	24.77
317.905	28.97
318.371	28.77
318.837	23.87
319.303	27.47
319.769	24.27
320.235	23.97
320.701	23.57
321.167	27.67
321.633	24.57
322.099	28.97
322.564	37.37
323.03	28.57
323.496	31.07
323.962	33.87
324.427	33.27
324.893	33.17
325.359	27.27
325.824	30.17
326.29	28.87
326.755	32.07
327.221	34.37
327.686	33.07
328.152	40.27
328.617	36.17
329.083	38.07
329.548	34.67
330.014	34.47
330.479	28.57
330.944	33.67
331.41	32.97
331.875	38.17
332.34	31.57
332.805	37.37
333.271	37.87
333.736	31.67
334.201	43.27
334.666	37.47
335.131	48.37
335.596	40.97
336.061	42.67
336.526	32.07
336.991	36.47
337.456	43.37
337.921	38.57
338.386	35.17
338.851	32.37
339.316	36.27
339.781	43.47
340.246	45.97
340.711	40.67
341.175	38.97
341.64	41.17
342.105	47.67
342.569	46.77
343.034	53.87
343.499	46.77
343.963	37.87
344.428	52.07
344.893	52.87
345.357	53.07
345.822	51.97
346.286	60.97
346.751	57.87
347.215	57.77
347.679	63.87
348.144	83.97
348.608	70.77
349.073	55.57
349.537	61.57
350.001	69.17
350.465	86.07
350.93	71.97
351.394	72.27
351.858	60.67
352.322	72.57
352.786	71.97
353.25	79.77
353.715	98.97
354.179	89.57
354.643	103.37
355.107	103.47
355.571	85.67
356.035	86.47
356.498	100.87
356.962	103.67
357.426	104.87
357.89	102.47
358.354	80.67
358.818	72.27
359.281	73.17
359.745	69.07
360.209	63.07
360.673	64.97
361.136	68.97
361.6	71.17
362.064	73.27
362.527	73.87
362.991	81.37
363.454	67.37
363.918	66.27
364.381	67.57
364.845	72.37
365.308	75.07
365.772	73.07
366.235	79.17
366.698	73.37
367.162	78.57
367.625	74.37
368.088	77.67
368.552	81.17
369.015	78.47
369.478	83.67
369.941	88.67
370.404	85.87
370.867	83.07
371.331	90.17
371.794	100.77
372.257	90.57
372.72	96.47
373.183	91.47
373.646	92.37
374.109	90.57
374.572	88.17
375.035	85.67
375.497	99.47
375.96	99.47
376.423	96.87
376.886	106.27
377.349	96.57
377.811	97.37
378.274	95.57
378.737	91.77
379.199	96.77
379.662	100.77
380.125	100.67
380.587	100.27
381.05	100.37
381.512	107.87
381.975	116.97
382.437	116.17
382.9	114.07
383.362	116.77
383.825	128.17
384.287	126.67
384.75	121.77
385.212	119.97
385.674	120.47
386.136	128.27
386.599	111.37
387.061	113.67
387.523	116.27
387.985	118.97
388.447	124.27
388.91	115.17
389.372	125.47
389.834	124.27
390.296	119.57
390.758	124.57
391.22	135.17
391.682	150.17
392.144	186.87
392.606	159.07
393.068	144.77
393.529	143.47
393.991	132.37
394.453	129.77
394.915	131.27
395.377	139.67
395.838	149.57
396.3	132.37
396.762	131.27
397.224	129.87
397.685	121.57
398.147	123.47
398.608	129.97
399.07	128.07
399.531	126.67
399.993	136.77
400.454	146.37
400.916	139.87
401.377	138.07
401.839	146.97
402.3	142.57
402.762	155.87
403.223	175.07
403.684	166.87
404.145	150.17
404.607	154.67
405.068	156.27
405.529	159.97
405.99	179.97
406.451	172.17
406.913	170.67
407.374	154.47
407.835	162.97
408.296	163.97
408.757	152.67
409.218	177.97
409.679	172.37
410.14	171.57
410.601	169.37
411.062	175.97
411.522	172.07
411.983	176.77
412.444	172.57
412.905	177.97
413.366	181.87
413.826	186.57
414.287	214.67
414.748	263.77
415.208	249.07
415.669	211.77
416.13	205.77
416.59	194.07
417.051	210.07
417.511	218.57
417.972	237.67
418.432	238.27
418.893	288.97
419.353	252.97
419.814	199.97
420.274	190.97
420.734	181.07
421.195	199.37
421.655	193.27
422.115	193.47
422.576	198.47
423.036	198.07
423.496	205.57
423.956	209.77
424.416	228.47
424.876	258.07
425.336	268.07
425.797	255.47
426.257	246.47
426.717	238.57
427.177	227.87
427.637	220.77
428.097	234.17
428.556	241.17
429.016	258.77
429.476	257.37
429.936	266.77
430.396	274.97
430.856	280.47
431.315	304.47
431.775	332.67
432.235	368.37
432.694	339.57
433.154	346.27
433.614	381.77
434.073	326.17
434.533	274.37
434.993	263.07
435.452	273.37
435.912	289.97
436.371	279.27
436.83	268.57
437.29	259.47
437.749	246.47
438.209	240.17
438.668	267.47
439.127	281.07
439.587	255.87
440.046	244.17
440.505	255.67
440.964	275.17
441.424	318.07
441.883	302.27
442.342	257.97
442.801	224.17
443.26	224.47
443.719	225.77
444.178	223.17
444.637	204.67
445.096	212.87
445.555	225.87
446.014	225.37
446.473	230.67
446.932	234.27
447.391	229.67
447.849	234.37
448.308	218.57
448.767	219.47
449.226	241.57
449.685	241.57
450.143	250.47
450.602	235.77
451.061	223.87
451.519	230.67
451.978	233.47
452.436	234.27
452.895	246.17
453.353	253.37
453.812	241.47
454.27	242.47
454.729	234.27
455.187	236.37
455.646	243.57
456.104	249.57
456.562	261.07
457.021	270.97
457.479	265.47
457.937	280.77
458.395	265.37
458.854	249.77
459.312	260.67
459.77	272.47
460.228	254.87
460.686	251.27
461.144	255.87
461.602	252.17
462.06	249.27
462.518	256.37
462.976	260.97
463.434	266.17
463.892	271.67
464.35	269.67
464.808	288.87
465.266	277.07
465.724	269.97
466.181	277.47
466.639	274.17
467.097	292.27
467.555	297.97
468.012	308.97
468.47	315.77
468.928	329.67
469.385	353.47
469.843	354.17
470.3	346.07
470.758	372.87
471.215	387.77
471.673	409.47
472.13	416.57
472.588	426.97
473.045	372.17
473.503	383.47
473.96	399.97
474.417	410.77
474.875	440.67
475.332	470.97
475.789	460.77
476.246	469.67
476.704	487.47
477.161	509.27
477.618	524.07
478.075	552.47
478.532	605.27
478.989	686.77
479.446	788.07
479.903	748.87
480.36	781.37
480.817	833.57
481.274	931.87
481.731	1021.77
482.188	1096.67
482.645	1220.97
483.102	1311.87
483.558	1431.57
484.015	1466.67
484.472	1446.77
484.929	1403.67
485.385	1342.87
485.842	1326.17
486.299	1272.87
486.755	1237.87
487.212	1047.97
487.668	887.07
488.125	825.67
488.582	765.17
489.038	731.87
489.494	701.87
489.951	678.27
490.407	663.77
490.864	640.17
491.32	645.67
491.776	634.37
492.233	647.87
492.689	622.37
493.145	614.47
493.602	598.17
494.058	625.67
494.514	615.87
494.97	646.07
495.426	650.37
495.882	623.77
496.338	614.67
496.794	624.57
497.251	613.27
497.707	635.67
498.163	640.17
498.618	634.47
499.074	647.67
499.53	673.47
499.986	661.57
500.442	643.07
500.898	623.17
501.354	626.57
501.809	628.27
502.265	634.17
502.721	638.57
503.177	653.97
503.632	647.67
504.088	661.07
504.543	686.87
504.999	695.47
505.455	661.87
505.91	645.47
506.366	656.27
506.821	638.27
507.277	636.47
507.732	639.37
508.187	631.87
508.643	653.07
509.098	646.87
509.553	673.17
510.009	668.47
510.464	671.97
510.919	705.17
511.375	703.27
511.83	715.27
512.285	726.17
512.74	770.07
513.195	784.37
513.65	772.97
514.105	781.47
514.56	788.37
515.015	791.47
515.47	810.07
515.925	787.87
516.38	785.87
516.835	798.77
517.29	782.67
517.745	789.47
518.2	767.37
518.655	760.97
519.109	748.37
519.564	739.97
520.019	738.57
520.474	721.47
520.928	734.27
521.383	730.27
521.838	720.47
522.292	717.97
522.747	719.07
523.201	715.47
523.656	714.07
524.11	712.87
524.565	702.77
525.019	705.97
525.474	715.07
525.928	703.27
526.382	699.97
526.837	707.47
527.291	716.97
527.745	700.97
528.2	703.37
528.654	692.47
529.108	692.17
529.562	687.17
530.016	696.47
530.47	696.47
530.925	704.17
531.379	704.37
531.833	706.57
532.287	710.97
532.741	717.97
533.195	703.37
533.649	719.67
534.103	735.97
534.556	714.37
535.01	714.57
535.464	711.97
535.918	723.17
536.372	726.27
536.826	715.47
537.279	712.67
537.733	717.37
538.187	718.37
538.64	714.17
539.094	736.67
539.548	732.17
540.001	727.87
540.455	726.77
540.908	733.77
541.362	743.07
541.815	761.37
542.269	775.17
542.722	780.77
543.175	779.57
543.629	781.37
544.082	805.27
544.536	795.77
544.989	807.27
545.442	808.97
545.895	805.47
546.349	807.47
546.802	799.27
547.255	811.47
547.708	828.27
548.161	824.77
548.614	834.87
549.067	835.47
549.52	832.07
549.973	817.07
550.426	819.57
550.879	811.67
551.332	809.97
551.785	821.17
552.238	821.57
552.691	832.07
553.144	856.27
553.596	856.17
554.049	882.87
554.502	914.67
554.955	925.87
555.407	927.87
555.86	907.77
556.313	899.47
556.765	891.17
557.218	893.27
557.67	896.47
558.123	889.77
558.576	891.47
559.028	888.07
559.48	899.57
559.933	886.87
560.385	852.67
560.838	831.67
561.29	804.47
561.742	796.57
562.195	786.37
562.647	781.47
563.099	791.87
563.551	789.97
564.004	793.77
564.456	787.47
564.908	774.57
565.36	751.17
565.812	740.27
566.264	726.37
566.716	737.67
567.168	723.27
567.62	730.27
568.072	712.97
568.524	696.47
568.976	707.97
569.428	693.57
569.88	692.97
570.332	694.97
570.784	702.07
571.235	692.67
571.687	715.67
572.139	715.27
572.59	726.97
573.042	728.37
573.494	721.47
573.945	721.87
574.397	691.17
574.849	703.77
575.3	702.77
575.752	693.87
576.203	692.07
576.655	705.57
577.106	690.07
577.557	679.27
578.009	682.97
578.46	676.17
578.912	671.67
579.363	690.97
579.814	680.17
580.265	677.97
580.717	682.07
581.168	688.07
581.619	687.87
582.07	700.07
582.521	694.57
582.972	686.47
583.423	688.97
583.875	695.97
584.326	694.87
584.777	725.67
585.227	760.37
585.678	793.07
586.129	820.47
586.58	855.97
587.031	897.67
587.482	952.67
587.933	1031.27
588.384	966.77
588.834	851.97
589.285	790.57
589.736	796.07
590.186	787.67
590.637	791.57
591.088	759.07
591.538	747.07
591.989	741.57
592.439	738.17
592.89	728.07
593.34	724.27
593.791	720.97
594.241	718.57
594.692	722.97
595.142	723.67
595.593	717.27
596.043	724.37
596.493	719.57
596.943	725.17
597.394	742.37
597.844	739.07
598.294	747.77
598.744	772.27
599.195	801.07
599.645	834.07
600.095	878.27
600.545	931.67
600.995	988.97
601.445	1051.67
601.895	1100.77
602.345	1163.17
602.795	1132.77
603.245	1092.07
603.695	1036.17
604.145	984.27
604.594	941.47
605.044	884.77
605.494	816.97
605.944	785.97
606.393	759.87
606.843	739.07
607.293	744.67
607.743	749.97
608.192	755.07
608.642	767.57
609.091	778.77
609.541	779.07
609.99	781.17
610.44	785.87
610.889	736.97
611.339	713.57
611.788	687.97
612.238	704.37
612.687	716.37
613.136	714.07
613.586	729.47
614.035	725.07
614.484	738.07
614.933	730.87
615.383	723.37
615.832	728.07
616.281	714.47
616.73	693.17
617.179	673.97
617.628	660.57
618.077	652.67
618.526	639.97
618.975	622.67
619.424	636.77
619.873	624.97
620.322	634.07
620.771	613.97
621.22	610.77
621.669	605.17
622.118	603.67
622.567	592.07
623.015	586.77
623.464	582.97
623.913	567.67
624.361	569.27
624.81	564.47
625.259	564.37
625.707	575.57
626.156	570.97
626.604	579.17
627.053	585.37
627.501	578.07
627.95	577.47
628.398	591.37
628.847	585.97
629.295	590.97
629.744	589.77
630.192	584.47
630.64	578.37
631.089	557.87
631.537	553.87
631.985	560.57
632.433	570.67
632.881	564.57
633.33	578.27
633.778	569.37
634.226	551.27
634.674	560.67
635.122	562.37
635.57	579.97
636.018	588.07
636.466	586.67
636.914	566.87
637.362	588.17
637.81	584.87
638.258	597.77
638.705	594.27
639.153	621.97
639.601	629.67
640.049	652.77
640.497	686.47
640.944	711.97
641.392	659.57
641.84	628.17
642.287	600.97
642.735	582.67
643.182	584.67
643.63	580.07
644.078	580.87
644.525	598.17
644.973	593.97
645.42	600.57
645.867	632.97
646.315	645.57
646.762	671.27
647.21	698.27
647.657	716.07
648.104	752.57
648.551	771.77
648.999	826.87
649.446	914.57
649.893	991.57
650.34	1149.47
650.787	1354.57
651.234	1680.17
651.682	2172.97
652.129	2985.87
652.576	4252.07
653.023	6170.97
653.47	8346.77
653.917	10358.57
654.363	11870.77
654.81	12979.97
655.257	12367.17
655.704	8149.67
656.151	4872.97
656.598	3213.87
657.044	2288.57
657.491	1782.77
657.938	1444.97
658.385	1206.87
658.831	1065.77
659.278	954.77
659.724	847.67
660.171	784.47
660.618	720.57
661.064	692.27
661.511	674.47
661.957	662.27
662.404	653.77
662.85	652.37
663.296	628.97
663.743	576.87
664.189	545.37
664.635	538.97
665.082	528.17
665.528	541.97
665.974	524.27
666.42	521.97
666.867	521.97
667.313	498.57
667.759	482.17
668.205	471.17
668.651	475.17
669.097	474.07
669.543	467.37
669.989	462.07
670.435	457.67
670.881	460.57
671.327	465.97
671.773	485.67
672.219	506.77
672.665	562.07
673.11	604.37
673.556	654.97
674.002	692.67
674.448	681.17
674.893	567.97
675.339	497.57
675.785	455.07
676.23	430.17
676.676	411.77
677.122	402.17
677.567	380.87
678.013	383.27
678.458	365.17
678.904	373.97
679.349	356.37
679.794	358.87
680.24	361.17
680.685	364.07
681.131	363.07
681.576	360.07
682.021	363.27
682.466	362.07
682.912	361.17
683.357	358.87
683.802	404.77
684.247	429.97
684.692	469.77
685.137	518.67
685.583	554.57
686.028	579.77
686.473	544.37
686.918	465.67
687.363	430.97
687.807	405.27
688.252	378.77
688.697	364.17
689.142	345.77
689.587	346.07
690.032	339.77
690.477	359.07
690.921	365.57
691.366	402.17
691.811	416.97
692.255	446.57
692.7	480.87
693.145	530.77
693.589	743.07
694.034	1206.37
694.478	1625.77
694.923	1793.87
695.367	2331.17
695.812	1241.57
696.256	517.07
696.701	381.37
697.145	353.27
697.59	337.77
698.034	326.47
698.478	334.87
698.922	328.87
699.367	336.97
699.811	341.97
700.255	360.37
700.699	397.47
701.143	447.77
701.588	499.57
702.032	529.77
702.476	532.17
702.92	505.97
703.364	513.87
703.808	684.77
704.252	1099.57
704.696	1531.17
705.14	1736.17
705.584	2208.57
706.027	1103.47
706.471	539.27
706.915	411.17
707.359	371.57
707.803	334.87
708.246	320.67
708.69	325.27
709.134	324.07
709.577	319.27
710.021	321.87
710.465	320.27
710.908	314.27
711.352	303.47
711.795	329.17
712.239	367.07
712.682	398.47
713.126	431.27
713.569	474.97
714.012	369.27
714.456	311.77
714.899	295.77
715.342	282.17
715.786	266.47
716.229	268.57
716.672	256.67
717.115	250.57
717.558	253.47
718.002	257.77
718.445	268.77
718.888	297.17
719.331	306.37
719.774	320.97
720.217	318.17
720.66	297.57
721.103	281.97
721.546	259.87
721.989	256.27
722.432	242.17
722.874	243.77
723.317	233.97
723.76	248.17
724.203	277.67
724.645	335.47
725.088	466.57
725.531	597.07
725.974	658.67
726.416	567.07
726.859	316.27
727.301	254.47
727.744	247.67
728.187	241.17
728.629	243.57
729.071	253.77
729.514	264.07
729.956	280.57
730.399	286.77
730.841	300.97
731.283	279.27
731.726	270.17
732.168	275.87
732.61	277.07
733.053	300.07
733.495	331.97
733.937	362.07
734.379	409.87
734.821	455.87
735.263	579.37
735.705	908.47
736.148	1728.97
736.59	2719.97
737.032	3150.57
737.474	2561.57
737.916	849.97
738.357	441.97
738.799	338.87
739.241	315.47
739.683	296.27
740.125	301.37
740.567	306.87
741.008	328.37
741.45	321.97
741.892	330.97
742.334	361.87
742.775	372.17
743.217	362.27
743.658	283.77
744.1	268.17
744.542	273.77
744.983	341.37
745.425	365.17
745.866	356.37
746.307	292.27
746.749	292.47
747.19	347.67
747.632	492.27
748.073	964.07
748.514	2025.27
748.956	2991.47
749.397	3769.37
749.838	3128.07
750.279	3043.77
750.72	1564.67
751.162	588.57
751.603	339.77
752.044	267.77
752.485	222.07
752.926	217.87
753.367	214.77
753.808	194.87
754.249	201.37
754.69	190.47
755.131	187.57
755.572	191.57
756.013	185.97
756.453	187.17
756.894	195.07
757.335	196.37
757.776	203.67
758.216	202.07
758.657	203.27
759.098	216.17
759.538	235.37
759.979	284.67
760.42	399.77
760.86	774.07
761.301	2034.57
761.741	4748.27
762.182	6608.97
762.622	4665.27
763.063	1373.07
