Data from 20171114-ORNL-Ar_H_NY_Subt18_08-07-04-410.txt Node
Date: Tue Nov 14 08:07:04 EST 2017
User: Ender
Spectrometer: HR+D1039
Trigger mode: 0
Integration Time (sec): 2.730000E-2
Scans to average: 10
Electric dark correction enabled: true
Nonlinearity correction enabled: false
Boxcar width: 0
XAxis mode: Wavelengths
Number of Pixels in Spectrum: 2048
>>>>>Begin Spectral Data<<<<<
187.836	-5.5
188.309	-5.5
188.782	-5.5
189.255	-2.3
189.728	-2.6
190.201	7.2
190.674	1.1
191.147	5.5
191.619	-8.7
192.092	6.2
192.565	5.2
193.038	2.7
193.511	6.2
193.984	3.7
194.456	-3.3
194.929	-1.5
195.402	-8.6
195.874	-5.3
196.347	-6.8
196.82	-11.7
197.292	1.4
197.765	2.1
198.237	-11.8
198.71	1.5
199.182	0.8
199.655	-1
200.127	3.7
200.6	-2
201.072	0.8
201.544	-5.6
202.017	-1.8
202.489	5.2
202.961	-0.4
203.433	-2.1
203.906	-7.1
204.378	-3
204.85	-7.3
205.322	-11.7
205.794	-6.5
206.266	-6.2
206.739	-8
207.211	-1.6
207.683	-7.9
208.155	-6.6
208.627	-7.3
209.099	-2.9
209.57	-16.5
210.042	-6.6
210.514	-7.4
210.986	-2.3
211.458	-9.3
211.93	2.8
212.402	-0.8
212.873	-7.9
213.345	-9.3
213.817	-16
214.288	1.8
214.76	-14.7
215.232	-3.5
215.703	-2.9
216.175	-9.6
216.646	-9.2
217.118	-9.9
217.589	-7.3
218.061	-5.3
218.532	-6.4
219.004	-4.1
219.475	-11.7
219.946	-8.1
220.418	-7.1
220.889	1.6
221.36	-1.1
221.832	-3.6
222.303	-13.3
222.774	-1.5
223.245	-6.8
223.717	-12.6
224.188	-5.3
224.659	-9.2
225.13	-5.6
225.601	-3.9
226.072	0.3
226.543	-6
227.014	-2
227.485	-2.4
227.956	-2.4
228.427	-1.8
228.898	-0.3
229.369	-0.5
229.839	-3.8
230.31	-6.6
230.781	1.1
231.252	-2
231.722	-9.1
232.193	-6.9
232.664	-5.3
233.135	-1.7
233.605	-3.8
234.076	-10.4
234.546	-1.1
235.017	1.2
235.487	-2.8
235.958	-3.1
236.428	-12.1
236.899	-3.7
237.369	-2.9
237.84	-5.4
238.31	-1.4
238.78	-3.5
239.251	-7.8
239.721	-7.7
240.191	-8.4
240.662	-4.2
241.132	-4.5
241.602	-5.5
242.072	-9
242.542	2.4
243.013	-4.3
243.483	-2.5
243.953	-2.6
244.423	4.6
244.893	-2.2
245.363	-0.6
245.833	-2.9
246.303	-8.3
246.773	-1.7
247.243	0.2
247.712	-4.4
248.182	6.2
248.652	-1.9
249.122	-10.8
249.592	-2.9
250.061	3.4
250.531	6.2
251.001	-6.6
251.471	3.3
251.94	1.3
252.41	-1.8
252.879	-7.8
253.349	7.7
253.818	1
254.288	-2.7
254.757	-4.8
255.227	-2.9
255.696	-2.8
256.166	5.5
256.635	3.2
257.105	1.6
257.574	-0.3
258.043	-6.9
258.513	-1.6
258.982	-3.7
259.451	-8.6
259.92	1.6
260.389	0.1
260.859	3.7
261.328	-1.2
261.797	-0
262.266	-3.7
262.735	3.6
263.204	2.1
263.673	-7.1
264.142	-2.1
264.611	-9.7
265.08	-6.6
265.549	-8.1
266.018	-4.6
266.487	-5.7
266.955	-4
267.424	-0.4
267.893	3.4
268.362	-3.3
268.83	-2.8
269.299	5.8
269.768	-0.1
270.236	0.3
270.705	-0.1
271.174	2.6
271.642	-2.2
272.111	4.5
272.579	-3.7
273.048	-1
273.516	1.8
273.985	-0.5
274.453	4.3
274.922	8.2
275.39	-1.4
275.858	-3.5
276.327	7.2
276.795	14
277.263	-3.3
277.731	10
278.2	10.3
278.668	7.5
279.136	6.5
279.604	-3.3
280.072	3.8
280.54	3.7
281.008	11.4
281.477	12.4
281.945	8.3
282.413	9.9
282.881	12.6
283.348	3.8
283.816	8.4
284.284	8.2
284.752	14.9
285.22	8
285.688	8.4
286.156	8.3
286.623	17.7
287.091	7.1
287.559	13.1
288.026	3.2
288.494	9.4
288.962	0.5
289.429	5.8
289.897	15.3
290.364	11.8
290.832	17
291.3	2.5
291.767	8.5
292.234	12.3
292.702	4.8
293.169	10
293.637	15.1
294.104	12.6
294.571	7.4
295.039	14.3
295.506	11.1
295.973	6.5
296.44	5.9
296.908	9.8
297.375	12.8
297.842	13.6
298.309	6.1
298.776	11.4
299.243	15.1
299.71	11.4
300.177	10
300.644	12.7
301.111	15.7
301.578	18.4
302.045	8
302.512	18.8
302.979	23.8
303.446	16.3
303.913	8.8
304.379	14.9
304.846	22.5
305.313	19
305.78	12.8
306.246	17.3
306.713	14.6
307.18	16.5
307.646	18.9
308.113	18.6
308.579	18.7
309.046	15
309.512	18.8
309.979	11.8
310.445	25
310.912	22.4
311.378	24.8
311.845	27.2
312.311	23.4
312.777	21.1
313.244	23.1
313.71	24.3
314.176	20.9
314.642	19
315.109	15.6
315.575	26.8
316.041	29.9
316.507	23
316.973	36.3
317.439	26.1
317.905	25.6
318.371	25
318.837	30.5
319.303	23.1
319.769	20.9
320.235	22
320.701	21
321.167	25.9
321.633	20.3
322.099	26.8
322.564	31.6
323.03	27.3
323.496	22.7
323.962	32.7
324.427	25
324.893	32.9
325.359	30.8
325.824	27.2
326.29	28.5
326.755	28.7
327.221	31.6
327.686	35.9
328.152	40.2
328.617	30.5
329.083	38.5
329.548	43.4
330.014	38.2
330.479	28.2
330.944	31.9
331.41	34.2
331.875	38.4
332.34	36.6
332.805	31.3
333.271	37.1
333.736	29.3
334.201	39.5
334.666	43.4
335.131	41.1
335.596	42.7
336.061	38.8
336.526	32.8
336.991	44.9
337.456	43.6
337.921	33
338.386	37.2
338.851	40.7
339.316	34
339.781	37
340.246	40.7
340.711	35
341.175	42.6
341.64	39.8
342.105	40.8
342.569	48.4
343.034	47.6
343.499	42
343.963	39.7
344.428	57.6
344.893	52.7
345.357	51.9
345.822	51.3
346.286	55.6
346.751	59
347.215	57.8
347.679	61.9
348.144	78.6
348.608	66.4
349.073	60.1
349.537	57.6
350.001	62.1
350.465	72.9
350.93	66.7
351.394	67.4
351.858	58.6
352.322	75
352.786	71.1
353.25	81.9
353.715	92.4
354.179	83.3
354.643	94.9
355.107	96
355.571	91.4
356.035	79.7
356.498	86.7
356.962	91.5
357.426	108.5
357.89	94.8
358.354	76.2
358.818	75.9
359.281	70.6
359.745	71.4
360.209	65.7
360.673	63.8
361.136	68.7
361.6	77.3
362.064	70.8
362.527	71.2
362.991	81.2
363.454	71.6
363.918	66.6
364.381	68.2
364.845	70.4
365.308	76.2
365.772	78.9
366.235	72.3
366.698	72.1
367.162	70.5
367.625	68.7
368.088	74.7
368.552	75.2
369.015	83.3
369.478	85
369.941	85
370.404	79
370.867	80.7
371.331	91.1
371.794	91.6
372.257	79.7
372.72	90.7
373.183	86.3
373.646	85.9
374.109	86.9
374.572	87.8
375.035	89.5
375.497	95.9
375.96	91.5
376.423	96.5
376.886	98.3
377.349	103.2
377.811	93.1
378.274	98.4
378.737	93.8
379.199	98.1
379.662	98.2
380.125	91.8
380.587	95
381.05	96.3
381.512	107
381.975	109.5
382.437	106.3
382.9	98.5
383.362	110.7
383.825	119.3
384.287	117.3
384.75	103.7
385.212	107.8
385.674	125.2
386.136	120.6
386.599	111.1
387.061	114.6
387.523	109.4
387.985	119.9
388.447	124.1
388.91	113.3
389.372	113.6
389.834	115
390.296	107.7
390.758	125.7
391.22	128.8
391.682	137.1
392.144	147.1
392.606	134.3
393.068	131.8
393.529	139
393.991	125.1
394.453	117.4
394.915	121.2
395.377	126
395.838	124.8
396.3	123.4
396.762	129.2
397.224	128.1
397.685	123.9
398.147	124.6
398.608	125.2
399.07	120.4
399.531	127
399.993	134
400.454	148.3
400.916	138
401.377	138.8
401.839	143.3
402.3	139.8
402.762	156.5
403.223	163.7
403.684	159.6
404.145	155.8
404.607	149.7
405.068	154
405.529	162.7
405.99	174.4
406.451	163.7
406.913	166.1
407.374	146.8
407.835	155.2
408.296	157.9
408.757	168.1
409.218	173.1
409.679	167.8
410.14	168.6
410.601	164.3
411.062	168.2
411.522	167.6
411.983	170
412.444	164.1
412.905	174
413.366	175.9
413.826	191.7
414.287	214.7
414.748	256.7
415.208	245.7
415.669	214.5
416.13	203.6
416.59	199.6
417.051	208.7
417.511	211.2
417.972	236.4
418.432	246
418.893	285.8
419.353	249.6
419.814	189.5
420.274	180
420.734	178
421.195	188.3
421.655	190.1
422.115	185.7
422.576	191.7
423.036	195.1
423.496	207.1
423.956	211.7
424.416	223.3
424.876	264.2
425.336	257.6
425.797	255.5
426.257	249.6
426.717	233.5
427.177	222.2
427.637	217.2
428.097	230.8
428.556	237.2
429.016	255.7
429.476	246.8
429.936	260.9
430.396	268.5
430.856	273.7
431.315	303.2
431.775	333.7
432.235	361.4
432.694	336.7
433.154	339.5
433.614	368.9
434.073	320.3
434.533	270.5
434.993	254.8
435.452	265
435.912	282.4
436.371	281.3
436.83	268.4
437.29	259.4
437.749	239.4
438.209	246.4
438.668	269.9
439.127	277.6
439.587	255.4
440.046	239.3
440.505	251.4
440.964	276.4
441.424	308.5
441.883	305.5
442.342	251.7
442.801	224.6
443.26	229
443.719	225.1
444.178	221.6
444.637	208.9
445.096	223.1
445.555	224.3
446.014	221.7
446.473	232.5
446.932	230.7
447.391	225.7
447.849	228.3
448.308	225.9
448.767	220.5
449.226	243.9
449.685	235.1
450.143	247.3
450.602	245.5
451.061	233.3
451.519	238
451.978	237.7
452.436	237
452.895	246.8
453.353	249.4
453.812	240.2
454.27	241.8
454.729	247.7
455.187	245.6
455.646	252.9
456.104	252.6
456.562	265.9
457.021	267.7
457.479	258
457.937	272.8
458.395	267
458.854	246.8
459.312	258.9
459.77	269.3
460.228	266.1
460.686	242
461.144	251.2
461.602	254.5
462.06	250.4
462.518	266.1
462.976	268
463.434	261.2
463.892	267.9
464.35	281.1
464.808	293.4
465.266	268.1
465.724	269.8
466.181	279.9
466.639	282.1
467.097	299.5
467.555	305.2
468.012	306
468.47	317.5
468.928	333.6
469.385	349.2
469.843	348.3
470.3	356.9
470.758	363.9
471.215	384.6
471.673	408.2
472.13	416.9
472.588	418.8
473.045	381
473.503	384.1
473.96	406.6
474.417	412.3
474.875	435.8
475.332	477.1
475.789	468.8
476.246	480.3
476.704	492.5
477.161	506.9
477.618	529.4
478.075	557.8
478.532	619.3
478.989	683.2
479.446	787.7
479.903	749.4
480.36	782.8
480.817	821.7
481.274	924.6
481.731	1013.2
482.188	1086.3
482.645	1198.7
483.102	1301.5
483.558	1401.2
484.015	1443.4
484.472	1428
484.929	1381.9
485.385	1357.5
485.842	1311.9
486.299	1271
486.755	1223.6
487.212	1042.5
487.668	897.5
488.125	828.3
488.582	766
489.038	733.2
489.494	700.5
489.951	686.5
490.407	661
490.864	646
491.32	642.2
491.776	657.3
492.233	651.2
492.689	620.7
493.145	609.1
493.602	597.3
494.058	621
494.514	621.1
494.97	639.8
495.426	653.9
495.882	622.7
496.338	621.8
496.794	632.4
497.251	623.4
497.707	637.5
498.163	643.5
498.618	643.7
499.074	656.4
499.53	673.5
499.986	672.6
500.442	659.2
500.898	624.5
501.354	629.3
501.809	629.8
502.265	636.6
502.721	648
503.177	651
503.632	655.2
504.088	647.6
504.543	679
504.999	695.5
505.455	667.3
505.91	651
506.366	653.9
506.821	641.2
507.277	641.9
507.732	645.9
508.187	637.4
508.643	648.5
509.098	653.4
509.553	682
510.009	678.7
510.464	681.6
510.919	708.3
511.375	714
511.83	728.3
512.285	729.6
512.74	777.4
513.195	798.8
513.65	784.2
514.105	782
514.56	795.3
515.015	794.7
515.47	821.8
515.925	797.1
516.38	800.4
516.835	802.6
517.29	797.9
517.745	803.5
518.2	787.6
518.655	767.5
519.109	748.5
519.564	762.1
520.019	751.2
520.474	753.6
520.928	742.6
521.383	738.9
521.838	720.9
522.292	726.6
522.747	723.5
523.201	720
523.656	719.4
524.11	711.5
524.565	722.5
525.019	706
525.474	723.7
525.928	723.1
526.382	709.7
526.837	722.1
527.291	718.6
527.745	723.4
528.2	717.9
528.654	720.1
529.108	699.1
529.562	710.6
530.016	712.2
530.47	712
530.925	705.4
531.379	706.8
531.833	721.4
532.287	724.2
532.741	719.1
533.195	720.9
533.649	722.1
534.103	731.9
534.556	732.2
535.01	740.2
535.464	720
535.918	734
536.372	729.7
536.826	738
537.279	719.8
537.733	723.9
538.187	737.7
538.64	721.7
539.094	738.9
539.548	749
540.001	742.7
540.455	745.4
540.908	747.9
541.362	754.5
541.815	777.9
542.269	786.4
542.722	787.2
543.175	790.6
543.629	798
544.082	803.6
544.536	805
544.989	813.5
545.442	813.8
545.895	819.2
546.349	815.2
546.802	820
547.255	822.4
547.708	833.5
548.161	843.9
548.614	855.8
549.067	850.1
549.52	847.8
549.973	841.3
550.426	834.3
550.879	815
551.332	825.4
551.785	833.5
552.238	828.6
552.691	842.2
553.144	856.9
553.596	872.2
554.049	897.3
554.502	921.9
554.955	931.2
555.407	943.5
555.86	929.5
556.313	915.4
556.765	897.2
557.218	904.6
557.67	902.2
558.123	902
558.576	895.2
559.028	902.6
559.48	900.9
559.933	896.6
560.385	863.2
560.838	844.9
561.29	818.6
561.742	806.9
562.195	797.1
562.647	792.4
563.099	798.7
563.551	794.2
564.004	803.1
564.456	804.6
564.908	772
565.36	768
565.812	752.6
566.264	737.3
566.716	739.4
567.168	727.2
567.62	727.2
568.072	716.2
568.524	713.9
568.976	701.7
569.428	696.9
569.88	696.5
570.332	700.4
570.784	705.3
571.235	706.6
571.687	717.8
572.139	723.4
572.59	732.5
573.042	732.9
573.494	740.4
573.945	731
574.397	704
574.849	717.5
575.3	709.5
575.752	713.9
576.203	696.9
576.655	702.1
577.106	698.8
577.557	689.2
578.009	682.4
578.46	684.1
578.912	672.9
579.363	688.7
579.814	689.2
580.265	686.7
580.717	686.3
581.168	690.7
581.619	698.9
582.07	694.5
582.521	696.5
582.972	693.1
583.423	698
583.875	692.1
584.326	702.2
584.777	711.9
585.227	731
585.678	750.1
586.129	769.3
586.58	786.8
587.031	799.8
587.482	834.6
587.933	862.4
588.384	838.5
588.834	790.9
589.285	789.6
589.736	786.7
590.186	786.7
590.637	780.8
591.088	763.5
591.538	746.9
591.989	755.9
592.439	738.7
592.89	731.9
593.34	721.7
593.791	726.7
594.241	705.3
594.692	718.1
595.142	715.8
595.593	712.5
596.043	717.8
596.493	721.3
596.943	726.9
597.394	739.3
597.844	734.2
598.294	756.8
598.744	771.5
599.195	800.1
599.645	833.6
600.095	887
600.545	934.6
600.995	985
601.445	1055
601.895	1112.2
602.345	1162.6
602.795	1138.4
603.245	1099.4
603.695	1037.7
604.145	976.7
604.594	934.7
605.044	875
605.494	825.7
605.944	773.7
606.393	761.9
606.843	745.3
607.293	737.3
607.743	748.2
608.192	752.5
608.642	762.6
609.091	768.7
609.541	770.6
609.99	770.7
610.44	778
610.889	719
611.339	709.8
611.788	693.5
612.238	702.9
612.687	712.4
613.136	710.9
613.586	713.9
614.035	717.2
614.484	720.5
614.933	712.2
615.383	714.5
615.832	714
616.281	721.6
616.73	679.9
617.179	669.8
617.628	646.4
618.077	639.4
618.526	629.7
618.975	632
619.424	631.9
619.873	623.3
620.322	628.1
620.771	612.2
621.22	616.8
621.669	603
622.118	591.2
622.567	585.5
623.015	579.3
623.464	579
623.913	570.5
624.361	571.6
624.81	570.5
625.259	561.1
625.707	568
626.156	563.6
626.604	567.8
627.053	572
627.501	572.7
627.95	582.1
628.398	592.5
628.847	579.1
629.295	583.1
629.744	595.5
630.192	577.3
630.64	580.5
631.089	549.7
631.537	547.8
631.985	542.2
632.433	542.6
632.881	537.4
633.33	547
633.778	525.5
634.226	530.8
634.674	547.9
635.122	543.5
635.57	556.8
636.018	564.2
636.466	563.7
636.914	563.9
637.362	577
637.81	577.9
638.258	595.7
638.705	589.9
639.153	618.8
639.601	634
640.049	652.2
640.497	686.4
640.944	698.6
641.392	664.2
641.84	623
642.287	582.6
642.735	566.9
643.182	566.7
643.63	558.9
644.078	571.1
644.525	573.6
644.973	581.8
645.42	597.4
645.867	621.6
646.315	633.6
646.762	664.5
647.21	684.9
647.657	710.6
648.104	739
648.551	764
648.999	811.5
649.446	880.9
649.893	963.9
650.34	1110.2
650.787	1313.6
651.234	1633.6
651.682	2100.9
652.129	2843.3
652.576	3987
653.023	5850.3
653.47	7928.1
653.917	9864
654.363	11368.3
654.81	12539.9
655.257	11889.2
655.704	7858.2
656.151	4736.5
656.598	3111.1
657.044	2226.4
657.491	1737.4
657.938	1409.1
658.385	1185.8
658.831	1031.8
659.278	923.5
659.724	828.8
660.171	764
660.618	712.9
661.064	681.6
661.511	658.7
661.957	648
662.404	641
662.85	645.9
663.296	619.8
663.743	564.6
664.189	540.9
664.635	539.3
665.082	529.1
665.528	529.3
665.974	525.1
666.42	515.7
666.867	517
667.313	488.9
667.759	467.6
668.205	463.4
668.651	460.1
669.097	455.3
669.543	450.5
669.989	437.1
670.435	454
670.881	448.2
671.327	456
671.773	472.3
672.219	508.1
672.665	556.2
673.11	597.9
673.556	641.6
674.002	685.5
674.448	671.3
674.893	571.7
675.339	480.6
675.785	450.7
676.23	435.2
676.676	403.8
677.122	388.2
677.567	382.2
678.013	374.4
678.458	366.5
678.904	369.5
679.349	353.3
679.794	360.8
680.24	357
680.685	359.3
681.131	359
681.576	359.4
682.021	356.7
682.466	356.8
682.912	355.5
683.357	362.4
683.802	384.9
684.247	420.6
684.692	467.3
685.137	510
685.583	544.7
686.028	570.8
686.473	532.1
686.918	456.6
687.363	432.1
687.807	410.3
688.252	380.5
688.697	365.7
689.142	346.9
689.587	341.2
690.032	338.1
690.477	360.7
690.921	363.9
691.366	389.4
691.811	405.9
692.255	439.5
692.7	483.1
693.145	515.6
693.589	725.1
694.034	1171.6
694.478	1588.5
694.923	1782.8
695.367	2314.9
695.812	1233.6
696.256	511.6
696.701	374.9
697.145	349.7
697.59	341.6
698.034	331.2
698.478	330.2
698.922	319.8
699.367	332.4
699.811	337.2
700.255	350.3
700.699	386.4
701.143	438
701.588	484.7
702.032	527.4
702.476	527.4
702.92	501
703.364	509.3
703.808	663.8
704.252	1073.6
704.696	1497.9
705.14	1722.9
705.584	2189.8
706.027	1102.4
706.471	539.9
706.915	402.3
707.359	359.2
707.803	330.5
708.246	319.5
708.69	317.7
709.134	321.3
709.577	310.8
710.021	318.5
710.465	313.1
710.908	302.8
711.352	299.6
711.795	316.9
712.239	366.2
712.682	395.9
713.126	415.3
713.569	455
714.012	362.9
714.456	306.8
714.899	294.5
715.342	281.1
715.786	269.2
716.229	262.5
716.672	259.2
717.115	254.5
717.558	256.6
718.002	258
718.445	272.7
718.888	294
719.331	300.1
719.774	313
720.217	305.4
720.66	298.7
721.103	275.4
721.546	260.3
721.989	249.9
722.432	236.6
722.874	249.6
723.317	237.2
723.76	238.8
724.203	268.6
724.645	323.2
725.088	458.8
725.531	584.7
725.974	663.2
726.416	553.7
726.859	314.4
727.301	254.5
727.744	240.1
728.187	232.6
728.629	242.9
729.071	249.9
729.514	261.1
729.956	271.1
730.399	292.1
730.841	295.9
731.283	281.2
731.726	271.2
732.168	266.2
732.61	268.8
733.053	290.2
733.495	316.8
733.937	354.7
734.379	421.4
734.821	450.3
735.263	560.7
735.705	855.8
736.148	1634.4
736.59	2681.9
737.032	3154.4
737.474	2551.6
737.916	835.5
738.357	438.2
738.799	335.8
739.241	309.7
739.683	294.1
740.125	299.3
740.567	307.5
741.008	326.8
741.45	325.2
741.892	325
742.334	358.6
742.775	373.8
743.217	354.1
743.658	279.3
744.1	267.2
744.542	272.6
744.983	324.8
745.425	361.7
745.866	355.4
746.307	278.8
746.749	281.2
747.19	331.8
747.632	470.9
748.073	914.4
748.514	1947.4
748.956	2942.4
749.397	3677.2
749.838	3054.9
750.279	3043.5
750.72	1543.1
751.162	565.4
751.603	333.1
752.044	262.7
752.485	221.8
752.926	216.9
753.367	210.5
753.808	198.2
754.249	200.7
754.69	194.2
755.131	189.1
755.572	188.8
756.013	180.9
756.453	190.6
756.894	191.2
757.335	192.5
757.776	200.2
758.216	200.8
758.657	197.5
759.098	204.8
759.538	228.6
759.979	271.2
760.42	385.6
760.86	739.6
761.301	1912.2
761.741	4610.2
762.182	6644.7
762.622	4682.7
763.063	1358
763.503	544.1
763.943	335.7
764.384	264.5
764.824	249.7
765.264	239.1
765.705	215.5
766.145	181.3
766.585	188.1
767.025	178.3
767.465	171.3
767.906	180.8
768.346	193.7
768.786	200.4
769.226	218.9
769.666	317.7
770.106	640.6
770.546	1610.7
770.986	2730.2
771.426	2449.7
771.866	822.5
772.306	339.4
772.745	216.2
773.185	167.6
773.625	159.5
774.065	154.4
774.505	162.4
774.944	209.9
775.384	359
775.824	594.8
776.263	582.3
776.703	284.4
777.142	163.6
777.582	139.5
778.021	120
778.461	120
778.9	131.4
779.34	123.5
779.779	113.3
780.219	112.1
780.658	105.1
781.097	107.9
781.537	118
781.976	110.9
782.415	103.8
782.855	107.3
783.294	105.5
783.733	107.1
784.172	109.7
784.611	106
785.05	110.7
785.489	116.7
785.928	123.2
786.367	119.1
786.806	117.4
787.245	133.1
787.684	130.5
788.123	151.1
788.562	140.1
789.001	129.7
789.44	123.1
789.879	123.3
790.317	118.1
790.756	127.8
791.195	134.1
791.634	150.9
792.072	203.6
792.511	377.7
792.95	1032.5
793.388	2180.8
793.827	1978.2
794.265	684.5
794.704	291.9
795.142	179
795.581	150.4
796.019	141.5
796.458	129.3
796.896	126.2
797.334	130.7
797.773	169.1
798.211	226
798.649	457.3
799.087	1052.8
799.526	1651.1
799.964	2080.4
800.402	2073.1
800.84	780.2
801.278	315
801.716	191.4
802.154	153.8
802.592	152.1
803.03	135.4
803.468	142.3
803.906	144.9
804.344	144.4
804.782	145.9
805.22	139.4
805.658	132.6
806.096	146.8
806.533	165
806.971	178.3
807.409	228.4
807.847	334.6
808.284	702.3
