Data from 20171114-ORNL-Ar_H_NY_Subt18_08-08-50-080.txt Node
Date: Tue Nov 14 08:08:50 EST 2017
User: Ender
Spectrometer: HR+D1039
Trigger mode: 0
Integration Time (sec): 2.730000E-2
Scans to average: 10
Electric dark correction enabled: true
Nonlinearity correction enabled: false
Boxcar width: 0
XAxis mode: Wavelengths
Number of Pixels in Spectrum: 2048
>>>>>Begin Spectral Data<<<<<
187.836	-2.59
188.309	-2.59
188.782	-2.59
189.255	3.51
189.728	4.41
190.201	7.21
190.674	0.61
191.147	3.41
191.619	-8.99
192.092	5.11
192.565	1.51
193.038	-4.29
193.511	1.11
193.984	-1.19
194.456	1.81
194.929	-0.59
195.402	-3.29
195.874	-7.79
196.347	-3.59
196.82	-10.09
197.292	1.91
197.765	2.81
198.237	-4.69
198.71	0.71
199.182	-6.89
199.655	3.91
200.127	3.71
200.6	-4.99
201.072	-3.69
201.544	-1.79
202.017	-5.19
202.489	1.11
202.961	-1.39
203.433	-3.19
203.906	-7.69
204.378	-2.79
204.85	2.41
205.322	-10.99
205.794	-9.59
206.266	-1.99
206.739	-14.19
207.211	-0.39
207.683	-1.89
208.155	-2.49
208.627	-6.39
209.099	-0.89
209.57	-6.49
210.042	-5.79
210.514	-7.19
210.986	1.51
211.458	-9.09
211.93	-5.99
212.402	6.21
212.873	-4.09
213.345	0.61
213.817	-6.39
214.288	-5.29
214.76	-11.29
215.232	-5.59
215.703	-2.69
216.175	-2.29
216.646	-6.19
217.118	-12.79
217.589	-6.79
218.061	-5.29
218.532	-6.19
219.004	-1.39
219.475	-1.49
219.946	-1.09
220.418	-3.39
220.889	4.71
221.36	2.91
221.832	-3.69
222.303	-8.59
222.774	-0.99
223.245	-15.49
223.717	-5.59
224.188	-1.29
224.659	-5.89
225.13	-3.99
225.601	-3.99
226.072	0.21
226.543	1.71
227.014	0.31
227.485	-4.49
227.956	3.01
228.427	-1.99
228.898	-1.79
229.369	2.91
229.839	-5.49
230.31	-7.79
230.781	1.31
231.252	-0.39
231.722	-3.49
232.193	-1.39
232.664	-0.49
233.135	1.01
233.605	2.61
234.076	-5.89
234.546	-4.49
235.017	-0.09
235.487	-4.79
235.958	-1.79
236.428	-3.09
236.899	0.71
237.369	-3.39
237.84	-1.09
238.31	-0.39
238.78	-3.19
239.251	-4.69
239.721	-3.49
240.191	-3.29
240.662	-4.89
241.132	0.01
241.602	-4.79
242.072	-1.79
242.542	-0.99
243.013	-6.29
243.483	4.51
243.953	-2.59
244.423	-2.69
244.893	-7.09
245.363	0.81
245.833	-2.19
246.303	-5.69
246.773	2.31
247.243	-0.19
247.712	3.31
248.182	2.11
248.652	-2.69
249.122	-6.79
249.592	-2.59
250.061	7.41
250.531	14.21
251.001	1.11
251.471	0.71
251.94	3.31
252.41	-1.89
252.879	-7.09
253.349	4.11
253.818	6.11
254.288	1.71
254.757	2.01
255.227	-8.29
255.696	-3.19
256.166	3.01
256.635	1.61
257.105	-0.59
257.574	0.31
258.043	-0.19
258.513	-3.89
258.982	7.11
259.451	-5.19
259.92	-0.59
260.389	3.81
260.859	10.21
261.328	4.41
261.797	0.51
262.266	-2.59
262.735	4.51
263.204	8.21
263.673	-2.49
264.142	3.21
264.611	-10.19
265.08	-3.49
265.549	-5.09
266.018	6.51
266.487	-5.29
266.955	-7.89
267.424	-4.39
267.893	3.31
268.362	1.51
268.83	2.21
269.299	8.81
269.768	-0.49
270.236	-0.79
270.705	1.91
271.174	1.61
271.642	4.41
272.111	1.11
272.579	4.81
273.048	6.21
273.516	7.51
273.985	1.31
274.453	9.11
274.922	3.11
275.39	3.51
275.858	0.21
276.327	3.71
276.795	10.91
277.263	0.71
277.731	11.11
278.2	14.61
278.668	11.81
279.136	12.91
279.604	5.11
280.072	6.01
280.54	5.61
281.008	4.01
281.477	12.71
281.945	8.51
282.413	4.81
282.881	13.51
283.348	3.61
283.816	10.81
284.284	10.61
284.752	11.41
285.22	7.41
285.688	12.01
286.156	10.21
286.623	19.31
287.091	12.81
287.559	7.71
288.026	6.91
288.494	7.91
288.962	4.81
289.429	4.41
289.897	14.21
290.364	8.71
290.832	11.01
291.3	9.71
291.767	8.71
292.234	15.91
292.702	4.11
293.169	12.41
293.637	19.21
294.104	13.81
294.571	4.61
295.039	10.71
295.506	7.41
295.973	13.01
296.44	11.61
296.908	9.01
297.375	4.61
297.842	12.31
298.309	10.41
298.776	9.01
299.243	11.71
299.71	5.51
300.177	16.81
300.644	18.01
301.111	13.71
301.578	19.91
302.045	10.51
302.512	15.21
302.979	19.61
303.446	12.91
303.913	10.81
304.379	2.11
304.846	19.11
305.313	16.01
305.78	16.21
306.246	14.81
306.713	22.71
307.18	14.61
307.646	15.01
308.113	22.51
308.579	12.81
309.046	17.51
309.512	23.81
309.979	12.21
310.445	14.11
310.912	24.91
311.378	22.21
311.845	19.01
312.311	21.51
312.777	27.81
313.244	24.81
313.71	27.01
314.176	20.51
314.642	19.71
315.109	24.01
315.575	21.71
316.041	26.51
316.507	22.61
316.973	26.31
317.439	24.81
317.905	29.01
318.371	27.41
318.837	20.51
319.303	24.81
319.769	25.81
320.235	25.61
320.701	22.41
321.167	26.21
321.633	24.11
322.099	32.01
322.564	31.51
323.03	29.71
323.496	28.31
323.962	26.41
324.427	27.01
324.893	32.51
325.359	31.31
325.824	28.51
326.29	27.21
326.755	27.11
327.221	25.31
327.686	31.31
328.152	31.71
328.617	27.51
329.083	39.01
329.548	46.91
330.014	39.91
330.479	33.21
330.944	34.71
331.41	35.11
331.875	29.81
332.34	38.71
332.805	36.11
333.271	33.81
333.736	27.51
334.201	37.51
334.666	38.41
335.131	42.81
335.596	43.71
336.061	36.21
336.526	32.11
336.991	37.31
337.456	45.01
337.921	42.01
338.386	31.51
338.851	36.41
339.316	39.61
339.781	40.31
340.246	39.81
340.711	37.11
341.175	50.81
341.64	34.81
342.105	42.61
342.569	43.01
343.034	45.51
343.499	46.61
343.963	44.21
344.428	52.11
344.893	52.51
345.357	47.71
345.822	48.11
346.286	54.61
346.751	58.81
347.215	57.51
347.679	60.11
348.144	77.21
348.608	66.51
349.073	55.21
349.537	60.01
350.001	64.81
350.465	67.61
350.93	66.61
351.394	71.71
351.858	60.81
352.322	69.21
352.786	70.31
353.25	85.01
353.715	92.01
354.179	84.51
354.643	101.31
355.107	99.41
355.571	83.21
356.035	86.21
356.498	93.71
356.962	99.21
357.426	109.41
357.89	94.91
358.354	72.61
358.818	68.41
359.281	74.31
359.745	59.91
360.209	69.51
360.673	62.31
361.136	64.41
361.6	72.81
362.064	72.51
362.527	77.01
362.991	79.71
363.454	66.91
363.918	64.61
364.381	64.21
364.845	71.61
365.308	72.51
365.772	82.71
366.235	77.61
366.698	74.71
367.162	75.01
367.625	73.81
368.088	74.91
368.552	77.41
369.015	81.71
369.478	82.91
369.941	92.21
370.404	80.91
370.867	88.11
371.331	90.71
371.794	91.41
372.257	88.91
372.72	95.81
373.183	87.51
373.646	79.61
374.109	84.21
374.572	95.61
375.035	84.91
375.497	90.51
375.96	93.61
376.423	94.41
376.886	101.41
377.349	97.81
377.811	89.31
378.274	95.21
378.737	89.91
379.199	101.51
379.662	93.71
380.125	101.11
380.587	99.21
381.05	97.01
381.512	108.31
381.975	116.11
382.437	111.81
382.9	112.11
383.362	117.51
383.825	121.01
384.287	113.51
384.75	110.91
385.212	120.21
385.674	120.11
386.136	125.01
386.599	111.51
387.061	113.01
387.523	112.41
387.985	113.01
388.447	125.61
388.91	122.21
389.372	122.31
389.834	121.31
390.296	121.41
390.758	127.61
391.22	131.71
391.682	143.71
392.144	167.41
392.606	158.81
393.068	137.51
393.529	147.31
393.991	131.31
394.453	133.41
394.915	124.31
395.377	135.61
395.838	143.41
396.3	124.51
396.762	136.01
397.224	127.71
397.685	124.81
398.147	123.51
398.608	119.81
399.07	127.31
399.531	130.21
399.993	129.91
400.454	146.61
400.916	138.71
401.377	136.91
401.839	144.11
402.3	143.81
402.762	148.81
403.223	166.01
403.684	161.81
404.145	157.91
404.607	152.01
405.068	153.31
405.529	157.61
405.99	175.41
406.451	163.51
406.913	165.41
407.374	160.71
407.835	154.61
408.296	163.31
408.757	168.61
409.218	172.61
409.679	173.81
410.14	165.51
410.601	171.21
411.062	171.71
411.522	177.71
411.983	175.31
412.444	174.41
412.905	173.91
413.366	179.11
413.826	193.61
414.287	213.01
414.748	255.41
415.208	235.91
415.669	208.31
416.13	207.11
416.59	204.41
417.051	214.51
417.511	224.71
417.972	233.51
418.432	246.91
418.893	288.51
419.353	248.91
419.814	202.91
420.274	178.61
420.734	176.01
421.195	193.91
421.655	190.41
422.115	188.01
422.576	191.41
423.036	195.31
423.496	207.81
423.956	213.21
424.416	228.81
424.876	259.01
425.336	256.81
425.797	251.91
426.257	245.51
426.717	229.61
427.177	229.91
427.637	217.71
428.097	230.61
428.556	236.21
429.016	263.31
429.476	250.01
429.936	262.81
430.396	267.91
430.856	281.31
431.315	296.21
431.775	334.41
432.235	358.51
432.694	334.81
433.154	347.31
433.614	383.91
434.073	327.41
434.533	277.11
434.993	266.71
435.452	273.81
435.912	287.81
436.371	279.51
436.83	270.61
437.29	258.51
437.749	240.91
438.209	238.61
438.668	274.91
439.127	283.11
439.587	258.61
440.046	243.21
440.505	251.31
440.964	277.71
441.424	311.51
441.883	305.41
442.342	253.01
442.801	223.91
443.26	229.91
443.719	224.41
444.178	222.01
444.637	215.11
445.096	225.11
445.555	228.51
446.014	224.91
446.473	223.91
446.932	234.91
447.391	231.21
447.849	233.21
448.308	224.21
448.767	224.31
449.226	242.41
449.685	239.21
450.143	252.51
450.602	243.21
451.061	219.81
451.519	234.71
451.978	231.01
452.436	239.91
452.895	235.41
453.353	251.71
453.812	239.61
454.27	242.71
454.729	242.81
455.187	236.41
455.646	248.81
456.104	255.61
456.562	258.21
457.021	274.71
457.479	259.01
457.937	273.41
458.395	264.21
458.854	248.91
459.312	250.91
459.77	267.81
460.228	253.61
460.686	245.61
461.144	249.91
461.602	245.21
462.06	248.71
462.518	262.91
462.976	255.41
463.434	259.61
463.892	267.51
464.35	276.71
464.808	297.41
465.266	266.91
465.724	269.61
466.181	272.31
466.639	280.91
467.097	296.01
467.555	300.41
468.012	301.41
468.47	311.91
468.928	332.81
469.385	343.71
469.843	351.81
470.3	349.61
470.758	369.51
471.215	379.61
471.673	410.91
472.13	402.91
472.588	417.51
473.045	376.91
473.503	380.61
473.96	402.01
474.417	406.81
474.875	429.01
475.332	481.11
475.789	459.21
476.246	469.41
476.704	488.31
477.161	506.61
477.618	514.71
478.075	551.21
478.532	612.31
478.989	666.71
479.446	777.91
479.903	753.41
480.36	777.11
480.817	828.01
481.274	914.21
481.731	1006.71
482.188	1076.91
482.645	1196.21
483.102	1294.91
483.558	1411.11
484.015	1454.81
484.472	1420.31
484.929	1387.31
485.385	1337.91
485.842	1312.61
486.299	1260.01
486.755	1227.61
487.212	1051.31
487.668	892.41
488.125	820.71
488.582	751.91
489.038	728.01
489.494	697.91
489.951	677.91
490.407	665.01
490.864	638.51
491.32	638.61
491.776	644.41
492.233	641.61
492.689	609.91
493.145	601.71
493.602	604.71
494.058	608.51
494.514	614.91
494.97	640.01
495.426	643.51
495.882	625.51
496.338	609.31
496.794	625.41
497.251	608.91
497.707	620.41
498.163	632.01
498.618	634.81
499.074	640.01
499.53	661.81
499.986	669.01
500.442	637.41
500.898	617.71
501.354	615.41
501.809	629.21
502.265	624.41
502.721	639.51
503.177	646.71
503.632	649.71
504.088	657.51
504.543	671.21
504.999	696.81
505.455	667.81
505.91	633.91
506.366	638.51
506.821	638.71
507.277	635.11
507.732	627.41
508.187	633.41
508.643	651.21
509.098	642.81
509.553	664.31
510.009	669.31
510.464	687.31
510.919	708.01
511.375	704.41
511.83	718.81
512.285	725.41
512.74	764.91
513.195	781.81
513.65	773.41
514.105	765.11
514.56	763.71
515.015	793.91
515.47	808.31
515.925	787.61
516.38	792.11
516.835	791.21
517.29	787.81
517.745	780.11
518.2	766.11
518.655	763.91
519.109	759.21
519.564	748.11
520.019	738.91
520.474	737.51
520.928	727.21
521.383	721.91
521.838	725.81
522.292	725.71
522.747	703.41
523.201	712.11
523.656	708.71
524.11	705.31
524.565	715.51
525.019	702.81
525.474	708.51
525.928	700.11
526.382	707.51
526.837	705.11
527.291	708.91
527.745	697.11
528.2	707.01
528.654	704.21
529.108	690.31
529.562	700.61
530.016	699.21
530.47	695.51
530.925	699.81
531.379	694.51
531.833	698.11
532.287	708.01
532.741	704.71
533.195	708.91
533.649	714.31
534.103	723.61
534.556	720.01
535.01	724.21
535.464	711.01
535.918	721.71
536.372	729.11
536.826	714.31
537.279	717.81
537.733	724.51
538.187	717.21
538.64	721.01
539.094	728.81
539.548	739.11
540.001	744.21
540.455	730.91
540.908	737.51
541.362	749.21
541.815	763.01
542.269	773.91
542.722	767.91
543.175	775.71
543.629	778.01
544.082	797.51
544.536	800.01
544.989	789.81
545.442	801.31
545.895	803.91
546.349	802.91
546.802	806.11
547.255	815.01
547.708	829.21
548.161	834.41
548.614	839.71
549.067	837.11
549.52	829.71
549.973	826.81
550.426	820.41
550.879	805.11
551.332	812.91
551.785	816.01
552.238	824.71
552.691	831.41
553.144	857.71
553.596	864.91
554.049	868.11
554.502	904.41
554.955	920.41
555.407	916.41
555.86	914.31
556.313	897.81
556.765	893.81
557.218	886.11
557.67	890.51
558.123	891.21
558.576	884.51
559.028	896.51
559.48	904.81
559.933	893.11
560.385	850.91
560.838	821.11
561.29	803.11
561.742	804.11
562.195	785.11
562.647	779.81
563.099	795.01
563.551	793.01
564.004	801.61
564.456	787.81
564.908	765.71
565.36	751.71
565.812	745.31
566.264	730.01
566.716	742.11
567.168	714.11
567.62	724.31
568.072	709.41
568.524	713.01
568.976	706.41
569.428	693.51
569.88	685.11
570.332	706.61
570.784	707.71
571.235	704.01
571.687	708.71
572.139	708.11
572.59	729.21
573.042	723.11
573.494	726.91
573.945	724.71
574.397	698.51
574.849	703.01
575.3	707.71
575.752	700.61
576.203	698.21
576.655	699.21
577.106	673.31
577.557	673.11
578.009	683.61
578.46	687.61
578.912	678.91
579.363	675.71
579.814	673.21
580.265	678.31
580.717	690.61
581.168	683.71
581.619	693.11
582.07	692.21
582.521	686.01
582.972	681.41
583.423	694.41
583.875	692.71
584.326	690.81
584.777	730.91
585.227	763.71
585.678	789.61
586.129	814.51
586.58	839.81
587.031	886.81
587.482	943.81
587.933	994.31
588.384	931.61
588.834	839.91
589.285	791.81
589.736	790.41
590.186	790.11
590.637	780.91
591.088	760.61
591.538	762.41
591.989	744.81
592.439	740.91
592.89	736.21
593.34	726.01
593.791	729.21
594.241	717.31
594.692	721.21
595.142	710.31
595.593	706.91
596.043	714.11
596.493	734.11
596.943	717.31
597.394	735.31
597.844	730.61
598.294	746.71
598.744	773.31
599.195	803.91
599.645	834.11
600.095	885.51
600.545	946.71
600.995	1001.21
601.445	1052.81
601.895	1112.91
602.345	1155.01
602.795	1140.71
603.245	1102.51
603.695	1039.71
604.145	975.11
604.594	927.41
605.044	873.31
605.494	817.71
605.944	761.11
606.393	763.51
606.843	746.91
607.293	741.81
607.743	746.81
608.192	761.21
608.642	771.21
609.091	778.31
609.541	773.71
609.99	784.21
610.44	783.41
610.889	737.11
611.339	714.21
611.788	692.11
612.238	714.61
612.687	721.21
613.136	707.51
613.586	722.81
614.035	717.31
614.484	730.81
614.933	729.41
615.383	730.51
615.832	727.71
616.281	721.51
616.73	694.11
617.179	666.51
617.628	669.31
618.077	646.71
618.526	640.11
618.975	627.81
619.424	622.61
619.873	620.21
620.322	631.71
620.771	628.61
621.22	612.31
621.669	604.31
622.118	599.61
622.567	598.21
623.015	586.81
623.464	588.51
623.913	576.11
624.361	562.21
624.81	555.21
625.259	571.51
625.707	566.11
626.156	574.31
626.604	585.61
627.053	576.01
627.501	576.51
627.95	576.51
628.398	601.01
628.847	589.11
629.295	593.01
629.744	589.91
630.192	583.11
630.64	573.41
631.089	563.81
631.537	559.81
631.985	553.91
632.433	559.91
632.881	549.51
633.33	571.01
633.778	556.31
634.226	544.81
634.674	562.81
635.122	568.01
635.57	574.21
636.018	588.51
636.466	575.31
636.914	567.81
637.362	589.31
637.81	590.01
638.258	604.01
638.705	598.81
639.153	628.81
639.601	635.31
640.049	659.31
640.497	691.61
640.944	718.11
641.392	653.71
641.84	626.71
642.287	599.71
642.735	575.11
643.182	585.61
643.63	586.41
644.078	577.51
644.525	586.31
644.973	602.71
645.42	611.31
645.867	634.01
646.315	646.71
646.762	671.31
647.21	706.11
647.657	719.31
648.104	759.41
648.551	774.91
648.999	826.61
649.446	917.51
649.893	990.31
650.34	1146.81
650.787	1359.31
651.234	1680.11
651.682	2158.51
652.129	2955.41
652.576	4206.41
653.023	6121.11
653.47	8233.71
653.917	10229.01
654.363	11669.41
654.81	12823.51
655.257	12174.21
655.704	8072.51
656.151	4854.31
656.598	3178.01
657.044	2283.71
657.491	1778.51
657.938	1418.71
658.385	1212.31
658.831	1058.21
659.278	950.01
659.724	845.91
660.171	774.11
660.618	721.01
661.064	689.81
661.511	670.11
661.957	659.61
662.404	638.91
662.85	656.81
663.296	629.01
663.743	575.11
664.189	554.91
664.635	542.71
665.082	541.01
665.528	538.51
665.974	528.81
666.42	528.51
666.867	522.11
667.313	506.41
667.759	482.11
668.205	468.01
668.651	466.01
669.097	456.11
669.543	465.01
669.989	470.21
670.435	466.71
670.881	454.91
671.327	469.51
671.773	482.41
672.219	514.11
672.665	560.81
673.11	607.31
673.556	652.51
674.002	691.41
674.448	685.11
674.893	574.01
675.339	502.11
675.785	462.61
676.23	426.01
676.676	416.41
677.122	403.01
677.567	388.71
678.013	379.31
678.458	378.31
678.904	369.51
679.349	359.01
679.794	370.71
680.24	362.91
680.685	362.61
681.131	357.41
681.576	366.51
682.021	367.01
682.466	357.31
682.912	358.41
683.357	370.41
683.802	399.51
684.247	427.71
684.692	477.41
685.137	515.01
685.583	557.51
686.028	584.31
686.473	538.91
686.918	471.91
687.363	441.81
687.807	403.61
688.252	384.11
688.697	373.21
689.142	347.31
689.587	348.71
690.032	342.91
690.477	351.11
690.921	367.71
691.366	390.41
691.811	421.11
692.255	446.11
692.7	482.91
693.145	528.01
693.589	753.71
694.034	1215.91
694.478	1622.91
694.923	1799.41
695.367	2337.01
695.812	1248.61
696.256	522.31
696.701	385.81
697.145	359.71
697.59	339.71
698.034	330.91
698.478	337.71
698.922	336.31
699.367	337.21
699.811	348.81
700.255	367.51
700.699	404.31
701.143	441.11
701.588	486.71
702.032	536.41
702.476	535.71
702.92	519.01
703.364	518.01
703.808	691.51
704.252	1126.61
704.696	1548.51
705.14	1724.91
705.584	2200.01
706.027	1120.91
706.471	552.21
706.915	410.21
707.359	368.81
707.803	337.71
708.246	327.91
708.69	328.01
709.134	319.41
709.577	327.51
710.021	331.41
710.465	324.61
710.908	321.81
711.352	309.41
711.795	334.91
712.239	371.01
712.682	397.01
713.126	425.61
713.569	476.51
714.012	370.71
714.456	317.01
714.899	294.21
715.342	281.91
715.786	273.21
716.229	266.11
716.672	264.11
717.115	260.91
717.558	267.11
718.002	263.21
718.445	268.41
718.888	290.91
719.331	305.31
719.774	319.81
720.217	308.41
720.66	291.71
721.103	274.21
721.546	258.61
721.989	265.91
722.432	243.51
722.874	246.11
723.317	246.11
723.76	247.81
724.203	262.21
724.645	334.31
725.088	474.61
725.531	595.61
725.974	662.41
726.416	554.71
726.859	313.81
727.301	252.71
727.744	249.61
728.187	243.11
728.629	251.61
729.071	250.31
729.514	268.51
729.956	288.91
730.399	303.11
730.841	299.41
731.283	280.51
731.726	281.51
732.168	270.71
732.61	283.21
733.053	304.31
733.495	331.61
733.937	372.51
734.379	426.11
734.821	466.91
735.263	583.71
735.705	915.71
736.148	1724.61
736.59	2741.01
737.032	3140.11
737.474	2575.91
737.916	856.01
738.357	451.21
738.799	351.01
739.241	307.91
739.683	300.21
740.125	303.81
740.567	317.31
741.008	337.41
741.45	326.21
741.892	330.11
742.334	368.01
742.775	376.31
743.217	364.51
743.658	286.81
744.1	266.11
744.542	277.81
744.983	332.91
745.425	367.21
745.866	356.21
746.307	294.21
746.749	298.61
747.19	341.31
747.632	487.61
748.073	979.11
748.514	2037.71
748.956	3026.41
749.397	3787.71
749.838	3139.81
750.279	3045.31
750.72	1571.81
751.162	581.71
751.603	341.51
752.044	265.51
752.485	239.81
752.926	227.01
753.367	214.01
753.808	205.81
754.249	205.51
754.69	194.51
755.131	190.11
755.572	194.31
756.013	185.11
756.453	189.91
756.894	197.21
757.335	206.61
757.776	199.91
758.216	200.11
758.657	211.71
759.098	214.11
759.538	237.21
759.979	294.81
760.42	410.11
760.86	782.11
761.301	2049.11
761.741	4774.41
762.182	6632.71
762.622	4664.11
763.063	1387.11
763.503	566.21
