Data from 20171114-ORNL-Ar_H_NY_Subt18_08-08-12-111.txt Node
Date: Tue Nov 14 08:08:12 EST 2017
User: Ender
Spectrometer: HR+D1039
Trigger mode: 0
Integration Time (sec): 2.730000E-2
Scans to average: 10
Electric dark correction enabled: true
Nonlinearity correction enabled: false
Boxcar width: 0
XAxis mode: Wavelengths
Number of Pixels in Spectrum: 2048
>>>>>Begin Spectral Data<<<<<
187.836	-3.28
188.309	-3.28
188.782	-3.28
189.255	-4.18
189.728	0.52
190.201	2.92
190.674	5.12
191.147	1.92
191.619	-6.18
192.092	1.42
192.565	5.32
193.038	-0.48
193.511	0.12
193.984	0.82
194.456	-4.48
194.929	1.72
195.402	0.62
195.874	-1.88
196.347	2.92
196.82	-2.28
197.292	7.22
197.765	-2.38
198.237	-4.58
198.71	1.52
199.182	0.42
199.655	-0.18
200.127	3.42
200.6	-4.08
201.072	-0.28
201.544	-0.08
202.017	-3.08
202.489	1.82
202.961	1.62
203.433	0.42
203.906	-6.18
204.378	-4.68
204.85	-2.98
205.322	-5.58
205.794	1.12
206.266	-3.98
206.739	-10.38
207.211	-0.08
207.683	-2.58
208.155	-5.08
208.627	-4.68
209.099	-4.08
209.57	-10.58
210.042	-2.28
210.514	-4.88
210.986	0.52
211.458	-10.48
211.93	-5.08
212.402	2.32
212.873	-4.98
213.345	-8.28
213.817	-11.38
214.288	-1.18
214.76	-6.28
215.232	0.02
215.703	-2.28
216.175	-2.68
216.646	-2.88
217.118	-1.08
217.589	-0.28
218.061	-5.88
218.532	-1.48
219.004	0.32
219.475	-1.98
219.946	-5.88
220.418	-3.58
220.889	-1.48
221.36	3.22
221.832	-3.78
222.303	-8.68
222.774	-0.58
223.245	-10.78
223.717	-1.28
224.188	-0.98
224.659	-4.18
225.13	-5.38
225.601	-5.88
226.072	3.72
226.543	2.42
227.014	2.22
227.485	2.12
227.956	-6.08
228.427	1.22
228.898	4.72
229.369	2.52
229.839	-2.88
230.31	-1.68
230.781	7.42
231.252	0.82
231.722	-6.78
232.193	2.92
232.664	3.42
233.135	5.52
233.605	1.22
234.076	-3.48
234.546	5.42
235.017	4.92
235.487	3.42
235.958	0.52
236.428	-1.78
236.899	-0.98
237.369	2.52
237.84	-6.18
238.31	4.82
238.78	4.62
239.251	-3.48
239.721	2.72
240.191	-0.98
240.662	0.82
241.132	3.52
241.602	5.42
242.072	5.42
242.542	7.32
243.013	-3.48
243.483	1.72
243.953	3.82
244.423	-0.98
244.893	0.92
245.363	5.12
245.833	1.62
246.303	-4.88
246.773	7.12
247.243	2.02
247.712	9.42
248.182	5.72
248.652	7.72
249.122	-3.98
249.592	9.92
250.061	20.92
250.531	30.62
251.001	12.92
251.471	16.22
251.94	18.92
252.41	4.32
252.879	3.12
253.349	12.22
253.818	6.72
254.288	3.12
254.757	5.52
255.227	1.02
255.696	7.82
256.166	12.02
256.635	7.62
257.105	6.92
257.574	6.22
258.043	9.22
258.513	6.72
258.982	19.82
259.451	6.82
259.92	10.12
260.389	10.32
260.859	19.32
261.328	4.92
261.797	16.92
262.266	10.22
262.735	18.12
263.204	10.42
263.673	0.92
264.142	12.12
264.611	-1.68
265.08	-1.98
265.549	-0.38
266.018	2.52
266.487	-3.58
266.955	-1.48
267.424	3.42
267.893	7.32
268.362	0.92
268.83	6.42
269.299	12.72
269.768	6.02
270.236	7.22
270.705	4.02
271.174	4.72
271.642	6.82
272.111	9.02
272.579	10.12
273.048	25.02
273.516	25.22
273.985	26.42
274.453	25.52
274.922	17.82
275.39	9.22
275.858	2.22
276.327	13.42
276.795	11.32
277.263	13.52
277.731	26.72
278.2	51.12
278.668	51.82
279.136	38.02
279.604	22.42
280.072	16.82
280.54	7.42
281.008	11.62
281.477	18.62
281.945	11.22
282.413	11.42
282.881	16.32
283.348	4.92
283.816	13.02
284.284	9.42
284.752	19.82
285.22	12.42
285.688	13.52
286.156	20.72
286.623	42.42
287.091	52.12
287.559	33.52
288.026	18.32
288.494	15.42
288.962	4.12
289.429	7.92
289.897	16.62
290.364	12.92
290.832	12.52
291.3	17.82
291.767	15.02
292.234	22.42
292.702	21.92
293.169	20.02
293.637	18.32
294.104	17.32
294.571	6.42
295.039	11.72
295.506	17.82
295.973	18.22
296.44	15.42
296.908	17.32
297.375	18.02
297.842	18.72
298.309	15.92
298.776	11.12
299.243	23.62
299.71	11.82
300.177	20.12
300.644	20.72
301.111	20.62
301.578	22.92
302.045	18.02
302.512	24.62
302.979	23.52
303.446	21.52
303.913	18.02
304.379	17.52
304.846	26.12
305.313	21.02
305.78	20.02
306.246	22.52
306.713	25.32
307.18	25.22
307.646	28.12
308.113	23.32
308.579	19.32
309.046	28.92
309.512	29.32
309.979	25.12
310.445	21.92
310.912	30.12
311.378	31.02
311.845	29.62
312.311	26.22
312.777	31.72
313.244	28.12
313.71	34.52
314.176	31.42
314.642	24.32
315.109	29.92
315.575	33.32
316.041	45.72
316.507	33.62
316.973	43.12
317.439	33.52
317.905	40.92
318.371	35.72
318.837	33.22
319.303	32.62
319.769	33.92
320.235	37.72
320.701	34.82
321.167	41.42
321.633	30.82
322.099	33.82
322.564	46.02
323.03	39.12
323.496	37.42
323.962	43.02
324.427	38.02
324.893	44.92
325.359	43.22
325.824	34.62
326.29	36.32
326.755	40.62
327.221	34.42
327.686	38.22
328.152	46.92
328.617	47.52
329.083	43.32
329.548	48.62
330.014	47.72
330.479	37.22
330.944	46.52
331.41	39.32
331.875	44.12
332.34	36.42
332.805	46.52
333.271	42.42
333.736	43.42
334.201	51.12
334.666	49.42
335.131	51.82
335.596	52.82
336.061	51.02
336.526	43.02
336.991	50.22
337.456	58.02
337.921	50.82
338.386	41.72
338.851	45.72
339.316	51.02
339.781	44.82
340.246	52.52
340.711	44.42
341.175	50.72
341.64	37.82
342.105	50.42
342.569	54.32
343.034	56.82
343.499	53.62
343.963	46.42
344.428	61.72
344.893	61.42
345.357	60.12
345.822	55.22
346.286	69.12
346.751	71.02
347.215	66.42
347.679	70.52
348.144	94.62
348.608	86.02
349.073	64.42
349.537	75.02
350.001	73.92
350.465	89.62
350.93	85.12
351.394	79.02
351.858	70.12
352.322	83.72
352.786	88.12
353.25	99.22
353.715	111.12
354.179	99.02
354.643	126.92
355.107	125.92
355.571	101.72
356.035	99.42
356.498	118.02
356.962	125.62
357.426	130.72
357.89	118.62
358.354	90.52
358.818	85.12
359.281	85.42
359.745	79.02
360.209	73.82
360.673	76.62
361.136	85.52
361.6	79.12
362.064	77.52
362.527	78.72
362.991	89.62
363.454	79.82
363.918	75.72
364.381	74.62
364.845	81.82
365.308	84.22
365.772	82.32
366.235	87.22
366.698	82.52
367.162	87.62
367.625	85.62
368.088	90.62
368.552	88.72
369.015	87.82
369.478	100.72
369.941	94.32
370.404	94.92
370.867	108.22
371.331	103.22
371.794	115.52
372.257	107.72
372.72	115.02
373.183	109.22
373.646	96.62
374.109	99.42
374.572	107.62
375.035	108.02
375.497	110.92
375.96	106.82
376.423	101.42
376.886	112.82
377.349	108.02
377.811	106.62
378.274	100.92
378.737	107.22
379.199	104.52
379.662	109.82
380.125	118.32
380.587	120.02
381.05	118.62
381.512	127.32
381.975	132.42
382.437	129.92
382.9	125.32
383.362	131.22
383.825	135.92
384.287	145.52
384.75	138.22
385.212	143.62
385.674	138.32
386.136	140.42
386.599	124.62
387.061	136.92
387.523	129.82
387.985	137.32
388.447	145.52
388.91	151.22
389.372	163.02
389.834	150.92
390.296	154.12
390.758	161.02
391.22	171.42
391.682	218.22
392.144	315.32
392.606	234.92
393.068	171.22
393.529	168.32
393.991	155.22
394.453	154.42
394.915	157.12
395.377	195.12
395.838	217.62
396.3	158.32
396.762	141.72
397.224	138.92
397.685	125.62
398.147	135.32
398.608	133.62
399.07	125.52
399.531	136.82
399.993	141.42
400.454	161.52
400.916	147.52
401.377	142.12
401.839	153.42
402.3	146.12
402.762	168.52
403.223	183.82
403.684	172.12
404.145	163.52
404.607	165.42
405.068	165.92
405.529	178.52
405.99	192.92
406.451	176.22
406.913	176.32
407.374	168.02
407.835	166.22
408.296	166.82
408.757	173.92
409.218	191.72
409.679	182.82
410.14	174.52
410.601	176.22
411.062	184.62
411.522	193.52
411.983	189.12
412.444	180.02
412.905	182.22
413.366	188.12
413.826	193.12
414.287	214.32
414.748	262.42
415.208	243.92
415.669	216.72
416.13	204.62
416.59	195.82
417.051	213.02
417.511	229.62
417.972	231.82
418.432	242.82
418.893	289.82
419.353	253.92
419.814	194.82
420.274	183.22
420.734	180.12
421.195	202.52
421.655	201.72
422.115	189.82
422.576	187.52
423.036	198.32
423.496	207.52
423.956	214.32
424.416	236.42
424.876	271.82
425.336	267.92
425.797	264.52
426.257	263.32
426.717	240.62
427.177	233.52
427.637	224.22
428.097	232.72
428.556	258.42
429.016	281.72
429.476	265.42
429.936	273.72
430.396	283.92
430.856	293.22
431.315	324.12
431.775	353.32
432.235	386.62
432.694	358.22
433.154	365.82
433.614	403.82
434.073	351.22
434.533	284.72
434.993	278.82
435.452	285.92
435.912	296.82
436.371	294.72
436.83	282.22
437.29	273.12
437.749	251.92
438.209	244.82
438.668	272.12
439.127	294.82
439.587	265.22
440.046	245.52
440.505	266.02
440.964	279.42
441.424	326.52
441.883	317.32
442.342	261.82
442.801	233.12
443.26	222.12
443.719	228.82
444.178	221.92
444.637	211.52
445.096	219.42
445.555	231.32
446.014	224.62
446.473	226.42
446.932	231.42
447.391	231.12
447.849	229.92
448.308	217.32
448.767	222.02
449.226	238.62
449.685	241.72
450.143	248.22
450.602	233.22
451.061	228.42
451.519	235.62
451.978	235.32
452.436	234.32
452.895	251.92
453.353	256.02
453.812	245.52
454.27	241.72
454.729	243.02
455.187	246.72
455.646	248.12
456.104	248.72
456.562	263.62
457.021	277.22
457.479	257.92
457.937	273.82
458.395	264.82
458.854	253.42
459.312	255.82
459.77	279.42
460.228	256.22
460.686	232.32
461.144	256.82
461.602	245.72
462.06	246.62
462.518	257.42
462.976	251.22
463.434	260.32
463.892	259.42
464.35	275.02
464.808	283.52
465.266	256.32
465.724	268.42
466.181	271.42
466.639	276.02
467.097	284.42
467.555	297.52
468.012	303.42
468.47	302.72
468.928	326.42
469.385	343.52
469.843	341.42
470.3	349.42
470.758	364.82
471.215	393.22
471.673	410.42
472.13	407.32
472.588	429.62
473.045	375.42
473.503	381.62
473.96	394.82
474.417	411.52
474.875	436.52
475.332	465.02
475.789	453.82
476.246	469.62
476.704	478.52
477.161	506.82
477.618	522.32
478.075	557.62
478.532	618.82
478.989	693.92
479.446	807.12
479.903	772.82
480.36	809.42
480.817	863.82
481.274	956.72
481.731	1062.42
482.188	1156.32
482.645	1282.72
483.102	1394.82
483.558	1531.82
484.015	1582.22
484.472	1558.72
484.929	1514.92
485.385	1455.62
485.842	1409.52
486.299	1358.62
486.755	1290.72
487.212	1092.42
487.668	918.62
488.125	850.32
488.582	773.82
489.038	740.22
489.494	704.52
489.951	679.02
490.407	654.32
490.864	639.72
491.32	638.62
491.776	636.22
492.233	641.22
492.689	606.72
493.145	603.12
493.602	590.42
494.058	622.62
494.514	614.82
494.97	629.12
495.426	648.62
495.882	625.82
496.338	619.02
496.794	613.82
497.251	604.92
497.707	622.02
498.163	623.12
498.618	634.62
499.074	636.82
499.53	666.62
499.986	660.22
500.442	650.12
500.898	622.22
501.354	619.92
501.809	639.12
502.265	644.42
502.721	648.12
503.177	670.32
503.632	656.02
504.088	677.12
504.543	715.62
504.999	704.12
505.455	662.42
505.91	622.12
506.366	624.92
506.821	623.02
507.277	613.02
507.732	613.72
508.187	614.32
508.643	628.92
509.098	635.12
509.553	640.62
510.009	655.22
510.464	663.62
510.919	683.92
511.375	686.92
511.83	704.32
512.285	723.02
512.74	749.02
513.195	775.42
513.65	763.32
514.105	751.92
514.56	753.02
515.015	773.72
515.47	792.42
515.925	786.12
516.38	777.42
516.835	776.02
517.29	779.32
517.745	776.02
518.2	757.22
518.655	732.42
519.109	733.62
519.564	729.82
520.019	709.42
520.474	706.62
520.928	717.02
521.383	706.52
521.838	704.42
522.292	704.02
522.747	701.32
523.201	700.32
523.656	695.12
524.11	688.92
524.565	681.62
525.019	685.92
525.474	695.42
525.928	696.12
526.382	689.82
526.837	695.62
527.291	692.82
527.745	689.52
528.2	690.42
528.654	684.32
529.108	676.02
529.562	678.72
530.016	679.42
530.47	689.02
530.925	690.82
531.379	695.62
531.833	700.12
532.287	695.22
532.741	699.52
533.195	701.82
533.649	703.82
534.103	715.12
534.556	699.92
535.01	698.22
535.464	707.22
535.918	707.42
536.372	718.92
536.826	702.32
537.279	711.12
537.733	708.72
538.187	713.62
538.64	703.12
539.094	714.12
539.548	720.52
540.001	719.72
540.455	716.12
540.908	719.52
541.362	719.42
541.815	744.42
542.269	751.32
542.722	749.62
543.175	756.92
543.629	754.42
544.082	764.52
544.536	777.42
544.989	766.52
545.442	780.02
545.895	777.12
546.349	781.92
546.802	782.42
547.255	776.32
547.708	792.92
548.161	802.62
548.614	804.62
549.067	815.12
549.52	802.02
549.973	808.92
550.426	803.72
550.879	787.72
551.332	785.62
551.785	791.92
552.238	793.92
552.691	806.72
553.144	814.02
553.596	833.52
554.049	838.62
554.502	881.52
554.955	905.02
555.407	892.02
555.86	891.92
556.313	880.32
556.765	876.02
557.218	860.72
557.67	856.82
558.123	862.92
558.576	866.92
559.028	858.82
559.48	865.22
559.933	851.12
560.385	825.22
560.838	790.32
561.29	777.52
561.742	783.12
562.195	758.12
562.647	759.92
563.099	770.22
563.551	774.82
564.004	778.92
564.456	767.62
564.908	756.12
565.36	751.12
565.812	730.32
566.264	719.72
566.716	728.02
567.168	712.22
567.62	723.42
568.072	704.12
568.524	698.22
568.976	690.22
569.428	681.32
569.88	665.52
570.332	677.82
570.784	671.02
571.235	684.22
571.687	695.02
572.139	695.92
572.59	700.52
573.042	711.52
573.494	689.62
573.945	691.42
574.397	679.52
574.849	690.12
575.3	683.92
575.752	675.42
576.203	677.52
576.655	680.32
577.106	658.32
577.557	655.12
578.009	665.02
578.46	659.22
578.912	650.52
579.363	659.12
579.814	665.52
580.265	653.32
580.717	660.82
581.168	662.52
581.619	675.32
582.07	684.62
582.521	673.52
582.972	657.72
583.423	677.42
583.875	674.12
584.326	693.72
584.777	747.42
585.227	840.52
585.678	929.92
586.129	1013.42
586.58	1089.82
587.031	1166.52
587.482	1327.22
587.933	1512.82
588.384	1302.72
588.834	974.22
589.285	802.32
589.736	783.02
590.186	771.72
590.637	757.92
591.088	747.42
591.538	745.42
591.989	727.02
592.439	716.42
592.89	718.22
593.34	706.72
593.791	705.72
594.241	703.02
594.692	713.12
595.142	695.82
595.593	697.42
596.043	698.42
596.493	712.82
596.943	722.92
597.394	721.32
597.844	720.42
598.294	726.12
598.744	751.22
599.195	773.52
599.645	815.92
600.095	854.62
600.545	906.02
600.995	959.12
601.445	1017.22
601.895	1080.82
602.345	1123.12
602.795	1112.12
603.245	1054.82
603.695	996.22
604.145	954.62
604.594	902.92
605.044	855.72
605.494	791.62
605.944	741.32
606.393	731.42
606.843	728.22
607.293	729.32
607.743	715.42
608.192	737.62
608.642	756.62
609.091	759.32
609.541	774.32
609.99	775.22
610.44	769.62
610.889	715.92
611.339	698.62
611.788	684.32
612.238	704.12
612.687	715.82
613.136	714.62
613.586	735.72
614.035	738.82
614.484	766.62
614.933	766.52
615.383	755.82
615.832	736.92
616.281	723.32
616.73	686.52
617.179	673.02
617.628	645.22
618.077	637.52
618.526	624.82
618.975	621.32
619.424	613.52
619.873	602.52
620.322	604.42
620.771	603.42
621.22	604.22
621.669	586.42
622.118	591.82
622.567	586.32
623.015	575.12
623.464	566.22
623.913	553.92
624.361	549.32
624.81	556.72
625.259	545.52
625.707	547.92
626.156	560.22
626.604	557.82
627.053	560.62
627.501	561.62
627.95	559.42
628.398	573.22
628.847	570.92
629.295	574.12
629.744	576.32
630.192	564.02
630.64	559.32
631.089	565.92
631.537	582.52
631.985	596.42
632.433	600.72
632.881	609.32
633.33	670.32
633.778	651.92
634.226	580.72
634.674	577.02
635.122	585.22
635.57	593.22
636.018	629.42
636.466	586.12
636.914	565.32
637.362	570.42
637.81	569.72
638.258	585.52
638.705	574.42
639.153	605.12
639.601	614.32
640.049	644.12
640.497	678.02
640.944	693.22
641.392	645.42
641.84	607.82
642.287	581.22
642.735	571.52
643.182	577.32
643.63	572.52
644.078	575.72
644.525	602.32
644.973	596.62
645.42	604.12
645.867	623.52
646.315	640.32
646.762	655.82
647.21	688.82
647.657	717.32
648.104	749.62
648.551	769.02
648.999	842.82
649.446	918.72
649.893	1006.62
650.34	1165.72
650.787	1394.42
651.234	1745.52
651.682	2277.62
652.129	3148.22
652.576	4526.12
653.023	6671.32
653.47	9120.22
653.917	11295.52
654.363	12998.62
654.81	14259.22
655.257	13547.12
655.704	8881.32
656.151	5242.52
656.598	3401.62
657.044	2415.72
657.491	1851.42
657.938	1479.02
658.385	1234.92
658.831	1071.32
659.278	957.12
659.724	855.32
660.171	791.32
660.618	719.52
661.064	704.12
661.511	659.52
661.957	649.62
662.404	648.02
662.85	660.62
663.296	635.82
663.743	563.52
664.189	537.92
664.635	529.62
665.082	524.42
665.528	533.12
665.974	520.12
666.42	518.52
666.867	508.72
667.313	497.82
667.759	483.22
668.205	482.42
668.651	490.42
669.097	487.42
669.543	504.92
669.989	462.72
670.435	450.22
670.881	451.92
671.327	445.22
671.773	468.32
672.219	493.72
672.665	546.72
673.11	589.32
673.556	622.82
674.002	668.12
674.448	653.62
674.893	548.22
675.339	473.92
675.785	442.82
676.23	419.72
676.676	384.82
677.122	383.92
677.567	370.92
678.013	372.12
678.458	360.62
678.904	362.62
679.349	351.62
679.794	354.62
680.24	350.72
680.685	352.22
681.131	345.62
681.576	342.12
682.021	357.92
682.466	351.02
682.912	356.32
683.357	357.52
683.802	385.62
684.247	421.92
684.692	456.12
685.137	499.52
685.583	534.32
686.028	555.72
686.473	510.82
686.918	436.42
687.363	421.32
687.807	387.92
688.252	372.62
688.697	353.42
689.142	332.52
689.587	325.12
690.032	322.92
690.477	342.72
690.921	356.72
691.366	389.02
691.811	407.22
692.255	426.92
692.7	459.22
693.145	507.22
693.589	715.02
694.034	1170.42
694.478	1542.72
694.923	1720.22
695.367	2221.42
695.812	1182.12
696.256	494.82
696.701	366.32
697.145	342.12
697.59	329.42
698.034	320.22
698.478	329.62
698.922	320.02
699.367	328.52
699.811	327.52
700.255	359.32
700.699	382.62
701.143	447.12
701.588	474.62
702.032	518.72
702.476	515.32
702.92	490.12
703.364	489.92
703.808	651.82
704.252	1060.42
704.696	1453.42
705.14	1654.72
705.584	2092.52
706.027	1056.52
706.471	520.72
706.915	396.22
707.359	342.92
707.803	318.22
708.246	309.32
708.69	307.82
709.134	322.02
709.577	311.02
710.021	313.02
710.465	306.32
710.908	299.32
711.352	299.72
711.795	313.92
712.239	357.72
712.682	383.82
713.126	421.82
713.569	475.62
714.012	375.12
714.456	322.72
714.899	296.32
715.342	272.42
715.786	263.12
716.229	265.32
716.672	259.42
717.115	247.82
717.558	255.12
718.002	251.92
718.445	265.32
718.888	294.52
719.331	285.32
719.774	313.72
720.217	310.92
720.66	288.02
721.103	270.72
721.546	260.52
721.989	249.42
722.432	229.22
722.874	243.82
723.317	228.32
723.76	238.92
724.203	258.52
724.645	322.12
725.088	458.02
725.531	580.12
725.974	638.22
726.416	542.12
726.859	301.92
727.301	254.02
727.744	244.22
728.187	234.22
728.629	241.92
729.071	246.02
729.514	254.92
729.956	273.62
730.399	287.62
730.841	295.92
731.283	276.72
731.726	267.22
732.168	259.42
732.61	270.52
733.053	285.22
733.495	312.72
733.937	362.72
734.379	398.72
734.821	439.62
735.263	551.12
735.705	857.62
736.148	1621.12
736.59	2592.42
737.032	2989.42
737.474	2441.52
737.916	808.02
738.357	428.62
738.799	327.52
739.241	299.52
739.683	290.82
740.125	295.02
740.567	292.72
741.008	315.42
741.45	310.92
741.892	321.02
742.334	350.42
742.775	356.52
743.217	338.02
743.658	274.32
744.1	256.82
744.542	256.72
744.983	308.22
745.425	339.12
745.866	346.52
746.307	280.62
746.749	282.72
747.19	329.12
747.632	465.82
748.073	911.32
748.514	1908.62
748.956	2842.22
749.397	3560.92
749.838	2960.42
750.279	2894.62
750.72	1489.42
751.162	550.42
751.603	317.12
752.044	254.02
752.485	207.52
752.926	204.82
753.367	194.52
753.808	193.42
754.249	190.32
754.69	184.02
755.131	183.82
755.572	187.02
756.013	181.42
756.453	174.82
756.894	191.42
757.335	190.42
757.776	201.32
758.216	201.12
758.657	200.32
759.098	206.22
759.538	224.72
759.979	273.12
760.42	380.02
760.86	721.72
761.301	1906.12
761.741	4496.62
762.182	6270.12
762.622	4426.12
