Data from 20171114-ORNL-Ar_H_NY_Subt18_08-04-29-087.txt Node
Date: Tue Nov 14 08:04:29 EST 2017
User: Ender
Spectrometer: HR+D1039
Trigger mode: 0
Integration Time (sec): 2.730000E-2
Scans to average: 10
Electric dark correction enabled: true
Nonlinearity correction enabled: false
Boxcar width: 0
XAxis mode: Wavelengths
Number of Pixels in Spectrum: 2048
>>>>>Begin Spectral Data<<<<<
187.836	-5.26
188.309	-5.26
188.782	-5.26
189.255	-0.76
189.728	3.94
190.201	2.34
190.674	0.14
191.147	0.24
191.619	-8.86
192.092	2.04
192.565	4.64
193.038	2.44
193.511	3.34
193.984	1.04
194.456	-5.26
194.929	6.64
195.402	-6.16
195.874	-0.46
196.347	-2.56
196.82	-7.76
197.292	4.94
197.765	-0.56
198.237	-8.96
198.71	-1.06
199.182	-3.16
199.655	1.24
200.127	3.34
200.6	-0.06
201.072	1.94
201.544	-3.66
202.017	-2.26
202.489	2.94
202.961	-0.36
203.433	-7.86
203.906	-8.36
204.378	-8.06
204.85	1.94
205.322	-1.06
205.794	-2.66
206.266	1.24
206.739	-10.76
207.211	2.44
207.683	1.04
208.155	-5.06
208.627	-4.26
209.099	-2.66
209.57	-4.46
210.042	-8.26
210.514	-0.16
210.986	-1.46
211.458	-2.36
211.93	-2.26
212.402	4.44
212.873	-8.46
213.345	-11.76
213.817	-14.86
214.288	-2.56
214.76	-4.56
215.232	-5.96
215.703	-0.16
216.175	-0.16
216.646	2.34
217.118	0.84
217.589	0.74
218.061	-0.66
218.532	-5.46
219.004	-2.06
219.475	-3.96
219.946	-0.56
220.418	-9.96
220.889	2.34
221.36	-0.66
221.832	-5.26
222.303	-4.96
222.774	1.04
223.245	-12.46
223.717	-2.56
224.188	-2.26
224.659	-7.96
225.13	-6.96
225.601	-2.16
226.072	-1.06
226.543	2.24
227.014	4.34
227.485	0.64
227.956	-6.36
228.427	2.14
228.898	4.54
229.369	7.94
229.839	1.74
230.31	-11.16
230.781	4.44
231.252	-5.86
231.722	-1.06
232.193	3.14
232.664	2.44
233.135	2.74
233.605	-5.86
234.076	-2.66
234.546	0.94
235.017	7.44
235.487	-2.06
235.958	-0.56
236.428	5.24
236.899	11.64
237.369	0.84
237.84	1.54
238.31	9.44
238.78	1.74
239.251	3.54
239.721	6.24
240.191	2.74
240.662	0.64
241.132	-0.36
241.602	1.54
242.072	4.54
242.542	3.94
243.013	2.14
243.483	12.94
243.953	4.24
244.423	2.94
244.893	-4.66
245.363	5.44
245.833	4.64
246.303	0.04
246.773	9.04
247.243	3.54
247.712	8.04
248.182	9.04
248.652	8.14
249.122	-2.36
249.592	10.14
250.061	16.64
250.531	36.84
251.001	22.14
251.471	25.64
251.94	19.54
252.41	4.74
252.879	3.34
253.349	13.74
253.818	16.94
254.288	2.04
254.757	4.14
255.227	7.34
255.696	3.74
256.166	3.44
256.635	11.14
257.105	15.14
257.574	11.84
258.043	10.64
258.513	16.74
258.982	21.24
259.451	7.74
259.92	15.94
260.389	15.04
260.859	16.64
261.328	13.64
261.797	11.24
262.266	13.24
262.735	14.24
263.204	10.84
263.673	1.94
264.142	4.64
264.611	-3.16
265.08	4.24
265.549	3.94
266.018	5.14
266.487	0.24
266.955	-1.26
267.424	3.64
267.893	1.34
268.362	1.84
268.83	6.74
269.299	13.34
269.768	13.14
270.236	5.84
270.705	9.04
271.174	8.04
271.642	6.74
272.111	11.34
272.579	20.54
273.048	27.54
273.516	32.04
273.985	29.54
274.453	21.54
274.922	22.44
275.39	10.34
275.858	5.14
276.327	13.14
276.795	20.24
277.263	13.74
277.731	32.54
278.2	54.34
278.668	59.54
279.136	50.44
279.604	23.94
280.072	19.84
280.54	17.04
281.008	12.64
281.477	15.94
281.945	16.34
282.413	13.64
282.881	13.34
283.348	12.64
283.816	17.34
284.284	14.14
284.752	22.24
285.22	13.74
285.688	16.24
286.156	15.34
286.623	45.84
287.091	53.24
287.559	33.34
288.026	22.54
288.494	21.04
288.962	12.24
289.429	13.44
289.897	18.64
290.364	12.74
290.832	16.14
291.3	20.94
291.767	18.24
292.234	16.84
292.702	18.44
293.169	24.34
293.637	23.54
294.104	27.04
294.571	15.44
295.039	15.54
295.506	17.94
295.973	15.94
296.44	13.84
296.908	20.34
297.375	16.54
297.842	22.44
298.309	23.84
298.776	13.04
299.243	20.54
299.71	10.04
300.177	22.54
300.644	21.64
301.111	20.94
301.578	30.34
302.045	19.54
302.512	24.74
302.979	28.54
303.446	22.94
303.913	19.54
304.379	21.54
304.846	29.94
305.313	24.64
305.78	27.74
306.246	35.44
306.713	25.14
307.18	29.44
307.646	29.84
308.113	34.74
308.579	28.74
309.046	24.24
309.512	31.94
309.979	21.14
310.445	27.44
310.912	29.74
311.378	32.54
311.845	29.04
312.311	29.24
312.777	34.34
313.244	32.04
313.71	44.14
314.176	29.74
314.642	32.44
315.109	31.14
315.575	35.14
316.041	37.64
316.507	31.44
316.973	37.44
317.439	34.24
317.905	37.34
318.371	37.94
318.837	31.94
319.303	33.04
319.769	34.34
320.235	30.64
320.701	35.94
321.167	38.64
321.633	39.34
322.099	41.04
322.564	42.94
323.03	38.34
323.496	38.64
323.962	43.14
324.427	34.84
324.893	43.74
325.359	36.94
325.824	39.34
326.29	33.74
326.755	39.84
327.221	40.54
327.686	41.14
328.152	49.14
328.617	40.34
329.083	45.94
329.548	52.34
330.014	48.24
330.479	39.74
330.944	40.64
331.41	38.54
331.875	41.74
332.34	42.74
332.805	42.74
333.271	43.24
333.736	44.54
334.201	46.04
334.666	53.04
335.131	49.04
335.596	51.84
336.061	51.34
336.526	45.24
336.991	51.84
337.456	50.64
337.921	48.84
338.386	44.94
338.851	45.34
339.316	45.94
339.781	48.04
340.246	51.84
340.711	47.04
341.175	45.64
341.64	42.14
342.105	38.14
342.569	49.04
343.034	62.54
343.499	50.84
343.963	47.94
344.428	58.04
344.893	62.04
345.357	55.64
345.822	62.34
346.286	68.54
346.751	64.74
347.215	70.84
347.679	71.84
348.144	90.94
348.608	74.34
349.073	71.04
349.537	75.94
350.001	78.04
350.465	85.74
350.93	77.94
351.394	74.34
351.858	69.04
352.322	87.44
352.786	79.84
353.25	92.94
353.715	105.24
354.179	92.24
354.643	114.24
355.107	113.64
355.571	100.94
356.035	97.24
356.498	103.64
356.962	119.34
357.426	126.84
357.89	108.44
358.354	87.14
358.818	85.34
359.281	73.04
359.745	74.04
360.209	71.84
360.673	74.24
361.136	76.44
361.6	86.34
362.064	82.74
362.527	82.84
362.991	83.24
363.454	76.74
363.918	71.54
364.381	76.14
364.845	78.04
365.308	74.24
365.772	86.34
366.235	79.54
366.698	75.04
367.162	83.64
367.625	86.14
368.088	86.64
368.552	92.04
369.015	83.94
369.478	90.64
369.941	89.64
370.404	90.34
370.867	100.74
371.331	105.44
371.794	109.14
372.257	94.44
372.72	108.34
373.183	100.64
373.646	96.74
374.109	103.34
374.572	100.64
375.035	101.14
375.497	98.34
375.96	100.54
376.423	95.24
376.886	105.74
377.349	106.94
377.811	95.64
378.274	94.74
378.737	96.24
379.199	101.74
379.662	103.84
380.125	108.24
380.587	110.34
381.05	116.34
381.512	125.34
381.975	119.54
382.437	113.94
382.9	117.74
383.362	120.44
383.825	121.64
384.287	131.24
384.75	128.84
385.212	133.64
385.674	127.14
386.136	126.14
386.599	113.94
387.061	114.74
387.523	118.84
387.985	129.44
388.447	134.74
388.91	132.44
389.372	144.44
389.834	141.54
390.296	132.34
390.758	144.74
391.22	157.34
391.682	190.34
392.144	264.94
392.606	211.84
393.068	149.74
393.529	149.24
393.991	142.54
394.453	137.34
394.915	148.24
395.377	177.44
395.838	194.14
396.3	142.54
396.762	133.24
397.224	125.14
397.685	120.74
398.147	119.14
398.608	121.54
399.07	125.04
399.531	129.64
399.993	136.94
400.454	143.74
400.916	137.64
401.377	134.34
401.839	139.44
402.3	142.34
402.762	152.94
403.223	168.04
403.684	154.04
404.145	148.94
404.607	143.44
405.068	153.84
405.529	154.54
405.99	168.64
406.451	158.84
406.913	160.94
407.374	147.94
407.835	147.84
408.296	153.84
408.757	155.34
409.218	168.74
409.679	167.34
410.14	167.44
410.601	160.74
411.062	170.24
411.522	172.74
411.983	172.34
412.444	160.94
412.905	170.14
413.366	166.44
413.826	173.74
414.287	194.64
414.748	237.94
415.208	225.44
415.669	195.74
416.13	187.64
416.59	188.84
417.051	194.74
417.511	199.14
417.972	215.74
418.432	228.84
418.893	264.64
419.353	227.54
419.814	188.94
420.274	162.94
420.734	164.24
421.195	180.24
421.655	173.44
422.115	177.34
422.576	171.34
423.036	179.04
423.496	187.64
423.956	185.64
424.416	212.54
424.876	253.54
425.336	238.84
425.797	237.14
426.257	238.14
426.717	220.54
427.177	213.34
427.637	203.54
428.097	211.24
428.556	222.54
429.016	246.14
429.476	241.14
429.936	250.54
430.396	250.84
430.856	266.94
431.315	297.94
431.775	323.44
432.235	339.44
432.694	317.14
433.154	331.14
433.614	350.94
434.073	301.54
434.533	257.44
434.993	247.84
435.452	251.64
435.912	268.04
436.371	265.14
436.83	267.74
437.29	249.14
437.749	223.54
438.209	219.34
438.668	245.84
439.127	263.94
439.587	244.84
440.046	233.84
440.505	232.04
440.964	259.34
441.424	287.24
441.883	273.24
442.342	234.34
442.801	206.74
443.26	199.14
443.719	196.44
444.178	204.64
444.637	183.84
445.096	204.04
445.555	209.04
446.014	205.24
446.473	208.24
446.932	202.74
447.391	217.34
447.849	202.44
448.308	196.34
448.767	203.04
449.226	216.24
449.685	218.34
450.143	232.54
450.602	218.04
451.061	208.74
451.519	210.44
451.978	208.54
452.436	212.24
452.895	221.74
453.353	234.14
453.812	222.94
454.27	223.14
454.729	214.04
455.187	210.54
455.646	226.44
456.104	219.44
456.562	238.64
457.021	243.94
457.479	235.84
457.937	245.64
458.395	239.34
458.854	228.44
459.312	226.34
459.77	242.84
460.228	227.64
460.686	224.24
461.144	224.54
461.602	220.24
462.06	223.74
462.518	235.54
462.976	230.44
463.434	232.34
463.892	244.44
464.35	249.64
464.808	261.04
465.266	240.64
465.724	241.84
466.181	252.64
466.639	245.84
467.097	261.14
467.555	277.54
468.012	281.04
468.47	285.24
468.928	300.84
469.385	308.44
469.843	318.74
470.3	314.04
470.758	333.74
471.215	346.14
471.673	376.54
472.13	368.84
472.588	380.84
473.045	343.54
473.503	340.14
473.96	363.34
474.417	361.04
474.875	394.54
475.332	431.34
475.789	423.44
476.246	426.04
476.704	444.84
477.161	468.54
477.618	474.84
478.075	511.94
478.532	562.64
478.989	630.34
479.446	723.84
479.903	705.14
480.36	738.34
480.817	797.34
481.274	887.04
481.731	982.24
482.188	1068.64
482.645	1192.84
483.102	1303.44
483.558	1424.54
484.015	1462.54
484.472	1467.24
484.929	1394.84
485.385	1362.84
485.842	1329.24
486.299	1243.54
486.755	1199.44
487.212	1004.74
487.668	853.14
488.125	791.14
488.582	717.74
489.038	689.34
489.494	662.94
489.951	625.74
490.407	613.54
490.864	595.04
491.32	586.64
491.776	589.34
492.233	599.74
492.689	562.44
493.145	550.54
493.602	554.54
494.058	566.34
494.514	558.74
494.97	574.74
495.426	582.84
495.882	559.04
496.338	568.84
496.794	576.94
497.251	564.54
497.707	582.64
498.163	588.74
498.618	594.94
499.074	589.94
499.53	621.84
499.986	618.04
500.442	594.74
500.898	570.44
501.354	578.04
501.809	582.24
502.265	589.64
502.721	604.44
503.177	605.44
503.632	606.14
504.088	616.64
504.543	644.04
504.999	644.64
505.455	602.94
505.91	581.54
506.366	574.54
506.821	581.94
507.277	567.64
507.732	574.34
508.187	565.74
508.643	581.24
509.098	585.94
509.553	602.74
510.009	607.24
510.464	609.94
510.919	631.44
511.375	637.64
511.83	652.44
512.285	654.94
512.74	687.44
513.195	708.14
513.65	703.24
514.105	710.94
514.56	710.54
515.015	721.54
515.47	737.64
515.925	727.74
516.38	733.44
516.835	736.64
517.29	711.24
517.745	717.34
518.2	702.14
518.655	691.74
519.109	679.84
519.564	678.24
520.019	663.04
520.474	658.74
520.928	665.24
521.383	657.64
521.838	650.84
522.292	657.44
522.747	648.04
523.201	643.74
523.656	636.64
524.11	625.94
524.565	628.74
525.019	628.24
525.474	644.14
525.928	630.34
526.382	644.54
526.837	635.84
527.291	648.14
527.745	636.44
528.2	643.04
528.654	628.94
529.108	618.44
529.562	619.74
530.016	626.04
530.47	621.64
530.925	638.74
531.379	635.04
531.833	637.24
532.287	641.94
532.741	636.64
533.195	639.14
533.649	644.94
534.103	661.54
534.556	649.74
535.01	656.84
535.464	647.54
535.918	661.44
536.372	669.04
536.826	656.44
537.279	635.54
537.733	635.14
538.187	646.14
538.64	653.14
539.094	655.14
539.548	664.54
540.001	654.54
540.455	656.74
540.908	661.04
541.362	653.04
541.815	672.44
542.269	689.54
542.722	670.34
543.175	700.14
543.629	701.04
544.082	714.44
544.536	721.64
544.989	708.84
545.442	720.64
545.895	715.64
546.349	709.64
546.802	708.14
547.255	712.14
547.708	732.34
548.161	731.64
548.614	736.44
549.067	747.74
549.52	736.44
549.973	727.74
550.426	723.54
550.879	720.84
551.332	727.84
551.785	722.54
552.238	740.14
552.691	738.54
553.144	747.44
553.596	759.24
554.049	781.24
554.502	804.84
554.955	826.74
555.407	816.74
555.86	804.34
556.313	800.14
556.765	785.24
557.218	790.94
557.67	792.34
558.123	779.34
558.576	772.04
559.028	780.14
559.48	798.54
559.933	782.74
560.385	757.04
560.838	722.44
561.29	705.44
561.742	698.24
562.195	675.24
562.647	684.24
563.099	702.04
563.551	692.14
564.004	710.54
564.456	696.64
564.908	680.74
565.36	675.94
565.812	650.24
566.264	650.14
566.716	651.34
567.168	637.24
567.62	649.24
568.072	626.84
568.524	615.44
568.976	615.94
569.428	603.24
569.88	586.74
570.332	601.74
570.784	605.54
571.235	608.24
571.687	616.44
572.139	617.44
572.59	636.84
573.042	621.14
573.494	633.04
573.945	636.94
574.397	614.84
574.849	620.24
575.3	607.84
575.752	608.14
576.203	596.14
576.655	619.64
577.106	600.94
577.557	587.54
578.009	589.34
578.46	592.74
578.912	582.34
579.363	586.14
579.814	590.74
580.265	591.54
580.717	591.94
581.168	586.34
581.619	597.04
582.07	606.64
582.521	602.04
582.972	591.34
583.423	593.24
583.875	597.64
584.326	622.54
584.777	661.74
585.227	720.14
585.678	800.84
586.129	883.14
586.58	946.14
587.031	1031.64
587.482	1170.44
587.933	1331.24
588.384	1162.24
588.834	866.94
589.285	713.34
589.736	685.64
590.186	677.74
590.637	675.84
591.088	665.44
591.538	650.44
591.989	639.84
592.439	632.04
592.89	625.44
593.34	621.74
593.791	627.54
594.241	618.84
594.692	613.74
595.142	613.44
595.593	607.04
596.043	620.94
596.493	618.04
596.943	634.14
597.394	626.44
597.844	621.54
598.294	633.34
598.744	655.54
599.195	676.94
599.645	720.74
600.095	746.24
600.545	786.84
600.995	837.74
601.445	881.74
601.895	939.84
602.345	977.94
602.795	970.44
603.245	927.14
603.695	881.44
604.145	833.54
604.594	795.64
605.044	745.64
605.494	698.54
605.944	658.04
606.393	644.04
606.843	631.94
607.293	630.84
607.743	632.94
608.192	644.94
608.642	657.94
609.091	673.74
609.541	666.14
609.99	670.04
610.44	658.14
610.889	611.94
611.339	598.24
611.788	597.54
612.238	605.74
612.687	632.04
613.136	625.94
613.586	637.94
614.035	636.64
614.484	657.14
614.933	654.64
615.383	645.44
615.832	638.24
616.281	619.24
616.73	585.04
617.179	569.84
617.628	558.34
618.077	551.74
618.526	533.74
618.975	531.14
619.424	530.94
619.873	523.84
620.322	528.14
620.771	514.84
621.22	521.04
621.669	502.84
622.118	501.34
622.567	499.84
623.015	482.44
623.464	487.94
623.913	476.94
624.361	470.54
624.81	471.94
625.259	464.94
625.707	474.84
626.156	474.54
626.604	470.94
627.053	481.94
627.501	478.34
627.95	481.54
628.398	493.74
628.847	485.34
629.295	487.34
629.744	492.84
630.192	486.44
630.64	483.44
631.089	479.24
631.537	495.94
631.985	494.64
632.433	507.24
632.881	514.84
633.33	553.04
633.778	535.04
634.226	480.94
634.674	488.64
635.122	495.14
635.57	497.44
636.018	524.94
636.466	487.74
636.914	477.24
637.362	481.54
637.81	487.14
638.258	486.24
638.705	486.24
639.153	516.34
639.601	515.14
640.049	529.44
640.497	569.04
640.944	590.64
641.392	539.04
641.84	515.74
642.287	494.74
642.735	469.24
643.182	485.74
643.63	480.04
644.078	486.64
644.525	502.64
644.973	500.24
645.42	509.14
645.867	529.84
646.315	539.04
646.762	566.84
647.21	584.54
647.657	603.14
648.104	644.34
648.551	650.04
648.999	697.74
649.446	765.64
649.893	835.54
650.34	958.84
650.787	1159.74
651.234	1422.74
651.682	1848.64
652.129	2553.64
652.576	3631.04
653.023	5413.54
653.47	7475.24
653.917	9458.74
654.363	11110.84
654.81	12465.14
655.257	11859.64
655.704	7689.74
656.151	4532.74
656.598	2928.84
657.044	2063.54
657.491	1589.34
657.938	1268.34
658.385	1045.14
658.831	916.14
659.278	808.84
659.724	715.94
660.171	670.24
660.618	597.24
661.064	578.34
661.511	556.04
661.957	540.54
662.404	537.94
662.85	543.04
663.296	523.54
663.743	465.14
664.189	444.84
664.635	446.54
665.082	439.84
665.528	439.94
665.974	428.14
666.42	426.54
666.867	426.34
667.313	409.44
667.759	396.04
668.205	398.54
668.651	406.34
669.097	410.44
669.543	420.44
669.989	401.64
670.435	378.14
670.881	379.34
671.327	373.74
671.773	392.84
672.219	406.14
672.665	449.84
673.11	478.34
673.556	520.54
674.002	564.04
674.448	547.94
674.893	459.34
675.339	396.24
675.785	361.24
676.23	343.44
676.676	320.94
677.122	301.84
677.567	307.64
678.013	303.94
678.458	296.54
678.904	301.34
679.349	281.84
679.794	290.44
680.24	286.44
680.685	279.14
681.131	283.94
681.576	286.94
682.021	294.54
682.466	293.54
682.912	282.04
683.357	285.04
683.802	320.24
684.247	339.94
684.692	376.74
685.137	412.94
685.583	445.64
686.028	474.44
686.473	429.44
686.918	370.94
687.363	348.24
687.807	323.34
688.252	304.94
688.697	298.94
689.142	282.24
689.587	273.24
690.032	274.14
690.477	281.74
690.921	290.14
691.366	315.74
691.811	332.44
692.255	360.34
692.7	382.44
693.145	421.84
693.589	558.14
694.034	908.54
694.478	1256.64
694.923	1466.34
695.367	1941.74
695.812	1013.84
696.256	413.04
696.701	306.14
697.145	279.54
697.59	270.74
698.034	267.04
698.478	279.34
698.922	273.94
699.367	266.54
699.811	280.34
700.255	291.94
700.699	310.04
701.143	346.04
701.588	392.34
702.032	427.74
702.476	428.64
702.92	408.44
703.364	404.64
703.808	511.34
704.252	835.04
704.696	1183.64
705.14	1409.24
705.584	1815.14
706.027	896.84
706.471	433.84
706.915	330.64
707.359	291.14
707.803	263.84
708.246	253.74
708.69	256.24
709.134	254.94
709.577	259.84
710.021	259.94
710.465	253.54
710.908	254.44
711.352	248.14
711.795	254.34
712.239	289.94
712.682	310.14
713.126	340.64
713.569	389.84
714.012	309.84
714.456	271.74
714.899	243.14
715.342	220.04
715.786	214.24
716.229	215.84
716.672	213.14
717.115	206.44
717.558	211.54
718.002	203.74
718.445	210.44
718.888	237.14
719.331	240.14
719.774	258.54
720.217	250.24
720.66	237.84
721.103	215.74
721.546	211.44
721.989	205.24
722.432	184.24
722.874	193.04
723.317	182.64
723.76	197.94
724.203	213.64
724.645	262.24
725.088	364.04
725.531	470.64
725.974	541.44
726.416	462.14
726.859	255.84
727.301	200.44
727.744	197.54
728.187	191.74
728.629	199.94
729.071	198.24
729.514	206.24
729.956	221.74
730.399	229.94
730.841	234.34
731.283	217.94
731.726	217.14
732.168	211.14
732.61	210.14
733.053	228.44
733.495	259.24
733.937	286.24
734.379	319.24
734.821	360.24
735.263	437.44
735.705	661.54
736.148	1255.64
736.59	2098.84
737.032	2583.34
737.474	2112.94
737.916	663.84
738.357	349.04
738.799	273.54
739.241	244.84
739.683	230.64
740.125	237.24
740.567	252.24
741.008	261.84
741.45	257.84
741.892	263.04
742.334	286.24
742.775	304.04
743.217	283.54
743.658	225.84
744.1	213.84
744.542	207.14
744.983	250.04
745.425	290.14
745.866	288.34
746.307	228.24
746.749	234.14
747.19	260.24
747.632	362.54
748.073	682.14
748.514	1482.94
748.956	2354.04
749.397	2944.74
749.838	2439.84
750.279	2526.34
750.72	1251.04
751.162	450.44
751.603	264.54
752.044	215.74
752.485	180.24
752.926	165.64
753.367	160.14
753.808	161.84
754.249	155.44
754.69	148.44
755.131	147.94
755.572	140.44
756.013	148.34
756.453	145.54
756.894	145.64
757.335	161.14
757.776	158.14
758.216	160.54
758.657	167.14
759.098	170.54
759.538	187.54
759.979	214.04
760.42	299.54
760.86	558.94
761.301	1429.34
761.741	3585.24
762.182	5536.94
762.622	3868.24
763.063	1097.84
