Data from 20171114-ORNL-Ar_H_NY_Subt18_08-06-20-734.txt Node
Date: Tue Nov 14 08:06:20 EST 2017
User: Ender
Spectrometer: HR+D1039
Trigger mode: 0
Integration Time (sec): 2.730000E-2
Scans to average: 10
Electric dark correction enabled: true
Nonlinearity correction enabled: false
Boxcar width: 0
XAxis mode: Wavelengths
Number of Pixels in Spectrum: 2048
>>>>>Begin Spectral Data<<<<<
187.836	0.34
188.309	0.34
188.782	0.34
189.255	-0.06
189.728	0.94
190.201	5.04
190.674	0.84
191.147	4.84
191.619	-6.36
192.092	-2.16
192.565	0.94
193.038	-2.86
193.511	2.54
193.984	0.34
194.456	-4.16
194.929	3.74
195.402	-1.56
195.874	-2.46
196.347	-2.86
196.82	-2.26
197.292	7.14
197.765	-2.16
198.237	-7.56
198.71	-1.16
199.182	-3.86
199.655	1.04
200.127	4.24
200.6	-3.36
201.072	-0.26
201.544	-1.26
202.017	-2.06
202.489	-0.66
202.961	0.14
203.433	-0.86
203.906	-7.36
204.378	-4.96
204.85	-2.96
205.322	-14.66
205.794	-6.26
206.266	-0.36
206.739	-11.86
207.211	-0.46
207.683	-9.96
208.155	-8.46
208.627	-10.66
209.099	-2.26
209.57	-6.66
210.042	-2.06
210.514	-9.26
210.986	-0.46
211.458	-8.66
211.93	-3.96
212.402	-0.86
212.873	-8.36
213.345	-8.36
213.817	-7.76
214.288	-4.26
214.76	-12.96
215.232	0.14
215.703	-2.56
216.175	-3.96
216.646	-3.06
217.118	-4.36
217.589	0.24
218.061	-4.76
218.532	-8.26
219.004	-7.46
219.475	-3.66
219.946	1.64
220.418	-5.36
220.889	-0.36
221.36	-0.36
221.832	-3.76
222.303	-7.16
222.774	-2.56
223.245	-8.76
223.717	-5.46
224.188	-6.16
224.659	-6.16
225.13	-4.46
225.601	-1.86
226.072	2.54
226.543	2.14
227.014	-5.16
227.485	-1.46
227.956	-3.56
228.427	0.04
228.898	-4.26
229.369	3.04
229.839	-1.56
230.31	-12.56
230.781	-2.96
231.252	-4.46
231.722	-4.06
232.193	-5.46
232.664	-3.66
233.135	5.94
233.605	-4.36
234.076	-8.66
234.546	0.84
235.017	4.54
235.487	1.74
235.958	2.84
236.428	-2.76
236.899	-2.86
237.369	3.24
237.84	-3.36
238.31	9.34
238.78	3.64
239.251	3.54
239.721	5.34
240.191	1.64
240.662	1.14
241.132	2.34
241.602	-1.86
242.072	0.34
242.542	11.64
243.013	-2.96
243.483	5.34
243.953	1.94
244.423	7.34
244.893	4.44
245.363	9.14
245.833	0.44
246.303	-5.06
246.773	8.54
247.243	1.44
247.712	-1.86
248.182	5.84
248.652	8.54
249.122	-4.36
249.592	7.44
250.061	18.64
250.531	31.44
251.001	14.14
251.471	21.54
251.94	17.74
252.41	4.64
252.879	0.14
253.349	13.14
253.818	0.84
254.288	3.24
254.757	8.14
255.227	3.54
255.696	1.34
256.166	9.44
256.635	6.04
257.105	7.84
257.574	6.14
258.043	4.14
258.513	15.64
258.982	17.84
259.451	10.54
259.92	12.34
260.389	8.24
260.859	13.54
261.328	7.74
261.797	13.44
262.266	10.14
262.735	14.54
263.204	7.84
263.673	0.64
264.142	9.64
264.611	0.14
265.08	6.54
265.549	6.24
266.018	6.44
266.487	-3.16
266.955	-1.36
267.424	-2.36
267.893	4.74
268.362	3.04
268.83	5.14
269.299	11.84
269.768	8.24
270.236	6.64
270.705	3.74
271.174	7.44
271.642	6.24
272.111	13.94
272.579	11.34
273.048	20.04
273.516	26.04
273.985	28.64
274.453	26.94
274.922	21.54
275.39	15.84
275.858	5.84
276.327	14.24
276.795	15.74
277.263	12.04
277.731	28.84
278.2	55.54
278.668	59.84
279.136	51.54
279.604	17.94
280.072	12.64
280.54	13.74
281.008	12.54
281.477	12.14
281.945	11.74
282.413	17.14
282.881	8.14
283.348	12.34
283.816	17.04
284.284	15.74
284.752	16.84
285.22	17.54
285.688	13.74
286.156	15.94
286.623	42.94
287.091	48.94
287.559	30.94
288.026	15.94
288.494	18.24
288.962	4.24
289.429	16.44
289.897	18.24
290.364	14.54
290.832	14.94
291.3	18.64
291.767	15.74
292.234	21.24
292.702	13.74
293.169	17.44
293.637	26.54
294.104	21.34
294.571	10.44
295.039	15.34
295.506	15.64
295.973	17.74
296.44	15.84
296.908	22.84
297.375	25.04
297.842	17.34
298.309	18.14
298.776	10.24
299.243	27.54
299.71	14.94
300.177	22.94
300.644	13.24
301.111	20.24
301.578	27.34
302.045	20.54
302.512	23.34
302.979	25.04
303.446	19.24
303.913	15.14
304.379	18.04
304.846	26.44
305.313	27.14
305.78	18.44
306.246	21.64
306.713	27.84
307.18	24.94
307.646	24.74
308.113	29.54
308.579	21.14
309.046	27.54
309.512	30.24
309.979	14.14
310.445	26.94
310.912	31.44
311.378	35.24
311.845	30.44
312.311	26.84
312.777	33.04
313.244	33.04
313.71	34.84
314.176	32.54
314.642	34.94
315.109	29.54
315.575	40.24
316.041	45.94
316.507	30.74
316.973	41.44
317.439	29.54
317.905	36.04
318.371	33.94
318.837	32.44
319.303	37.04
319.769	35.64
320.235	35.34
320.701	29.64
321.167	37.14
321.633	36.44
322.099	42.34
322.564	46.64
323.03	43.24
323.496	32.34
323.962	40.04
324.427	36.04
324.893	45.04
325.359	35.64
325.824	38.94
326.29	38.94
326.755	42.24
327.221	46.24
327.686	43.04
328.152	45.84
328.617	37.94
329.083	45.94
329.548	50.24
330.014	43.64
330.479	42.94
330.944	40.24
331.41	39.94
331.875	46.54
332.34	44.94
332.805	49.44
333.271	51.74
333.736	49.04
334.201	52.04
334.666	50.44
335.131	58.64
335.596	47.54
336.061	47.34
336.526	47.64
336.991	47.84
337.456	58.14
337.921	48.84
338.386	46.74
338.851	46.54
339.316	42.94
339.781	50.14
340.246	53.14
340.711	49.04
341.175	54.94
341.64	44.44
342.105	49.34
342.569	60.14
343.034	59.54
343.499	53.84
343.963	54.04
344.428	69.34
344.893	61.64
345.357	58.44
345.822	58.84
346.286	70.14
346.751	73.34
347.215	75.24
347.679	74.54
348.144	101.94
348.608	86.14
349.073	73.34
349.537	78.04
350.001	78.24
350.465	94.74
350.93	82.74
351.394	81.64
351.858	67.74
352.322	86.54
352.786	84.54
353.25	97.04
353.715	115.44
354.179	104.04
354.643	126.04
355.107	126.94
355.571	110.94
356.035	106.84
356.498	120.04
356.962	124.94
357.426	131.54
357.89	118.84
358.354	98.44
358.818	81.04
359.281	84.24
359.745	79.44
360.209	74.94
360.673	83.64
361.136	76.24
361.6	92.24
362.064	86.34
362.527	85.44
362.991	96.44
363.454	84.14
363.918	81.54
364.381	77.64
364.845	87.34
365.308	85.74
365.772	91.34
366.235	86.54
366.698	79.74
367.162	90.64
367.625	89.54
368.088	93.94
368.552	87.24
369.015	100.54
369.478	104.34
369.941	105.24
370.404	94.04
370.867	101.64
371.331	109.24
371.794	119.54
372.257	117.64
372.72	120.24
373.183	112.54
373.646	110.24
374.109	100.74
374.572	112.84
375.035	109.84
375.497	115.94
375.96	106.54
376.423	105.24
376.886	115.54
377.349	107.24
377.811	103.34
378.274	112.34
378.737	108.64
379.199	113.34
379.662	116.34
380.125	121.64
380.587	116.54
381.05	120.84
381.512	128.44
381.975	137.74
382.437	136.54
382.9	131.64
383.362	134.74
383.825	144.54
384.287	149.74
384.75	143.94
385.212	142.24
385.674	140.24
386.136	136.54
386.599	129.84
387.061	133.54
387.523	129.54
387.985	141.34
388.447	144.34
388.91	145.84
389.372	160.14
389.834	158.84
390.296	156.04
390.758	162.94
391.22	173.84
391.682	216.74
392.144	305.74
392.606	230.44
393.068	174.64
393.529	176.84
393.991	162.94
394.453	153.24
394.915	154.14
395.377	193.54
395.838	209.04
396.3	163.14
396.762	143.24
397.224	140.94
397.685	132.54
398.147	128.94
398.608	133.64
399.07	135.94
399.531	137.14
399.993	141.54
400.454	154.14
400.916	146.64
401.377	155.44
401.839	154.84
402.3	154.34
402.762	160.24
403.223	179.84
403.684	179.84
404.145	167.14
404.607	162.54
405.068	168.84
405.529	175.64
405.99	192.34
406.451	178.54
406.913	173.84
407.374	171.84
407.835	161.64
408.296	168.04
408.757	175.64
409.218	194.84
409.679	186.54
410.14	177.04
410.601	184.94
411.062	181.74
411.522	186.74
411.983	199.84
412.444	186.24
412.905	182.04
413.366	183.54
413.826	196.94
414.287	217.84
414.748	268.14
415.208	252.94
415.669	215.94
416.13	213.14
416.59	206.84
417.051	219.44
417.511	219.94
417.972	246.94
418.432	248.54
418.893	305.14
419.353	257.34
419.814	201.74
420.274	190.74
420.734	185.14
421.195	202.84
421.655	197.94
422.115	195.04
422.576	200.74
423.036	198.74
423.496	210.84
423.956	222.14
424.416	225.34
424.876	276.74
425.336	265.94
425.797	264.04
426.257	252.84
426.717	246.44
427.177	237.04
427.637	226.04
428.097	237.94
428.556	254.24
429.016	273.54
429.476	267.14
429.936	275.84
430.396	281.74
430.856	299.84
431.315	323.54
431.775	362.24
432.235	391.24
432.694	360.04
433.154	369.54
433.614	394.94
434.073	346.24
434.533	296.44
434.993	275.04
435.452	286.94
435.912	302.84
436.371	295.84
436.83	288.34
437.29	276.64
437.749	262.04
438.209	256.24
438.668	285.34
439.127	292.94
439.587	265.84
440.046	250.74
440.505	271.44
440.964	284.04
441.424	336.34
441.883	315.84
442.342	271.04
442.801	234.94
443.26	225.94
443.719	226.34
444.178	223.94
444.637	219.44
445.096	228.14
445.555	226.94
446.014	231.24
446.473	234.64
446.932	229.24
447.391	225.24
447.849	228.74
448.308	223.34
448.767	224.94
449.226	244.64
449.685	244.24
450.143	253.44
450.602	240.14
451.061	230.34
451.519	234.34
451.978	237.34
452.436	232.94
452.895	248.04
453.353	262.54
453.812	243.04
454.27	240.44
454.729	238.14
455.187	245.04
455.646	251.34
456.104	263.14
456.562	265.54
457.021	270.04
457.479	260.64
457.937	283.74
458.395	277.04
458.854	253.14
459.312	264.94
459.77	282.44
460.228	259.14
460.686	248.54
461.144	248.84
461.602	246.04
462.06	247.44
462.518	258.54
462.976	258.94
463.434	261.84
463.892	264.24
464.35	283.54
464.808	292.14
465.266	271.64
465.724	278.64
466.181	280.64
466.639	266.54
467.097	291.94
467.555	305.54
468.012	307.54
468.47	322.64
468.928	339.84
469.385	352.14
469.843	355.84
470.3	356.74
470.758	373.24
471.215	394.84
471.673	422.74
472.13	413.34
472.588	429.34
473.045	382.34
473.503	387.04
473.96	397.64
474.417	405.64
474.875	439.94
475.332	485.24
475.789	478.94
476.246	473.64
476.704	489.94
477.161	520.14
477.618	535.74
478.075	574.74
478.532	627.54
478.989	711.34
479.446	831.04
479.903	792.44
480.36	820.34
480.817	888.94
481.274	978.24
481.731	1105.84
482.188	1186.54
482.645	1336.34
483.102	1434.34
483.558	1575.14
484.015	1634.64
484.472	1607.84
484.929	1557.24
485.385	1507.74
485.842	1464.04
486.299	1390.44
486.755	1337.24
487.212	1118.24
487.668	943.24
488.125	866.64
488.582	797.34
489.038	763.34
489.494	716.14
489.951	704.54
490.407	687.14
490.864	657.64
491.32	654.44
491.776	654.74
492.233	652.44
492.689	623.94
493.145	621.64
493.602	604.54
494.058	632.84
494.514	624.14
494.97	643.44
495.426	661.74
495.882	631.54
496.338	619.14
496.794	629.44
497.251	631.14
497.707	640.34
498.163	651.14
498.618	656.94
499.074	662.14
499.53	693.84
499.986	681.34
500.442	665.04
500.898	633.94
501.354	629.94
501.809	649.84
502.265	659.64
502.721	675.14
503.177	685.54
503.632	682.14
504.088	694.94
504.543	725.54
504.999	720.24
505.455	667.54
505.91	647.24
506.366	641.74
506.821	627.24
507.277	634.44
507.732	638.44
508.187	625.14
508.643	650.24
509.098	642.74
509.553	663.44
510.009	673.64
510.464	688.24
510.919	700.84
511.375	706.74
511.83	721.14
512.285	736.34
512.74	763.84
513.195	793.14
513.65	787.64
514.105	780.84
514.56	780.14
515.015	797.04
515.47	830.24
515.925	804.14
516.38	806.34
516.835	801.64
517.29	805.64
517.745	788.04
518.2	775.34
518.655	753.54
519.109	754.34
519.564	752.04
520.019	740.24
520.474	718.54
520.928	738.74
521.383	734.84
521.838	724.44
522.292	725.64
522.747	717.34
523.201	712.64
523.656	709.24
524.11	711.54
524.565	708.34
525.019	702.54
525.474	706.14
525.928	709.94
526.382	705.54
526.837	707.24
527.291	708.04
527.745	710.04
528.2	705.34
528.654	708.14
529.108	690.74
529.562	690.54
530.016	696.64
530.47	700.44
530.925	702.44
531.379	710.24
531.833	715.74
532.287	701.14
532.741	715.34
533.195	717.34
533.649	723.34
534.103	730.34
534.556	713.54
535.01	730.94
535.464	717.84
535.918	730.04
536.372	727.74
536.826	737.54
537.279	717.74
537.733	723.44
538.187	714.74
538.64	725.54
539.094	742.04
539.548	741.54
540.001	731.74
540.455	732.34
540.908	747.04
541.362	732.44
541.815	757.74
542.269	769.44
542.722	774.24
543.175	768.74
543.629	779.04
544.082	790.44
544.536	801.34
544.989	788.54
545.442	810.44
545.895	799.94
546.349	799.74
546.802	794.64
547.255	810.04
547.708	811.64
548.161	827.14
548.614	839.64
549.067	843.34
549.52	838.54
549.973	824.04
550.426	822.94
550.879	814.84
551.332	810.94
551.785	812.54
552.238	811.24
552.691	831.14
553.144	846.44
553.596	863.04
554.049	871.04
554.502	914.94
554.955	923.64
555.407	917.74
555.86	915.84
556.313	908.24
556.765	881.14
557.218	898.84
557.67	895.44
558.123	891.34
558.576	894.34
559.028	895.64
559.48	890.14
559.933	886.64
560.385	855.14
560.838	822.54
561.29	790.74
561.742	789.84
562.195	770.74
562.647	769.64
563.099	783.04
563.551	790.54
564.004	794.24
564.456	775.64
564.908	773.44
565.36	746.34
565.812	749.94
566.264	739.24
566.716	737.14
567.168	727.04
567.62	738.14
568.072	711.94
568.524	707.74
568.976	700.24
569.428	674.64
569.88	677.24
570.332	693.34
570.784	694.14
571.235	684.84
571.687	699.54
572.139	709.04
572.59	723.24
573.042	720.94
573.494	716.64
573.945	721.44
574.397	692.64
574.849	700.34
575.3	695.64
575.752	691.34
576.203	680.34
576.655	687.34
577.106	681.14
577.557	670.24
578.009	675.54
578.46	673.54
578.912	672.24
579.363	673.54
579.814	675.14
580.265	673.64
580.717	671.24
581.168	682.04
581.619	686.94
582.07	684.94
582.521	678.14
582.972	683.24
583.423	675.04
583.875	690.74
584.326	706.94
584.777	759.84
585.227	846.84
585.678	927.34
586.129	1014.84
586.58	1093.14
587.031	1167.14
587.482	1346.44
587.933	1511.14
588.384	1312.84
588.834	972.14
589.285	814.54
589.736	786.64
590.186	769.84
590.637	773.64
591.088	762.24
591.538	746.44
591.989	741.14
592.439	733.84
592.89	725.34
593.34	715.74
593.791	715.34
594.241	706.34
594.692	717.84
595.142	706.74
595.593	707.04
596.043	713.64
596.493	718.14
596.943	725.54
597.394	730.74
597.844	719.44
598.294	729.54
598.744	751.64
599.195	775.54
599.645	827.24
600.095	857.44
600.545	913.44
600.995	974.04
601.445	1031.84
601.895	1092.14
602.345	1154.64
602.795	1114.04
603.245	1070.84
603.695	1032.64
604.145	961.74
604.594	910.64
605.044	859.84
605.494	804.34
605.944	763.24
606.393	752.14
606.843	740.54
607.293	743.14
607.743	736.24
608.192	750.74
608.642	762.64
609.091	771.74
609.541	773.94
609.99	767.24
610.44	786.34
610.889	724.14
611.339	705.34
611.788	695.64
612.238	704.44
612.687	725.64
613.136	723.64
613.586	747.24
614.035	728.84
614.484	763.34
614.933	765.74
615.383	758.24
615.832	744.84
616.281	729.44
616.73	684.84
617.179	670.34
617.628	659.24
618.077	638.04
618.526	633.64
618.975	617.24
619.424	619.24
619.873	620.64
620.322	616.24
620.771	611.04
621.22	604.84
621.669	604.94
622.118	589.14
622.567	578.24
623.015	573.24
623.464	577.24
623.913	561.84
624.361	569.74
624.81	561.44
625.259	557.04
625.707	555.14
626.156	552.24
626.604	568.54
627.053	572.24
627.501	563.24
627.95	570.84
628.398	579.54
628.847	566.74
629.295	562.74
629.744	581.14
630.192	568.34
630.64	566.94
631.089	563.64
631.537	586.24
631.985	592.24
632.433	601.84
632.881	616.64
633.33	662.84
633.778	642.74
634.226	571.24
634.674	576.14
635.122	577.14
635.57	601.74
636.018	633.54
636.466	589.64
636.914	555.54
637.362	572.54
637.81	579.54
638.258	582.74
638.705	578.24
639.153	601.84
639.601	613.94
640.049	642.34
640.497	667.34
640.944	695.04
641.392	639.64
641.84	613.24
642.287	583.74
642.735	574.74
643.182	579.54
643.63	578.54
644.078	580.84
644.525	594.84
644.973	600.14
645.42	599.44
645.867	617.34
646.315	638.54
646.762	661.94
647.21	696.94
647.657	709.74
648.104	742.54
648.551	769.84
648.999	838.34
649.446	925.44
649.893	1019.34
650.34	1176.34
650.787	1408.24
651.234	1742.34
651.682	2271.34
652.129	3108.64
652.576	4481.74
653.023	6589.24
653.47	9077.64
653.917	11366.14
654.363	13115.34
654.81	14465.54
655.257	13784.74
655.704	9026.44
656.151	5337.34
656.598	3445.24
657.044	2441.84
657.491	1884.14
657.938	1510.04
658.385	1240.54
658.831	1093.84
659.278	957.34
659.724	848.14
660.171	782.44
660.618	720.94
661.064	690.74
661.511	672.64
661.957	666.64
662.404	645.34
662.85	655.14
663.296	623.44
663.743	562.64
664.189	545.34
664.635	537.54
665.082	525.44
665.528	525.04
665.974	518.74
666.42	524.34
666.867	513.24
667.313	492.84
667.759	481.34
668.205	482.74
668.651	478.94
669.097	483.64
669.543	493.54
669.989	477.84
670.435	447.14
670.881	448.04
671.327	445.14
671.773	461.54
672.219	486.64
672.665	537.64
673.11	580.24
673.556	631.74
674.002	672.84
674.448	660.04
674.893	553.64
675.339	474.24
675.785	431.04
676.23	408.84
676.676	383.14
677.122	378.54
677.567	368.74
678.013	370.34
678.458	353.64
678.904	355.64
679.349	344.94
679.794	355.84
680.24	352.84
680.685	349.64
681.131	341.84
681.576	348.44
682.021	353.54
682.466	348.94
682.912	345.24
683.357	355.64
683.802	379.64
684.247	411.64
684.692	446.34
685.137	489.84
685.583	530.34
686.028	563.94
686.473	508.44
686.918	451.04
687.363	414.24
687.807	387.74
688.252	371.44
688.697	354.04
689.142	341.34
689.587	330.04
690.032	319.84
690.477	341.64
690.921	357.84
691.366	387.84
691.811	397.04
692.255	430.14
692.7	465.74
693.145	499.74
693.589	686.94
694.034	1116.14
694.478	1513.74
694.923	1720.04
695.367	2255.84
695.812	1185.04
696.256	503.54
696.701	371.14
697.145	346.74
697.59	318.74
698.034	317.94
698.478	329.64
698.922	325.74
699.367	325.94
699.811	345.94
700.255	353.34
700.699	381.64
701.143	428.94
701.588	472.84
702.032	517.14
702.476	511.94
702.92	487.34
703.364	497.84
703.808	634.64
704.252	1028.34
704.696	1441.24
705.14	1654.94
705.584	2118.14
706.027	1052.44
706.471	522.64
706.915	397.54
707.359	351.94
707.803	314.44
708.246	307.74
708.69	315.54
709.134	312.14
709.577	306.74
710.021	310.84
710.465	307.64
710.908	293.64
711.352	297.84
711.795	312.84
712.239	346.14
712.682	378.54
713.126	406.64
713.569	466.34
714.012	378.04
714.456	323.24
714.899	297.74
715.342	266.84
715.786	262.74
716.229	252.94
716.672	251.64
717.115	246.04
717.558	244.64
718.002	249.54
718.445	263.84
718.888	283.14
719.331	288.94
719.774	301.04
720.217	301.54
720.66	285.14
721.103	262.54
721.546	256.14
721.989	250.34
722.432	224.64
722.874	235.34
723.317	234.84
723.76	233.14
724.203	259.64
724.645	309.84
725.088	445.34
725.531	559.24
725.974	649.14
726.416	538.54
726.859	305.34
727.301	242.04
727.744	238.34
728.187	233.64
728.629	242.94
729.071	239.04
729.514	258.94
729.956	268.54
730.399	274.14
730.841	288.74
731.283	262.74
731.726	266.04
732.168	256.44
732.61	262.44
733.053	285.14
733.495	307.14
733.937	352.04
734.379	392.94
734.821	430.04
735.263	537.64
735.705	827.44
736.148	1552.34
736.59	2549.84
737.032	3034.64
737.474	2460.14
737.916	799.34
738.357	426.94
738.799	327.24
739.241	297.34
739.683	278.54
740.125	285.24
740.567	296.24
741.008	312.84
741.45	311.74
741.892	316.64
742.334	337.04
742.775	359.14
743.217	347.94
743.658	270.54
744.1	257.14
744.542	259.24
744.983	310.84
745.425	343.54
745.866	340.64
746.307	280.24
746.749	281.44
747.19	322.84
747.632	449.54
748.073	861.84
748.514	1815.74
748.956	2795.04
749.397	3523.94
749.838	2925.64
750.279	2958.94
750.72	1467.54
751.162	542.14
751.603	318.74
752.044	245.74
752.485	212.54
752.926	205.04
753.367	200.44
753.808	196.64
754.249	193.04
754.69	188.04
755.131	181.04
755.572	175.24
756.013	181.34
756.453	180.24
756.894	188.84
757.335	189.54
757.776	189.94
758.216	197.74
758.657	196.64
759.098	194.84
759.538	213.64
759.979	269.44
760.42	370.44
760.86	691.04
761.301	1784.24
761.741	4327.84
762.182	6361.74
