Data from 20171114-ORNL-Ar_H_NY_Subt18_08-06-13-910.txt Node
Date: Tue Nov 14 08:06:13 EST 2017
User: Ender
Spectrometer: HR+D1039
Trigger mode: 0
Integration Time (sec): 2.730000E-2
Scans to average: 10
Electric dark correction enabled: true
Nonlinearity correction enabled: false
Boxcar width: 0
XAxis mode: Wavelengths
Number of Pixels in Spectrum: 2048
>>>>>Begin Spectral Data<<<<<
187.836	-3.96
188.309	-3.96
188.782	-3.96
189.255	1.94
189.728	-0.16
190.201	0.24
190.674	1.74
191.147	1.64
191.619	-11.16
192.092	4.84
192.565	5.54
193.038	0.14
193.511	1.64
193.984	2.24
194.456	0.94
194.929	3.24
195.402	-7.76
195.874	-1.06
196.347	1.34
196.82	-3.36
197.292	3.24
197.765	-4.96
198.237	-4.16
198.71	-1.46
199.182	1.74
199.655	4.64
200.127	7.54
200.6	-4.26
201.072	-0.76
201.544	-1.26
202.017	-1.46
202.489	4.74
202.961	0.54
203.433	-8.76
203.906	-13.96
204.378	-4.96
204.85	-2.26
205.322	-9.66
205.794	0.04
206.266	-0.76
206.739	-4.86
207.211	-0.46
207.683	-10.56
208.155	-5.16
208.627	-4.06
209.099	-0.76
209.57	-4.66
210.042	-0.26
210.514	-5.16
210.986	1.74
211.458	-6.76
211.93	-0.56
212.402	-3.86
212.873	-10.86
213.345	-11.06
213.817	-9.96
214.288	-3.66
214.76	-12.26
215.232	-2.46
215.703	-2.66
216.175	-6.96
216.646	-2.36
217.118	-3.76
217.589	-5.86
218.061	-0.56
218.532	-0.76
219.004	-1.96
219.475	-4.96
219.946	-3.56
220.418	1.94
220.889	0.74
221.36	-2.46
221.832	-1.86
222.303	-3.46
222.774	0.74
223.245	-6.56
223.717	-8.96
224.188	-4.86
224.659	-11.56
225.13	-9.36
225.601	-0.56
226.072	2.34
226.543	-0.06
227.014	6.34
227.485	-1.36
227.956	-8.46
228.427	-6.16
228.898	2.04
229.369	7.24
229.839	1.54
230.31	-0.16
230.781	3.64
231.252	-3.36
231.722	-4.56
232.193	-0.26
232.664	-0.66
233.135	9.44
233.605	1.24
234.076	-3.16
234.546	-0.46
235.017	2.64
235.487	1.14
235.958	-4.46
236.428	-1.56
236.899	2.04
237.369	7.64
237.84	1.14
238.31	7.94
238.78	2.74
239.251	2.24
239.721	-3.46
240.191	0.74
240.662	-0.26
241.132	-1.56
241.602	-0.36
242.072	3.74
242.542	7.94
243.013	-2.06
243.483	2.44
243.953	5.54
244.423	3.04
244.893	-4.26
245.363	10.54
245.833	4.24
246.303	-2.66
246.773	7.84
247.243	4.04
247.712	4.34
248.182	8.64
248.652	10.44
249.122	-1.46
249.592	14.74
250.061	24.74
250.531	26.14
251.001	18.04
251.471	25.14
251.94	19.24
252.41	9.14
252.879	1.64
253.349	16.04
253.818	8.64
254.288	9.14
254.757	2.94
255.227	7.54
255.696	6.04
256.166	7.84
256.635	4.04
257.105	9.14
257.574	3.64
258.043	10.44
258.513	14.64
258.982	18.04
259.451	10.24
259.92	12.24
260.389	4.14
260.859	14.24
261.328	12.34
261.797	18.84
262.266	8.24
262.735	8.64
263.204	4.54
263.673	5.84
264.142	6.14
264.611	2.24
265.08	4.04
265.549	-2.06
266.018	8.64
266.487	2.84
266.955	-0.76
267.424	3.24
267.893	10.24
268.362	2.04
268.83	5.54
269.299	9.04
269.768	9.64
270.236	6.74
270.705	5.24
271.174	2.24
271.642	6.24
272.111	12.54
272.579	19.24
273.048	27.34
273.516	29.54
273.985	23.34
274.453	29.64
274.922	17.64
275.39	10.84
275.858	2.94
276.327	12.04
276.795	20.54
277.263	14.34
277.731	28.44
278.2	56.34
278.668	56.24
279.136	52.04
279.604	18.44
280.072	10.64
280.54	13.64
281.008	10.54
281.477	14.14
281.945	21.34
282.413	18.74
282.881	16.84
283.348	10.04
283.816	11.54
284.284	14.14
284.752	22.84
285.22	8.24
285.688	24.54
286.156	22.84
286.623	46.74
287.091	55.04
287.559	31.74
288.026	17.94
288.494	16.94
288.962	10.94
289.429	13.04
289.897	21.14
290.364	13.04
290.832	20.84
291.3	22.34
291.767	21.84
292.234	18.94
292.702	16.84
293.169	15.24
293.637	27.24
294.104	16.54
294.571	13.54
295.039	17.24
295.506	10.84
295.973	18.24
296.44	23.44
296.908	24.94
297.375	22.84
297.842	20.34
298.309	20.64
298.776	14.04
299.243	26.54
299.71	15.74
300.177	23.34
300.644	26.64
301.111	18.74
301.578	30.44
302.045	28.44
302.512	20.04
302.979	23.44
303.446	27.44
303.913	21.44
304.379	21.14
304.846	25.64
305.313	25.04
305.78	24.24
306.246	31.04
306.713	30.04
307.18	31.34
307.646	30.94
308.113	30.64
308.579	23.44
309.046	30.64
309.512	30.04
309.979	18.24
310.445	29.44
310.912	30.44
311.378	30.54
311.845	32.84
312.311	30.24
312.777	40.04
313.244	35.24
313.71	37.84
314.176	37.94
314.642	33.24
315.109	33.64
315.575	36.14
316.041	40.24
316.507	38.04
316.973	40.34
317.439	31.34
317.905	35.24
318.371	38.44
318.837	36.44
319.303	42.24
319.769	30.84
320.235	32.54
320.701	39.94
321.167	41.54
321.633	34.24
322.099	42.64
322.564	49.34
323.03	38.94
323.496	44.14
323.962	40.44
324.427	41.84
324.893	41.04
325.359	39.14
325.824	38.74
326.29	39.64
326.755	36.84
327.221	41.14
327.686	41.54
328.152	45.34
328.617	45.54
329.083	48.94
329.548	54.94
330.014	47.74
330.479	44.34
330.944	47.84
331.41	45.84
331.875	51.34
332.34	47.94
332.805	51.84
333.271	47.24
333.736	49.84
334.201	58.94
334.666	53.84
335.131	55.64
335.596	54.14
336.061	51.24
336.526	45.64
336.991	50.04
337.456	55.84
337.921	48.84
338.386	43.74
338.851	49.34
339.316	40.24
339.781	43.74
340.246	51.74
340.711	47.94
341.175	55.04
341.64	46.44
342.105	50.04
342.569	62.34
343.034	66.64
343.499	56.04
343.963	56.04
344.428	68.34
344.893	65.14
345.357	62.04
345.822	60.14
346.286	74.24
346.751	74.04
347.215	73.14
347.679	79.24
348.144	101.24
348.608	81.24
349.073	73.24
349.537	79.34
350.001	80.94
350.465	92.94
350.93	80.94
351.394	80.74
351.858	78.84
352.322	90.94
352.786	87.14
353.25	98.44
353.715	116.14
354.179	104.14
354.643	125.34
355.107	128.94
355.571	117.14
356.035	107.74
356.498	129.74
356.962	125.84
357.426	133.74
357.89	123.34
358.354	98.04
358.818	87.34
359.281	82.04
359.745	84.34
360.209	81.54
360.673	81.64
361.136	82.04
361.6	93.64
362.064	88.84
362.527	90.64
362.991	97.14
363.454	90.54
363.918	80.04
364.381	79.84
364.845	88.34
365.308	89.24
365.772	93.24
366.235	89.64
366.698	88.64
367.162	92.64
367.625	95.64
368.088	89.54
368.552	98.94
369.015	92.64
369.478	97.14
369.941	102.64
370.404	103.94
370.867	105.84
371.331	110.94
371.794	120.04
372.257	120.64
372.72	123.44
373.183	109.84
373.646	108.54
374.109	113.84
374.572	108.04
375.035	112.44
375.497	119.84
375.96	108.14
376.423	108.34
376.886	112.64
377.349	116.64
377.811	108.14
378.274	109.34
378.737	112.84
379.199	123.14
379.662	116.64
380.125	121.84
380.587	120.34
381.05	123.24
381.512	128.74
381.975	136.14
382.437	130.34
382.9	136.14
383.362	141.04
383.825	155.54
384.287	149.84
384.75	149.04
385.212	148.74
385.674	148.04
386.136	140.64
386.599	126.34
387.061	132.44
387.523	139.34
387.985	142.44
388.447	152.14
388.91	149.34
389.372	157.84
389.834	163.24
390.296	151.94
390.758	163.64
391.22	176.34
391.682	212.44
392.144	309.24
392.606	236.84
393.068	174.64
393.529	174.84
393.991	159.44
394.453	150.64
394.915	159.04
395.377	191.24
395.838	220.44
396.3	161.54
396.762	148.04
397.224	142.74
397.685	135.44
398.147	134.24
398.608	136.44
399.07	137.54
399.531	140.34
399.993	147.84
400.454	159.64
400.916	150.64
401.377	155.04
401.839	160.54
402.3	161.54
402.762	168.24
403.223	194.24
403.684	181.14
404.145	168.14
404.607	166.24
405.068	172.24
405.529	177.64
405.99	193.84
406.451	179.74
406.913	181.54
407.374	174.94
407.835	167.24
408.296	179.14
408.757	176.24
409.218	192.84
409.679	189.34
410.14	179.74
410.601	184.54
411.062	186.84
411.522	197.24
411.983	202.54
412.444	186.84
412.905	185.54
413.366	193.64
413.826	197.24
414.287	225.14
414.748	266.24
415.208	248.24
415.669	219.64
416.13	208.64
416.59	210.74
417.051	219.34
417.511	224.44
417.972	243.34
418.432	255.04
418.893	294.44
419.353	247.64
419.814	205.24
420.274	190.74
420.734	183.84
421.195	209.54
421.655	207.14
422.115	202.24
422.576	197.64
423.036	202.54
423.496	214.34
423.956	224.04
424.416	225.14
424.876	275.44
425.336	262.84
425.797	271.74
426.257	264.04
426.717	244.04
427.177	245.64
427.637	236.94
428.097	240.44
428.556	252.34
429.016	276.34
429.476	272.04
429.936	288.44
430.396	286.84
430.856	306.84
431.315	327.44
431.775	358.84
432.235	399.94
432.694	360.94
433.154	369.74
433.614	407.54
434.073	348.84
434.533	293.14
434.993	273.54
435.452	293.04
435.912	308.84
436.371	304.74
436.83	287.14
437.29	279.64
437.749	256.74
438.209	257.54
438.668	278.44
439.127	303.34
439.587	274.14
440.046	256.74
440.505	276.94
440.964	288.94
441.424	340.24
441.883	325.14
442.342	268.54
442.801	229.14
443.26	228.74
443.719	228.54
444.178	222.84
444.637	220.44
445.096	228.34
445.555	233.44
446.014	232.24
446.473	239.04
446.932	239.84
447.391	235.34
447.849	234.84
448.308	227.24
448.767	227.34
449.226	242.04
449.685	243.34
450.143	249.24
450.602	244.24
451.061	227.94
451.519	237.14
451.978	237.64
452.436	239.64
452.895	244.24
453.353	259.04
453.812	252.34
454.27	247.84
454.729	249.64
455.187	242.54
455.646	252.84
456.104	263.24
456.562	273.04
457.021	280.24
457.479	264.24
457.937	279.84
458.395	276.74
458.854	258.74
459.312	262.14
459.77	286.34
460.228	271.04
460.686	248.34
461.144	258.04
461.602	250.04
462.06	242.04
462.518	255.94
462.976	272.04
463.434	266.84
463.892	264.54
464.35	286.34
464.808	291.94
465.266	269.14
465.724	273.34
466.181	284.24
466.639	280.54
467.097	302.84
467.555	311.04
468.012	315.14
468.47	317.14
468.928	338.74
469.385	347.94
469.843	360.44
470.3	358.84
470.758	374.94
471.215	394.64
471.673	422.14
472.13	423.04
472.588	436.64
473.045	388.54
473.503	393.34
473.96	402.54
474.417	420.24
474.875	446.04
475.332	491.84
475.789	471.14
476.246	479.64
476.704	501.94
477.161	528.54
477.618	537.34
478.075	582.24
478.532	634.54
478.989	714.14
479.446	833.64
479.903	804.64
480.36	838.44
480.817	896.04
481.274	1005.44
481.731	1116.94
482.188	1224.94
482.645	1351.84
483.102	1462.04
483.558	1611.14
484.015	1665.04
484.472	1629.24
484.929	1578.54
485.385	1536.84
485.842	1498.74
486.299	1421.54
486.755	1351.74
487.212	1122.24
487.668	954.64
488.125	878.54
488.582	803.04
489.038	771.74
489.494	735.14
489.951	712.24
490.407	685.44
490.864	664.14
491.32	667.84
491.776	657.74
492.233	672.54
492.689	644.34
493.145	627.84
493.602	611.14
494.058	624.14
494.514	637.24
494.97	657.94
495.426	678.34
495.882	645.14
496.338	630.44
496.794	650.24
497.251	637.94
497.707	659.24
498.163	660.34
498.618	667.64
499.074	674.14
499.53	691.84
499.986	698.44
500.442	677.34
500.898	651.34
501.354	647.34
501.809	650.94
502.265	657.84
502.721	682.14
503.177	687.64
503.632	693.64
504.088	702.64
504.543	731.24
504.999	733.34
505.455	673.74
505.91	645.84
506.366	651.64
506.821	651.94
507.277	653.44
507.732	635.14
508.187	646.44
508.643	652.64
509.098	655.14
509.553	671.54
510.009	684.84
510.464	691.54
510.919	705.44
511.375	709.24
511.83	728.74
512.285	743.24
512.74	778.94
513.195	803.24
513.65	786.24
514.105	789.34
514.56	797.84
515.015	822.14
515.47	832.64
515.925	809.24
516.38	805.34
516.835	810.14
517.29	801.14
517.745	803.04
518.2	785.84
518.655	768.04
519.109	763.44
519.564	757.44
520.019	750.94
520.474	749.94
520.928	745.34
521.383	739.24
521.838	736.84
522.292	732.24
522.747	738.74
523.201	725.34
523.656	720.24
524.11	716.34
524.565	718.24
525.019	707.44
525.474	722.44
525.928	728.64
526.382	720.24
526.837	717.34
527.291	715.04
527.745	723.94
528.2	727.24
528.654	712.84
529.108	712.94
529.562	709.34
530.016	708.94
530.47	712.04
530.925	730.44
531.379	720.84
531.833	723.44
532.287	723.64
532.741	723.64
533.195	723.24
533.649	727.94
534.103	744.54
534.556	729.84
535.01	726.84
535.464	739.94
535.918	747.94
536.372	745.94
536.826	728.94
537.279	726.84
537.733	736.44
538.187	736.14
538.64	738.44
539.094	745.74
539.548	737.74
540.001	738.64
540.455	747.54
540.908	756.14
541.362	759.34
541.815	774.04
542.269	788.44
542.722	787.24
543.175	787.74
543.629	799.94
544.082	805.84
544.536	811.54
544.989	796.04
545.442	814.74
545.895	817.64
546.349	813.84
546.802	814.64
547.255	811.54
547.708	823.34
548.161	829.64
548.614	847.94
549.067	836.64
549.52	839.54
549.973	843.64
550.426	827.64
550.879	819.34
551.332	827.94
551.785	828.74
552.238	823.74
552.691	841.44
553.144	873.14
553.596	880.04
554.049	880.44
554.502	916.04
554.955	929.84
555.407	925.34
555.86	929.84
556.313	925.44
556.765	906.44
557.218	904.14
557.67	896.44
558.123	888.34
558.576	897.24
559.028	917.94
559.48	906.24
559.933	887.54
560.385	856.24
560.838	830.64
561.29	801.34
561.742	803.74
562.195	793.54
562.647	788.04
563.099	800.64
563.551	793.54
564.004	803.04
564.456	779.74
564.908	784.94
565.36	772.04
565.812	758.34
566.264	742.54
566.716	744.24
567.168	734.84
567.62	744.24
568.072	723.24
568.524	709.74
568.976	711.34
569.428	694.14
569.88	690.04
570.332	698.04
570.784	703.14
571.235	688.44
571.687	708.04
572.139	717.24
572.59	720.34
573.042	735.94
573.494	720.34
573.945	731.54
574.397	704.94
574.849	709.44
575.3	704.04
575.752	698.74
576.203	704.34
576.655	705.44
577.106	689.94
577.557	684.64
578.009	694.84
578.46	684.84
578.912	679.44
579.363	684.54
579.814	675.84
580.265	679.44
580.717	690.64
581.168	689.44
581.619	687.74
582.07	694.14
582.521	688.44
582.972	689.84
583.423	698.44
583.875	693.14
584.326	715.14
584.777	765.14
585.227	850.74
585.678	943.34
586.129	1029.34
586.58	1114.84
587.031	1200.84
587.482	1356.44
587.933	1554.64
588.384	1347.54
588.834	995.34
589.285	831.14
589.736	806.24
590.186	793.54
590.637	779.04
591.088	764.64
591.538	760.14
591.989	746.14
592.439	746.94
592.89	740.14
593.34	723.84
593.791	722.44
594.241	727.34
594.692	713.74
595.142	718.44
595.593	712.94
596.043	719.24
596.493	730.94
596.943	724.14
597.394	740.24
597.844	733.04
598.294	743.54
598.744	761.74
599.195	785.54
599.645	827.84
600.095	875.94
600.545	936.04
600.995	984.94
601.445	1045.54
601.895	1104.34
602.345	1151.14
602.795	1129.14
603.245	1084.64
603.695	1032.34
604.145	975.54
604.594	924.54
605.044	878.44
605.494	814.24
605.944	766.14
606.393	765.44
606.843	740.04
607.293	756.04
607.743	740.14
608.192	766.34
608.642	768.34
609.091	779.54
609.541	778.34
609.99	781.54
610.44	778.14
610.889	732.04
611.339	717.04
611.788	693.64
612.238	708.54
612.687	730.74
613.136	727.34
613.586	754.74
614.035	751.84
614.484	769.34
614.933	771.14
615.383	768.64
615.832	745.84
616.281	739.34
616.73	702.84
617.179	681.14
617.628	657.34
618.077	644.94
618.526	636.74
618.975	626.24
619.424	631.74
619.873	620.24
620.322	632.74
620.771	617.64
621.22	609.24
621.669	606.64
622.118	595.44
622.567	591.84
623.015	573.04
623.464	584.94
623.913	572.44
624.361	559.24
624.81	563.54
625.259	568.44
625.707	568.74
626.156	563.14
626.604	575.84
627.053	566.04
627.501	564.94
627.95	573.14
628.398	592.64
628.847	576.24
629.295	586.14
629.744	580.74
630.192	585.04
630.64	578.04
631.089	574.84
631.537	581.04
631.985	592.34
632.433	600.44
632.881	620.84
633.33	670.74
633.778	656.54
634.226	577.24
634.674	580.34
635.122	586.44
635.57	602.44
636.018	631.44
636.466	589.04
636.914	561.04
637.362	580.14
637.81	582.64
638.258	587.54
638.705	588.94
639.153	607.84
639.601	623.14
640.049	648.74
640.497	682.74
640.944	697.54
641.392	649.74
641.84	618.54
642.287	590.44
642.735	580.24
643.182	580.64
643.63	579.84
644.078	592.04
644.525	605.34
644.973	610.14
645.42	607.84
645.867	635.74
646.315	650.84
646.762	677.64
647.21	695.44
647.657	721.24
648.104	764.74
648.551	791.14
648.999	842.64
649.446	938.04
649.893	1020.34
650.34	1182.14
650.787	1419.34
651.234	1753.84
651.682	2298.34
652.129	3148.24
652.576	4533.74
653.023	6721.84
653.47	9217.04
653.917	11518.64
654.363	13318.34
654.81	14755.44
655.257	14023.94
655.704	9152.84
656.151	5401.84
656.598	3480.64
657.044	2480.44
657.491	1900.84
657.938	1519.84
658.385	1268.74
658.831	1091.04
659.278	978.74
659.724	872.14
660.171	797.04
660.618	735.94
661.064	699.34
661.511	674.34
661.957	664.84
662.404	660.84
662.85	656.14
663.296	625.34
663.743	565.24
664.189	535.64
664.635	541.84
665.082	538.84
665.528	529.44
665.974	519.84
666.42	525.54
666.867	510.74
667.313	495.34
667.759	498.24
668.205	485.24
668.651	492.54
669.097	493.14
669.543	514.94
669.989	474.54
670.435	456.44
670.881	449.94
671.327	454.54
671.773	477.14
672.219	489.94
672.665	544.84
673.11	576.24
673.556	621.44
674.002	671.34
674.448	663.84
674.893	547.34
675.339	478.04
675.785	440.44
676.23	418.04
676.676	386.24
677.122	386.64
677.567	379.44
678.013	372.24
678.458	374.64
678.904	367.44
679.349	349.54
679.794	354.74
680.24	356.64
680.685	353.44
681.131	351.44
681.576	347.84
682.021	357.64
682.466	350.44
682.912	346.14
683.357	354.84
683.802	388.74
684.247	413.04
684.692	455.04
685.137	498.04
685.583	540.24
686.028	554.64
686.473	526.54
686.918	442.24
687.363	411.74
687.807	394.64
688.252	359.64
688.697	361.64
689.142	333.34
689.587	331.84
690.032	327.74
690.477	345.24
690.921	355.84
691.366	382.74
691.811	399.04
692.255	431.34
692.7	458.74
693.145	496.14
693.589	703.54
694.034	1113.24
694.478	1540.64
694.923	1741.14
695.367	2262.94
695.812	1196.04
696.256	496.84
696.701	376.14
697.145	342.54
697.59	334.94
698.034	326.54
698.478	329.34
698.922	333.04
699.367	333.64
699.811	331.84
700.255	358.64
700.699	384.24
701.143	428.14
701.588	475.04
702.032	511.24
702.476	513.74
702.92	490.94
703.364	490.34
703.808	637.54
704.252	1037.54
704.696	1455.54
705.14	1668.24
705.584	2133.64
706.027	1059.44
706.471	519.74
706.915	393.24
707.359	361.24
707.803	328.84
708.246	314.34
708.69	306.74
709.134	318.64
709.577	305.04
710.021	314.64
710.465	304.54
710.908	300.84
711.352	300.24
711.795	310.24
712.239	346.64
712.682	382.44
713.126	414.44
713.569	468.54
714.012	377.44
714.456	320.04
714.899	305.64
715.342	282.94
715.786	258.04
716.229	265.44
716.672	261.64
717.115	252.24
717.558	248.74
718.002	248.94
718.445	264.84
718.888	283.74
719.331	295.14
719.774	298.44
720.217	309.24
720.66	292.84
721.103	263.44
721.546	251.24
721.989	248.04
722.432	237.04
722.874	237.44
723.317	228.94
723.76	236.14
724.203	255.54
724.645	321.34
725.088	448.64
725.531	566.24
725.974	652.94
726.416	545.94
726.859	298.74
727.301	242.74
727.744	247.24
728.187	232.14
728.629	233.84
729.071	242.84
729.514	255.34
729.956	266.74
730.399	281.04
730.841	294.34
731.283	274.94
731.726	268.04
732.168	262.64
732.61	266.74
733.053	295.74
733.495	314.74
733.937	362.94
734.379	395.94
734.821	434.84
735.263	537.94
735.705	822.64
736.148	1556.74
736.59	2577.14
737.032	3050.34
737.474	2489.54
737.916	799.74
738.357	423.34
738.799	337.14
739.241	298.14
739.683	284.14
740.125	291.74
740.567	302.44
741.008	311.74
741.45	312.24
741.892	319.44
742.334	349.74
742.775	351.34
743.217	344.04
743.658	266.54
744.1	257.44
744.542	262.74
744.983	314.34
745.425	338.84
745.866	341.84
746.307	292.84
746.749	284.24
747.19	331.14
747.632	449.34
748.073	872.54
748.514	1844.54
748.956	2826.04
749.397	3546.24
749.838	2958.14
750.279	2944.14
750.72	1490.14
751.162	544.24
751.603	317.14
752.044	247.44
752.485	218.54
752.926	206.84
753.367	208.64
753.808	190.54
754.249	187.74
754.69	188.84
755.131	184.34
755.572	182.34
756.013	178.64
756.453	186.24
756.894	185.44
757.335	195.74
757.776	194.74
758.216	190.74
758.657	195.04
759.098	204.04
759.538	221.04
759.979	267.34
760.42	366.24
760.86	693.14
761.301	1784.04
761.741	4373.84
762.182	6392.84
