Data from 20171114-ORNL-Ar_H_NY_Subt18_08-09-03-487.txt Node
Date: Tue Nov 14 08:09:03 EST 2017
User: Ender
Spectrometer: HR+D1039
Trigger mode: 0
Integration Time (sec): 2.730000E-2
Scans to average: 10
Electric dark correction enabled: true
Nonlinearity correction enabled: false
Boxcar width: 0
XAxis mode: Wavelengths
Number of Pixels in Spectrum: 2048
>>>>>Begin Spectral Data<<<<<
187.836	-3.54
188.309	-3.54
188.782	-3.54
189.255	4.96
189.728	-1.94
190.201	6.36
190.674	0.56
191.147	1.86
191.619	-3.24
192.092	0.36
192.565	2.76
193.038	2.56
193.511	1.26
193.984	1.66
194.456	-1.84
194.929	0.96
195.402	-7.84
195.874	-4.84
196.347	-1.94
196.82	-5.04
197.292	5.46
197.765	-3.64
198.237	-4.64
198.71	0.76
199.182	-2.24
199.655	6.16
200.127	-3.24
200.6	-0.74
201.072	0.16
201.544	-1.04
202.017	-1.54
202.489	5.46
202.961	-2.14
203.433	0.86
203.906	-4.34
204.378	-7.94
204.85	-2.54
205.322	-6.24
205.794	-2.44
206.266	-5.34
206.739	-4.04
207.211	3.06
207.683	-6.94
208.155	-8.04
208.627	-6.64
209.099	-0.74
209.57	-11.64
210.042	-6.34
210.514	2.26
210.986	-5.54
211.458	-7.54
211.93	-4.34
212.402	2.46
212.873	-10.24
213.345	-7.84
213.817	-7.54
214.288	0.06
214.76	-14.34
215.232	0.66
215.703	0.36
216.175	-2.24
216.646	-0.54
217.118	-8.44
217.589	-5.74
218.061	-3.54
218.532	-6.64
219.004	-2.94
219.475	-7.04
219.946	-5.34
220.418	-3.64
220.889	-0.04
221.36	-5.74
221.832	-3.94
222.303	-7.24
222.774	2.36
223.245	-13.64
223.717	-8.04
224.188	-5.54
224.659	-8.94
225.13	-9.34
225.601	-3.54
226.072	-1.24
226.543	-7.94
227.014	-0.54
227.485	1.36
227.956	-6.64
228.427	-6.14
228.898	-6.94
229.369	2.26
229.839	-0.84
230.31	-6.24
230.781	1.26
231.252	-1.04
231.722	-6.74
232.193	-5.44
232.664	-1.54
233.135	-4.64
233.605	-7.34
234.076	-5.14
234.546	-3.04
235.017	3.26
235.487	2.46
235.958	-4.34
236.428	-9.04
236.899	-0.34
237.369	-2.44
237.84	-3.74
238.31	1.86
238.78	0.56
239.251	-3.64
239.721	-4.94
240.191	-2.94
240.662	-4.64
241.132	-4.54
241.602	-8.14
242.072	-3.74
242.542	1.26
243.013	-4.24
243.483	-0.54
243.953	3.56
244.423	3.46
244.893	-1.34
245.363	2.36
245.833	-1.54
246.303	-4.44
246.773	2.76
247.243	0.46
247.712	-4.54
248.182	2.06
248.652	0.76
249.122	-3.74
249.592	2.76
250.061	1.46
250.531	12.06
251.001	0.76
251.471	4.66
251.94	6.46
252.41	1.56
252.879	-1.54
253.349	2.36
253.818	1.86
254.288	-0.94
254.757	0.26
255.227	-4.34
255.696	-3.64
256.166	0.26
256.635	2.76
257.105	-2.24
257.574	-4.54
258.043	3.86
258.513	1.76
258.982	-7.54
259.451	-8.54
259.92	-4.64
260.389	0.46
260.859	6.96
261.328	-5.34
261.797	6.06
262.266	-6.14
262.735	3.96
263.204	4.66
263.673	-1.74
264.142	2.66
264.611	-9.44
265.08	-4.84
265.549	-5.74
266.018	0.76
266.487	-2.24
266.955	-3.84
267.424	-6.94
267.893	-6.14
268.362	-1.34
268.83	1.46
269.299	6.66
269.768	-5.24
270.236	5.36
270.705	-3.94
271.174	-3.44
271.642	-1.54
272.111	1.56
272.579	-2.94
273.048	5.46
273.516	6.66
273.985	-1.14
274.453	2.96
274.922	15.26
275.39	1.56
275.858	-3.14
276.327	4.16
276.795	9.46
277.263	-4.74
277.731	13.76
278.2	14.36
278.668	10.66
279.136	11.86
279.604	4.96
280.072	6.16
280.54	7.06
281.008	7.96
281.477	1.56
281.945	6.56
282.413	8.76
282.881	8.66
283.348	6.36
283.816	4.36
284.284	10.76
284.752	13.86
285.22	4.96
285.688	10.26
286.156	8.26
286.623	16.06
287.091	9.26
287.559	7.96
288.026	10.36
288.494	3.26
288.962	-1.24
289.429	3.06
289.897	12.06
290.364	6.86
290.832	8.16
291.3	16.06
291.767	6.76
292.234	10.46
292.702	5.96
293.169	6.96
293.637	17.26
294.104	14.66
294.571	1.96
295.039	9.16
295.506	11.06
295.973	6.76
296.44	9.76
296.908	9.56
297.375	11.26
297.842	17.46
298.309	8.26
298.776	1.66
299.243	12.86
299.71	4.86
300.177	11.36
300.644	14.66
301.111	15.46
301.578	17.16
302.045	3.26
302.512	11.06
302.979	12.16
303.446	7.86
303.913	11.76
304.379	7.16
304.846	22.76
305.313	16.86
305.78	14.56
306.246	16.56
306.713	18.36
307.18	20.16
307.646	12.06
308.113	20.26
308.579	10.36
309.046	13.16
309.512	16.76
309.979	6.56
310.445	16.16
310.912	21.86
311.378	27.86
311.845	22.66
312.311	19.06
312.777	28.66
313.244	20.06
313.71	29.86
314.176	26.16
314.642	17.56
315.109	16.36
315.575	25.06
316.041	23.06
316.507	18.96
316.973	17.56
317.439	24.56
317.905	24.06
318.371	24.66
318.837	25.26
319.303	23.26
319.769	25.06
320.235	25.56
320.701	24.86
321.167	22.06
321.633	18.06
322.099	30.36
322.564	32.46
323.03	25.06
323.496	25.46
323.962	31.16
324.427	23.06
324.893	29.06
325.359	22.56
325.824	29.66
326.29	29.36
326.755	27.06
327.221	34.66
327.686	28.26
328.152	34.96
328.617	27.86
329.083	33.56
329.548	39.76
330.014	34.46
330.479	31.46
330.944	32.26
331.41	30.06
331.875	33.36
332.34	28.26
332.805	20.46
333.271	32.46
333.736	27.66
334.201	36.06
334.666	40.16
335.131	38.66
335.596	40.76
336.061	38.46
336.526	32.86
336.991	37.96
337.456	44.56
337.921	34.46
338.386	28.76
338.851	44.56
339.316	41.66
339.781	34.66
340.246	42.16
340.711	33.46
341.175	43.56
341.64	35.36
342.105	44.06
342.569	45.96
343.034	47.86
343.499	43.56
343.963	40.66
344.428	46.06
344.893	48.66
345.357	45.26
345.822	49.46
346.286	53.26
346.751	57.96
347.215	53.56
347.679	56.06
348.144	71.46
348.608	64.16
349.073	50.46
349.537	54.06
350.001	67.36
350.465	67.26
350.93	64.46
351.394	68.26
351.858	56.36
352.322	74.96
352.786	65.96
353.25	81.56
353.715	85.86
354.179	76.26
354.643	92.66
355.107	97.36
355.571	82.86
356.035	81.16
356.498	87.96
356.962	93.06
357.426	97.46
357.89	89.76
358.354	71.86
358.818	68.26
359.281	65.56
359.745	60.46
360.209	59.96
360.673	61.26
361.136	61.96
361.6	61.66
362.064	67.46
362.527	69.76
362.991	74.86
363.454	64.76
363.918	61.56
364.381	66.56
364.845	68.36
365.308	71.46
365.772	74.86
366.235	79.06
366.698	64.06
367.162	70.76
367.625	72.26
368.088	73.96
368.552	74.96
369.015	71.46
369.478	80.56
369.941	84.16
370.404	74.06
370.867	86.66
371.331	88.56
371.794	95.06
372.257	85.66
372.72	92.46
373.183	79.26
373.646	80.56
374.109	83.36
374.572	86.86
375.035	87.76
375.497	88.96
375.96	93.26
376.423	86.96
376.886	100.06
377.349	86.66
377.811	81.86
378.274	93.56
378.737	96.96
379.199	97.46
379.662	91.26
380.125	98.66
380.587	94.86
381.05	97.16
381.512	105.86
381.975	108.46
382.437	109.76
382.9	109.76
383.362	114.36
383.825	114.86
384.287	113.06
384.75	110.86
385.212	114.06
385.674	118.96
386.136	115.16
386.599	110.06
387.061	110.76
387.523	109.76
387.985	107.66
388.447	120.96
388.91	116.56
389.372	120.56
389.834	119.96
390.296	120.46
390.758	122.26
391.22	124.76
391.682	150.26
392.144	166.26
392.606	145.26
393.068	123.96
393.529	138.06
393.991	134.56
394.453	124.56
394.915	124.76
395.377	134.86
395.838	145.86
396.3	122.46
396.762	132.06
397.224	122.36
397.685	123.56
398.147	118.36
398.608	125.16
399.07	116.76
399.531	121.56
399.993	134.66
400.454	146.46
400.916	136.46
401.377	129.46
401.839	142.06
402.3	140.96
402.762	156.36
403.223	164.26
403.684	154.86
404.145	149.76
404.607	147.26
405.068	152.96
405.529	162.06
405.99	171.16
406.451	160.86
406.913	163.56
407.374	155.66
407.835	147.36
408.296	155.76
408.757	156.96
409.218	169.16
409.679	164.66
410.14	166.66
410.601	166.06
411.062	173.26
411.522	171.06
411.983	167.36
412.444	165.46
412.905	170.46
413.366	180.26
413.826	187.26
414.287	213.56
414.748	252.06
415.208	241.96
415.669	204.36
416.13	201.26
416.59	202.46
417.051	210.66
417.511	212.66
417.972	225.66
418.432	239.16
418.893	279.86
419.353	252.66
419.814	192.66
420.274	170.06
420.734	181.86
421.195	188.76
421.655	185.86
422.115	181.86
422.576	185.06
423.036	196.86
423.496	203.06
423.956	214.56
424.416	224.56
424.876	256.06
425.336	246.26
425.797	252.26
426.257	242.86
426.717	236.86
427.177	230.96
427.637	215.66
428.097	227.26
428.556	231.66
429.016	258.96
429.476	253.36
429.936	259.16
430.396	264.16
430.856	273.56
431.315	294.96
431.775	330.16
432.235	358.86
432.694	330.46
433.154	341.36
433.614	368.96
434.073	319.96
434.533	272.66
434.993	255.86
435.452	264.96
435.912	271.16
436.371	270.96
436.83	266.46
437.29	252.16
437.749	244.46
438.209	244.16
438.668	261.36
439.127	275.46
439.587	246.06
440.046	235.66
440.505	255.56
440.964	260.16
441.424	301.86
441.883	296.46
442.342	251.76
442.801	219.56
443.26	214.26
443.719	218.96
444.178	216.36
444.637	214.96
445.096	219.26
445.555	224.06
446.014	221.16
446.473	227.06
446.932	230.16
447.391	221.36
447.849	231.26
448.308	216.16
448.767	216.16
449.226	233.26
449.685	240.36
450.143	250.06
450.602	240.76
451.061	226.16
451.519	235.56
451.978	233.66
452.436	234.56
452.895	240.86
453.353	244.36
453.812	238.46
454.27	243.06
454.729	242.16
455.187	245.26
455.646	248.36
456.104	244.36
456.562	260.06
457.021	266.46
457.479	261.46
457.937	260.46
458.395	265.56
458.854	251.76
459.312	252.06
459.77	276.36
460.228	257.96
460.686	244.76
461.144	257.46
461.602	249.16
462.06	240.06
462.518	248.06
462.976	256.06
463.434	263.96
463.892	260.16
464.35	273.56
464.808	292.16
465.266	263.76
465.724	271.56
466.181	270.76
466.639	268.76
467.097	289.76
467.555	300.66
468.012	301.76
468.47	310.06
468.928	334.16
469.385	338.36
469.843	345.86
470.3	349.16
470.758	360.46
471.215	380.76
471.673	399.76
472.13	404.46
472.588	410.06
473.045	375.06
473.503	382.56
473.96	392.56
474.417	399.96
474.875	425.46
475.332	466.66
475.789	459.36
476.246	466.16
476.704	480.56
477.161	497.36
477.618	520.26
478.075	557.16
478.532	590.56
478.989	664.16
479.446	772.86
479.903	743.16
480.36	778.46
480.817	814.86
481.274	912.36
481.731	998.96
482.188	1080.76
482.645	1194.16
483.102	1283.66
483.558	1399.26
484.015	1452.46
484.472	1415.46
484.929	1377.36
485.385	1337.66
485.842	1304.16
486.299	1259.06
486.755	1215.36
487.212	1040.06
487.668	882.06
488.125	823.16
488.582	762.96
489.038	718.76
489.494	691.06
489.951	666.56
490.407	653.76
490.864	632.36
491.32	636.56
491.776	642.36
492.233	643.46
492.689	604.76
493.145	595.56
493.602	611.26
494.058	604.86
494.514	615.66
494.97	619.06
495.426	643.06
495.882	618.56
496.338	603.66
496.794	614.46
497.251	606.36
497.707	631.06
498.163	628.16
498.618	631.16
499.074	647.46
499.53	664.36
499.986	653.76
500.442	639.36
500.898	623.26
501.354	612.86
501.809	633.56
502.265	627.06
502.721	641.56
503.177	653.56
503.632	649.06
504.088	653.16
504.543	673.26
504.999	689.16
505.455	645.86
505.91	627.66
506.366	636.96
506.821	637.86
507.277	626.26
507.732	622.46
508.187	631.96
508.643	636.16
509.098	645.96
509.553	657.66
510.009	666.16
510.464	668.26
510.919	693.16
511.375	705.66
511.83	709.46
512.285	724.56
512.74	755.16
513.195	777.56
513.65	761.36
514.105	770.46
514.56	776.66
515.015	782.36
515.47	796.06
515.925	777.96
516.38	784.46
516.835	792.16
517.29	780.16
517.745	779.56
518.2	764.96
518.655	745.56
519.109	747.06
519.564	734.46
520.019	726.16
520.474	725.46
520.928	727.16
521.383	724.16
521.838	706.96
522.292	722.36
522.747	715.66
523.201	711.26
523.656	696.36
524.11	693.46
524.565	701.56
525.019	701.26
525.474	707.16
525.928	700.66
526.382	703.36
526.837	703.16
527.291	705.46
527.745	712.16
528.2	700.16
528.654	695.16
529.108	688.06
529.562	695.66
530.016	698.86
530.47	695.16
530.925	688.06
531.379	693.46
531.833	707.56
532.287	696.46
532.741	696.86
533.195	698.56
533.649	717.76
534.103	709.86
534.556	707.96
535.01	703.86
535.464	712.46
535.918	715.36
536.372	726.76
536.826	719.06
537.279	702.96
537.733	719.66
538.187	713.26
538.64	716.66
539.094	728.36
539.548	739.96
540.001	723.96
540.455	731.06
540.908	738.86
541.362	745.56
541.815	757.86
542.269	768.06
542.722	769.96
543.175	769.66
543.629	776.36
544.082	790.26
544.536	794.46
544.989	793.46
545.442	806.66
545.895	796.46
546.349	809.56
546.802	797.06
547.255	815.36
547.708	823.86
548.161	826.66
548.614	832.96
549.067	847.36
549.52	841.76
549.973	830.16
550.426	814.36
550.879	801.06
551.332	824.06
551.785	817.96
552.238	818.96
552.691	838.26
553.144	853.36
553.596	855.66
554.049	878.56
554.502	901.86
554.955	922.36
555.407	919.26
555.86	925.76
556.313	902.86
556.765	896.36
557.218	893.06
557.67	889.86
558.123	878.46
558.576	881.26
559.028	885.76
559.48	885.26
559.933	891.86
560.385	854.76
560.838	828.96
561.29	788.36
561.742	799.86
562.195	789.96
562.647	776.96
563.099	792.76
563.551	784.36
564.004	795.06
564.456	776.56
564.908	773.46
565.36	762.36
565.812	741.26
566.264	730.76
566.716	730.66
567.168	709.86
567.62	719.76
568.072	714.86
568.524	704.36
568.976	701.46
569.428	685.26
569.88	691.56
570.332	696.46
570.784	705.66
571.235	697.46
571.687	703.36
572.139	712.36
572.59	725.06
573.042	724.86
573.494	714.46
573.945	711.86
574.397	691.26
574.849	692.36
575.3	708.06
575.752	690.66
576.203	692.86
576.655	688.86
577.106	683.76
577.557	673.66
578.009	681.16
578.46	686.86
578.912	672.76
579.363	680.96
579.814	674.56
580.265	677.56
580.717	680.46
581.168	682.26
581.619	687.16
582.07	691.16
582.521	683.56
582.972	683.56
583.423	684.56
583.875	681.76
584.326	694.56
584.777	728.06
585.227	744.16
585.678	778.16
586.129	803.06
586.58	843.06
587.031	874.66
587.482	922.46
587.933	983.06
588.384	926.06
588.834	837.56
589.285	797.26
589.736	787.46
590.186	790.76
590.637	790.36
591.088	769.36
591.538	761.96
591.989	744.26
592.439	738.66
592.89	731.56
593.34	726.56
593.791	723.76
594.241	715.26
594.692	720.06
595.142	709.66
595.593	706.96
596.043	707.66
596.493	723.66
596.943	722.16
597.394	735.86
597.844	737.56
598.294	759.36
598.744	771.76
599.195	814.76
599.645	838.96
600.095	886.26
600.545	938.86
600.995	980.66
601.445	1057.26
601.895	1101.26
602.345	1156.06
602.795	1128.96
603.245	1092.46
603.695	1032.26
604.145	977.46
604.594	934.96
605.044	878.46
605.494	824.56
605.944	763.16
606.393	754.66
606.843	751.96
607.293	748.56
607.743	745.16
608.192	759.76
608.642	770.26
609.091	785.06
609.541	791.76
609.99	782.46
610.44	783.36
610.889	731.56
611.339	719.66
611.788	698.96
612.238	709.36
612.687	723.96
613.136	720.86
613.586	735.46
614.035	722.26
614.484	731.86
614.933	726.96
615.383	730.26
615.832	738.76
616.281	718.96
616.73	686.46
617.179	663.66
617.628	659.26
618.077	641.06
618.526	637.76
618.975	637.26
619.424	627.96
619.873	623.36
620.322	635.16
620.771	614.46
621.22	616.76
621.669	610.16
622.118	603.56
622.567	600.86
623.015	587.56
623.464	590.86
623.913	576.96
624.361	562.06
624.81	565.06
625.259	562.16
625.707	566.66
626.156	563.36
626.604	575.76
627.053	580.16
627.501	586.26
627.95	583.36
628.398	592.16
628.847	588.36
629.295	587.76
629.744	583.96
630.192	586.66
630.64	574.06
631.089	560.96
631.537	551.76
631.985	559.56
632.433	560.26
632.881	551.26
633.33	562.66
633.778	560.76
634.226	542.16
634.674	544.26
635.122	550.46
635.57	573.56
636.018	589.16
636.466	578.56
636.914	563.56
637.362	579.06
637.81	592.76
638.258	590.46
638.705	596.26
639.153	624.96
639.601	641.36
640.049	655.06
640.497	689.66
640.944	716.66
641.392	662.76
641.84	629.46
642.287	588.46
642.735	575.76
643.182	577.26
643.63	578.06
644.078	583.66
644.525	593.16
644.973	604.16
645.42	609.06
645.867	636.66
646.315	648.56
646.762	663.66
647.21	696.16
647.657	704.46
648.104	752.16
648.551	774.66
648.999	839.76
649.446	919.66
649.893	998.46
650.34	1136.26
650.787	1362.26
651.234	1669.76
651.682	2186.06
652.129	2959.16
652.576	4212.96
653.023	6168.26
653.47	8344.96
653.917	10252.56
654.363	11674.96
654.81	12871.86
655.257	12198.66
655.704	8056.76
656.151	4841.56
656.598	3188.66
657.044	2273.26
657.491	1772.76
657.938	1436.76
658.385	1206.26
658.831	1056.66
659.278	947.66
659.724	842.56
660.171	777.96
660.618	720.06
661.064	694.56
661.511	672.16
661.957	663.26
662.404	644.36
662.85	659.06
663.296	635.66
663.743	569.26
664.189	547.26
664.635	546.36
665.082	539.26
665.528	540.46
665.974	536.86
666.42	523.56
666.867	518.96
667.313	494.06
667.759	488.16
668.205	469.66
668.651	472.16
669.097	467.56
669.543	458.76
669.989	464.76
670.435	459.86
670.881	454.96
671.327	466.96
671.773	492.86
672.219	511.46
672.665	576.96
673.11	615.76
673.556	652.76
674.002	693.26
674.448	679.26
674.893	566.76
675.339	498.16
675.785	459.76
676.23	440.66
676.676	408.46
677.122	395.46
677.567	392.26
678.013	386.56
678.458	374.26
678.904	370.06
679.349	357.66
679.794	370.96
680.24	376.26
680.685	359.86
681.131	368.96
681.576	368.36
682.021	367.36
682.466	364.46
682.912	363.96
683.357	366.26
683.802	405.96
684.247	431.46
684.692	478.56
685.137	518.26
685.583	557.16
686.028	576.06
686.473	542.96
686.918	465.66
687.363	436.46
687.807	403.66
688.252	381.16
688.697	365.96
689.142	350.16
689.587	339.46
690.032	348.16
690.477	360.46
690.921	367.86
691.366	406.76
691.811	420.86
692.255	443.26
692.7	486.16
693.145	530.06
693.589	755.46
694.034	1218.56
694.478	1638.06
694.923	1801.16
695.367	2329.86
695.812	1256.46
696.256	523.16
696.701	390.16
697.145	355.76
697.59	340.86
698.034	329.76
698.478	335.56
698.922	330.46
699.367	332.66
699.811	353.16
700.255	368.46
700.699	400.86
701.143	450.66
701.588	497.16
702.032	535.56
702.476	531.56
702.92	518.86
703.364	521.76
703.808	691.06
704.252	1128.06
704.696	1554.26
705.14	1747.66
705.584	2208.46
706.027	1111.46
706.471	542.16
706.915	413.26
707.359	368.46
707.803	331.66
708.246	327.16
708.69	324.86
709.134	328.66
709.577	322.96
710.021	324.36
710.465	321.86
710.908	307.46
711.352	306.76
711.795	329.56
712.239	368.36
712.682	403.06
713.126	424.06
713.569	469.56
714.012	380.66
714.456	317.66
714.899	310.16
715.342	284.56
715.786	275.16
716.229	263.76
716.672	270.06
717.115	256.56
717.558	254.56
718.002	263.36
718.445	273.96
718.888	300.16
719.331	303.36
719.774	325.96
720.217	306.46
720.66	304.16
721.103	283.96
721.546	267.66
721.989	263.06
722.432	242.66
722.874	250.36
723.317	236.36
723.76	238.46
724.203	271.86
724.645	334.46
725.088	470.76
725.531	605.86
725.974	669.36
726.416	565.56
726.859	328.66
727.301	251.36
727.744	245.66
728.187	241.26
728.629	253.86
729.071	254.66
729.514	275.26
729.956	291.86
730.399	293.86
730.841	302.26
731.283	290.06
731.726	279.66
732.168	268.66
732.61	285.56
733.053	300.76
733.495	330.96
733.937	364.96
734.379	421.46
734.821	462.96
735.263	588.86
735.705	923.06
736.148	1739.96
736.59	2764.66
737.032	3164.56
737.474	2577.46
737.916	862.86
738.357	454.96
738.799	348.76
739.241	313.26
739.683	301.66
740.125	301.66
740.567	306.56
741.008	325.16
741.45	330.26
741.892	334.26
742.334	369.56
742.775	379.86
743.217	355.06
743.658	284.56
744.1	273.56
744.542	277.06
744.983	322.86
745.425	366.06
745.866	356.86
746.307	299.86
746.749	295.76
747.19	340.86
747.632	502.76
748.073	984.46
748.514	2037.06
748.956	3023.86
749.397	3801.26
749.838	3147.66
750.279	3060.06
750.72	1564.96
751.162	574.06
751.603	338.46
752.044	263.46
752.485	228.76
752.926	219.96
753.367	213.36
753.808	205.46
754.249	199.66
754.69	192.76
755.131	190.56
755.572	189.16
756.013	185.96
756.453	193.66
756.894	194.66
757.335	200.86
757.776	210.56
758.216	204.16
758.657	209.16
759.098	206.06
759.538	243.36
759.979	279.66
760.42	418.06
760.86	789.36
761.301	2053.36
761.741	4828.16
762.182	6640.26
762.622	4710.96
763.063	1400.76
763.503	568.86
763.943	343.36
