Data from 20171114-ORNL-Ar_H_NY_Subt18_08-03-30-670.txt Node
Date: Tue Nov 14 08:03:30 EST 2017
User: Ender
Spectrometer: HR+D1039
Trigger mode: 0
Integration Time (sec): 2.730000E-2
Scans to average: 10
Electric dark correction enabled: true
Nonlinearity correction enabled: false
Boxcar width: 0
XAxis mode: Wavelengths
Number of Pixels in Spectrum: 2048
>>>>>Begin Spectral Data<<<<<
187.836	-2.33
188.309	-2.33
188.782	-2.33
189.255	4.67
189.728	2.27
190.201	5.27
190.674	-0.43
191.147	3.17
191.619	-7.63
192.092	4.87
192.565	2.37
193.038	-5.53
193.511	-3.43
193.984	-0.73
194.456	1.07
194.929	-1.03
195.402	-4.83
195.874	2.27
196.347	-1.23
196.82	-12.03
197.292	3.77
197.765	0.57
198.237	-0.83
198.71	4.57
199.182	0.87
199.655	-0.23
200.127	2.17
200.6	-2.23
201.072	-2.53
201.544	-4.13
202.017	2.97
202.489	5.87
202.961	-3.23
203.433	-2.43
203.906	-7.13
204.378	-7.53
204.85	-2.63
205.322	-14.43
205.794	0.67
206.266	-0.03
206.739	-7.73
207.211	3.07
207.683	-5.63
208.155	-9.73
208.627	-7.43
209.099	2.57
209.57	-5.63
210.042	-0.93
210.514	-3.83
210.986	-2.53
211.458	-7.13
211.93	1.47
212.402	3.27
212.873	-3.63
213.345	-11.53
213.817	-8.43
214.288	-3.53
214.76	-3.23
215.232	-3.63
215.703	-7.53
216.175	-4.53
216.646	-3.93
217.118	-3.63
217.589	0.07
218.061	-3.93
218.532	-4.73
219.004	1.87
219.475	1.07
219.946	-3.53
220.418	-10.03
220.889	-2.13
221.36	-5.33
221.832	-8.73
222.303	-6.93
222.774	-2.63
223.245	-6.33
223.717	-5.43
224.188	-3.83
224.659	-7.73
225.13	-5.63
225.601	-3.93
226.072	1.67
226.543	-5.83
227.014	-3.13
227.485	-7.33
227.956	-7.53
228.427	-2.43
228.898	4.77
229.369	0.67
229.839	-2.33
230.31	-6.83
230.781	2.27
231.252	-6.73
231.722	-5.73
232.193	-5.73
232.664	0.17
233.135	0.97
233.605	-6.93
234.076	-5.73
234.546	-4.73
235.017	-0.53
235.487	-4.53
235.958	-0.33
236.428	-6.13
236.899	-5.53
237.369	-1.73
237.84	-11.93
238.31	1.77
238.78	-11.13
239.251	-7.83
239.721	-9.13
240.191	-5.73
240.662	-6.23
241.132	-2.53
241.602	-7.33
242.072	-2.63
242.542	2.67
243.013	-6.83
243.483	-2.53
243.953	-2.63
244.423	-5.53
244.893	-4.93
245.363	-2.03
245.833	-2.33
246.303	-6.33
246.773	-2.73
247.243	-10.13
247.712	-4.83
248.182	-1.83
248.652	3.47
249.122	-15.93
249.592	-7.23
250.061	1.67
250.531	3.37
251.001	-9.83
251.471	1.07
251.94	3.07
252.41	-3.83
252.879	-3.83
253.349	2.17
253.818	5.47
254.288	-4.53
254.757	0.17
255.227	-4.73
255.696	-8.63
256.166	-2.83
256.635	-3.73
257.105	-1.53
257.574	-1.43
258.043	-1.33
258.513	-7.03
258.982	-1.13
259.451	-12.53
259.92	-7.53
260.389	-1.73
260.859	1.67
261.328	0.87
261.797	4.47
262.266	-8.03
262.735	1.07
263.204	0.47
263.673	-8.73
264.142	-5.03
264.611	-9.83
265.08	-8.73
265.549	-9.03
266.018	-1.13
266.487	-6.23
266.955	-11.03
267.424	-1.23
267.893	4.67
268.362	-6.93
268.83	-4.63
269.299	-1.23
269.768	-2.33
270.236	-4.93
270.705	-8.33
271.174	-5.13
271.642	-1.93
272.111	-9.13
272.579	0.67
273.048	-3.63
273.516	-5.33
273.985	-8.93
274.453	-2.13
274.922	5.37
275.39	-7.13
275.858	-7.63
276.327	-4.23
276.795	-6.63
277.263	-4.83
277.731	1.47
278.2	-5.93
278.668	-1.33
279.136	-1.73
279.604	-11.53
280.072	-3.33
280.54	-4.23
281.008	-4.33
281.477	3.37
281.945	-6.53
282.413	-3.33
282.881	-1.73
283.348	-5.13
283.816	-6.03
284.284	-7.53
284.752	4.87
285.22	-0.13
285.688	1.17
286.156	-4.13
286.623	2.07
287.091	-5.93
287.559	-4.73
288.026	-7.33
288.494	-3.93
288.962	-14.93
289.429	-6.93
289.897	0.07
290.364	-4.13
290.832	-1.83
291.3	-5.43
291.767	0.07
292.234	0.27
292.702	-5.33
293.169	-8.73
293.637	-0.73
294.104	-0.13
294.571	-5.23
295.039	-4.73
295.506	-10.93
295.973	-3.83
296.44	-3.03
296.908	-2.83
297.375	-3.33
297.842	-5.93
298.309	-7.33
298.776	-8.93
299.243	-2.03
299.71	-9.73
300.177	-1.93
300.644	2.07
301.111	-7.13
301.578	-5.43
302.045	-5.43
302.512	-0.93
302.979	2.57
303.446	-6.03
303.913	-5.83
304.379	-5.83
304.846	-3.63
305.313	-4.23
305.78	-2.33
306.246	-6.43
306.713	-4.33
307.18	-1.13
307.646	-4.33
308.113	-0.83
308.579	-3.83
309.046	-3.03
309.512	-4.03
309.979	-10.33
310.445	-6.03
310.912	-4.53
311.378	2.27
311.845	-5.33
312.311	-1.73
312.777	-1.13
313.244	-0.43
313.71	5.77
314.176	-0.83
314.642	-10.23
315.109	-12.03
315.575	-0.23
316.041	7.07
316.507	-8.03
316.973	1.87
317.439	-6.43
317.905	1.47
318.371	1.17
318.837	1.17
319.303	-3.43
319.769	-1.83
320.235	-2.13
320.701	-8.43
321.167	-1.13
321.633	-8.23
322.099	-4.93
322.564	1.37
323.03	1.57
323.496	-3.63
323.962	0.67
324.427	-1.23
324.893	-0.23
325.359	-1.13
325.824	0.27
326.29	-4.23
326.755	-8.83
327.221	-7.63
327.686	-10.83
328.152	-1.63
328.617	-1.53
329.083	0.87
329.548	3.17
330.014	8.57
330.479	-9.63
330.944	-0.73
331.41	-4.83
331.875	-0.53
332.34	-3.13
332.805	-9.13
333.271	-0.03
333.736	-9.63
334.201	-0.43
334.666	0.77
335.131	-4.63
335.596	-3.53
336.061	-6.93
336.526	-10.83
336.991	-3.73
337.456	5.97
337.921	-0.73
338.386	-9.93
338.851	0.57
339.316	4.27
339.781	2.97
340.246	5.27
340.711	-3.73
341.175	-5.43
341.64	-10.43
342.105	-1.53
342.569	-1.43
343.034	3.47
343.499	-2.93
343.963	-6.63
344.428	3.87
344.893	-3.63
345.357	0.77
345.822	0.67
346.286	-4.33
346.751	-7.73
347.215	-7.23
347.679	-13.93
348.144	0.87
348.608	-0.63
349.073	-1.63
349.537	-6.83
350.001	-0.63
350.465	5.07
350.93	-5.33
351.394	1.17
351.858	-5.23
352.322	0.37
352.786	-1.93
353.25	-1.73
353.715	5.47
354.179	1.17
354.643	6.07
355.107	-5.33
355.571	-0.63
356.035	-2.53
356.498	-0.03
356.962	-6.43
357.426	2.97
357.89	-0.03
358.354	-1.23
358.818	-4.53
359.281	-2.43
359.745	-4.73
360.209	-2.43
360.673	-2.33
361.136	-5.03
361.6	5.27
362.064	0.07
362.527	8.27
362.991	9.47
363.454	4.77
363.918	-8.63
364.381	-8.63
364.845	-4.33
365.308	4.37
365.772	-0.03
366.235	0.87
366.698	-4.43
367.162	-4.23
367.625	-3.43
368.088	-3.13
368.552	0.67
369.015	-5.73
369.478	-5.13
369.941	-3.73
370.404	-3.63
370.867	-6.13
371.331	-7.63
371.794	-6.13
372.257	-6.53
372.72	-0.83
373.183	5.47
373.646	-3.23
374.109	-0.63
374.572	2.77
375.035	-5.93
375.497	-6.13
375.96	1.27
376.423	-8.53
376.886	0.57
377.349	2.77
377.811	-1.53
378.274	-2.53
378.737	-1.53
379.199	2.37
379.662	-5.63
380.125	-4.93
380.587	-8.63
381.05	-6.63
381.512	-2.13
381.975	12.67
382.437	0.37
382.9	-3.43
383.362	-2.23
383.825	-3.13
384.287	1.27
384.75	-9.63
385.212	-4.63
385.674	2.77
386.136	0.07
386.599	-3.63
387.061	1.47
387.523	-4.63
387.985	-2.33
388.447	5.57
388.91	2.97
389.372	1.37
389.834	-2.33
390.296	4.57
390.758	-1.03
391.22	-2.63
391.682	4.07
392.144	1.97
392.606	4.97
393.068	0.07
393.529	6.97
393.991	-7.13
394.453	1.37
394.915	3.17
395.377	-2.33
395.838	2.27
396.3	0.27
396.762	5.07
397.224	1.37
397.685	6.37
398.147	-1.53
398.608	-6.83
399.07	-4.23
399.531	1.47
399.993	-1.83
400.454	1.27
400.916	-0.33
401.377	-2.73
401.839	2.37
402.3	-7.93
402.762	0.47
403.223	-0.13
403.684	1.97
404.145	0.17
404.607	0.67
405.068	1.57
405.529	-2.53
405.99	-0.63
406.451	-13.33
406.913	1.37
407.374	-1.83
407.835	-0.43
408.296	-5.63
408.757	3.47
409.218	-0.53
409.679	1.47
410.14	3.17
410.601	2.67
411.062	3.67
411.522	1.67
411.983	-5.03
412.444	-4.93
412.905	4.97
413.366	-4.83
413.826	-2.03
414.287	4.47
414.748	3.87
415.208	8.37
415.669	0.97
416.13	9.87
416.59	3.97
417.051	7.17
417.511	3.17
417.972	4.87
418.432	0.47
418.893	11.47
419.353	9.07
419.814	5.47
420.274	1.27
420.734	-5.73
421.195	-0.73
421.655	-2.43
422.115	-2.63
422.576	2.67
423.036	8.37
423.496	8.37
423.956	3.37
424.416	0.27
424.876	7.27
425.336	6.47
425.797	10.77
426.257	8.77
426.717	-5.03
427.177	12.57
427.637	-2.23
428.097	0.27
428.556	0.77
429.016	2.47
429.476	0.17
429.936	4.07
430.396	1.27
430.856	1.17
431.315	8.87
431.775	0.57
432.235	7.37
432.694	2.27
433.154	10.07
433.614	7.97
434.073	-0.13
434.533	5.37
434.993	-1.33
435.452	4.37
435.912	1.87
436.371	4.47
436.83	-3.03
437.29	4.37
437.749	5.57
438.209	0.97
438.668	5.77
439.127	0.27
439.587	4.17
440.046	-5.13
440.505	-1.83
440.964	-0.53
441.424	0.27
441.883	6.37
442.342	5.67
442.801	-2.83
443.26	3.87
443.719	7.67
444.178	5.27
444.637	-7.53
445.096	4.37
445.555	-0.63
446.014	7.27
446.473	13.87
446.932	5.77
447.391	0.47
447.849	-1.53
448.308	-1.83
448.767	-5.43
449.226	6.17
449.685	5.67
450.143	10.77
450.602	-0.93
451.061	2.37
451.519	3.67
451.978	3.27
452.436	1.47
452.895	-5.03
453.353	4.07
453.812	3.47
454.27	8.47
454.729	10.77
455.187	-0.23
455.646	6.27
456.104	4.17
456.562	-3.33
457.021	3.17
457.479	6.67
457.937	4.07
458.395	3.87
458.854	-1.73
459.312	4.77
459.77	-5.13
460.228	-3.73
460.686	-2.33
461.144	3.17
461.602	5.17
462.06	-2.63
462.518	3.77
462.976	4.77
463.434	7.17
463.892	2.87
464.35	2.37
464.808	9.17
465.266	-2.73
465.724	3.47
466.181	-1.03
466.639	5.57
467.097	8.07
467.555	5.77
468.012	6.17
468.47	2.47
468.928	11.07
469.385	12.67
469.843	9.37
470.3	5.47
470.758	7.47
471.215	1.97
471.673	4.17
472.13	5.27
472.588	11.57
473.045	2.87
473.503	4.27
473.96	4.97
474.417	0.57
474.875	2.27
475.332	6.57
475.789	10.87
476.246	7.27
476.704	3.67
477.161	9.97
477.618	5.47
478.075	2.17
478.532	12.37
478.989	10.47
479.446	5.17
479.903	17.27
480.36	14.17
480.817	4.37
481.274	14.47
481.731	11.57
482.188	4.57
482.645	10.97
483.102	11.77
483.558	6.07
484.015	11.77
484.472	13.67
484.929	11.37
485.385	12.37
485.842	14.37
486.299	5.67
486.755	15.37
487.212	5.17
487.668	3.17
488.125	7.27
488.582	6.27
489.038	12.27
489.494	0.97
489.951	11.37
490.407	7.67
490.864	7.37
491.32	11.27
491.776	12.67
492.233	4.37
492.689	-5.83
493.145	3.47
493.602	5.27
494.058	7.27
494.514	10.37
494.97	12.47
495.426	10.37
495.882	7.77
496.338	4.27
496.794	11.67
497.251	4.87
497.707	11.87
498.163	4.27
498.618	13.97
499.074	8.07
499.53	8.27
499.986	5.27
500.442	3.27
500.898	7.47
501.354	1.57
501.809	13.27
502.265	9.27
502.721	8.67
503.177	14.37
503.632	16.87
504.088	10.47
504.543	18.57
504.999	8.97
505.455	2.47
505.91	7.47
506.366	4.37
506.821	-0.33
507.277	5.97
507.732	3.27
508.187	8.67
508.643	7.17
509.098	3.17
509.553	20.87
510.009	13.37
510.464	11.47
510.919	17.07
511.375	9.27
511.83	9.77
512.285	8.37
512.74	17.27
513.195	16.07
513.65	15.17
514.105	12.57
514.56	13.47
515.015	14.47
515.47	12.57
515.925	9.37
516.38	12.47
516.835	16.07
517.29	16.07
517.745	9.57
518.2	14.27
518.655	12.17
519.109	12.57
519.564	14.37
520.019	-0.53
520.474	6.47
520.928	9.17
521.383	14.67
521.838	14.77
522.292	16.97
522.747	16.87
523.201	15.27
523.656	15.97
524.11	9.77
524.565	11.87
525.019	6.37
525.474	11.17
525.928	17.47
526.382	5.67
526.837	6.67
527.291	8.17
527.745	7.57
528.2	8.47
528.654	12.27
529.108	6.37
529.562	7.97
530.016	1.87
530.47	7.17
530.925	10.07
531.379	2.77
531.833	8.17
532.287	8.17
532.741	9.27
533.195	6.67
533.649	10.87
534.103	7.97
534.556	-0.03
535.01	5.67
535.464	2.67
535.918	15.17
536.372	9.67
536.826	12.77
537.279	9.97
537.733	6.17
538.187	10.37
538.64	8.67
539.094	13.07
539.548	4.27
540.001	7.27
540.455	8.57
540.908	13.87
541.362	8.27
541.815	12.97
542.269	9.77
542.722	7.87
543.175	1.47
543.629	7.07
544.082	15.77
544.536	9.77
544.989	6.57
545.442	11.87
545.895	10.17
546.349	10.07
546.802	12.77
547.255	13.57
547.708	9.07
548.161	10.77
548.614	11.27
549.067	17.07
549.52	9.77
549.973	11.97
550.426	10.77
550.879	4.07
551.332	8.37
551.785	13.07
552.238	5.67
552.691	9.97
553.144	12.17
553.596	8.77
554.049	11.77
554.502	19.77
554.955	15.97
555.407	8.47
555.86	15.57
556.313	15.27
556.765	6.17
557.218	15.27
557.67	11.07
558.123	12.07
558.576	11.17
559.028	12.97
559.48	11.77
559.933	13.07
560.385	10.87
560.838	13.67
561.29	11.87
561.742	9.27
562.195	3.27
562.647	6.57
563.099	13.07
563.551	13.07
564.004	15.97
564.456	10.17
564.908	10.07
565.36	6.37
565.812	8.37
566.264	7.87
566.716	12.47
567.168	9.27
567.62	6.67
568.072	7.07
568.524	4.97
568.976	6.37
569.428	0.97
569.88	2.97
570.332	10.27
570.784	3.27
571.235	2.17
571.687	2.47
572.139	8.27
572.59	8.07
573.042	10.87
573.494	2.47
573.945	5.07
574.397	6.27
574.849	6.57
575.3	9.57
575.752	7.87
576.203	13.47
576.655	8.57
577.106	8.47
577.557	6.57
578.009	10.77
578.46	1.97
578.912	8.27
579.363	6.87
579.814	4.67
580.265	-4.73
580.717	-2.13
581.168	0.07
581.619	9.47
582.07	6.57
582.521	9.37
582.972	-0.73
583.423	4.07
583.875	1.17
584.326	6.37
584.777	8.57
585.227	10.97
585.678	4.07
586.129	3.57
586.58	14.97
587.031	7.17
587.482	14.87
587.933	14.67
588.384	13.87
588.834	4.97
589.285	6.17
589.736	4.07
590.186	9.07
590.637	16.27
591.088	1.07
591.538	8.87
591.989	10.97
592.439	21.07
592.89	8.67
593.34	6.97
593.791	5.17
594.241	6.37
594.692	14.57
595.142	-0.43
595.593	8.77
596.043	5.17
596.493	6.57
596.943	8.07
597.394	12.87
597.844	0.97
598.294	2.87
598.744	13.67
599.195	10.37
599.645	18.27
600.095	11.67
600.545	18.87
600.995	10.27
601.445	20.07
601.895	17.87
602.345	30.67
602.795	17.87
603.245	15.17
603.695	14.67
604.145	6.27
604.594	10.47
605.044	7.47
605.494	6.07
605.944	-0.43
606.393	7.87
606.843	6.47
607.293	7.47
607.743	4.77
608.192	6.07
608.642	10.97
609.091	9.97
609.541	12.47
609.99	5.97
610.44	11.17
610.889	3.17
611.339	-0.33
611.788	-1.33
612.238	1.77
612.687	16.67
613.136	3.57
613.586	12.87
614.035	0.67
614.484	0.57
614.933	2.67
615.383	6.67
615.832	9.67
616.281	8.77
616.73	13.77
617.179	6.27
617.628	7.57
618.077	2.97
618.526	3.47
618.975	6.27
619.424	7.77
619.873	2.67
620.322	12.37
620.771	2.47
621.22	7.57
621.669	11.37
622.118	0.87
622.567	2.87
623.015	3.07
623.464	4.37
623.913	-2.13
624.361	5.17
624.81	1.77
625.259	0.37
625.707	9.57
626.156	2.67
626.604	7.87
627.053	-3.33
627.501	4.17
627.95	2.17
628.398	2.67
628.847	-2.73
629.295	-3.93
629.744	2.57
630.192	9.87
630.64	10.57
631.089	-1.03
631.537	2.67
631.985	5.17
632.433	6.47
632.881	3.77
633.33	6.17
633.778	0.37
634.226	-8.23
634.674	-0.33
635.122	-2.13
635.57	5.17
636.018	9.17
636.466	12.37
636.914	5.07
637.362	6.47
637.81	9.37
638.258	12.57
638.705	5.97
639.153	5.97
639.601	2.87
640.049	1.27
640.497	-2.73
640.944	12.37
641.392	-5.13
641.84	6.07
642.287	-1.23
642.735	-7.83
643.182	1.87
643.63	0.57
644.078	-3.23
644.525	10.87
644.973	4.27
645.42	-0.03
645.867	4.07
646.315	7.47
646.762	1.67
647.21	3.87
647.657	-6.83
648.104	5.37
648.551	3.57
648.999	0.47
649.446	4.47
649.893	-0.13
650.34	4.57
650.787	1.97
651.234	9.27
651.682	2.27
652.129	-3.63
652.576	-3.83
653.023	8.27
653.47	11.67
653.917	3.07
654.363	12.67
654.81	12.37
655.257	4.77
655.704	3.07
656.151	5.47
656.598	1.57
657.044	0.07
657.491	2.07
657.938	0.27
658.385	-0.83
658.831	3.47
659.278	12.27
659.724	-0.63
660.171	4.27
660.618	1.97
661.064	10.67
661.511	0.37
661.957	1.67
662.404	4.17
662.85	9.87
663.296	2.77
663.743	3.77
664.189	3.17
664.635	4.37
665.082	7.57
665.528	6.07
665.974	-5.63
666.42	6.47
666.867	6.27
667.313	3.27
667.759	7.17
668.205	4.57
668.651	-0.83
669.097	6.27
669.543	2.37
669.989	-1.53
670.435	5.17
670.881	1.17
671.327	-1.83
671.773	6.37
672.219	-4.13
672.665	13.57
673.11	-1.03
673.556	17.17
674.002	12.67
674.448	5.67
674.893	6.97
675.339	1.27
675.785	-2.03
676.23	18.07
676.676	1.87
677.122	-0.43
677.567	-1.83
678.013	5.87
678.458	-0.23
678.904	2.17
679.349	-4.73
679.794	1.87
680.24	1.17
680.685	1.47
681.131	-1.13
681.576	1.37
682.021	6.07
682.466	-2.13
682.912	2.77
683.357	-4.73
683.802	2.57
684.247	0.57
684.692	3.27
685.137	4.37
685.583	8.87
686.028	2.57
686.473	7.87
686.918	-1.53
687.363	-1.33
687.807	9.77
688.252	-0.33
688.697	11.27
689.142	5.77
689.587	0.47
690.032	-6.33
690.477	3.57
690.921	-5.33
691.366	5.17
691.811	-1.83
692.255	8.47
692.7	9.27
693.145	8.27
693.589	14.97
694.034	27.77
694.478	43.67
694.923	58.47
695.367	74.47
695.812	35.37
696.256	9.17
696.701	-0.23
697.145	2.47
697.59	1.97
698.034	1.27
698.478	6.47
698.922	1.27
699.367	3.97
699.811	10.27
700.255	7.47
700.699	6.57
701.143	3.17
701.588	7.27
702.032	13.17
702.476	-2.83
702.92	5.67
703.364	6.17
703.808	12.07
704.252	22.67
704.696	36.87
705.14	52.37
705.584	69.77
706.027	29.57
706.471	6.57
706.915	-2.13
707.359	0.67
707.803	-1.33
708.246	-2.13
708.69	7.97
709.134	9.27
709.577	1.67
710.021	13.37
710.465	8.17
710.908	2.87
711.352	-3.53
711.795	-0.13
712.239	6.67
712.682	-4.73
713.126	6.27
713.569	12.27
714.012	7.07
714.456	3.27
714.899	-3.93
715.342	-6.63
715.786	-5.53
716.229	-6.43
716.672	1.97
717.115	0.27
717.558	3.27
718.002	-0.33
718.445	6.27
718.888	6.67
719.331	-0.03
719.774	1.27
720.217	2.77
720.66	-0.93
721.103	0.17
721.546	-2.03
721.989	1.97
722.432	-8.33
722.874	2.17
723.317	-4.43
723.76	-2.83
724.203	3.07
724.645	5.67
725.088	7.87
725.531	8.07
725.974	7.57
726.416	10.87
726.859	-1.03
727.301	-1.13
727.744	1.17
728.187	-1.73
728.629	3.67
729.071	-1.43
729.514	0.77
729.956	-1.53
730.399	-2.63
730.841	-1.43
731.283	0.67
731.726	-0.23
732.168	-4.83
732.61	0.97
733.053	7.77
733.495	1.47
733.937	-4.73
734.379	9.37
734.821	3.07
735.263	8.17
735.705	16.17
736.148	40.67
736.59	76.67
737.032	91.17
737.474	79.57
737.916	13.47
738.357	8.37
738.799	6.17
739.241	2.47
739.683	-4.93
740.125	-2.03
740.567	-8.33
741.008	2.37
741.45	7.77
741.892	5.37
742.334	10.17
742.775	0.47
743.217	6.97
743.658	-1.23
744.1	4.57
744.542	-6.33
744.983	4.67
745.425	-1.03
745.866	6.07
746.307	6.77
746.749	0.47
747.19	2.47
747.632	7.57
748.073	12.67
748.514	56.47
748.956	94.87
749.397	113.97
749.838	99.97
750.279	102.77
750.72	42.37
751.162	12.27
751.603	-1.03
752.044	-1.43
752.485	-10.93
752.926	-0.13
753.367	0.27
753.808	4.67
754.249	0.07
754.69	-1.53
755.131	-0.63
755.572	-4.63
756.013	-0.73
756.453	-1.83
756.894	-3.53
757.335	-1.93
757.776	4.17
758.216	-0.63
758.657	-3.23
759.098	-7.53
759.538	-4.83
759.979	-4.23
760.42	-4.03
760.86	7.47
761.301	45.97
761.741	123.17
762.182	200.07
762.622	127.97
763.063	25.87
763.503	7.07
763.943	-0.23
764.384	1.07
764.824	-0.03
765.264	-4.63
765.705	-4.23
766.145	-7.63
766.585	-3.03
767.025	-7.73
767.465	-6.23
767.906	5.27
768.346	1.67
768.786	-2.33
769.226	-5.33
769.666	8.27
770.106	8.97
770.546	44.07
770.986	95.07
771.426	76.77
771.866	19.27
772.306	4.97
772.745	-3.13
773.185	-3.33
773.625	5.97
774.065	-4.33
774.505	1.97
774.944	1.07
775.384	-3.13
775.824	6.57
776.263	7.07
776.703	-0.03
777.142	-5.53
777.582	-8.83
778.021	-4.23
778.461	0.87
778.9	3.47
779.34	4.37
779.779	-0.63
780.219	-11.13
780.658	-7.43
781.097	-5.83
781.537	-0.33
781.976	-3.63
782.415	-7.03
782.855	-7.03
783.294	-6.43
783.733	-0.63
784.172	-3.03
784.611	-12.13
785.05	-2.63
785.489	0.17
785.928	-0.03
786.367	3.07
786.806	-6.43
787.245	-1.93
787.684	-4.33
788.123	2.67
788.562	-3.73
789.001	-5.73
789.44	-0.43
789.879	-4.63
790.317	-10.63
790.756	-4.43
791.195	-1.63
791.634	-0.43
792.072	2.17
792.511	-2.43
792.95	26.07
793.388	69.67
793.827	59.27
794.265	14.07
794.704	-2.63
795.142	7.17
795.581	4.17
796.019	2.77
796.458	1.07
796.896	-5.03
797.334	-0.93
797.773	0.87
798.211	5.97
798.649	15.27
799.087	30.57
799.526	43.17
799.964	67.77
800.402	76.87
800.84	19.67
801.278	0.77
801.716	-1.13
802.154	-0.93
802.592	3.87
803.03	-0.33
803.468	-4.13
803.906	-6.13
804.344	-0.23
804.782	-2.83
805.22	-7.93
