Data from 20171114-ORNL-Ar_H_NY_Subt18_08-03-41-862.txt Node
Date: Tue Nov 14 08:03:41 EST 2017
User: Ender
Spectrometer: HR+D1039
Trigger mode: 0
Integration Time (sec): 2.730000E-2
Scans to average: 10
Electric dark correction enabled: true
Nonlinearity correction enabled: false
Boxcar width: 0
XAxis mode: Wavelengths
Number of Pixels in Spectrum: 2048
>>>>>Begin Spectral Data<<<<<
187.836	-1.84
188.309	-1.84
188.782	-1.84
189.255	-0.34
189.728	-0.64
190.201	5.16
190.674	6.26
191.147	3.36
191.619	-4.34
192.092	0.76
192.565	-0.34
193.038	-0.74
193.511	-1.54
193.984	1.86
194.456	-6.54
194.929	2.46
195.402	-3.74
195.874	0.16
196.347	2.56
196.82	-10.94
197.292	7.76
197.765	-1.14
198.237	-4.54
198.71	0.26
199.182	-3.44
199.655	1.46
200.127	3.06
200.6	-4.34
201.072	-3.44
201.544	-5.14
202.017	-4.64
202.489	1.86
202.961	-2.84
203.433	-3.84
203.906	-7.44
204.378	-9.04
204.85	-2.84
205.322	-10.74
205.794	-5.34
206.266	-4.84
206.739	-7.64
207.211	0.56
207.683	-6.64
208.155	-5.24
208.627	-2.94
209.099	-6.74
209.57	-8.04
210.042	-4.54
210.514	-5.64
210.986	-1.44
211.458	-9.04
211.93	-8.14
212.402	-4.24
212.873	-4.04
213.345	-7.94
213.817	-7.74
214.288	-3.44
214.76	-12.54
215.232	-2.84
215.703	-4.84
216.175	-3.74
216.646	-6.64
217.118	-7.24
217.589	-2.94
218.061	-3.04
218.532	-5.94
219.004	-8.64
219.475	-2.14
219.946	-1.94
220.418	-0.64
220.889	1.56
221.36	-0.34
221.832	-7.04
222.303	-8.94
222.774	-7.44
223.245	-10.04
223.717	-5.64
224.188	-2.24
224.659	-11.64
225.13	-6.44
225.601	-5.14
226.072	-5.04
226.543	-6.14
227.014	-3.44
227.485	-9.34
227.956	-5.64
228.427	-3.24
228.898	0.16
229.369	4.36
229.839	-3.44
230.31	-6.84
230.781	1.86
231.252	-1.74
231.722	-15.04
232.193	-5.64
232.664	-6.44
233.135	-3.24
233.605	-4.94
234.076	-7.94
234.546	3.16
235.017	-0.84
235.487	1.86
235.958	-4.84
236.428	-5.64
236.899	-2.54
237.369	-2.84
237.84	-8.54
238.31	2.66
238.78	-4.64
239.251	-10.34
239.721	-1.34
240.191	-2.14
240.662	-4.34
241.132	-1.64
241.602	-3.04
242.072	-4.14
242.542	2.66
243.013	0.26
243.483	-3.64
243.953	-3.04
244.423	-4.24
244.893	-8.24
245.363	-3.34
245.833	-1.44
246.303	-3.64
246.773	0.46
247.243	2.06
247.712	-3.34
248.182	0.06
248.652	-0.54
249.122	-8.44
249.592	-5.84
250.061	1.66
250.531	3.36
251.001	-2.84
251.471	3.46
251.94	3.96
252.41	4.06
252.879	-4.34
253.349	5.26
253.818	2.56
254.288	0.16
254.757	-3.74
255.227	-0.44
255.696	-1.14
256.166	1.66
256.635	-0.54
257.105	0.16
257.574	0.26
258.043	-1.84
258.513	-7.24
258.982	-6.54
259.451	-10.84
259.92	-1.44
260.389	1.56
260.859	1.86
261.328	-6.64
261.797	5.86
262.266	-2.34
262.735	7.86
263.204	-7.94
263.673	8.86
264.142	-0.84
264.611	-10.04
265.08	-3.34
265.549	-6.24
266.018	2.86
266.487	-7.44
266.955	-6.84
267.424	-3.14
267.893	0.86
268.362	-2.44
268.83	1.66
269.299	5.46
269.768	2.56
270.236	-0.34
270.705	-4.24
271.174	3.06
271.642	-0.64
272.111	0.06
272.579	0.06
273.048	1.76
273.516	-0.84
273.985	0.46
274.453	5.66
274.922	7.26
275.39	3.96
275.858	-5.34
276.327	0.06
276.795	10.96
277.263	-1.04
277.731	8.16
278.2	-0.14
278.668	0.76
279.136	3.16
279.604	2.06
280.072	8.36
280.54	7.76
281.008	8.16
281.477	8.66
281.945	4.46
282.413	0.06
282.881	8.06
283.348	-1.74
283.816	5.86
284.284	7.06
284.752	16.66
285.22	2.96
285.688	11.36
286.156	11.56
286.623	6.26
287.091	2.56
287.559	4.76
288.026	12.46
288.494	7.76
288.962	-2.24
289.429	1.86
289.897	10.56
290.364	5.36
290.832	12.46
291.3	3.96
291.767	2.36
292.234	10.76
292.702	4.16
293.169	15.56
293.637	12.46
294.104	11.76
294.571	2.66
295.039	9.36
295.506	4.96
295.973	10.96
296.44	12.06
296.908	12.56
297.375	10.16
297.842	9.86
298.309	11.16
298.776	8.46
299.243	16.56
299.71	5.16
300.177	13.96
300.644	12.56
301.111	6.66
301.578	11.46
302.045	8.26
302.512	14.36
302.979	18.86
303.446	16.86
303.913	15.76
304.379	11.86
304.846	18.96
305.313	11.26
305.78	13.66
306.246	15.96
306.713	15.96
307.18	12.16
307.646	17.96
308.113	18.36
308.579	18.46
309.046	17.06
309.512	20.56
309.979	9.66
310.445	24.36
310.912	21.76
311.378	21.66
311.845	23.46
312.311	25.36
312.777	25.76
313.244	27.26
313.71	27.76
314.176	18.26
314.642	21.46
315.109	19.36
315.575	26.36
316.041	28.76
316.507	20.36
316.973	24.76
317.439	26.66
317.905	28.76
318.371	28.66
318.837	24.66
319.303	26.66
319.769	21.76
320.235	25.06
320.701	25.76
321.167	29.06
321.633	27.06
322.099	29.56
322.564	36.66
323.03	33.56
323.496	27.56
323.962	36.26
324.427	31.76
324.893	32.76
325.359	31.86
325.824	30.36
326.29	33.26
326.755	37.56
327.221	36.16
327.686	32.56
328.152	40.56
328.617	31.86
329.083	42.46
329.548	45.46
330.014	42.06
330.479	37.86
330.944	36.96
331.41	38.16
331.875	46.86
332.34	32.36
332.805	38.76
333.271	38.06
333.736	33.26
334.201	43.16
334.666	45.66
335.131	44.06
335.596	52.16
336.061	43.06
336.526	33.86
336.991	46.76
337.456	51.46
337.921	41.96
338.386	44.96
338.851	39.56
339.316	41.26
339.781	42.86
340.246	46.86
340.711	43.46
341.175	51.06
341.64	43.06
342.105	45.16
342.569	46.46
343.034	60.06
343.499	50.36
343.963	46.56
344.428	57.36
344.893	51.86
345.357	55.66
345.822	55.06
346.286	61.76
346.751	63.46
347.215	64.76
347.679	63.66
348.144	84.46
348.608	73.26
349.073	68.16
349.537	69.26
350.001	78.26
350.465	83.76
350.93	79.96
351.394	75.96
351.858	72.06
352.322	80.46
352.786	78.76
353.25	91.66
353.715	96.36
354.179	89.66
354.643	105.76
355.107	106.06
355.571	91.66
356.035	89.26
356.498	106.36
356.962	97.46
357.426	108.66
357.89	99.86
358.354	88.56
358.818	80.96
359.281	79.46
359.745	83.16
360.209	78.36
360.673	83.36
361.136	84.66
361.6	87.26
362.064	83.06
362.527	89.46
362.991	91.66
363.454	78.16
363.918	79.16
364.381	84.46
364.845	86.56
365.308	88.76
365.772	92.26
366.235	94.66
366.698	86.56
367.162	95.96
367.625	93.66
368.088	96.06
368.552	93.76
369.015	92.96
369.478	99.26
369.941	102.66
370.404	99.46
370.867	110.76
371.331	108.56
371.794	114.46
372.257	100.36
372.72	108.36
373.183	110.36
373.646	101.06
374.109	105.26
374.572	106.86
375.035	105.06
375.497	116.76
375.96	113.76
376.423	110.06
376.886	123.36
377.349	114.66
377.811	109.96
378.274	112.26
378.737	114.46
379.199	122.66
379.662	114.16
380.125	118.46
380.587	115.06
381.05	121.76
381.512	125.86
381.975	134.66
382.437	123.26
382.9	130.96
383.362	133.16
383.825	140.46
384.287	130.26
384.75	120.16
385.212	131.06
385.674	146.56
386.136	146.86
386.599	130.56
387.061	132.96
387.523	137.86
387.985	141.36
388.447	151.06
388.91	140.26
389.372	145.26
389.834	144.16
390.296	142.06
390.758	145.26
391.22	150.46
391.682	163.76
392.144	158.66
392.606	160.46
393.068	159.16
393.529	164.96
393.991	162.66
394.453	151.16
394.915	153.26
395.377	150.36
395.838	152.36
396.3	145.66
396.762	157.36
397.224	153.16
397.685	150.56
398.147	154.76
398.608	151.26
399.07	145.46
399.531	154.06
399.993	170.46
400.454	174.36
400.916	172.16
401.377	170.36
401.839	176.46
402.3	171.26
402.762	189.66
403.223	201.56
403.684	194.06
404.145	183.66
404.607	178.56
405.068	179.96
405.529	183.36
405.99	196.36
406.451	200.46
406.913	194.86
407.374	193.96
407.835	182.16
408.296	190.26
408.757	201.36
409.218	209.56
409.679	204.16
410.14	198.96
410.601	202.46
411.062	208.96
411.522	208.26
411.983	205.36
412.444	203.86
412.905	206.56
413.366	211.46
413.826	220.86
414.287	255.16
414.748	307.96
415.208	297.56
415.669	251.66
416.13	239.36
416.59	240.76
417.051	257.76
417.511	256.66
417.972	280.16
418.432	292.96
418.893	343.76
419.353	300.76
419.814	237.06
420.274	216.36
420.734	210.26
421.195	225.66
421.655	217.36
422.115	227.56
422.576	224.46
423.036	231.46
423.496	238.76
423.956	250.36
424.416	263.56
424.876	303.86
425.336	293.36
425.797	300.06
426.257	287.46
426.717	273.06
427.177	265.46
427.637	252.96
428.097	261.46
428.556	271.76
429.016	299.76
429.476	290.96
429.936	304.06
430.396	303.66
430.856	316.16
431.315	338.06
431.775	381.06
432.235	405.96
432.694	385.06
433.154	384.76
433.614	402.56
434.073	362.76
434.533	313.76
434.993	296.16
435.452	297.86
435.912	313.96
436.371	310.46
436.83	299.06
437.29	288.26
437.749	274.46
438.209	269.76
438.668	297.66
439.127	303.66
439.587	283.86
440.046	267.36
440.505	281.36
440.964	285.86
441.424	326.16
441.883	320.66
442.342	282.46
442.801	250.46
443.26	251.06
443.719	255.96
444.178	247.56
444.637	244.36
445.096	249.06
445.555	262.26
446.014	264.16
446.473	260.96
446.932	271.56
447.391	262.76
447.849	264.66
448.308	260.96
448.767	255.16
449.226	267.46
449.685	272.46
450.143	283.66
450.602	264.26
451.061	252.36
451.519	260.36
451.978	260.76
452.436	260.86
452.895	268.56
453.353	270.66
453.812	263.16
454.27	265.86
454.729	266.86
455.187	265.76
455.646	267.96
456.104	262.26
456.562	277.06
457.021	279.66
457.479	282.26
457.937	293.86
458.395	289.96
458.854	275.16
459.312	282.46
459.77	286.96
460.228	278.26
460.686	270.56
461.144	285.06
461.602	274.16
462.06	275.76
462.518	284.26
462.976	284.36
463.434	282.76
463.892	286.46
464.35	291.66
464.808	314.76
465.266	287.66
465.724	302.36
466.181	312.66
466.639	299.06
467.097	316.96
467.555	331.26
468.012	327.86
468.47	339.26
468.928	353.46
469.385	363.26
469.843	363.36
470.3	368.96
470.758	389.16
471.215	396.86
471.673	414.16
472.13	427.46
472.588	435.36
473.045	406.86
473.503	415.86
473.96	429.86
474.417	439.96
474.875	457.06
475.332	487.66
475.789	481.26
476.246	493.36
476.704	505.46
477.161	523.36
477.618	539.56
478.075	574.16
478.532	619.06
478.989	677.56
479.446	763.16
479.903	756.56
480.36	796.26
480.817	839.96
481.274	905.66
481.731	1014.46
482.188	1084.26
482.645	1203.76
483.102	1290.36
483.558	1400.76
484.015	1451.16
484.472	1441.96
484.929	1392.96
485.385	1357.66
485.842	1333.76
486.299	1276.56
486.755	1230.76
487.212	1075.66
487.668	939.16
488.125	866.46
488.582	790.46
489.038	753.36
489.494	721.36
489.951	700.16
490.407	681.66
490.864	666.46
491.32	664.96
491.776	654.96
492.233	651.36
492.689	635.36
493.145	622.76
493.602	619.86
494.058	623.46
494.514	626.36
494.97	638.66
495.426	641.06
495.882	621.76
496.338	621.06
496.794	630.26
497.251	618.36
497.707	625.56
498.163	617.76
498.618	630.56
499.074	632.06
499.53	653.36
499.986	659.96
500.442	637.56
500.898	626.46
501.354	614.86
501.809	620.06
502.265	619.46
502.721	641.66
503.177	645.06
503.632	642.66
504.088	650.36
504.543	656.16
504.999	682.16
505.455	662.36
505.91	639.76
506.366	636.16
506.821	636.86
507.277	634.96
507.732	634.66
508.187	639.56
508.643	646.06
509.098	650.26
509.553	663.96
510.009	667.16
510.464	669.76
510.919	679.26
511.375	687.96
511.83	698.66
512.285	694.76
512.74	730.16
513.195	741.36
513.65	744.06
514.105	739.56
514.56	743.96
515.015	750.56
515.47	759.36
515.925	757.86
516.38	756.36
516.835	765.06
517.29	743.96
517.745	758.16
518.2	740.46
518.655	736.26
519.109	715.66
519.564	707.76
520.019	700.16
520.474	696.36
520.928	702.66
521.383	688.26
521.838	681.36
522.292	683.76
522.747	682.56
523.201	684.76
523.656	679.36
524.11	675.66
524.565	671.16
525.019	662.06
525.474	665.06
525.928	677.36
526.382	668.06
526.837	658.96
527.291	657.16
527.745	662.96
528.2	663.86
528.654	660.06
529.108	656.16
529.562	664.16
530.016	669.66
530.47	658.56
530.925	658.06
531.379	648.16
531.833	656.46
532.287	650.16
532.741	654.46
533.195	651.56
533.649	651.16
534.103	667.16
534.556	647.76
535.01	652.26
535.464	645.76
535.918	649.66
536.372	656.96
536.826	656.16
537.279	649.66
537.733	654.16
538.187	658.76
538.64	640.96
539.094	662.86
539.548	670.66
540.001	663.26
540.455	669.86
540.908	669.16
541.362	675.36
541.815	687.46
542.269	694.76
542.722	707.36
543.175	707.56
543.629	702.26
544.082	716.36
544.536	715.86
544.989	717.26
545.442	727.76
545.895	721.46
546.349	733.06
546.802	724.66
547.255	721.36
547.708	734.76
548.161	737.16
548.614	738.66
549.067	744.86
549.52	742.86
549.973	735.56
550.426	717.46
550.879	715.66
551.332	722.06
551.785	734.56
552.238	718.06
552.691	731.06
553.144	739.16
553.596	749.56
554.049	763.96
554.502	797.76
554.955	797.66
555.407	800.96
555.86	803.76
556.313	781.26
556.765	778.26
557.218	779.56
557.67	774.16
558.123	766.36
558.576	758.56
559.028	760.66
559.48	780.96
559.933	769.16
560.385	747.96
560.838	714.66
561.29	697.76
561.742	698.36
562.195	682.16
562.647	685.36
563.099	688.56
563.551	684.56
564.004	687.36
564.456	686.46
564.908	670.36
565.36	637.76
565.812	636.66
566.264	632.76
566.716	620.06
567.168	613.76
567.62	619.36
568.072	608.86
568.524	612.56
568.976	607.46
569.428	586.16
569.88	584.06
570.332	591.46
570.784	589.46
571.235	592.56
571.687	597.66
572.139	601.56
572.59	609.76
573.042	607.06
573.494	603.46
573.945	608.06
574.397	582.86
574.849	586.06
575.3	590.16
575.752	584.96
576.203	575.36
576.655	583.06
577.106	565.66
577.557	566.26
578.009	556.76
578.46	560.86
578.912	562.16
579.363	557.06
579.814	559.26
580.265	558.76
580.717	553.06
581.168	557.96
581.619	563.26
582.07	566.76
582.521	558.76
582.972	555.66
583.423	553.16
583.875	565.46
584.326	568.56
584.777	572.76
585.227	585.76
585.678	609.46
586.129	627.06
586.58	637.26
587.031	655.56
587.482	684.76
587.933	718.86
588.384	703.66
588.834	656.96
589.285	639.86
589.736	644.06
590.186	637.06
590.637	637.36
591.088	613.66
591.538	604.06
591.989	605.16
592.439	596.86
592.89	581.96
593.34	571.56
593.791	578.26
594.241	572.26
594.692	573.36
595.142	564.56
595.593	563.06
596.043	565.26
596.493	577.16
596.943	574.86
597.394	579.46
597.844	580.36
598.294	593.56
598.744	619.56
599.195	631.16
599.645	658.96
600.095	689.46
600.545	730.76
600.995	769.86
601.445	804.66
601.895	854.36
602.345	896.06
602.795	884.66
603.245	836.96
603.695	809.26
604.145	770.26
604.594	732.16
605.044	689.86
605.494	651.46
605.944	609.36
606.393	593.36
606.843	582.56
607.293	585.76
607.743	573.96
608.192	578.16
608.642	594.06
609.091	597.96
609.541	595.16
609.99	596.06
610.44	597.96
610.889	566.26
611.339	542.66
611.788	540.66
612.238	553.86
612.687	563.06
613.136	552.26
613.586	555.06
614.035	551.86
614.484	561.36
614.933	555.06
615.383	558.06
615.832	547.26
616.281	545.56
616.73	534.06
617.179	519.86
617.628	504.46
618.077	498.36
618.526	483.16
618.975	478.86
619.424	486.56
619.873	477.16
620.322	480.66
620.771	464.86
621.22	467.66
621.669	467.96
622.118	453.36
622.567	451.66
623.015	430.96
623.464	443.16
623.913	438.96
624.361	431.46
624.81	430.36
625.259	427.06
625.707	429.96
626.156	425.56
626.604	433.16
627.053	434.56
627.501	432.36
627.95	444.56
628.398	445.16
628.847	437.56
629.295	431.26
629.744	426.66
630.192	435.96
630.64	428.46
631.089	422.46
631.537	413.76
631.985	398.26
632.433	402.76
632.881	401.46
633.33	406.46
633.778	397.86
634.226	399.86
634.674	405.26
635.122	415.56
635.57	408.96
636.018	422.16
636.466	429.36
636.914	418.46
637.362	434.76
637.81	438.16
638.258	445.06
638.705	436.46
639.153	464.56
639.601	462.46
640.049	480.06
640.497	504.46
640.944	532.56
641.392	489.46
641.84	466.46
642.287	442.06
642.735	421.06
643.182	432.26
643.63	429.66
644.078	426.46
644.525	437.36
644.973	433.56
645.42	447.56
645.867	453.26
646.315	477.06
646.762	482.86
647.21	515.26
647.657	527.06
648.104	550.16
648.551	557.76
648.999	603.16
649.446	651.16
649.893	704.56
650.34	807.46
650.787	948.16
651.234	1153.96
651.682	1454.96
652.129	1962.36
652.576	2730.26
653.023	3937.26
653.47	5463.26
653.917	6876.36
654.363	8104.26
654.81	9123.86
655.257	8669.46
655.704	5793.76
656.151	3483.96
656.598	2297.16
657.044	1632.26
657.491	1285.06
657.938	1030.86
658.385	870.46
658.831	745.16
659.278	683.76
659.724	607.06
660.171	567.86
660.618	516.16
661.064	491.26
661.511	463.56
661.957	459.76
662.404	445.16
662.85	451.16
663.296	439.56
663.743	407.56
664.189	394.46
664.635	398.96
665.082	384.26
665.528	394.76
665.974	376.06
666.42	369.56
666.867	370.76
667.313	352.66
667.759	337.36
668.205	341.56
668.651	336.16
669.097	332.26
669.543	318.56
669.989	325.36
670.435	330.56
670.881	329.26
671.327	326.46
671.773	347.26
672.219	363.16
672.665	400.56
673.11	427.86
673.556	458.96
674.002	489.96
674.448	477.56
674.893	418.76
675.339	365.36
675.785	329.36
676.23	317.26
676.676	287.36
677.122	292.66
677.567	280.56
678.013	270.06
678.458	265.46
678.904	265.76
679.349	256.86
679.794	255.66
680.24	254.66
680.685	254.16
681.131	251.66
681.576	255.36
682.021	262.76
682.466	259.26
682.912	251.66
683.357	251.96
683.802	276.26
684.247	303.76
684.692	325.86
685.137	355.66
685.583	396.26
686.028	415.96
686.473	391.56
686.918	335.06
687.363	307.46
687.807	288.96
688.252	265.66
688.697	255.76
689.142	248.46
689.587	241.36
690.032	233.46
690.477	247.06
690.921	258.16
691.366	281.96
691.811	292.06
692.255	326.26
692.7	330.06
693.145	363.86
693.589	491.06
694.034	786.26
694.478	1098.46
694.923	1294.16
695.367	1729.46
695.812	913.96
696.256	369.76
696.701	274.86
697.145	250.56
697.59	237.06
698.034	230.46
698.478	233.06
698.922	227.26
699.367	234.16
699.811	245.76
700.255	254.96
700.699	273.36
701.143	301.56
701.588	338.06
702.032	380.46
702.476	367.76
702.92	357.76
703.364	349.06
703.808	449.56
704.252	723.66
704.696	1025.86
705.14	1249.56
705.584	1618.56
706.027	804.66
706.471	382.96
706.915	292.56
707.359	255.86
707.803	232.76
708.246	216.56
708.69	224.36
709.134	229.26
709.577	226.86
710.021	233.96
710.465	218.56
710.908	217.26
711.352	216.76
711.795	220.96
712.239	252.16
712.682	265.66
713.126	294.06
713.569	338.66
714.012	263.26
714.456	220.46
714.899	210.76
715.342	189.26
715.786	188.56
716.229	193.96
716.672	188.26
717.115	178.96
717.558	179.36
718.002	183.76
718.445	182.56
718.888	207.56
719.331	205.06
719.774	221.06
720.217	218.46
720.66	206.26
721.103	190.96
721.546	175.16
721.989	185.86
722.432	166.66
722.874	171.76
723.317	168.26
723.76	172.26
724.203	183.86
724.645	221.96
725.088	305.76
725.531	404.36
725.974	474.16
726.416	407.86
726.859	223.86
727.301	177.16
727.744	174.36
728.187	168.56
728.629	169.76
729.071	174.36
729.514	188.06
729.956	194.36
730.399	202.96
730.841	209.16
731.283	198.46
731.726	197.26
732.168	190.86
732.61	193.96
733.053	207.76
733.495	216.56
733.937	247.16
734.379	282.06
734.821	309.26
735.263	378.26
735.705	578.46
736.148	1066.36
736.59	1835.46
737.032	2300.06
737.474	1884.96
737.916	604.76
738.357	312.66
738.799	240.06
739.241	214.06
739.683	208.46
740.125	215.16
740.567	214.46
741.008	237.96
741.45	241.56
741.892	235.96
742.334	263.96
742.775	271.26
743.217	277.06
743.658	201.56
744.1	187.96
744.542	196.56
744.983	245.56
745.425	279.06
745.866	282.36
746.307	215.86
746.749	206.46
747.19	230.56
747.632	309.76
748.073	586.66
748.514	1272.76
748.956	2054.86
749.397	2586.06
749.838	2153.16
750.279	2235.86
750.72	1133.86
751.162	406.86
751.603	231.26
752.044	179.76
752.485	154.16
752.926	148.46
753.367	153.16
753.808	132.36
754.249	136.96
754.69	144.16
755.131	125.96
755.572	135.16
756.013	130.76
756.453	131.66
756.894	135.56
757.335	133.66
757.776	136.26
758.216	140.86
758.657	140.86
759.098	143.56
759.538	158.76
759.979	185.66
760.42	254.96
760.86	484.56
761.301	1249.26
761.741	3141.46
762.182	4979.16
762.622	3557.06
763.063	1012.46
