Data from 20171114-ORNL-Ar_H_NY_Subt18_08-06-43-118.txt Node
Date: Tue Nov 14 08:06:43 EST 2017
User: Ender
Spectrometer: HR+D1039
Trigger mode: 0
Integration Time (sec): 2.730000E-2
Scans to average: 10
Electric dark correction enabled: true
Nonlinearity correction enabled: false
Boxcar width: 0
XAxis mode: Wavelengths
Number of Pixels in Spectrum: 2048
>>>>>Begin Spectral Data<<<<<
187.836	-1.69
188.309	-1.69
188.782	-1.69
189.255	-3.39
189.728	-1.79
190.201	6.01
190.674	-2.29
191.147	3.21
191.619	-7.99
192.092	3.41
192.565	6.61
193.038	5.31
193.511	4.21
193.984	-1.29
194.456	-0.69
194.929	-1.69
195.402	-1.99
195.874	-5.99
196.347	-1.89
196.82	-6.99
197.292	10.91
197.765	0.21
198.237	-2.89
198.71	5.51
199.182	3.91
199.655	-0.79
200.127	4.61
200.6	-2.89
201.072	-0.69
201.544	-3.99
202.017	-3.19
202.489	7.01
202.961	2.21
203.433	-0.99
203.906	-3.79
204.378	-5.99
204.85	-3.79
205.322	-2.89
205.794	0.11
206.266	-6.69
206.739	-8.99
207.211	1.11
207.683	-4.59
208.155	-5.49
208.627	-5.39
209.099	1.31
209.57	-10.39
210.042	-6.39
210.514	-3.19
210.986	-1.39
211.458	-7.79
211.93	-0.09
212.402	3.01
212.873	-2.69
213.345	-9.59
213.817	-7.49
214.288	-5.39
214.76	-8.19
215.232	2.81
215.703	1.61
216.175	1.11
216.646	-9.09
217.118	-6.19
217.589	-6.29
218.061	-4.89
218.532	-4.19
219.004	-0.69
219.475	-0.39
219.946	-3.39
220.418	-0.79
220.889	1.71
221.36	5.91
221.832	-7.39
222.303	-5.49
222.774	2.91
223.245	-9.49
223.717	-2.89
224.188	0.61
224.659	-7.29
225.13	-5.39
225.601	-0.69
226.072	1.31
226.543	-5.99
227.014	3.21
227.485	1.01
227.956	-5.39
228.427	-0.69
228.898	2.21
229.369	4.61
229.839	-3.69
230.31	-4.39
230.781	9.11
231.252	-3.69
231.722	-7.79
232.193	-3.19
232.664	-3.59
233.135	-4.59
233.605	-5.19
234.076	-4.99
234.546	2.21
235.017	-4.49
235.487	0.71
235.958	1.41
236.428	-7.19
236.899	0.11
237.369	1.01
237.84	-5.79
238.31	-1.19
238.78	3.21
239.251	-3.09
239.721	-5.39
240.191	-5.29
240.662	-4.09
241.132	0.51
241.602	-3.79
242.072	-2.89
242.542	5.71
243.013	1.51
243.483	2.01
243.953	2.21
244.423	-0.89
244.893	-4.69
245.363	-2.59
245.833	6.81
246.303	-6.09
246.773	3.91
247.243	1.51
247.712	4.01
248.182	10.91
248.652	2.11
249.122	-8.29
249.592	2.61
250.061	5.21
250.531	10.31
251.001	5.81
251.471	5.11
251.94	10.01
252.41	-3.29
252.879	-4.19
253.349	9.41
253.818	5.81
254.288	1.61
254.757	1.11
255.227	-3.29
255.696	1.61
256.166	-1.19
256.635	6.81
257.105	1.01
257.574	-2.39
258.043	3.31
258.513	-4.59
258.982	-0.79
259.451	2.01
259.92	3.71
260.389	-1.09
260.859	9.31
261.328	-1.99
261.797	5.71
262.266	-2.09
262.735	10.41
263.204	3.71
263.673	0.21
264.142	5.31
264.611	-3.19
265.08	2.51
265.549	3.51
266.018	3.41
266.487	-3.49
266.955	0.71
267.424	-0.49
267.893	5.41
268.362	2.71
268.83	10.31
269.299	9.21
269.768	7.71
270.236	3.21
270.705	1.61
271.174	4.51
271.642	8.91
272.111	0.61
272.579	6.51
273.048	3.71
273.516	7.81
273.985	11.21
274.453	10.41
274.922	11.81
275.39	3.01
275.858	1.71
276.327	16.51
276.795	14.51
277.263	4.11
277.731	23.71
278.2	11.91
278.668	14.51
279.136	10.51
279.604	7.71
280.072	9.11
280.54	10.61
281.008	11.01
281.477	10.31
281.945	7.31
282.413	8.71
282.881	10.61
283.348	4.01
283.816	11.71
284.284	11.61
284.752	19.21
285.22	12.41
285.688	16.61
286.156	11.81
286.623	23.21
287.091	14.51
287.559	17.71
288.026	15.41
288.494	16.61
288.962	4.01
289.429	14.21
289.897	20.31
290.364	9.81
290.832	14.51
291.3	13.21
291.767	15.01
292.234	23.71
292.702	13.01
293.169	20.51
293.637	23.61
294.104	21.21
294.571	6.31
295.039	10.61
295.506	16.41
295.973	15.01
296.44	10.01
296.908	17.71
297.375	18.01
297.842	23.41
298.309	16.21
298.776	15.71
299.243	21.31
299.71	15.81
300.177	20.61
300.644	26.21
301.111	19.71
301.578	25.01
302.045	15.51
302.512	20.91
302.979	22.01
303.446	27.01
303.913	20.51
304.379	18.51
304.846	27.01
305.313	25.61
305.78	22.61
306.246	26.31
306.713	27.21
307.18	24.51
307.646	30.61
308.113	24.81
308.579	23.61
309.046	30.91
309.512	26.51
309.979	24.31
310.445	28.51
310.912	26.61
311.378	35.31
311.845	26.81
312.311	31.01
312.777	32.61
313.244	33.51
313.71	36.81
314.176	32.01
314.642	34.01
315.109	30.01
315.575	36.91
316.041	38.01
316.507	27.91
316.973	38.41
317.439	37.31
317.905	36.31
318.371	35.31
318.837	36.51
319.303	37.21
319.769	31.21
320.235	31.91
320.701	35.51
321.167	36.71
321.633	35.61
322.099	37.51
322.564	44.11
323.03	38.11
323.496	34.11
323.962	42.61
324.427	40.81
324.893	44.61
325.359	41.71
325.824	41.11
326.29	35.11
326.755	41.61
327.221	41.21
327.686	39.11
328.152	45.01
328.617	40.81
329.083	53.21
329.548	54.91
330.014	51.01
330.479	43.21
330.944	48.11
331.41	43.71
331.875	48.11
332.34	41.01
332.805	43.91
333.271	47.41
333.736	42.71
334.201	52.61
334.666	61.31
335.131	57.61
335.596	55.01
336.061	51.61
336.526	48.21
336.991	56.91
337.456	58.01
337.921	50.31
338.386	49.91
338.851	48.91
339.316	52.81
339.781	49.21
340.246	57.11
340.711	45.61
341.175	52.21
341.64	50.61
342.105	58.71
342.569	65.71
343.034	57.81
343.499	62.61
343.963	60.81
344.428	67.11
344.893	68.01
345.357	62.91
345.822	70.01
346.286	70.11
346.751	69.71
347.215	74.71
347.679	76.61
348.144	104.71
348.608	88.91
349.073	72.11
349.537	72.51
350.001	84.21
350.465	97.41
350.93	87.91
351.394	86.51
351.858	74.71
352.322	94.41
352.786	90.01
353.25	107.11
353.715	121.61
354.179	106.11
354.643	122.41
355.107	133.51
355.571	110.91
356.035	102.71
356.498	112.11
356.962	117.91
357.426	130.41
357.89	113.71
358.354	94.21
358.818	91.61
359.281	81.51
359.745	80.61
360.209	84.21
360.673	77.31
361.136	83.91
361.6	89.61
362.064	91.31
362.527	93.41
362.991	94.91
363.454	84.71
363.918	83.71
364.381	88.81
364.845	92.11
365.308	95.71
365.772	87.81
366.235	94.71
366.698	86.01
367.162	90.81
367.625	88.01
368.088	88.91
368.552	99.81
369.015	91.91
369.478	100.61
369.941	105.31
370.404	100.01
370.867	110.21
371.331	111.11
371.794	114.21
372.257	108.81
372.72	111.01
373.183	104.61
373.646	101.01
374.109	104.41
374.572	111.51
375.035	107.51
375.497	116.91
375.96	117.21
376.423	114.31
376.886	121.51
377.349	119.21
377.811	108.91
378.274	111.91
378.737	113.91
379.199	123.31
379.662	120.81
380.125	125.11
380.587	115.01
381.05	121.81
381.512	122.41
381.975	132.21
382.437	130.21
382.9	124.61
383.362	131.71
383.825	138.11
384.287	133.41
384.75	134.91
385.212	130.71
385.674	142.01
386.136	138.11
386.599	130.11
387.061	137.51
387.523	135.21
387.985	132.51
388.447	141.51
388.91	138.91
389.372	145.01
389.834	145.01
390.296	143.71
390.758	146.01
391.22	152.21
391.682	164.41
392.144	168.91
392.606	155.31
393.068	152.81
393.529	166.01
393.991	152.11
394.453	145.21
394.915	145.11
395.377	147.61
395.838	149.11
396.3	149.01
396.762	152.91
397.224	150.21
397.685	148.01
398.147	145.81
398.608	149.41
399.07	145.01
399.531	157.11
399.993	160.01
400.454	174.41
400.916	164.61
401.377	161.81
401.839	170.31
402.3	170.51
402.762	179.01
403.223	195.71
403.684	183.21
404.145	173.01
404.607	182.81
405.068	179.21
405.529	188.61
405.99	208.61
406.451	193.91
406.913	191.11
407.374	179.91
407.835	179.61
408.296	175.91
408.757	190.31
409.218	204.31
409.679	204.21
410.14	191.91
410.601	196.21
411.062	195.81
411.522	201.31
411.983	198.51
412.444	187.81
412.905	203.51
413.366	210.01
413.826	217.21
414.287	246.91
414.748	296.91
415.208	281.71
415.669	238.51
416.13	235.51
416.59	232.41
417.051	235.81
417.511	246.51
417.972	270.21
418.432	281.51
418.893	321.21
419.353	285.81
419.814	222.21
420.274	209.71
420.734	207.61
421.195	226.61
421.655	211.91
422.115	214.11
422.576	226.51
423.036	225.31
423.496	224.71
423.956	244.31
424.416	258.31
424.876	295.41
425.336	288.61
425.797	296.61
426.257	285.81
426.717	266.71
427.177	256.91
427.637	250.11
428.097	261.31
428.556	270.61
429.016	295.51
429.476	289.61
429.936	296.81
430.396	303.31
430.856	317.91
431.315	343.91
431.775	380.61
432.235	405.71
432.694	381.31
433.154	390.31
433.614	429.51
434.073	366.51
434.533	314.11
434.993	298.41
435.452	307.61
435.912	315.41
436.371	302.31
436.83	311.61
437.29	288.01
437.749	276.41
438.209	275.51
438.668	306.51
439.127	317.01
439.587	286.51
440.046	271.01
440.505	296.41
440.964	303.61
441.424	354.01
441.883	345.01
442.342	295.61
442.801	259.81
443.26	249.21
443.719	251.71
444.178	252.71
444.637	237.71
445.096	253.61
445.555	258.31
446.014	252.11
446.473	255.91
446.932	259.51
447.391	256.61
447.849	265.21
448.308	240.41
448.767	256.11
449.226	264.41
449.685	267.01
450.143	281.31
450.602	263.31
451.061	252.81
451.519	266.71
451.978	263.31
452.436	263.61
452.895	270.11
453.353	285.91
453.812	274.41
454.27	270.71
454.729	269.91
455.187	271.91
455.646	279.21
456.104	276.31
456.562	293.81
457.021	291.91
457.479	293.61
457.937	311.11
458.395	301.71
458.854	286.51
459.312	288.81
459.77	310.51
460.228	282.51
460.686	277.71
461.144	282.81
461.602	281.21
462.06	278.41
462.518	295.61
462.976	292.51
463.434	295.71
463.892	293.41
464.35	309.21
464.808	314.51
465.266	298.11
465.724	299.81
466.181	310.51
466.639	314.91
467.097	327.81
467.555	342.21
468.012	347.01
468.47	354.81
468.928	370.11
469.385	378.21
469.843	389.41
470.3	391.01
470.758	408.41
471.215	429.51
471.673	448.41
472.13	453.91
472.588	467.41
473.045	424.01
473.503	420.21
473.96	438.01
474.417	447.71
474.875	482.91
475.332	522.31
475.789	513.31
476.246	519.21
476.704	542.91
477.161	554.71
477.618	587.41
478.075	625.41
478.532	680.91
478.989	748.21
479.446	869.31
479.903	828.91
480.36	864.51
480.817	918.51
481.274	1016.01
481.731	1104.31
482.188	1187.31
482.645	1329.51
483.102	1410.51
483.558	1540.91
484.015	1584.31
484.472	1569.01
484.929	1506.81
485.385	1473.21
485.842	1430.61
486.299	1394.21
486.755	1354.21
487.212	1156.61
487.668	987.01
488.125	915.51
488.582	841.91
489.038	815.81
489.494	772.61
489.951	751.71
490.407	729.31
490.864	706.61
491.32	704.41
491.776	697.91
492.233	724.61
492.689	667.31
493.145	665.01
493.602	661.31
494.058	681.11
494.514	681.31
494.97	705.71
495.426	719.61
495.882	691.01
496.338	678.21
496.794	680.71
497.251	678.71
497.707	699.41
498.163	699.61
498.618	709.21
499.074	698.31
499.53	738.41
499.986	736.51
500.442	714.71
500.898	686.51
501.354	674.81
501.809	698.31
502.265	687.71
502.721	702.51
503.177	701.01
503.632	698.81
504.088	710.91
504.543	737.21
504.999	761.21
505.455	729.41
505.91	698.41
506.366	708.51
506.821	690.51
507.277	703.41
507.732	702.41
508.187	702.21
508.643	709.21
509.098	713.21
509.553	733.51
510.009	737.71
510.464	749.31
510.919	766.51
511.375	776.31
511.83	786.81
512.285	797.31
512.74	849.61
513.195	862.11
513.65	846.71
514.105	846.01
514.56	844.01
515.015	869.11
515.47	880.31
515.925	868.71
516.38	869.41
516.835	886.41
517.29	858.01
517.745	870.21
518.2	851.41
518.655	833.31
519.109	827.91
519.564	822.11
520.019	804.41
520.474	802.21
520.928	805.41
521.383	800.41
521.838	780.41
522.292	791.31
522.747	782.51
523.201	781.41
523.656	773.81
524.11	765.61
524.565	767.31
525.019	764.51
525.474	770.41
525.928	762.31
526.382	768.11
526.837	776.01
527.291	783.11
527.745	771.31
528.2	774.81
528.654	775.91
529.108	758.21
529.562	757.61
530.016	761.51
530.47	764.41
530.925	760.41
531.379	763.21
531.833	769.01
532.287	775.31
532.741	776.11
533.195	775.41
533.649	786.01
534.103	793.81
534.556	777.11
535.01	771.51
535.464	768.11
535.918	795.71
536.372	788.51
536.826	783.21
537.279	769.41
537.733	787.31
538.187	781.51
538.64	784.81
539.094	792.81
539.548	804.41
540.001	791.91
540.455	802.61
540.908	821.31
541.362	809.91
541.815	825.81
542.269	837.21
542.722	836.91
543.175	847.51
543.629	850.61
544.082	874.71
544.536	867.61
544.989	856.61
545.442	870.71
545.895	881.41
546.349	885.91
546.802	874.21
547.255	883.61
547.708	888.41
548.161	890.61
548.614	895.71
549.067	913.71
549.52	903.21
549.973	895.31
550.426	880.11
550.879	882.01
551.332	882.71
551.785	892.81
552.238	882.31
552.691	902.31
553.144	920.81
553.596	938.61
554.049	956.21
554.502	971.51
554.955	991.51
555.407	997.71
555.86	977.01
556.313	977.71
556.765	954.41
557.218	969.91
557.67	970.51
558.123	966.21
558.576	957.21
559.028	966.61
559.48	977.31
559.933	963.81
560.385	927.11
560.838	894.91
561.29	878.21
561.742	869.01
562.195	852.01
562.647	853.71
563.099	842.61
563.551	847.21
564.004	866.11
564.456	849.41
564.908	828.01
565.36	817.91
565.812	808.51
566.264	790.11
566.716	772.81
567.168	770.41
567.62	791.91
568.072	761.41
568.524	768.91
568.976	756.11
569.428	736.71
569.88	743.21
570.332	752.11
570.784	755.61
571.235	751.11
571.687	768.11
572.139	766.31
572.59	780.81
573.042	784.61
573.494	774.91
573.945	765.81
574.397	756.61
574.849	757.71
575.3	762.21
575.752	753.61
576.203	737.81
576.655	753.31
577.106	738.51
577.557	720.81
578.009	732.91
578.46	729.21
578.912	717.11
579.363	724.41
579.814	723.61
580.265	724.31
580.717	734.51
581.168	729.31
581.619	745.01
582.07	752.31
582.521	734.11
582.972	729.21
583.423	732.01
583.875	742.41
584.326	747.31
584.777	755.41
585.227	779.51
585.678	795.51
586.129	819.11
586.58	851.31
587.031	855.01
587.482	906.31
587.933	939.41
588.384	909.81
588.834	865.91
589.285	845.41
589.736	825.51
590.186	831.51
590.637	836.91
591.088	814.41
591.538	805.81
591.989	786.41
592.439	784.61
592.89	790.71
593.34	761.01
593.791	767.81
594.241	760.51
594.692	758.11
595.142	758.91
595.593	754.61
596.043	758.51
596.493	766.91
596.943	762.41
597.394	788.21
597.844	769.21
598.294	803.51
598.744	825.51
599.195	847.81
599.645	895.31
600.095	927.91
600.545	996.51
600.995	1038.91
601.445	1100.71
601.895	1179.31
602.345	1229.71
602.795	1210.21
603.245	1162.31
603.695	1090.61
604.145	1042.71
604.594	979.51
605.044	929.61
605.494	871.01
605.944	816.31
606.393	800.91
606.843	793.21
607.293	798.01
607.743	794.51
608.192	789.61
608.642	810.71
609.091	817.61
609.541	820.71
609.99	831.41
610.44	819.81
610.889	768.21
611.339	750.21
611.788	740.81
612.238	743.21
612.687	760.81
613.136	752.91
613.586	761.91
614.035	752.31
614.484	769.31
614.933	751.01
615.383	763.11
615.832	756.51
616.281	751.41
616.73	727.01
617.179	696.11
617.628	696.81
618.077	682.91
618.526	668.91
618.975	669.71
619.424	661.31
619.873	656.91
620.322	661.21
620.771	644.51
621.22	656.91
621.669	637.01
622.118	635.11
622.567	625.51
623.015	612.01
623.464	606.11
623.913	594.01
624.361	600.81
624.81	591.71
625.259	589.31
625.707	604.31
626.156	602.91
626.604	612.11
627.053	612.11
627.501	610.81
627.95	614.41
628.398	623.51
628.847	617.41
629.295	612.81
629.744	615.01
630.192	611.71
630.64	601.71
631.089	597.31
631.537	592.71
631.985	574.81
632.433	574.21
632.881	568.51
633.33	571.21
633.778	569.11
634.226	559.11
634.674	579.21
635.122	585.11
635.57	596.41
636.018	601.01
636.466	602.41
636.914	603.51
637.362	618.21
637.81	621.81
638.258	621.51
638.705	628.31
639.153	655.81
639.601	652.71
640.049	690.01
640.497	720.61
640.944	745.11
641.392	688.51
641.84	656.21
642.287	634.01
642.735	611.51
643.182	605.11
643.63	603.81
644.078	608.11
644.525	619.21
644.973	621.71
645.42	634.31
645.867	649.21
646.315	673.41
646.762	699.21
647.21	721.81
647.657	740.41
648.104	781.81
648.551	801.81
648.999	864.11
649.446	949.21
649.893	1022.91
650.34	1168.21
650.787	1398.61
651.234	1715.31
651.682	2213.01
652.129	2982.71
652.576	4214.31
653.023	6168.11
653.47	8329.81
653.917	10351.61
654.363	11958.41
654.81	13191.71
655.257	12492.11
655.704	8306.91
656.151	4990.71
656.598	3278.71
657.044	2364.41
657.491	1841.01
657.938	1490.31
658.385	1250.31
658.831	1082.61
659.278	979.61
659.724	876.41
660.171	815.91
660.618	749.91
661.064	712.21
661.511	694.41
661.957	681.11
662.404	675.21
662.85	675.01
663.296	657.21
663.743	600.71
664.189	573.31
664.635	562.21
665.082	560.61
665.528	557.71
665.974	550.11
666.42	543.11
666.867	546.91
667.313	522.91
667.759	491.11
668.205	480.01
668.651	487.11
669.097	481.51
669.543	467.31
669.989	469.01
670.435	484.01
670.881	478.91
671.327	487.21
671.773	500.11
672.219	530.11
672.665	587.41
673.11	624.61
673.556	685.01
674.002	711.61
674.448	705.01
674.893	592.71
675.339	513.71
675.785	482.21
676.23	454.11
676.676	427.91
677.122	413.01
677.567	399.91
678.013	397.81
678.458	387.01
678.904	390.31
679.349	377.61
679.794	385.71
680.24	383.91
680.685	383.81
681.131	376.31
681.576	367.11
682.021	381.11
682.466	381.81
682.912	378.11
683.357	379.91
683.802	413.01
684.247	435.81
684.692	484.21
685.137	531.31
685.583	574.21
686.028	607.11
686.473	562.01
686.918	480.61
687.363	450.81
687.807	418.61
688.252	388.01
688.697	375.91
689.142	363.91
689.587	361.11
690.032	358.51
690.477	381.71
690.921	380.41
691.366	416.81
691.811	429.41
692.255	461.21
692.7	495.91
693.145	547.21
693.589	737.11
694.034	1211.91
694.478	1666.11
694.923	1861.41
695.367	2467.01
695.812	1290.21
696.256	528.91
696.701	392.31
697.145	374.91
697.59	353.41
698.034	342.81
698.478	352.61
698.922	343.21
699.367	349.81
699.811	355.11
700.255	384.41
700.699	411.91
701.143	460.01
701.588	498.01
702.032	553.61
702.476	544.21
702.92	522.41
703.364	532.01
703.808	686.41
704.252	1110.01
704.696	1572.91
705.14	1804.21
705.584	2296.31
706.027	1147.91
706.471	560.41
706.915	428.61
707.359	382.61
707.803	346.51
708.246	340.31
708.69	336.31
709.134	330.71
709.577	333.51
710.021	339.41
710.465	329.41
710.908	313.21
711.352	320.01
711.795	337.31
712.239	378.31
712.682	419.01
713.126	447.01
713.569	490.31
714.012	376.91
714.456	331.61
714.899	310.21
715.342	293.71
715.786	282.61
716.229	284.71
716.672	270.91
717.115	264.91
717.558	267.01
718.002	267.11
718.445	284.91
718.888	303.91
719.331	314.11
719.774	321.91
720.217	323.61
720.66	308.71
721.103	284.71
721.546	271.81
721.989	263.51
722.432	254.51
722.874	250.31
723.317	249.11
723.76	251.21
724.203	276.01
724.645	342.31
725.088	473.31
725.531	607.81
725.974	685.81
726.416	582.51
726.859	323.51
727.301	261.21
727.744	252.51
728.187	250.21
728.629	255.21
729.071	266.61
729.514	283.21
729.956	289.91
730.399	290.81
730.841	307.01
731.283	296.61
731.726	281.11
732.168	293.51
732.61	286.01
733.053	304.81
733.495	342.81
733.937	381.01
734.379	430.01
734.821	474.11
735.263	583.81
735.705	909.01
736.148	1688.41
736.59	2778.61
737.032	3294.01
737.474	2688.91
737.916	876.91
738.357	466.41
738.799	362.11
739.241	322.41
739.683	309.21
740.125	313.41
740.567	321.01
741.008	342.21
741.45	348.21
741.892	346.61
742.334	373.81
742.775	387.51
743.217	378.01
743.658	302.61
744.1	277.31
744.542	284.41
744.983	346.71
745.425	382.41
745.866	380.61
746.307	300.61
746.749	295.51
747.19	351.81
747.632	491.61
748.073	950.61
748.514	2016.41
748.956	3089.91
749.397	3869.11
749.838	3217.51
750.279	3200.91
750.72	1617.91
751.162	597.91
751.603	344.41
752.044	274.31
752.485	235.71
752.926	222.81
753.367	214.51
753.808	205.41
754.249	207.71
754.69	203.01
755.131	194.31
755.572	196.31
756.013	197.61
756.453	191.21
756.894	202.51
757.335	206.11
757.776	204.81
758.216	213.91
758.657	214.71
759.098	218.51
759.538	247.51
759.979	286.91
760.42	406.11
760.86	762.81
761.301	1980.61
761.741	4767.31
762.182	6924.31
762.622	4877.61
