Data from 20171114-ORNL-Ar_H_NY_Subt18_08-07-40-716.txt Node
Date: Tue Nov 14 08:07:40 EST 2017
User: Ender
Spectrometer: HR+D1039
Trigger mode: 0
Integration Time (sec): 2.730000E-2
Scans to average: 10
Electric dark correction enabled: true
Nonlinearity correction enabled: false
Boxcar width: 0
XAxis mode: Wavelengths
Number of Pixels in Spectrum: 2048
>>>>>Begin Spectral Data<<<<<
187.836	-1.5
188.309	-1.5
188.782	-1.5
189.255	-1.8
189.728	-1.3
190.201	6.3
190.674	1.5
191.147	4.5
191.619	-12.8
192.092	-2
192.565	3.9
193.038	0.2
193.511	-0.2
193.984	0.4
194.456	2.7
194.929	3.7
195.402	-3.4
195.874	-0.2
196.347	0.5
196.82	-0.4
197.292	5.2
197.765	-3.8
198.237	-6.2
198.71	3.5
199.182	4
199.655	4.2
200.127	6.1
200.6	1.1
201.072	-0.2
201.544	1.8
202.017	-0.1
202.489	6.9
202.961	-2.4
203.433	-7.5
203.906	-5.9
204.378	1.5
204.85	-8.1
205.322	-9.4
205.794	4.8
206.266	-1.1
206.739	-9.2
207.211	1.6
207.683	-3
208.155	-4.4
208.627	-1.5
209.099	-1.6
209.57	-7
210.042	-4.4
210.514	1
210.986	0.1
211.458	-5.5
211.93	0.7
212.402	-0.1
212.873	1.3
213.345	-8.7
213.817	-15
214.288	-2.2
214.76	-6.8
215.232	-1.2
215.703	3.4
216.175	-0.4
216.646	0.4
217.118	-9.7
217.589	-1.3
218.061	2.4
218.532	-6.8
219.004	-0.2
219.475	0.4
219.946	-0.7
220.418	-5.8
220.889	0.7
221.36	1.1
221.832	-5.2
222.303	-6.1
222.774	1.8
223.245	-6.1
223.717	-3.1
224.188	-3.3
224.659	-3.1
225.13	-3.2
225.601	-3.3
226.072	5.7
226.543	1.7
227.014	3.5
227.485	-1
227.956	0.1
228.427	-7.8
228.898	2.7
229.369	-1.9
229.839	-2.8
230.31	-3.9
230.781	4.6
231.252	-4.5
231.722	-1.8
232.193	-3.5
232.664	-1.9
233.135	3.5
233.605	-2.7
234.076	-6.1
234.546	-2.7
235.017	6.1
235.487	0.4
235.958	-0.3
236.428	-0.9
236.899	0.7
237.369	4.2
237.84	-3.6
238.31	1
238.78	4.5
239.251	0.3
239.721	0.4
240.191	4.7
240.662	0.6
241.132	0.3
241.602	2.6
242.072	4.2
242.542	4.1
243.013	-1.9
243.483	4.2
243.953	4.7
244.423	0.2
244.893	-2.1
245.363	3.3
245.833	3.3
246.303	0.7
246.773	10.3
247.243	5.6
247.712	1.6
248.182	13.2
248.652	2.8
249.122	-2.8
249.592	10.8
250.061	21
250.531	27.7
251.001	11.4
251.471	15.2
251.94	20.1
252.41	6.4
252.879	-0.6
253.349	13.4
253.818	12.3
254.288	2.9
254.757	2.8
255.227	3.3
255.696	5.8
256.166	8.1
256.635	6.7
257.105	10.1
257.574	6.7
258.043	9.2
258.513	11
258.982	14.9
259.451	6.4
259.92	12.2
260.389	7.4
260.859	13.9
261.328	11.7
261.797	17.3
262.266	6.7
262.735	13.5
263.204	5.2
263.673	7.7
264.142	4.9
264.611	-2.6
265.08	6.2
265.549	0.9
266.018	7.1
266.487	-0.8
266.955	0.7
267.424	-1.3
267.893	8
268.362	1.4
268.83	2.4
269.299	11.8
269.768	5.2
270.236	6.4
270.705	6.5
271.174	8.7
271.642	12.2
272.111	12.1
272.579	15.1
273.048	24.4
273.516	25.7
273.985	21.8
274.453	20.5
274.922	19.4
275.39	7.9
275.858	1.1
276.327	7.5
276.795	15.7
277.263	8.7
277.731	25.2
278.2	54.2
278.668	53.6
279.136	41.9
279.604	15
280.072	13.6
280.54	11.6
281.008	10.8
281.477	10.8
281.945	12.4
282.413	10
282.881	16.2
283.348	5.9
283.816	15.6
284.284	15.8
284.752	19.6
285.22	8.8
285.688	16.2
286.156	20.5
286.623	46.7
287.091	48.7
287.559	23.9
288.026	17
288.494	15.5
288.962	10.1
289.429	15.6
289.897	15.1
290.364	12.8
290.832	15.6
291.3	16.2
291.767	21.5
292.234	18.5
292.702	7.8
293.169	12.9
293.637	22.3
294.104	17.5
294.571	5.7
295.039	7.4
295.506	12.1
295.973	17
296.44	13.2
296.908	18
297.375	18.4
297.842	19.7
298.309	16.4
298.776	7.4
299.243	22.2
299.71	11.2
300.177	20.8
300.644	18.8
301.111	23.8
301.578	20.1
302.045	13.9
302.512	24.7
302.979	27.2
303.446	24.7
303.913	19.7
304.379	16.5
304.846	23.2
305.313	23.9
305.78	15.7
306.246	19.9
306.713	21.1
307.18	22.3
307.646	24.4
308.113	25.9
308.579	25.6
309.046	21.6
309.512	26.5
309.979	13
310.445	26.9
310.912	25.5
311.378	24.8
311.845	29.4
312.311	26.6
312.777	28.5
313.244	28.2
313.71	35.2
314.176	26
314.642	27.9
315.109	28.6
315.575	32.4
316.041	38.9
316.507	28.6
316.973	39.4
317.439	29.1
317.905	27.9
318.371	31.9
318.837	31.5
319.303	28.9
319.769	26.9
320.235	32.3
320.701	34.3
321.167	34.2
321.633	37.3
322.099	40.3
322.564	40
323.03	38.9
323.496	37
323.962	37.5
324.427	36.8
324.893	38.4
325.359	30.1
325.824	37.9
326.29	31.5
326.755	38.7
327.221	42.3
327.686	40.8
328.152	41.6
328.617	38.8
329.083	43
329.548	43.2
330.014	41.3
330.479	38.9
330.944	38.5
331.41	38.6
331.875	41.6
332.34	39.4
332.805	37.6
333.271	41.1
333.736	40.4
334.201	45.6
334.666	50.8
335.131	47.5
335.596	45.6
336.061	47.9
336.526	35.6
336.991	44.5
337.456	52
337.921	44.4
338.386	44.5
338.851	37.9
339.316	39.2
339.781	44.8
340.246	50.3
340.711	45.5
341.175	48.3
341.64	42.7
342.105	40.5
342.569	53.2
343.034	57.9
343.499	55
343.963	50.2
344.428	58.7
344.893	62.3
345.357	59.3
345.822	53.6
346.286	62.1
346.751	59.9
347.215	68.8
347.679	58.9
348.144	83.1
348.608	72.4
349.073	65
349.537	68.5
350.001	76.5
350.465	86.5
350.93	78.6
351.394	72.1
351.858	66.1
352.322	79.5
352.786	79.1
353.25	94.5
353.715	99.8
354.179	93
354.643	110.9
355.107	112
355.571	103
356.035	94.6
356.498	106.4
356.962	116
357.426	116
357.89	112.4
358.354	87.7
358.818	78.5
359.281	69.1
359.745	71.8
360.209	78.4
360.673	71.2
361.136	70.2
361.6	79.9
362.064	80.6
362.527	76.2
362.991	87.3
363.454	74.6
363.918	75.7
364.381	72.9
364.845	79.6
365.308	79.6
365.772	76.6
366.235	80.5
366.698	79.4
367.162	88.1
367.625	74.7
368.088	83.4
368.552	80.7
369.015	82.5
369.478	89.9
369.941	97
370.404	87.3
370.867	96.7
371.331	97.4
371.794	103.2
372.257	105.1
372.72	115.1
373.183	110.6
373.646	100.8
374.109	95.2
374.572	101.9
375.035	104.9
375.497	104.4
375.96	103.3
376.423	99.1
376.886	102.6
377.349	105.4
377.811	94.8
378.274	105.1
378.737	100.9
379.199	106
379.662	105.9
380.125	111
380.587	110
381.05	113
381.512	121.6
381.975	123.8
382.437	127.5
382.9	117.5
383.362	128.9
383.825	139.3
384.287	147
384.75	137
385.212	136.2
385.674	144.4
386.136	134.8
386.599	128.1
387.061	129
387.523	128.9
387.985	119.5
388.447	137.7
388.91	138.3
389.372	148.2
389.834	154.1
390.296	134.9
390.758	152.4
391.22	156.3
391.682	200
392.144	286
392.606	216.9
393.068	162.4
393.529	162.7
393.991	153.9
394.453	143.2
394.915	153.8
395.377	189.7
395.838	203.1
396.3	150.8
396.762	146.1
397.224	123.5
397.685	124.2
398.147	127.7
398.608	130.4
399.07	125.3
399.531	127.7
399.993	136.2
400.454	153.1
400.916	140.5
401.377	141.6
401.839	144.3
402.3	141.7
402.762	163.8
403.223	168.3
403.684	166.9
404.145	153.8
404.607	149.7
405.068	161.1
405.529	159.7
405.99	172.5
406.451	171.5
406.913	166
407.374	159.4
407.835	153.7
408.296	160.8
408.757	170.2
409.218	187.8
409.679	178.5
410.14	171.4
410.601	172.8
411.062	174.5
411.522	187.7
411.983	188.5
412.444	172.2
412.905	174.5
413.366	176
413.826	193.7
414.287	218
414.748	253.6
415.208	244.7
415.669	210.5
416.13	198.7
416.59	199.7
417.051	206.3
417.511	216.2
417.972	235.7
418.432	248.3
418.893	282.8
419.353	244
419.814	191.8
420.274	186.3
420.734	181
421.195	193.2
421.655	187.5
422.115	186.7
422.576	187.4
423.036	202.6
423.496	206.9
423.956	213.3
424.416	232.7
424.876	260.1
425.336	257.6
425.797	251.1
426.257	244.5
426.717	232.7
427.177	228.4
427.637	220.5
428.097	227.9
428.556	240.1
429.016	267.8
429.476	261.4
429.936	276.6
430.396	269.1
430.856	293.1
431.315	308
431.775	342.3
432.235	372.9
432.694	346.5
433.154	356.6
433.614	379.5
434.073	329.4
434.533	280.7
434.993	267.3
435.452	276.3
435.912	284.8
436.371	278.8
436.83	279.3
437.29	270.2
437.749	241.2
438.209	242.9
438.668	269.1
439.127	281.4
439.587	262.3
440.046	243.4
440.505	251.1
440.964	271.7
441.424	302.6
441.883	302.4
442.342	254.2
442.801	218.4
443.26	214.3
443.719	218.5
444.178	214.5
444.637	202.1
445.096	214.9
445.555	223.9
446.014	216.3
446.473	219.1
446.932	230
447.391	228.3
447.849	225.8
448.308	218.9
448.767	218.5
449.226	226.1
449.685	233.4
450.143	243.9
450.602	237.5
451.061	224.8
451.519	237.6
451.978	230.8
452.436	233.2
452.895	236.3
453.353	250.1
453.812	240.1
454.27	233.5
454.729	240.6
455.187	225.2
455.646	239.6
456.104	244.7
456.562	251.3
457.021	265.8
457.479	250.1
457.937	263.7
458.395	257.9
458.854	248.1
459.312	249.1
459.77	274.2
460.228	255.6
460.686	240.7
461.144	244.6
461.602	242.1
462.06	248
462.518	257.2
462.976	259
463.434	251.4
463.892	253.1
464.35	273.4
464.808	286.6
465.266	265.2
465.724	265.6
466.181	268.7
466.639	266.9
467.097	289.6
467.555	297.2
468.012	297.5
468.47	305.2
468.928	323.5
469.385	335.5
469.843	345.5
470.3	345.2
470.758	359.6
471.215	380.9
471.673	395.9
472.13	405.1
472.588	418.1
473.045	368.1
473.503	383.1
473.96	386.7
474.417	400.6
474.875	422.6
475.332	467.4
475.789	448.9
476.246	459.3
476.704	486.3
477.161	505.1
477.618	515.6
478.075	557.3
478.532	606.2
478.989	683
479.446	788.3
479.903	762.4
480.36	802.9
480.817	858.3
481.274	955.6
481.731	1046.6
482.188	1154.8
482.645	1288.3
483.102	1381.2
483.558	1496.2
484.015	1559.6
484.472	1524.2
484.929	1478.6
485.385	1440.9
485.842	1410.8
486.299	1339.9
486.755	1259.7
487.212	1068.8
487.668	913.8
488.125	837.9
488.582	768.8
489.038	734.6
489.494	701.1
489.951	670.5
490.407	661.5
490.864	636.8
491.32	632.2
491.776	645.7
492.233	649
492.689	603.2
493.145	597.3
493.602	594.4
494.058	609.9
494.514	604
494.97	629.1
495.426	645.1
495.882	618.1
496.338	613.7
496.794	621.1
497.251	613.3
497.707	627.3
498.163	629.9
498.618	631.3
499.074	624.4
499.53	664.6
499.986	683.8
500.442	648.4
500.898	626.5
501.354	618
501.809	634.4
502.265	649.6
502.721	652.5
503.177	674.4
503.632	666.6
504.088	677
504.543	702.3
504.999	704.6
505.455	643.1
505.91	626
506.366	626.6
506.821	626.5
507.277	619.2
507.732	621
508.187	621.3
508.643	626.9
509.098	631.8
509.553	656.4
510.009	661.9
510.464	657.3
510.919	678.5
511.375	692.1
511.83	705.1
512.285	710.7
512.74	762.6
513.195	778.2
513.65	763.1
514.105	772.8
514.56	776.7
515.015	785.8
515.47	797.8
515.925	786.8
516.38	778.6
516.835	791
517.29	777.2
517.745	770.9
518.2	760.1
518.655	747.9
519.109	742.4
519.564	728.9
520.019	715
520.474	714.8
520.928	722
521.383	715.2
521.838	706.7
522.292	703.8
522.747	711.1
523.201	702
523.656	698.6
524.11	697.1
524.565	690.5
525.019	692.8
525.474	694.3
525.928	693.1
526.382	690
526.837	689.3
527.291	691.5
527.745	689.4
528.2	690.7
528.654	691.1
529.108	694.4
529.562	686
530.016	687.4
530.47	698.3
530.925	684.2
531.379	687.8
531.833	693.5
532.287	695.5
532.741	698.9
533.195	700.8
533.649	707.3
534.103	722.4
534.556	703.8
535.01	700.6
535.464	707.1
535.918	710
536.372	720.1
536.826	716
537.279	700.1
537.733	706.4
538.187	711.6
538.64	717.7
539.094	717.9
539.548	731.5
540.001	712.4
540.455	724
540.908	724.8
541.362	745.9
541.815	746.8
542.269	760
542.722	760.1
543.175	760.3
543.629	773.1
544.082	782.5
544.536	787.2
544.989	785.8
545.442	791
545.895	784.8
546.349	789.6
546.802	785.5
547.255	792.6
547.708	805.6
548.161	819.7
548.614	818.4
549.067	829.1
549.52	810.7
549.973	806
550.426	801.9
550.879	790.9
551.332	799.3
551.785	806.3
552.238	804.5
552.691	814.1
553.144	835.9
553.596	850.7
554.049	860.1
554.502	894
554.955	911.4
555.407	907.3
555.86	891.9
556.313	886.7
556.765	887.4
557.218	888.2
557.67	878
558.123	874.3
558.576	875.4
559.028	873.8
559.48	877.8
559.933	877.9
560.385	838.2
560.838	816.4
561.29	776.8
561.742	765.9
562.195	766.4
562.647	759.3
563.099	773.5
563.551	769.6
564.004	787.1
564.456	772.9
564.908	765.3
565.36	743.3
565.812	735.5
566.264	720
566.716	724.6
567.168	724.5
567.62	720.4
568.072	704.2
568.524	693.6
568.976	679.1
569.428	675.1
569.88	682.8
570.332	684
570.784	685.4
571.235	691
571.687	697.1
572.139	704.2
572.59	710.9
573.042	715.8
573.494	716.7
573.945	706
574.397	694.9
574.849	705.9
575.3	692.7
575.752	673.2
576.203	673.3
576.655	684.9
577.106	669.8
577.557	677.5
578.009	664.8
578.46	666.1
578.912	658
579.363	673.6
579.814	658.2
580.265	669.3
580.717	667.6
581.168	666.6
581.619	672.7
582.07	686.5
582.521	685.9
582.972	677.7
583.423	678.4
583.875	692.3
584.326	704.8
584.777	746.4
585.227	813.5
585.678	912
586.129	978.7
586.58	1041
587.031	1134.9
587.482	1270.1
587.933	1439.4
588.384	1260.4
588.834	954.9
589.285	800.4
589.736	793.1
590.186	781.8
590.637	766.4
591.088	746.3
591.538	745.6
591.989	726.8
592.439	726.8
592.89	730.7
593.34	717.3
593.791	723.9
594.241	703.7
594.692	713.6
595.142	711.2
595.593	703.6
596.043	701.6
596.493	720.7
596.943	729.3
597.394	728
597.844	721.1
598.294	735.7
598.744	752.5
599.195	780.9
599.645	825.2
600.095	860.4
600.545	937.8
600.995	981.4
601.445	1035.2
601.895	1092.3
602.345	1143.6
602.795	1113.8
603.245	1067.9
603.695	1007.1
604.145	960.2
604.594	913.5
605.044	857.6
605.494	794.9
605.944	751.1
606.393	742.3
606.843	736.6
607.293	741.1
607.743	737.9
608.192	753.4
608.642	769.3
609.091	771.5
609.541	774.4
609.99	772
610.44	765.4
610.889	725.9
611.339	706.9
611.788	702.8
612.238	703.1
612.687	717.4
613.136	722.4
613.586	741
614.035	737.9
614.484	765.3
614.933	757.5
615.383	747.6
615.832	738.7
616.281	728.8
616.73	697.8
617.179	669.7
617.628	659.6
618.077	636.8
618.526	633.1
618.975	626.9
619.424	625.3
619.873	619.9
620.322	626.6
620.771	611.9
621.22	611.6
621.669	593.1
622.118	590.7
622.567	576.5
623.015	569.5
623.464	569.8
623.913	558.2
624.361	557.7
624.81	559.7
625.259	564.1
625.707	563
626.156	548.3
626.604	577
627.053	564.1
627.501	575.1
627.95	570.2
628.398	579
628.847	575
629.295	579.5
629.744	579.1
630.192	561.2
630.64	576.3
631.089	570.7
631.537	592.9
631.985	600.4
632.433	601
632.881	610.5
633.33	668.6
633.778	643.7
634.226	574.2
634.674	574.7
635.122	589.5
635.57	594.6
636.018	633.9
636.466	587.2
636.914	562.3
637.362	577.6
637.81	575.7
638.258	592
638.705	585
639.153	613.6
639.601	622
640.049	640.6
640.497	680.5
640.944	692.3
641.392	649.1
641.84	611.6
642.287	588.1
642.735	577.9
643.182	581.3
643.63	575.5
644.078	573.7
644.525	596.7
644.973	601.2
645.42	605.3
645.867	624.8
646.315	641.7
646.762	671.7
647.21	691.2
647.657	717.9
648.104	753.6
648.551	776
648.999	846.3
649.446	917.8
649.893	1015
650.34	1170.3
650.787	1395.1
651.234	1736.4
651.682	2257
652.129	3102.5
652.576	4491.4
653.023	6605.1
653.47	9023.2
653.917	11203.9
654.363	12859.4
654.81	14177.7
655.257	13478.4
655.704	8826.9
656.151	5242.2
656.598	3391.8
657.044	2414.4
657.491	1853.7
657.938	1495.4
658.385	1233.9
658.831	1076.1
659.278	964.8
659.724	867.6
660.171	793.1
660.618	727.7
661.064	690.6
661.511	672.4
661.957	655.2
662.404	643.4
662.85	652.7
663.296	623.5
663.743	567
664.189	535.4
664.635	537
665.082	537.9
665.528	533.9
665.974	524.6
666.42	511.6
666.867	502.1
667.313	488.8
667.759	482.6
668.205	481.9
668.651	489.3
669.097	488.6
669.543	495.9
669.989	473.5
670.435	447.3
670.881	444.8
671.327	449.8
671.773	471.6
672.219	500.3
672.665	555.9
673.11	587.9
673.556	636.2
674.002	664.8
674.448	656.8
674.893	558.5
675.339	477.1
675.785	441.4
676.23	427.4
676.676	396
677.122	385.9
677.567	373.3
678.013	362
678.458	363.4
678.904	357.4
679.349	346.6
679.794	356.5
680.24	352.9
680.685	354.8
681.131	349.1
681.576	352.3
682.021	357.2
682.466	341.2
682.912	346
683.357	358.6
683.802	387.4
684.247	416.8
684.692	462.2
685.137	488.9
685.583	545.1
686.028	561.3
686.473	523.5
686.918	448.4
687.363	423.5
687.807	391.5
688.252	368.5
688.697	356.2
689.142	338.3
689.587	338.3
690.032	332.3
690.477	345
690.921	355.2
691.366	389.4
691.811	411.7
692.255	427.8
692.7	462
693.145	508.8
693.589	719.4
694.034	1161.2
694.478	1557.8
694.923	1750.2
695.367	2267.6
695.812	1196.2
696.256	502.9
696.701	379.2
697.145	345
697.59	332.7
698.034	325
698.478	335
698.922	330.5
699.367	324.9
699.811	339.8
700.255	352.8
700.699	394.4
701.143	436.3
701.588	487.5
702.032	511
702.476	514.8
702.92	485.1
703.364	496.7
703.808	644.5
704.252	1055.8
704.696	1475.1
705.14	1672.1
705.584	2123.2
706.027	1052.8
706.471	528.4
706.915	400.4
707.359	354.2
707.803	317.9
708.246	311.6
708.69	318.7
709.134	317.4
709.577	319.4
710.021	318.4
710.465	309.7
710.908	307.7
711.352	298.5
711.795	313.6
712.239	354.7
712.682	392
713.126	420.3
713.569	469.8
714.012	369.3
714.456	327.5
714.899	300.7
715.342	285.1
715.786	267.9
716.229	256.1
716.672	262.3
717.115	251.6
717.558	260.3
718.002	248.9
718.445	266.1
718.888	290.2
719.331	293.7
719.774	312.7
720.217	309.4
720.66	290.9
721.103	268.1
721.546	253.3
721.989	256.8
722.432	232.5
722.874	242.4
723.317	235.6
723.76	243.1
724.203	263.8
724.645	325.6
725.088	446.2
725.531	571.8
725.974	644.3
726.416	550.7
726.859	313.8
727.301	255.6
727.744	245.4
728.187	237.9
728.629	246.1
729.071	243.4
729.514	261
729.956	272.7
730.399	286.2
730.841	293.6
731.283	275.1
731.726	266.7
732.168	264.6
732.61	270.6
733.053	293.3
733.495	318.9
733.937	359.8
734.379	405.9
734.821	438.3
735.263	555.2
735.705	867
736.148	1611
736.59	2609.1
737.032	3041.5
737.474	2486.9
737.916	815.4
738.357	439.9
738.799	332.9
739.241	303.4
739.683	286
740.125	289.9
740.567	301.4
741.008	318.6
741.45	322.4
741.892	316.8
742.334	355.4
742.775	366.6
743.217	347.4
743.658	274
744.1	256.8
744.542	268.2
744.983	316.8
745.425	346.2
745.866	338.9
746.307	286
746.749	285.3
747.19	326.7
747.632	461.2
748.073	912.4
748.514	1905.5
748.956	2879
749.397	3590.1
749.838	2997
750.279	2943.9
750.72	1492.9
751.162	549.8
751.603	331.2
752.044	257.5
752.485	220
752.926	213.1
753.367	205.6
753.808	195.9
754.249	192.1
754.69	189.8
755.131	185.8
755.572	181.9
756.013	190.8
756.453	190.1
756.894	185.3
757.335	199.9
757.776	197.8
758.216	199.7
758.657	198
759.098	202
759.538	231
759.979	274.3
760.42	383.9
760.86	723
761.301	1875.1
761.741	4487.5
762.182	6400.7
762.622	4518.7
763.063	1311.5
763.503	544.8
763.943	350.5
764.384	336.8
764.824	388.1
765.264	407.6
765.705	299.6
766.145	210.6
766.585	185.4
767.025	177.9
767.465	193.4
767.906	233.2
768.346	305.7
768.786	331.7
769.226	265.2
769.666	324.6
770.106	640.6
770.546	1587.4
770.986	2648.3
771.426	2365.8
771.866	793.5
772.306	334.3
772.745	216
773.185	176.4
773.625	169.3
774.065	173
774.505	199.1
774.944	310.1
775.384	659.3
775.824	1164.7
776.263	1121.4
776.703	493
777.142	225.1
777.582	155.2
778.021	138.5
778.461	141.2
778.9	139.7
779.34	133.1
779.779	124.9
780.219	108.4
780.658	110.4
781.097	114.1
781.537	113.4
781.976	108
782.415	112.3
782.855	115.4
783.294	105.9
783.733	107.4
784.172	111.4
784.611	108.3
785.05	106.5
785.489	109.9
785.928	115.9
786.367	126.7
786.806	125.1
787.245	132.2
787.684	144.5
788.123	157.7
788.562	134.6
789.001	128.2
789.44	123.6
789.879	115.1
790.317	120
790.756	129.5
791.195	137.5
791.634	155
792.072	221.2
792.511	377.5
792.95	1039.2
793.388	2156.6
793.827	1924.3
794.265	681.9
794.704	286
795.142	184.8
795.581	155
796.019	142.4
796.458	136.1
796.896	124.4
797.334	130.9
797.773	163.7
798.211	219.2
798.649	452.1
799.087	1039.7
799.526	1611
799.964	2045.4
800.402	1989.7
800.84	753.2
801.278	311.6
801.716	185.3
802.154	152.1
802.592	150.5
803.03	140.8
803.468	145.9
803.906	148.3
804.344	155.2
804.782	141.5
805.22	136.9
805.658	128.8
806.096	154.1
806.533	157.4
806.971	179.3
