Data from 20171114-ORNL-Ar_H_NY_Subt18_08-06-49-669.txt Node
Date: Tue Nov 14 08:06:49 EST 2017
User: Ender
Spectrometer: HR+D1039
Trigger mode: 0
Integration Time (sec): 2.730000E-2
Scans to average: 10
Electric dark correction enabled: true
Nonlinearity correction enabled: false
Boxcar width: 0
XAxis mode: Wavelengths
Number of Pixels in Spectrum: 2048
>>>>>Begin Spectral Data<<<<<
187.836	-2.96
188.309	-2.96
188.782	-2.96
189.255	0.34
189.728	-1.86
190.201	4.44
190.674	1.64
191.147	4.64
191.619	-8.06
192.092	-3.96
192.565	3.14
193.038	0.04
193.511	4.24
193.984	6.64
194.456	-2.26
194.929	3.04
195.402	-3.26
195.874	-5.86
196.347	1.14
196.82	-7.56
197.292	7.34
197.765	-3.66
198.237	-6.86
198.71	2.04
199.182	-7.86
199.655	3.54
200.127	2.44
200.6	0.54
201.072	-5.16
201.544	-3.86
202.017	-2.56
202.489	2.14
202.961	-1.36
203.433	-4.86
203.906	-3.36
204.378	-6.36
204.85	-3.66
205.322	-7.06
205.794	-6.66
206.266	-6.46
206.739	-4.36
207.211	2.04
207.683	-10.16
208.155	-4.36
208.627	-6.76
209.099	-4.56
209.57	-13.16
210.042	-7.26
210.514	-1.66
210.986	-6.86
211.458	-11.66
211.93	-3.86
212.402	-1.56
212.873	-1.26
213.345	-8.46
213.817	-12.36
214.288	-3.76
214.76	-6.86
215.232	-3.76
215.703	1.24
216.175	-3.46
216.646	-9.86
217.118	-9.26
217.589	-1.56
218.061	-0.26
218.532	-2.56
219.004	-3.56
219.475	-5.66
219.946	0.84
220.418	-7.26
220.889	-3.66
221.36	-0.96
221.832	-10.46
222.303	-6.96
222.774	2.34
223.245	-13.06
223.717	-6.46
224.188	-6.26
224.659	-7.16
225.13	-13.56
225.601	-7.26
226.072	0.34
226.543	-2.66
227.014	-1.76
227.485	-2.46
227.956	-5.96
228.427	-9.16
228.898	-7.16
229.369	-1.66
229.839	-1.96
230.31	-10.16
230.781	0.64
231.252	-4.96
231.722	-9.36
232.193	-3.46
232.664	1.14
233.135	-1.56
233.605	-5.06
234.076	-5.36
234.546	0.44
235.017	1.34
235.487	-2.96
235.958	-2.76
236.428	-11.06
236.899	-3.16
237.369	-2.96
237.84	-8.06
238.31	-1.16
238.78	-6.06
239.251	-5.26
239.721	-3.66
240.191	0.34
240.662	-8.26
241.132	-0.56
241.602	-6.86
242.072	-6.26
242.542	3.94
243.013	-4.86
243.483	3.84
243.953	-0.26
244.423	-4.96
244.893	-10.86
245.363	1.64
245.833	-0.86
246.303	-4.06
246.773	4.34
247.243	-0.66
247.712	1.94
248.182	-0.96
248.652	5.24
249.122	-8.86
249.592	-0.16
250.061	7.14
250.531	10.44
251.001	0.94
251.471	5.94
251.94	17.44
252.41	-4.66
252.879	-4.86
253.349	6.44
253.818	5.94
254.288	5.14
254.757	-1.06
255.227	0.14
255.696	1.94
256.166	2.04
256.635	-0.46
257.105	5.74
257.574	3.34
258.043	1.24
258.513	1.54
258.982	7.84
259.451	3.54
259.92	4.94
260.389	4.84
260.859	6.64
261.328	3.84
261.797	6.54
262.266	-0.56
262.735	6.64
263.204	3.94
263.673	-2.56
264.142	2.14
264.611	-4.46
265.08	-3.36
265.549	0.14
266.018	-1.16
266.487	-3.16
266.955	-0.86
267.424	-5.16
267.893	2.94
268.362	-3.06
268.83	-1.86
269.299	8.34
269.768	4.04
270.236	-1.96
270.705	0.04
271.174	4.64
271.642	2.44
272.111	1.64
272.579	5.64
273.048	7.24
273.516	2.84
273.985	8.34
274.453	4.84
274.922	9.24
275.39	2.54
275.858	-0.66
276.327	7.94
276.795	16.74
277.263	5.64
277.731	15.44
278.2	19.44
278.668	22.44
279.136	14.04
279.604	7.34
280.072	8.04
280.54	8.94
281.008	5.84
281.477	5.94
281.945	13.94
282.413	15.54
282.881	10.54
283.348	4.34
283.816	9.84
284.284	17.84
284.752	12.34
285.22	17.04
285.688	12.84
286.156	7.24
286.623	16.34
287.091	16.64
287.559	13.04
288.026	15.74
288.494	10.34
288.962	8.64
289.429	4.54
289.897	8.24
290.364	9.14
290.832	17.44
291.3	11.64
291.767	15.34
292.234	15.64
292.702	15.24
293.169	13.94
293.637	13.94
294.104	19.84
294.571	11.74
295.039	13.64
295.506	15.14
295.973	7.64
296.44	9.74
296.908	14.24
297.375	13.64
297.842	15.84
298.309	13.44
298.776	9.84
299.243	14.94
299.71	9.54
300.177	17.34
300.644	17.84
301.111	13.24
301.578	21.54
302.045	10.24
302.512	19.44
302.979	17.54
303.446	21.84
303.913	15.14
304.379	18.34
304.846	25.44
305.313	19.64
305.78	15.34
306.246	18.24
306.713	23.24
307.18	22.94
307.646	19.14
308.113	23.54
308.579	20.94
309.046	23.44
309.512	28.14
309.979	17.44
310.445	20.44
310.912	21.14
311.378	28.04
311.845	24.74
312.311	25.64
312.777	30.34
313.244	27.14
313.71	30.84
314.176	26.14
314.642	23.74
315.109	21.24
315.575	31.74
316.041	37.54
316.507	25.84
316.973	27.34
317.439	26.44
317.905	32.84
318.371	34.04
318.837	27.54
319.303	29.84
319.769	32.84
320.235	25.74
320.701	29.74
321.167	30.64
321.633	27.84
322.099	28.54
322.564	36.44
323.03	36.54
323.496	40.34
323.962	31.64
324.427	34.34
324.893	36.84
325.359	37.84
325.824	36.34
326.29	30.94
326.755	35.94
327.221	35.04
327.686	36.64
328.152	41.44
328.617	36.54
329.083	38.44
329.548	52.34
330.014	54.34
330.479	34.34
330.944	42.24
331.41	36.74
331.875	38.44
332.34	33.14
332.805	38.04
333.271	36.24
333.736	33.64
334.201	50.54
334.666	51.84
335.131	56.24
335.596	46.64
336.061	43.64
336.526	40.54
336.991	50.34
337.456	56.04
337.921	43.14
338.386	41.14
338.851	41.94
339.316	41.84
339.781	46.64
340.246	48.94
340.711	41.04
341.175	48.84
341.64	43.14
342.105	51.64
342.569	52.44
343.034	58.24
343.499	49.74
343.963	47.94
344.428	59.54
344.893	60.04
345.357	59.14
345.822	57.04
346.286	62.34
346.751	62.64
347.215	62.84
347.679	57.74
348.144	87.04
348.608	77.74
349.073	60.84
349.537	62.04
350.001	71.54
350.465	84.14
350.93	73.24
351.394	79.54
351.858	65.14
352.322	84.54
352.786	79.44
353.25	93.84
353.715	98.14
354.179	91.04
354.643	106.74
355.107	107.24
355.571	93.74
356.035	93.54
356.498	110.84
356.962	107.84
357.426	120.04
357.89	106.34
358.354	86.54
358.818	79.04
359.281	80.44
359.745	79.54
360.209	75.34
360.673	66.74
361.136	73.64
361.6	77.04
362.064	80.64
362.527	72.84
362.991	86.44
363.454	81.04
363.918	74.24
364.381	74.14
364.845	82.34
365.308	83.14
365.772	84.94
366.235	83.34
366.698	73.64
367.162	91.04
367.625	78.14
368.088	85.54
368.552	83.04
369.015	87.04
369.478	84.64
369.941	93.54
370.404	86.64
370.867	95.14
371.331	100.24
371.794	105.64
372.257	101.14
372.72	101.94
373.183	95.94
373.646	92.14
374.109	86.54
374.572	92.24
375.035	101.34
375.497	103.64
375.96	100.94
376.423	97.44
376.886	101.34
377.349	102.64
377.811	93.24
378.274	102.94
378.737	104.54
379.199	102.54
379.662	105.34
380.125	109.34
380.587	104.34
381.05	107.54
381.512	117.74
381.975	124.84
382.437	122.14
382.9	117.34
383.362	123.84
383.825	131.64
384.287	126.04
384.75	118.04
385.212	126.84
385.674	126.94
386.136	136.94
386.599	118.74
387.061	127.54
387.523	120.54
387.985	128.34
388.447	130.34
388.91	128.44
389.372	141.94
389.834	136.84
390.296	128.64
390.758	132.74
391.22	143.14
391.682	157.64
392.144	193.74
392.606	160.84
393.068	142.04
393.529	158.54
393.991	141.44
394.453	134.74
394.915	136.84
395.377	148.24
395.838	159.94
396.3	139.74
396.762	142.74
397.224	138.34
397.685	139.74
398.147	132.14
398.608	129.94
399.07	129.84
399.531	137.14
399.993	145.14
400.454	158.04
400.916	148.64
401.377	148.44
401.839	150.44
402.3	151.54
402.762	164.94
403.223	172.84
403.684	166.74
404.145	165.44
404.607	159.14
405.068	161.44
405.529	173.04
405.99	195.64
406.451	177.44
406.913	174.14
407.374	163.64
407.835	164.94
408.296	171.94
408.757	169.14
409.218	184.14
409.679	178.54
410.14	171.34
410.601	174.84
411.062	182.54
411.522	186.44
411.983	181.74
412.444	180.44
412.905	183.24
413.366	184.64
413.826	201.04
414.287	219.94
414.748	274.74
415.208	258.54
415.669	222.14
416.13	215.34
416.59	210.24
417.051	219.74
417.511	223.64
417.972	244.64
418.432	260.04
418.893	298.34
419.353	257.74
419.814	205.74
420.274	186.84
420.734	181.04
421.195	210.14
421.655	201.34
422.115	197.64
422.576	201.54
423.036	204.24
423.496	209.34
423.956	221.24
424.416	235.64
424.876	274.24
425.336	264.04
425.797	273.54
426.257	256.34
426.717	247.24
427.177	239.24
427.637	231.44
428.097	241.74
428.556	245.34
429.016	276.14
429.476	270.94
429.936	276.94
430.396	281.74
430.856	303.54
431.315	311.14
431.775	352.34
432.235	379.14
432.694	350.74
433.154	363.14
433.614	395.44
434.073	337.94
434.533	287.74
434.993	279.34
435.452	290.14
435.912	299.84
436.371	297.54
436.83	288.34
437.29	271.64
437.749	254.44
438.209	250.84
438.668	275.44
439.127	293.94
439.587	273.04
440.046	257.64
440.505	262.14
440.964	282.34
441.424	331.94
441.883	320.34
442.342	273.54
442.801	239.44
443.26	232.84
443.719	230.94
444.178	222.64
444.637	217.54
445.096	228.54
445.555	236.84
446.014	236.94
446.473	234.74
446.932	240.34
447.391	233.64
447.849	241.24
448.308	232.04
448.767	237.54
449.226	254.34
449.685	251.04
450.143	259.04
450.602	248.94
451.061	232.64
451.519	242.94
451.978	242.24
452.436	245.24
452.895	251.84
453.353	260.54
453.812	250.64
454.27	254.34
454.729	248.54
455.187	252.04
455.646	258.94
456.104	261.24
456.562	275.44
457.021	282.04
457.479	276.84
457.937	284.74
458.395	277.84
458.854	268.84
459.312	264.04
459.77	290.64
460.228	269.64
460.686	258.94
461.144	263.04
461.602	258.64
462.06	255.24
462.518	275.74
462.976	281.44
463.434	273.74
463.892	281.44
464.35	292.04
464.808	307.74
465.266	286.84
465.724	286.54
466.181	279.64
466.639	287.24
467.097	304.04
467.555	313.94
468.012	324.84
468.47	328.74
468.928	348.44
469.385	357.24
469.843	359.44
470.3	360.84
470.758	381.44
471.215	400.14
471.673	426.74
472.13	418.44
472.588	442.04
473.045	393.14
473.503	401.64
473.96	415.94
474.417	429.74
474.875	459.14
475.332	499.64
475.789	480.84
476.246	499.64
476.704	513.44
477.161	533.24
477.618	545.74
478.075	587.24
478.532	638.14
478.989	715.04
479.446	827.94
479.903	786.34
480.36	823.94
480.817	873.64
481.274	966.24
481.731	1052.24
482.188	1143.94
482.645	1279.34
483.102	1362.24
483.558	1491.44
484.015	1539.34
484.472	1504.24
484.929	1456.44
485.385	1431.14
485.842	1391.34
486.299	1347.24
486.755	1292.14
487.212	1102.24
487.668	935.74
488.125	869.94
488.582	800.94
489.038	769.44
489.494	731.64
489.951	714.64
490.407	688.94
490.864	676.14
491.32	667.94
491.776	666.94
492.233	678.24
492.689	636.64
493.145	635.34
493.602	626.84
494.058	639.74
494.514	644.54
494.97	671.44
495.426	681.24
495.882	656.24
496.338	646.14
496.794	653.94
497.251	652.64
497.707	660.74
498.163	662.04
498.618	667.34
499.074	679.44
499.53	697.24
499.986	709.84
500.442	676.34
500.898	648.64
501.354	650.84
501.809	654.74
502.265	660.54
502.721	672.04
503.177	683.84
503.632	683.74
504.088	695.14
504.543	722.54
504.999	728.84
505.455	683.54
505.91	666.24
506.366	664.44
506.821	667.94
507.277	654.64
507.732	671.44
508.187	671.54
508.643	683.54
509.098	684.94
509.553	700.34
510.009	705.54
510.464	702.44
510.919	732.84
511.375	735.14
511.83	749.34
512.285	765.24
512.74	799.24
513.195	824.74
513.65	803.24
514.105	803.84
514.56	816.64
515.015	836.94
515.47	843.54
515.925	826.84
516.38	828.24
516.835	831.34
517.29	825.24
517.745	817.44
518.2	808.04
518.655	794.84
519.109	787.14
519.564	790.64
520.019	780.64
520.474	761.74
520.928	763.04
521.383	765.04
521.838	754.94
522.292	752.14
522.747	749.24
523.201	749.44
523.656	739.24
524.11	732.54
524.565	740.74
525.019	738.44
525.474	734.14
525.928	740.04
526.382	734.74
526.837	732.84
527.291	737.64
527.745	737.44
528.2	747.14
528.654	727.64
529.108	728.34
529.562	732.14
530.016	727.54
530.47	724.04
530.925	734.24
531.379	737.54
531.833	749.04
532.287	742.54
532.741	740.04
533.195	743.14
533.649	755.34
534.103	768.74
534.556	746.34
535.01	747.04
535.464	746.14
535.918	751.24
536.372	757.54
536.826	751.34
537.279	744.44
537.733	743.84
538.187	760.94
538.64	759.14
539.094	758.94
539.548	765.04
540.001	766.54
540.455	770.24
540.908	767.14
541.362	778.84
541.815	792.94
542.269	801.74
542.722	792.14
543.175	804.84
543.629	810.24
544.082	829.64
544.536	830.84
544.989	832.84
545.442	829.94
545.895	840.44
546.349	827.34
546.802	837.74
547.255	845.84
547.708	856.44
548.161	861.84
548.614	863.84
549.067	884.24
549.52	868.64
549.973	855.34
550.426	862.34
550.879	854.14
551.332	850.14
551.785	861.64
552.238	859.64
552.691	861.94
553.144	878.74
553.596	900.24
554.049	919.84
554.502	943.24
554.955	964.74
555.407	960.24
555.86	956.64
556.313	943.64
556.765	935.04
557.218	930.24
557.67	935.04
558.123	939.44
558.576	928.64
559.028	932.84
559.48	942.64
559.933	929.04
560.385	894.44
560.838	860.54
561.29	829.64
561.742	841.04
562.195	822.54
562.647	815.24
563.099	826.54
563.551	827.04
564.004	829.14
564.456	820.74
564.908	796.54
565.36	788.14
565.812	769.44
566.264	764.84
566.716	760.74
567.168	744.84
567.62	758.34
568.072	733.04
568.524	728.84
568.976	735.04
569.428	713.54
569.88	718.04
570.332	719.24
570.784	723.64
571.235	727.64
571.687	729.74
572.139	742.44
572.59	754.14
573.042	759.44
573.494	747.24
573.945	748.64
574.397	726.14
574.849	734.54
575.3	737.64
575.752	723.84
576.203	720.04
576.655	723.24
577.106	711.04
577.557	700.14
578.009	718.44
578.46	706.94
578.912	704.64
579.363	695.94
579.814	702.14
580.265	710.44
580.717	699.64
581.168	710.04
581.619	717.04
582.07	720.14
582.521	720.94
582.972	705.34
583.423	705.94
583.875	719.94
584.326	721.04
584.777	751.14
585.227	768.34
585.678	809.04
586.129	836.44
586.58	876.64
587.031	911.94
587.482	969.64
587.933	1027.64
588.384	970.94
588.834	864.64
589.285	812.44
589.736	813.34
590.186	816.54
590.637	796.14
591.088	787.34
591.538	779.54
591.989	770.64
592.439	763.24
592.89	755.54
593.34	745.94
593.791	737.04
594.241	740.24
594.692	742.84
595.142	734.04
595.593	723.54
596.043	727.74
596.493	740.64
596.943	745.64
597.394	761.04
597.844	758.44
598.294	772.04
598.744	794.94
599.195	823.74
599.645	866.34
600.095	913.84
600.545	970.24
600.995	1020.44
601.445	1078.34
601.895	1135.94
602.345	1187.84
602.795	1169.34
603.245	1114.44
603.695	1066.74
604.145	1001.64
604.594	959.64
605.044	916.84
605.494	843.54
605.944	795.54
606.393	780.74
606.843	767.14
607.293	767.04
607.743	763.44
608.192	773.04
608.642	793.64
609.091	797.54
609.541	802.74
609.99	807.14
610.44	799.04
610.889	744.94
611.339	721.24
611.788	719.24
612.238	722.44
612.687	735.04
613.136	734.84
613.586	746.54
614.035	738.94
614.484	753.34
614.933	744.64
615.383	751.74
615.832	744.94
616.281	733.84
616.73	704.54
617.179	689.64
617.628	673.64
618.077	663.14
618.526	654.64
618.975	641.14
619.424	642.74
619.873	648.14
620.322	646.74
620.771	633.04
621.22	632.14
621.669	623.54
622.118	617.74
622.567	607.14
623.015	597.74
623.464	597.84
623.913	585.54
624.361	583.64
624.81	577.24
625.259	572.14
625.707	579.84
626.156	573.44
626.604	607.54
627.053	590.24
627.501	587.14
627.95	594.54
628.398	614.34
628.847	604.84
629.295	600.34
629.744	597.84
630.192	590.94
630.64	588.04
631.089	573.74
631.537	576.84
631.985	559.64
632.433	569.24
632.881	565.74
633.33	581.54
633.778	575.14
634.226	550.44
634.674	563.24
635.122	568.04
635.57	594.04
636.018	599.94
636.466	582.14
636.914	581.54
637.362	593.24
637.81	597.54
638.258	603.84
638.705	602.64
639.153	642.14
639.601	640.14
640.049	670.04
640.497	707.84
640.944	724.94
641.392	672.14
641.84	635.34
642.287	619.14
642.735	599.74
643.182	589.74
643.63	587.34
644.078	589.84
644.525	601.74
644.973	612.24
645.42	618.74
645.867	640.14
646.315	669.04
646.762	684.44
647.21	706.04
647.657	728.74
648.104	769.24
648.551	783.24
648.999	850.04
649.446	931.54
649.893	1007.94
650.34	1157.74
650.787	1375.94
651.234	1694.24
651.682	2191.34
652.129	2976.54
652.576	4221.54
653.023	6154.14
653.47	8380.84
653.917	10418.04
654.363	12001.54
654.81	13246.94
655.257	12576.04
655.704	8295.44
656.151	4984.04
656.598	3290.84
657.044	2351.44
657.491	1827.64
657.938	1470.04
658.385	1234.24
658.831	1092.54
659.278	966.14
659.724	859.44
660.171	799.74
660.618	728.54
661.064	705.64
661.511	673.64
661.957	675.94
662.404	659.64
662.85	670.54
663.296	642.04
663.743	578.04
664.189	555.24
664.635	552.54
665.082	542.34
665.528	539.94
665.974	543.34
666.42	529.54
666.867	527.44
667.313	508.14
667.759	485.64
668.205	468.64
668.651	469.44
669.097	468.84
669.543	462.84
669.989	465.54
670.435	464.94
670.881	470.54
671.327	467.04
671.773	489.94
672.219	514.74
672.665	581.74
673.11	619.84
673.556	664.74
674.002	699.54
674.448	686.64
674.893	577.74
675.339	501.04
675.785	456.94
676.23	433.74
676.676	414.94
677.122	403.44
677.567	390.04
678.013	378.14
678.458	375.94
678.904	380.64
679.349	371.54
679.794	376.24
680.24	370.84
680.685	369.94
681.131	357.44
681.576	368.14
682.021	370.74
682.466	354.54
682.912	374.24
683.357	369.94
683.802	395.44
684.247	423.84
684.692	479.04
685.137	520.74
685.583	557.34
686.028	593.84
686.473	547.34
686.918	469.54
687.363	431.04
687.807	418.14
688.252	395.34
688.697	369.24
689.142	346.74
689.587	344.04
690.032	339.94
690.477	365.84
690.921	367.24
691.366	395.34
691.811	427.34
692.255	450.54
692.7	479.44
693.145	529.64
693.589	740.44
694.034	1190.74
694.478	1620.04
694.923	1817.94
695.367	2379.74
695.812	1262.74
696.256	518.34
696.701	385.84
697.145	354.64
697.59	343.34
698.034	328.44
698.478	340.64
698.922	332.54
699.367	342.94
699.811	359.24
700.255	365.64
700.699	399.64
701.143	450.24
701.588	496.74
702.032	532.14
702.476	535.34
702.92	510.94
703.364	515.94
703.808	669.74
704.252	1087.54
704.696	1526.14
705.14	1763.74
705.584	2239.84
706.027	1116.84
706.471	554.84
706.915	415.34
707.359	379.74
707.803	335.64
708.246	319.74
708.69	328.84
709.134	319.94
709.577	332.94
710.021	330.04
710.465	317.74
710.908	312.74
711.352	308.54
711.795	321.14
712.239	373.24
712.682	397.74
713.126	426.94
713.569	474.64
714.012	372.34
714.456	324.54
714.899	299.84
715.342	288.14
715.786	274.04
716.229	267.04
716.672	266.94
717.115	260.64
717.558	248.54
718.002	257.24
718.445	272.64
718.888	302.54
719.331	299.94
719.774	322.74
720.217	318.04
720.66	297.04
721.103	283.94
721.546	269.64
721.989	259.44
722.432	237.84
722.874	252.64
723.317	240.44
723.76	253.24
724.203	266.04
724.645	334.04
725.088	460.44
725.531	601.44
725.974	673.44
726.416	561.94
726.859	318.64
727.301	255.44
727.744	249.84
728.187	240.34
728.629	244.74
729.071	256.94
729.514	270.44
729.956	285.34
730.399	295.54
730.841	293.94
731.283	288.74
731.726	277.44
732.168	271.14
732.61	276.24
733.053	297.84
733.495	330.64
733.937	369.14
734.379	415.94
734.821	457.24
735.263	572.44
735.705	883.74
736.148	1663.14
736.59	2727.44
737.032	3222.04
737.474	2616.44
737.916	853.64
738.357	442.74
738.799	339.44
739.241	309.24
739.683	296.54
740.125	308.24
740.567	310.74
741.008	327.14
741.45	326.04
741.892	332.34
742.334	368.24
742.775	379.24
743.217	360.14
743.658	280.14
744.1	267.24
744.542	279.94
744.983	332.34
745.425	359.54
745.866	362.44
746.307	297.24
746.749	289.94
747.19	329.34
747.632	480.54
748.073	934.54
748.514	1966.64
748.956	3008.84
749.397	3767.24
749.838	3118.94
750.279	3113.04
750.72	1580.04
751.162	575.24
751.603	341.94
752.044	267.54
752.485	227.14
752.926	217.34
753.367	210.74
753.808	201.54
754.249	200.64
754.69	186.84
755.131	190.54
755.572	190.04
756.013	190.94
756.453	187.94
756.894	190.34
757.335	194.34
757.776	200.84
758.216	202.54
758.657	203.94
759.098	208.94
759.538	233.34
759.979	278.54
760.42	394.34
760.86	746.94
761.301	1946.04
761.741	4691.24
762.182	6761.14
762.622	4776.54
