Data from 20171114-ORNL-Ar_H_NY_Subt18_08-03-49-778.txt Node
Date: Tue Nov 14 08:03:49 EST 2017
User: Ender
Spectrometer: HR+D1039
Trigger mode: 0
Integration Time (sec): 2.730000E-2
Scans to average: 10
Electric dark correction enabled: true
Nonlinearity correction enabled: false
Boxcar width: 0
XAxis mode: Wavelengths
Number of Pixels in Spectrum: 2048
>>>>>Begin Spectral Data<<<<<
187.836	-2.74
188.309	-2.74
188.782	-2.74
189.255	2.26
189.728	-1.94
190.201	1.56
190.674	2.16
191.147	4.36
191.619	-6.24
192.092	7.96
192.565	-0.54
193.038	6.76
193.511	-3.94
193.984	-1.14
194.456	-1.54
194.929	-0.74
195.402	-6.34
195.874	0.16
196.347	-1.24
196.82	-6.34
197.292	6.76
197.765	-1.14
198.237	-0.64
198.71	-1.74
199.182	1.96
199.655	0.16
200.127	0.86
200.6	-4.14
201.072	-0.74
201.544	1.06
202.017	-4.84
202.489	1.96
202.961	-5.54
203.433	-6.84
203.906	-7.34
204.378	-11.44
204.85	2.16
205.322	-8.84
205.794	-1.64
206.266	-10.34
206.739	-7.14
207.211	-0.44
207.683	-5.84
208.155	-1.54
208.627	-10.64
209.099	-2.04
209.57	-2.64
210.042	-5.94
210.514	-4.64
210.986	3.86
211.458	-11.74
211.93	-2.74
212.402	1.36
212.873	-2.24
213.345	-13.64
213.817	-14.44
214.288	-5.84
214.76	-15.04
215.232	-0.04
215.703	-9.34
216.175	-4.84
216.646	-4.24
217.118	-1.34
217.589	-6.64
218.061	1.26
218.532	-4.54
219.004	-5.54
219.475	-4.34
219.946	-12.14
220.418	-7.84
220.889	-0.34
221.36	3.76
221.832	-2.64
222.303	-7.34
222.774	-1.94
223.245	-9.94
223.717	-3.54
224.188	-2.04
224.659	-4.04
225.13	-12.04
225.601	-4.74
226.072	6.46
226.543	0.16
227.014	0.56
227.485	-6.54
227.956	-5.84
228.427	-1.94
228.898	-0.04
229.369	1.96
229.839	-0.04
230.31	-6.34
230.781	3.06
231.252	-3.84
231.722	-5.54
232.193	-2.44
232.664	-0.04
233.135	-1.14
233.605	-3.24
234.076	-5.34
234.546	4.16
235.017	-2.04
235.487	0.36
235.958	-2.54
236.428	-9.04
236.899	-6.74
237.369	1.56
237.84	-11.44
238.31	2.06
238.78	-9.44
239.251	-2.44
239.721	-0.94
240.191	-1.14
240.662	-5.84
241.132	-0.44
241.602	-4.84
242.072	-2.04
242.542	1.36
243.013	4.26
243.483	3.36
243.953	-2.74
244.423	-1.14
244.893	-2.64
245.363	0.16
245.833	0.76
246.303	-6.64
246.773	1.36
247.243	-2.74
247.712	-1.44
248.182	3.36
248.652	4.36
249.122	-10.84
249.592	-5.84
250.061	2.86
250.531	4.06
251.001	-0.64
251.471	1.06
251.94	7.26
252.41	-2.64
252.879	-3.44
253.349	5.46
253.818	3.26
254.288	3.76
254.757	-1.24
255.227	-0.04
255.696	-5.14
256.166	1.16
256.635	2.16
257.105	7.86
257.574	-5.04
258.043	-1.94
258.513	-1.34
258.982	2.46
259.451	-4.54
259.92	0.96
260.389	1.96
260.859	7.56
261.328	6.16
261.797	3.06
262.266	-4.64
262.735	3.36
263.204	-0.04
263.673	-0.94
264.142	0.16
264.611	1.76
265.08	-7.44
265.549	-1.54
266.018	6.76
266.487	-9.24
266.955	-1.74
267.424	-2.14
267.893	1.26
268.362	-4.74
268.83	0.86
269.299	12.96
269.768	5.46
270.236	5.56
270.705	2.26
271.174	1.96
271.642	2.66
272.111	1.26
272.579	2.56
273.048	5.36
273.516	-3.24
273.985	11.16
274.453	1.56
274.922	6.76
275.39	5.36
275.858	-2.34
276.327	6.96
276.795	11.96
277.263	4.26
277.731	10.06
278.2	8.36
278.668	-1.14
279.136	8.56
279.604	10.26
280.072	2.06
280.54	9.76
281.008	5.46
281.477	7.56
281.945	4.36
282.413	9.26
282.881	8.56
283.348	0.06
283.816	7.96
284.284	10.16
284.752	15.76
285.22	7.46
285.688	6.56
286.156	2.86
286.623	14.16
287.091	8.46
287.559	9.56
288.026	10.76
288.494	9.36
288.962	-0.24
289.429	0.76
289.897	14.36
290.364	3.46
290.832	13.26
291.3	2.16
291.767	13.76
292.234	14.66
292.702	4.16
293.169	5.66
293.637	17.46
294.104	15.26
294.571	0.76
295.039	12.96
295.506	10.66
295.973	11.16
296.44	6.86
296.908	8.66
297.375	11.26
297.842	13.46
298.309	2.56
298.776	2.96
299.243	15.56
299.71	12.46
300.177	18.46
300.644	11.16
301.111	5.66
301.578	13.36
302.045	7.16
302.512	18.16
302.979	14.76
303.446	15.36
303.913	6.36
304.379	10.76
304.846	13.66
305.313	17.66
305.78	12.26
306.246	18.36
306.713	20.36
307.18	13.86
307.646	16.86
308.113	15.96
308.579	14.96
309.046	18.86
309.512	24.86
309.979	16.66
310.445	19.76
310.912	23.66
311.378	25.26
311.845	29.16
312.311	22.36
312.777	22.16
313.244	17.06
313.71	32.86
314.176	27.06
314.642	17.26
315.109	24.86
315.575	21.96
316.041	29.56
316.507	21.26
316.973	31.16
317.439	17.96
317.905	29.06
318.371	24.46
318.837	26.06
319.303	21.66
319.769	23.56
320.235	21.76
320.701	31.36
321.167	30.26
321.633	24.06
322.099	29.66
322.564	26.76
323.03	34.96
323.496	24.66
323.962	23.96
324.427	26.26
324.893	29.26
325.359	25.76
325.824	27.86
326.29	29.36
326.755	29.26
327.221	34.86
327.686	29.26
328.152	34.66
328.617	38.46
329.083	40.06
329.548	41.86
330.014	36.76
330.479	31.06
330.944	32.66
331.41	37.66
331.875	37.06
332.34	39.06
332.805	35.86
333.271	31.76
333.736	35.86
334.201	37.36
334.666	41.06
335.131	42.46
335.596	44.86
336.061	46.56
336.526	31.46
336.991	41.66
337.456	43.86
337.921	43.56
338.386	37.76
338.851	41.86
339.316	46.36
339.781	41.56
340.246	48.96
340.711	44.16
341.175	43.86
341.64	32.66
342.105	44.16
342.569	51.26
343.034	46.76
343.499	48.66
343.963	45.36
344.428	54.26
344.893	62.66
345.357	52.46
345.822	48.26
346.286	63.76
346.751	58.66
347.215	60.86
347.679	54.56
348.144	71.86
348.608	68.06
349.073	58.56
349.537	60.96
350.001	70.96
350.465	79.66
350.93	74.56
351.394	70.46
351.858	59.56
352.322	72.26
352.786	68.66
353.25	82.36
353.715	87.66
354.179	87.16
354.643	97.46
355.107	92.96
355.571	87.46
356.035	82.76
356.498	91.26
356.962	99.16
357.426	103.26
357.89	98.66
358.354	79.56
358.818	74.56
359.281	69.56
359.745	77.36
360.209	74.16
360.673	72.36
361.136	74.96
361.6	85.96
362.064	78.86
362.527	81.76
362.991	85.36
363.454	76.96
363.918	75.86
364.381	67.66
364.845	83.06
365.308	85.36
365.772	85.56
366.235	80.86
366.698	79.36
367.162	84.86
367.625	82.56
368.088	88.26
368.552	87.46
369.015	90.46
369.478	93.66
369.941	97.96
370.404	85.36
370.867	95.76
371.331	97.06
371.794	102.16
372.257	93.46
372.72	100.86
373.183	99.46
373.646	91.36
374.109	95.46
374.572	97.96
375.035	104.16
375.497	101.56
375.96	108.46
376.423	104.96
376.886	104.66
377.349	103.86
377.811	94.46
378.274	100.96
378.737	100.96
379.199	108.46
379.662	108.26
380.125	113.26
380.587	106.36
381.05	104.16
381.512	113.36
381.975	118.16
382.437	114.96
382.9	114.46
383.362	121.56
383.825	127.76
384.287	117.96
384.75	115.96
385.212	125.96
385.674	124.76
386.136	124.86
386.599	122.16
387.061	127.46
387.523	126.76
387.985	118.96
388.447	135.26
388.91	126.76
389.372	128.86
389.834	126.26
390.296	121.26
390.758	133.86
391.22	131.26
391.682	147.06
392.144	149.66
392.606	142.46
393.068	135.16
393.529	150.86
393.991	141.96
394.453	128.86
394.915	134.36
395.377	130.16
395.838	133.66
396.3	140.96
396.762	139.16
397.224	141.36
397.685	130.76
398.147	134.36
398.608	127.56
399.07	140.66
399.531	139.06
399.993	153.06
400.454	154.36
400.916	155.06
401.377	147.76
401.839	153.06
402.3	158.66
402.762	169.36
403.223	175.36
403.684	176.36
404.145	171.56
404.607	163.26
405.068	163.56
405.529	168.76
405.99	181.46
406.451	177.16
406.913	172.36
407.374	172.16
407.835	170.26
408.296	178.86
408.757	175.16
409.218	182.36
409.679	178.46
410.14	181.26
410.601	177.46
411.062	183.46
411.522	186.66
411.983	175.66
412.444	181.16
412.905	191.36
413.366	191.56
413.826	204.26
414.287	232.06
414.748	278.96
415.208	260.36
415.669	223.66
416.13	213.76
416.59	217.46
417.051	224.36
417.511	238.36
417.972	254.46
418.432	266.46
418.893	312.46
419.353	269.76
419.814	213.86
420.274	188.96
420.734	191.06
421.195	199.66
421.655	202.66
422.115	201.76
422.576	202.46
423.036	212.06
423.496	223.96
423.956	226.96
424.416	238.56
424.876	280.96
425.336	263.86
425.797	266.66
426.257	262.26
426.717	242.56
427.177	239.56
427.637	227.16
428.097	234.16
428.556	239.66
429.016	271.56
429.476	263.16
429.936	275.86
430.396	274.86
430.856	291.26
431.315	306.26
431.775	339.76
432.235	368.76
432.694	346.06
433.154	350.56
433.614	362.36
434.073	326.76
434.533	278.16
434.993	267.96
435.452	278.46
435.912	290.96
436.371	282.36
436.83	257.46
437.29	256.86
437.749	243.76
438.209	240.46
438.668	261.66
439.127	278.56
439.587	258.46
440.046	241.66
440.505	256.16
440.964	262.96
441.424	297.06
441.883	290.26
442.342	257.16
442.801	227.96
443.26	227.56
443.719	230.36
444.178	224.66
444.637	213.86
445.096	233.16
445.555	229.06
446.014	230.96
446.473	238.66
446.932	236.16
447.391	233.46
447.849	237.46
448.308	233.16
448.767	231.26
449.226	244.36
449.685	245.86
450.143	258.46
450.602	254.36
451.061	230.46
451.519	244.26
451.978	236.06
452.436	240.96
452.895	240.36
453.353	256.96
453.812	241.26
454.27	247.26
454.729	248.36
455.187	245.06
455.646	246.96
456.104	246.26
456.562	257.16
457.021	260.96
457.479	256.66
457.937	265.06
458.395	259.76
458.854	250.76
459.312	255.86
459.77	265.16
460.228	259.96
460.686	251.76
461.144	251.06
461.602	256.16
462.06	254.26
462.518	260.06
462.976	260.56
463.434	258.06
463.892	256.86
464.35	270.06
464.808	282.76
465.266	261.86
465.724	270.06
466.181	281.26
466.639	268.86
467.097	295.96
467.555	303.86
468.012	310.36
468.47	302.26
468.928	322.96
469.385	328.56
469.843	337.76
470.3	338.26
470.758	346.96
471.215	364.66
471.673	382.36
472.13	385.06
472.588	394.66
473.045	372.16
473.503	375.46
473.96	388.36
474.417	398.16
474.875	414.16
475.332	441.46
475.789	446.36
476.246	454.36
476.704	467.46
477.161	489.96
477.618	492.46
478.075	531.06
478.532	569.56
478.989	646.56
479.446	718.66
479.903	705.06
480.36	743.46
480.817	787.16
481.274	869.76
481.731	955.26
482.188	1034.06
482.645	1141.26
483.102	1233.26
483.558	1338.46
484.015	1381.16
484.472	1362.36
484.929	1330.36
485.385	1294.06
485.842	1264.76
486.299	1223.26
486.755	1150.56
487.212	1004.86
487.668	867.16
488.125	801.36
488.582	734.06
489.038	707.46
489.494	675.96
489.951	640.76
490.407	632.26
490.864	622.06
491.32	610.66
491.776	599.66
492.233	605.46
492.689	580.06
493.145	576.76
493.602	565.56
494.058	583.56
494.514	587.06
494.97	591.56
495.426	602.56
495.882	583.06
496.338	576.56
496.794	583.56
497.251	573.66
497.707	591.46
498.163	580.36
498.618	588.16
499.074	596.46
499.53	613.46
499.986	618.06
500.442	588.46
500.898	573.26
501.354	575.36
501.809	592.26
502.265	577.66
502.721	592.96
503.177	589.96
503.632	601.56
504.088	604.36
504.543	614.76
504.999	629.56
505.455	616.76
505.91	606.96
506.366	596.36
506.821	599.36
507.277	602.16
507.732	605.46
508.187	595.66
508.643	602.26
509.098	605.46
509.553	625.66
510.009	626.46
510.464	629.26
510.919	646.16
511.375	643.66
511.83	661.86
512.285	659.46
512.74	695.56
513.195	703.46
513.65	694.36
514.105	709.36
514.56	695.86
515.015	717.06
515.47	726.76
515.925	716.26
516.38	720.96
516.835	734.06
517.29	705.96
517.745	718.46
518.2	700.36
518.655	688.46
519.109	680.06
519.564	671.06
520.019	668.76
520.474	656.36
520.928	664.66
521.383	656.26
521.838	655.36
522.292	641.86
522.747	646.26
523.201	640.66
523.656	634.46
524.11	638.66
524.565	632.86
525.019	625.96
525.474	637.26
525.928	628.16
526.382	628.56
526.837	640.06
527.291	636.56
527.745	620.06
528.2	623.66
528.654	619.06
529.108	624.36
529.562	614.36
530.016	617.06
530.47	617.76
530.925	612.36
531.379	611.16
531.833	619.86
532.287	614.86
532.741	617.36
533.195	625.26
533.649	615.66
534.103	630.46
534.556	617.36
535.01	623.36
535.464	610.36
535.918	619.66
536.372	627.26
536.826	629.06
537.279	618.96
537.733	628.06
538.187	631.86
538.64	620.96
539.094	625.46
539.548	642.96
540.001	632.26
540.455	634.76
540.908	636.56
541.362	641.66
541.815	655.16
542.269	661.96
542.722	657.66
543.175	683.36
543.629	667.46
544.082	674.26
544.536	680.56
544.989	696.26
545.442	706.66
545.895	683.86
546.349	690.26
546.802	688.86
547.255	694.36
547.708	694.56
548.161	703.86
548.614	710.66
549.067	722.56
549.52	711.86
549.973	703.36
550.426	702.56
550.879	680.26
551.332	684.86
551.785	700.36
552.238	695.86
552.691	694.66
553.144	703.96
553.596	713.96
554.049	723.56
554.502	755.16
554.955	770.66
555.407	768.16
555.86	760.16
556.313	747.56
556.765	744.06
557.218	741.16
557.67	735.36
558.123	732.46
558.576	740.06
559.028	741.66
559.48	746.66
559.933	739.46
560.385	705.46
560.838	701.76
561.29	667.36
561.742	662.36
562.195	638.46
562.647	648.56
563.099	650.16
563.551	658.46
564.004	664.06
564.456	648.76
564.908	632.66
565.36	615.76
565.812	601.26
566.264	595.06
566.716	602.46
567.168	577.66
567.62	594.36
568.072	574.06
568.524	577.86
568.976	567.96
569.428	558.96
569.88	555.86
570.332	567.46
570.784	569.06
571.235	561.16
571.687	578.16
572.139	572.96
572.59	588.16
573.042	586.56
573.494	586.66
573.945	581.76
574.397	551.26
574.849	566.86
575.3	561.46
575.752	562.36
576.203	545.76
576.655	562.96
577.106	545.16
577.557	538.16
578.009	548.66
578.46	538.06
578.912	542.36
579.363	529.56
579.814	541.66
580.265	529.16
580.717	538.26
581.168	529.96
581.619	538.76
582.07	544.16
582.521	539.46
582.972	539.66
583.423	546.16
583.875	541.96
584.326	547.66
584.777	557.96
585.227	576.26
585.678	582.86
586.129	605.96
586.58	630.06
587.031	644.16
587.482	675.96
587.933	704.26
588.384	678.26
588.834	637.56
589.285	626.46
589.736	616.36
590.186	614.16
590.637	620.66
591.088	598.56
591.538	581.76
591.989	579.16
592.439	573.26
592.89	567.86
593.34	551.56
593.791	554.36
594.241	540.86
594.692	553.16
595.142	542.36
595.593	542.66
596.043	543.36
596.493	546.56
596.943	552.96
597.394	562.06
597.844	562.26
598.294	574.66
598.744	588.36
599.195	612.26
599.645	643.16
600.095	670.46
600.545	701.56
600.995	752.26
601.445	797.46
601.895	830.56
602.345	888.76
602.795	868.06
603.245	831.56
603.695	785.86
604.145	741.76
604.594	708.76
605.044	673.56
605.494	627.46
605.944	592.16
606.393	571.46
606.843	557.46
607.293	556.96
607.743	548.96
608.192	565.66
608.642	561.06
609.091	570.76
609.541	571.56
609.99	569.26
610.44	564.16
610.889	530.66
611.339	529.36
611.788	515.16
612.238	520.66
612.687	541.26
613.136	529.56
613.586	539.46
614.035	543.16
614.484	535.26
614.933	541.16
615.383	531.76
615.832	532.46
616.281	527.56
616.73	509.66
617.179	499.66
617.628	488.56
618.077	486.06
618.526	467.86
618.975	463.26
619.424	474.36
619.873	463.46
620.322	459.46
620.771	461.16
621.22	454.66
621.669	445.26
622.118	452.56
622.567	432.16
623.015	427.16
623.464	427.66
623.913	418.96
624.361	417.46
624.81	421.26
625.259	416.26
625.707	422.26
626.156	421.16
626.604	430.26
627.053	423.76
627.501	420.86
627.95	429.26
628.398	431.46
628.847	423.56
629.295	428.66
629.744	428.26
630.192	428.86
630.64	422.26
631.089	416.76
631.537	402.46
631.985	391.66
632.433	391.66
632.881	388.26
633.33	391.86
633.778	382.96
634.226	391.76
634.674	396.36
635.122	395.36
635.57	404.66
636.018	410.56
636.466	409.56
636.914	412.76
637.362	424.26
637.81	427.46
638.258	421.46
638.705	430.66
639.153	447.16
639.601	452.66
640.049	474.46
640.497	491.36
640.944	518.46
641.392	475.36
641.84	451.76
642.287	427.56
642.735	418.66
643.182	423.76
643.63	410.26
644.078	416.36
644.525	418.16
644.973	422.06
645.42	430.56
645.867	452.36
646.315	461.86
646.762	472.26
647.21	497.66
647.657	510.86
648.104	534.06
648.551	550.56
648.999	590.36
649.446	628.26
649.893	689.86
650.34	784.26
650.787	923.46
651.234	1139.46
651.682	1442.46
652.129	1940.26
652.576	2734.56
653.023	3986.46
653.47	5513.46
653.917	6985.06
654.363	8216.76
654.81	9260.06
655.257	8835.86
655.704	5851.56
656.151	3478.06
656.598	2277.06
657.044	1629.16
657.491	1254.76
657.938	1007.36
658.385	859.06
658.831	748.16
659.278	672.16
659.724	588.06
660.171	553.06
660.618	502.76
661.064	481.56
661.511	454.66
661.957	451.36
662.404	430.56
662.85	439.56
663.296	426.96
663.743	392.66
664.189	393.26
664.635	380.06
665.082	379.26
665.528	375.06
665.974	374.66
666.42	361.36
666.867	350.66
667.313	337.76
667.759	332.76
668.205	327.06
668.651	325.36
669.097	329.66
669.543	318.06
669.989	321.86
670.435	326.66
670.881	322.26
671.327	325.96
671.773	339.66
672.219	352.56
672.665	388.16
673.11	419.86
673.556	451.56
674.002	483.66
674.448	484.16
674.893	411.76
675.339	344.56
675.785	314.66
676.23	307.66
676.676	279.16
677.122	275.56
677.567	269.36
678.013	260.66
678.458	256.16
678.904	262.36
679.349	245.46
679.794	250.86
680.24	256.76
680.685	250.66
681.131	252.36
681.576	242.76
682.021	256.26
682.466	245.46
682.912	249.16
683.357	258.66
683.802	268.36
684.247	288.56
684.692	319.96
685.137	349.26
685.583	390.26
686.028	410.06
686.473	376.76
686.918	314.86
687.363	299.46
687.807	280.26
688.252	267.16
688.697	250.56
689.142	244.06
689.587	238.16
690.032	231.36
690.477	232.66
690.921	242.76
691.366	262.56
691.811	283.46
692.255	302.66
692.7	329.66
693.145	354.56
693.589	468.76
694.034	766.86
694.478	1085.26
694.923	1277.96
695.367	1707.26
695.812	886.26
696.256	359.06
696.701	259.96
697.145	247.26
697.59	223.66
698.034	228.66
698.478	231.66
698.922	235.66
699.367	234.36
699.811	234.36
700.255	247.96
700.699	265.36
701.143	308.36
701.588	332.86
702.032	373.46
702.476	365.16
702.92	348.26
703.364	349.16
703.808	439.06
704.252	716.96
704.696	1027.26
705.14	1217.56
705.584	1604.46
706.027	787.56
706.471	377.26
706.915	284.36
707.359	241.36
707.803	225.96
708.246	219.96
708.69	221.76
709.134	227.46
709.577	220.96
710.021	227.96
710.465	218.26
710.908	217.66
711.352	208.26
711.795	221.36
712.239	243.96
712.682	264.26
713.126	299.76
713.569	340.06
714.012	253.66
714.456	208.86
714.899	208.46
715.342	195.36
715.786	187.46
716.229	179.16
716.672	180.26
717.115	174.76
717.558	172.26
718.002	174.46
718.445	179.16
718.888	201.66
719.331	203.36
719.774	220.36
720.217	212.76
720.66	204.96
721.103	192.96
721.546	183.26
721.989	173.56
722.432	160.56
722.874	164.86
723.317	158.66
723.76	168.76
724.203	176.66
724.645	213.56
725.088	301.46
725.531	399.36
725.974	474.56
726.416	403.36
726.859	214.16
727.301	172.16
727.744	163.16
728.187	163.46
728.629	172.26
729.071	164.76
729.514	185.86
729.956	192.76
730.399	198.56
730.841	205.06
731.283	192.86
731.726	192.06
732.168	182.86
732.61	187.06
733.053	196.16
733.495	217.86
733.937	246.96
734.379	285.76
734.821	303.36
735.263	375.26
735.705	575.36
736.148	1071.66
736.59	1822.36
737.032	2291.56
737.474	1886.36
737.916	587.96
738.357	306.76
738.799	231.46
739.241	207.56
739.683	197.56
740.125	206.56
740.567	213.86
741.008	227.16
741.45	227.06
741.892	215.36
742.334	254.56
742.775	259.56
743.217	256.66
743.658	196.76
744.1	182.16
744.542	190.06
744.983	226.56
745.425	265.76
745.866	262.46
746.307	201.66
746.749	194.46
747.19	222.56
747.632	309.66
748.073	588.66
748.514	1273.36
748.956	2043.66
749.397	2569.96
749.838	2136.06
750.279	2219.16
750.72	1126.76
751.162	388.26
751.603	228.26
752.044	185.26
752.485	149.36
752.926	151.96
753.367	146.56
753.808	138.66
754.249	131.96
754.69	129.26
755.131	128.26
755.572	127.16
756.013	118.36
756.453	138.16
756.894	129.56
757.335	132.56
757.776	132.96
758.216	135.46
758.657	138.86
759.098	140.76
759.538	148.36
759.979	177.66
760.42	249.86
760.86	473.56
761.301	1245.56
761.741	3124.06
762.182	4950.36
762.622	3516.76
763.063	992.56
763.503	387.76
763.943	236.16
