Data from 20171114-ORNL-Ar_H_NY_Subt18_08-03-40-224.txt Node
Date: Tue Nov 14 08:03:40 EST 2017
User: Ender
Spectrometer: HR+D1039
Trigger mode: 0
Integration Time (sec): 2.730000E-2
Scans to average: 10
Electric dark correction enabled: true
Nonlinearity correction enabled: false
Boxcar width: 0
XAxis mode: Wavelengths
Number of Pixels in Spectrum: 2048
>>>>>Begin Spectral Data<<<<<
187.836	-5.8
188.309	-5.8
188.782	-5.8
189.255	-0
189.728	1.6
190.201	6.7
190.674	4.1
191.147	3.8
191.619	-10.1
192.092	5.6
192.565	2.5
193.038	-0
193.511	-2
193.984	0.8
194.456	-1.5
194.929	-0.8
195.402	-6.1
195.874	1.2
196.347	-0.8
196.82	-12
197.292	7
197.765	1.6
198.237	-3.7
198.71	1.2
199.182	0.5
199.655	-1.3
200.127	1.6
200.6	-3.4
201.072	-1.1
201.544	-6.5
202.017	-3.5
202.489	4.4
202.961	-2.9
203.433	-4.1
203.906	-11.7
204.378	-6.4
204.85	-6.5
205.322	-12.7
205.794	-7.4
206.266	-1.5
206.739	-2.8
207.211	3
207.683	-8.6
208.155	-7
208.627	-5
209.099	-6.6
209.57	-9
210.042	-6.2
210.514	-1.4
210.986	-1.7
211.458	-8.9
211.93	0.7
212.402	-1
212.873	-5
213.345	-8.2
213.817	-9.6
214.288	-8.2
214.76	-8.5
215.232	-6.2
215.703	-3.8
216.175	-2
216.646	-3.2
217.118	-7.6
217.589	-1.7
218.061	-1.8
218.532	-8.3
219.004	-1.5
219.475	-3
219.946	-6
220.418	-5.8
220.889	1.7
221.36	-0.3
221.832	-5.8
222.303	-6.4
222.774	-1.8
223.245	-11.2
223.717	-2.1
224.188	-1.1
224.659	-6.6
225.13	-1.6
225.601	-0.4
226.072	-7
226.543	-3.7
227.014	-5.2
227.485	-1.2
227.956	-13.3
228.427	-4.7
228.898	-7.7
229.369	2.8
229.839	-9.6
230.31	-9.4
230.781	-4.8
231.252	-5
231.722	-5
232.193	-6.2
232.664	-3
233.135	-6
233.605	0.2
234.076	-3.3
234.546	-3.6
235.017	6.6
235.487	-0.5
235.958	-7.5
236.428	-5.9
236.899	1.4
237.369	0.6
237.84	-12.4
238.31	-0.1
238.78	-0
239.251	-9.1
239.721	-6.4
240.191	-7.1
240.662	-4.3
241.132	0.2
241.602	-6.5
242.072	-0.7
242.542	2.3
243.013	-4.2
243.483	-1.1
243.953	1.1
244.423	-0.3
244.893	-14.4
245.363	-4.6
245.833	-0.8
246.303	-6
246.773	3.7
247.243	-3.5
247.712	-0.4
248.182	-3.3
248.652	-4.2
249.122	-10.6
249.592	-1
250.061	-1.8
250.531	4.6
251.001	-1.6
251.471	7.6
251.94	4.4
252.41	-0.2
252.879	-3.9
253.349	6.8
253.818	2.6
254.288	1.1
254.757	-0.1
255.227	0.4
255.696	2.6
256.166	2.4
256.635	-1.5
257.105	4.1
257.574	-7.4
258.043	-1.8
258.513	-6.5
258.982	3.8
259.451	-6.8
259.92	2.2
260.389	-3.1
260.859	9.1
261.328	-0.5
261.797	4.8
262.266	-3.3
262.735	2.8
263.204	1.5
263.673	-0.7
264.142	0.3
264.611	-6.6
265.08	-2.1
265.549	-0.3
266.018	6.1
266.487	-4.2
266.955	-9.2
267.424	-3.6
267.893	2.9
268.362	0.5
268.83	-2.7
269.299	4.5
269.768	-0
270.236	2.6
270.705	-1
271.174	-1.7
271.642	-2.4
272.111	-7.4
272.579	-2.1
273.048	3.6
273.516	-0.9
273.985	8.2
274.453	7.9
274.922	8
275.39	0.7
275.858	-1.2
276.327	7.2
276.795	13.9
277.263	-1.1
277.731	12.4
278.2	3.2
278.668	-1.5
279.136	6.6
279.604	-0
280.072	10.6
280.54	0.7
281.008	5.5
281.477	6.5
281.945	5.5
282.413	9.1
282.881	4.1
283.348	2.1
283.816	2.8
284.284	5.2
284.752	8.4
285.22	10.4
285.688	7.9
286.156	7.6
286.623	17.4
287.091	6.8
287.559	10.4
288.026	9.8
288.494	7.1
288.962	-1.8
289.429	2
289.897	13.3
290.364	7.8
290.832	13.9
291.3	8.5
291.767	9.7
292.234	11.1
292.702	9.2
293.169	10.1
293.637	15
294.104	14.9
294.571	6.9
295.039	6.9
295.506	7.5
295.973	5.7
296.44	6.8
296.908	16.9
297.375	7.4
297.842	14.4
298.309	10.1
298.776	9.6
299.243	13.5
299.71	5.9
300.177	13.3
300.644	8.6
301.111	15.6
301.578	16.1
302.045	7.1
302.512	17.9
302.979	15.4
303.446	12
303.913	17.6
304.379	12.5
304.846	19.7
305.313	17.4
305.78	13
306.246	19.9
306.713	16
307.18	18.5
307.646	20
308.113	19.1
308.579	12.3
309.046	19.3
309.512	25.5
309.979	12.3
310.445	20.3
310.912	21.3
311.378	22.2
311.845	24.8
312.311	27.3
312.777	24.5
313.244	23.3
313.71	35.7
314.176	25.8
314.642	26.9
315.109	24
315.575	28.2
316.041	28.7
316.507	24.6
316.973	24.3
317.439	24.7
317.905	32.2
318.371	29.7
318.837	30.1
319.303	24.7
319.769	29
320.235	25.5
320.701	30.2
321.167	27.4
321.633	23.7
322.099	30.6
322.564	35.1
323.03	32
323.496	32.6
323.962	32.9
324.427	31.1
324.893	36.2
325.359	30.7
325.824	34
326.29	32
326.755	33.8
327.221	36.4
327.686	31.2
328.152	39.9
328.617	32.7
329.083	43.4
329.548	42.8
330.014	41.3
330.479	33.3
330.944	35.5
331.41	37.1
331.875	35.5
332.34	41.5
332.805	32
333.271	39.9
333.736	27.5
334.201	47.5
334.666	46.9
335.131	44.4
335.596	50.1
336.061	45
336.526	38.6
336.991	43.8
337.456	51.2
337.921	47
338.386	45
338.851	50.6
339.316	49.1
339.781	43.3
340.246	53.4
340.711	55
341.175	50.1
341.64	41.1
342.105	53.7
342.569	55
343.034	60.8
343.499	57.8
343.963	55.5
344.428	62.1
344.893	61.9
345.357	60.5
345.822	62.4
346.286	64.9
346.751	73.6
347.215	63
347.679	71.4
348.144	88.4
348.608	80
349.073	74.3
349.537	73.9
350.001	84.2
350.465	92.6
350.93	75.3
351.394	80.9
351.858	71.8
352.322	89
352.786	83.4
353.25	97.6
353.715	105
354.179	87.1
354.643	108.5
355.107	113.2
355.571	99.5
356.035	90.9
356.498	103.3
356.962	106.2
357.426	117.5
357.89	105.6
358.354	97.3
358.818	88
359.281	87.6
359.745	81.4
360.209	91.3
360.673	83
361.136	85.8
361.6	92.7
362.064	90.6
362.527	96.3
362.991	92.7
363.454	86.5
363.918	88
364.381	92.3
364.845	93.7
365.308	97
365.772	97.4
366.235	96.6
366.698	92
367.162	100.5
367.625	96.8
368.088	95.4
368.552	98.5
369.015	89.5
369.478	100.2
369.941	105.9
370.404	105.7
370.867	109.6
371.331	114.7
371.794	111.3
372.257	110.1
372.72	110.9
373.183	108.1
373.646	104.4
374.109	112.3
374.572	110.8
375.035	115.9
375.497	115.4
375.96	116.7
376.423	111.6
376.886	133.4
377.349	121.1
377.811	114.4
378.274	122.7
378.737	117.3
379.199	125.5
379.662	124.6
380.125	133
380.587	124.3
381.05	129.8
381.512	135.8
381.975	149.6
382.437	138.3
382.9	134.9
383.362	140.7
383.825	153
384.287	141.5
384.75	138.9
385.212	147.5
385.674	154.6
386.136	155.3
386.599	145.6
387.061	139.6
387.523	147.1
387.985	149.5
388.447	158.8
388.91	150
389.372	152.8
389.834	154.7
390.296	144.1
390.758	156
391.22	159.7
391.682	172.2
392.144	165.8
392.606	169
393.068	161.8
393.529	182.8
393.991	171.2
394.453	156.4
394.915	163.2
395.377	159.8
395.838	156.7
396.3	160
396.762	163.4
397.224	158.3
397.685	160.5
398.147	164.5
398.608	164.7
399.07	163.9
399.531	164.4
399.993	172.8
400.454	188.2
400.916	173.8
401.377	183.9
401.839	186.6
402.3	185.6
402.762	201.7
403.223	213.9
403.684	206.3
404.145	194.7
404.607	197.9
405.068	192.2
405.529	196
405.99	210.5
406.451	203.8
406.913	203.4
407.374	197.8
407.835	201.6
408.296	210.6
408.757	211.7
409.218	217.7
409.679	218.2
410.14	212
410.601	216.7
411.062	214.2
411.522	212.3
411.983	215.6
412.444	215.5
412.905	228.3
413.366	221.8
413.826	245.5
414.287	273.3
414.748	326.2
415.208	309.8
415.669	259.5
416.13	253.1
416.59	249.2
417.051	266.2
417.511	280.5
417.972	305.9
418.432	318.7
418.893	374.3
419.353	321.3
419.814	246.4
420.274	238
420.734	237.8
421.195	244.3
421.655	233.1
422.115	235.8
422.576	235
423.036	251.1
423.496	258
423.956	267.9
424.416	283.1
424.876	323.7
425.336	317.4
425.797	320.3
426.257	302.7
426.717	288.2
427.177	279
427.637	272.3
428.097	272
428.556	290.2
429.016	317.9
429.476	309.8
429.936	314.4
430.396	319.6
430.856	331.9
431.315	354.8
431.775	388.4
432.235	428.6
432.694	403.6
433.154	410.9
433.614	424.7
434.073	380.2
434.533	324.7
434.993	313.3
435.452	329.3
435.912	324.9
436.371	324.9
436.83	318.2
437.29	302.3
437.749	285.4
438.209	290.8
438.668	314.9
439.127	319
439.587	296.3
440.046	284.2
440.505	292.8
440.964	310.8
441.424	344.8
441.883	339.4
442.342	296.2
442.801	271
443.26	268.5
443.719	271.5
444.178	268.2
444.637	254.7
445.096	273.8
445.555	276.7
446.014	271.5
446.473	280.2
446.932	279.3
447.391	276.9
447.849	274.9
448.308	268.7
448.767	270.8
449.226	285.4
449.685	284.5
450.143	304.9
450.602	292.7
451.061	271.1
451.519	277.5
451.978	277.2
452.436	277
452.895	283.7
453.353	292.2
453.812	276.4
454.27	284.3
454.729	282.9
455.187	281.1
455.646	280.5
456.104	282.3
456.562	295.5
457.021	303.6
457.479	298.8
457.937	311.4
458.395	312.4
458.854	291
459.312	306.3
459.77	310.6
460.228	290.9
460.686	290.8
461.144	294.6
461.602	296.3
462.06	292.7
462.518	306
462.976	307.4
463.434	306.2
463.892	301.5
464.35	316.3
464.808	327.7
465.266	313.6
465.724	324.9
466.181	316.3
466.639	320.9
467.097	334.5
467.555	347.3
468.012	348.6
468.47	350.1
468.928	375.3
469.385	386.4
469.843	390.7
470.3	396.4
470.758	413.3
471.215	420.2
471.673	440.3
472.13	443.2
472.588	451.9
473.045	418
473.503	431.5
473.96	459.6
474.417	447.3
474.875	484.3
475.332	510.1
475.789	505.1
476.246	517
476.704	536.4
477.161	550.5
477.618	575.4
478.075	609.2
478.532	654
478.989	719.2
479.446	803.1
479.903	780.9
480.36	834.5
480.817	865.9
481.274	969.6
481.731	1040.6
482.188	1119.7
482.645	1242.5
483.102	1333.5
483.558	1444
484.015	1494.5
484.472	1472.3
484.929	1429.5
485.385	1392.6
485.842	1361.4
486.299	1332.9
486.755	1276.7
487.212	1108
487.668	970
488.125	897.9
488.582	829.3
489.038	798.6
489.494	755.1
489.951	735.2
490.407	717.6
490.864	695.1
491.32	696.2
491.776	684.4
492.233	693.8
492.689	656.2
493.145	656.3
493.602	653.1
494.058	660.2
494.514	660.3
494.97	677.4
495.426	687.7
495.882	664.5
496.338	647.4
496.794	662.6
497.251	649
497.707	676.6
498.163	660.7
498.618	666.3
499.074	671
499.53	690
499.986	698.5
500.442	673.5
500.898	658.4
501.354	656.7
501.809	654.9
502.265	664.6
502.721	666.8
503.177	664.6
503.632	676.3
504.088	682.5
504.543	701.6
504.999	704.9
505.455	684.2
505.91	674.7
506.366	686.3
506.821	672.3
507.277	671.6
507.732	676.3
508.187	666.8
508.643	677.7
509.098	682.1
509.553	694.1
510.009	705
510.464	710.1
510.919	718
511.375	729.9
511.83	729.6
512.285	749.9
512.74	774.9
513.195	794.7
513.65	779.8
514.105	791.2
514.56	780.8
515.015	803.2
515.47	808
515.925	792.1
516.38	800
516.835	816.3
517.29	803.7
517.745	791.5
518.2	787.6
518.655	773.8
519.109	758.7
519.564	765.4
520.019	740.5
520.474	737.5
520.928	744.3
521.383	738
521.838	721.9
522.292	728.5
522.747	723.5
523.201	721.2
523.656	729.7
524.11	711.6
524.565	706.8
525.019	704
525.474	710.9
525.928	708.7
526.382	712.7
526.837	712.5
527.291	711.9
527.745	704.8
528.2	703.3
528.654	698.2
529.108	694.3
529.562	703.8
530.016	694.3
530.47	689
530.925	690.9
531.379	693.1
531.833	699.2
532.287	696.7
532.741	687.3
533.195	693.5
533.649	696.1
534.103	703.3
534.556	693.8
535.01	693.6
535.464	682.4
535.918	700.4
536.372	690.6
536.826	704.7
537.279	686
537.733	700.2
538.187	694.5
538.64	700.2
539.094	704.8
539.548	709.7
540.001	701.6
540.455	699.2
540.908	706.9
541.362	719.1
541.815	732
542.269	737.1
542.722	735.8
543.175	740.4
543.629	743.7
544.082	754.9
544.536	761.2
544.989	763.4
545.442	756.4
545.895	761.3
546.349	767.3
546.802	757.6
547.255	770
547.708	779.8
548.161	778.9
548.614	785.7
549.067	782.3
549.52	781.3
549.973	767.7
550.426	763.2
550.879	754.8
551.332	757.7
551.785	772.1
552.238	772.9
552.691	777.3
553.144	789.4
553.596	797.5
554.049	807.3
554.502	837.5
554.955	847.4
555.407	847
555.86	829.9
556.313	820.2
556.765	822.1
557.218	812
557.67	800.7
558.123	801.1
558.576	813.9
559.028	809.9
559.48	821.8
559.933	810.9
560.385	789.4
560.838	759.5
561.29	732.6
561.742	727.2
562.195	715.1
562.647	717.8
563.099	733.7
563.551	718.2
564.004	726.4
564.456	715.2
564.908	696.7
565.36	680.5
565.812	677.4
566.264	662.4
566.716	668.3
567.168	643.2
567.62	651.2
568.072	635.6
568.524	639
568.976	630.5
569.428	619.6
569.88	618.8
570.332	621.3
570.784	629.3
571.235	626.1
571.687	630.9
572.139	625.7
572.59	647.8
573.042	648.2
573.494	639.9
573.945	634.3
574.397	610.6
574.849	615.9
575.3	613.6
575.752	616.8
576.203	609.3
576.655	615.7
577.106	601.3
577.557	598.8
578.009	593.7
578.46	589.9
578.912	586.7
579.363	592.8
579.814	600.7
580.265	594.8
580.717	590.5
581.168	590
581.619	595.7
582.07	597.3
582.521	585.2
582.972	588.5
583.423	592.7
583.875	597
584.326	598.5
584.777	615.5
585.227	628.2
585.678	634.7
586.129	670
586.58	684.3
587.031	703.6
587.482	732.8
587.933	755.9
588.384	736.3
588.834	696.8
589.285	680.5
589.736	677.2
590.186	669.6
590.637	677.2
591.088	649.8
591.538	643.1
591.989	634.9
592.439	627.9
592.89	618.6
593.34	613.5
593.791	602.9
594.241	607.3
594.692	600.1
595.142	596.3
595.593	589.3
596.043	601
596.493	603.8
596.943	603.8
597.394	613.2
597.844	618.5
598.294	621.4
598.744	642.6
599.195	657.8
599.645	697.2
600.095	724.1
600.545	774.7
600.995	798.2
601.445	842.6
601.895	910
602.345	947.5
602.795	935.8
603.245	897.3
603.695	857.5
604.145	815.7
604.594	774.9
605.044	728.5
605.494	681.5
605.944	634.4
606.393	627.6
606.843	616.8
607.293	617.3
607.743	611.6
608.192	611.4
608.642	618.9
609.091	630.3
609.541	629
609.99	625.7
610.44	623.9
610.889	603.3
611.339	582.8
611.788	567.5
612.238	577.5
612.687	586.8
613.136	576.7
613.586	582.7
614.035	592.2
614.484	591.8
614.933	582
615.383	593.5
615.832	582.1
616.281	571.5
616.73	552.7
617.179	539.9
617.628	534.4
618.077	527
618.526	509.8
618.975	511.2
619.424	520.3
619.873	509
620.322	502
620.771	503.6
621.22	493.9
621.669	483
622.118	475
622.567	478.3
623.015	467
623.464	466
623.913	465.3
624.361	449.1
624.81	458.8
625.259	454.9
625.707	441.9
626.156	454.8
626.604	464.3
627.053	463.3
627.501	458.4
627.95	452.2
628.398	467.3
628.847	460.6
629.295	458.2
629.744	466
630.192	445.8
630.64	451.5
631.089	444
631.537	433.9
631.985	432.8
632.433	432.7
632.881	414.1
633.33	417.9
633.778	419.2
634.226	409.7
634.674	424.9
635.122	432.8
635.57	442.3
636.018	447.5
636.466	451.3
636.914	448.4
637.362	465.5
637.81	463.5
638.258	458.3
638.705	467.6
639.153	481.6
639.601	488.9
640.049	513.3
640.497	533.9
640.944	545.3
641.392	506.6
641.84	494.8
642.287	466.8
642.735	448.3
643.182	446.6
643.63	457.4
644.078	451.4
644.525	459.8
644.973	461.8
645.42	471.9
645.867	481.2
646.315	494.8
646.762	514.9
647.21	541.6
647.657	546.1
648.104	564.5
648.551	577.4
648.999	614.6
649.446	670.6
649.893	728.9
650.34	818.7
650.787	952.6
651.234	1170.4
651.682	1478.3
652.129	1975.2
652.576	2758.8
653.023	3981.4
653.47	5487.8
653.917	6882.8
654.363	8060.3
654.81	9085.2
655.257	8646.8
655.704	5813.9
656.151	3492.8
656.598	2311.1
657.044	1666.3
657.491	1288.7
657.938	1042.1
658.385	892.9
658.831	773.4
659.278	704.1
659.724	627.3
660.171	583.7
660.618	528.3
661.064	503.4
661.511	488
661.957	476.5
662.404	464.6
662.85	467.9
663.296	457.3
663.743	425.2
664.189	415.3
664.635	418.5
665.082	415.4
665.528	401.5
665.974	394.8
666.42	396.1
666.867	380.4
667.313	367.6
667.759	358
668.205	346.4
668.651	348.4
669.097	352.4
669.543	347.2
669.989	347.2
670.435	351.2
670.881	349.5
671.327	350.9
671.773	364.8
672.219	381.9
672.665	426.1
673.11	463.2
673.556	482.4
674.002	523
674.448	516.7
674.893	440.9
675.339	376.3
675.785	351.7
676.23	339
676.676	304.7
677.122	303.4
677.567	294.9
678.013	291.5
678.458	282.9
678.904	282.9
679.349	267.5
679.794	276
680.24	268.6
680.685	266.5
681.131	269.1
681.576	271.9
682.021	272.5
682.466	265.7
682.912	268.8
683.357	274.4
683.802	295.1
684.247	313.5
684.692	344.9
685.137	378.3
685.583	415.1
686.028	439.5
686.473	407.3
686.918	344.6
687.363	328.8
687.807	304.1
688.252	277.1
688.697	278.3
689.142	262.6
689.587	259.7
690.032	254.1
690.477	261.1
690.921	270.4
691.366	292.4
691.811	307.3
692.255	332.4
692.7	353.3
693.145	385.8
693.589	508.5
694.034	827.5
694.478	1164.1
694.923	1366.4
695.367	1816.3
695.812	960
696.256	399.6
696.701	299.4
697.145	271.5
697.59	245.6
698.034	244.8
698.478	255.7
698.922	249.1
699.367	248
699.811	255.8
700.255	272.8
700.699	291
701.143	313.3
701.588	355.3
702.032	386.1
702.476	398.8
702.92	381.6
703.364	373.6
703.808	474.1
704.252	754.6
704.696	1083.8
705.14	1309.1
705.584	1693.7
706.027	848.1
706.471	409.7
706.915	299
707.359	265.9
707.803	251.5
708.246	241.8
708.69	238
709.134	245.1
709.577	231.9
710.021	243.8
710.465	236.3
710.908	229.5
711.352	225.6
711.795	234.3
712.239	266.6
712.682	289.2
713.126	315.4
713.569	365.1
714.012	273.7
714.456	236.1
714.899	225.7
715.342	203.3
715.786	197.9
716.229	201.6
716.672	206.8
717.115	191.5
717.558	193.4
718.002	193.9
718.445	204
718.888	214.6
719.331	217.8
719.774	235.6
720.217	232.9
720.66	213.5
721.103	210.5
721.546	189.8
721.989	188.3
722.432	172.7
722.874	178.5
723.317	172.8
723.76	175.4
724.203	188.9
724.645	228.5
725.088	322.1
725.531	426.9
725.974	490.8
726.416	427.7
726.859	229.7
727.301	193.6
727.744	187
728.187	176.5
728.629	182.5
729.071	182.5
729.514	197.9
729.956	202.3
730.399	211.8
730.841	220.2
731.283	213.2
731.726	200.9
732.168	203.6
732.61	197.7
733.053	210.8
733.495	236.2
733.937	257
734.379	297.2
734.821	326
735.263	397.6
735.705	603
736.148	1149.5
736.59	1938.3
737.032	2425.6
737.474	2000.1
737.916	638.2
738.357	331.3
738.799	260.4
739.241	224.5
739.683	212.3
740.125	228.2
740.567	227.2
741.008	255.5
741.45	249.3
741.892	250.5
742.334	276.6
742.775	294.9
743.217	284.8
743.658	211.9
744.1	207
744.542	206.6
744.983	255.8
745.425	305.8
745.866	301.1
746.307	221.5
746.749	215.2
747.19	242.9
747.632	335.6
748.073	623.5
748.514	1349.3
748.956	2164.1
749.397	2730.6
749.838	2280.8
750.279	2362.3
750.72	1206.5
751.162	431.5
751.603	242.1
752.044	193.1
752.485	175.8
752.926	160.7
753.367	152.3
753.808	147.2
754.249	147.4
754.69	142
755.131	140.9
755.572	141
756.013	139.6
756.453	140.2
756.894	143.3
757.335	141.7
757.776	147.5
758.216	148.7
758.657	144.3
759.098	144.9
759.538	165.6
759.979	200.9
760.42	279.2
760.86	509.2
761.301	1303.9
761.741	3300.5
762.182	5240.7
762.622	3753.7
763.063	1060.8
763.503	420.5
763.943	248.4
764.384	210
764.824	201.8
765.264	195
765.705	160.9
766.145	134.3
766.585	128.2
767.025	130.4
767.465	125.4
767.906	143.7
768.346	158.3
768.786	164.6
769.226	161.5
769.666	230
770.106	435.8
770.546	1113.7
770.986	2058.2
771.426	1927.5
771.866	625.5
772.306	253.6
772.745	163
773.185	122.1
773.625	128.5
774.065	114.5
774.505	125.3
774.944	166.9
775.384	304.2
775.824	560.4
776.263	557.3
776.703	254.2
777.142	126.8
777.582	104.1
778.021	92.4
778.461	90.4
778.9	97.5
779.34	95.2
779.779	83.5
780.219	78.9
780.658	73.5
781.097	79.7
781.537	86.1
781.976	76.6
782.415	74.9
782.855	69.6
783.294	74.8
783.733	81.2
784.172	83.2
784.611	74.1
785.05	78.8
785.489	83.5
785.928	90.9
786.367	89.7
786.806	85.7
787.245	95.2
787.684	97.8
788.123	109.2
788.562	104.3
789.001	95.2
789.44	94.6
789.879	92.5
790.317	94.5
790.756	103.2
791.195	95.7
791.634	106.2
792.072	149.8
792.511	258.5
792.95	708.9
793.388	1641.6
793.827	1558.9
794.265	526.9
794.704	218.6
795.142	142.5
795.581	120.8
796.019	107.9
796.458	99.2
796.896	94.5
797.334	98.3
797.773	117.8
798.211	160.8
798.649	303.6
799.087	743.5
799.526	1208.3
799.964	1515.3
800.402	1628.3
800.84	602.2
801.278	236
801.716	142.6
802.154	118.6
802.592	105.6
803.03	98.7
803.468	96.7
803.906	111.2
804.344	111.7
804.782	104.2
805.22	97.8
805.658	98
806.096	118.1
806.533	117.8
806.971	128.8
807.409	163.7
807.847	239.3
808.284	478.1
808.722	1385.8
