Data from 20171114-ORNL-Ar_H_NY_Subt18_08-09-21-776.txt Node
Date: Tue Nov 14 08:09:21 EST 2017
User: Ender
Spectrometer: HR+D1039
Trigger mode: 0
Integration Time (sec): 2.730000E-2
Scans to average: 10
Electric dark correction enabled: true
Nonlinearity correction enabled: false
Boxcar width: 0
XAxis mode: Wavelengths
Number of Pixels in Spectrum: 2048
>>>>>Begin Spectral Data<<<<<
187.836	-4.44
188.309	-4.44
188.782	-4.44
189.255	1.46
189.728	-1.54
190.201	1.46
190.674	2.86
191.147	7.96
191.619	-6.74
192.092	1.06
192.565	1.06
193.038	2.06
193.511	-0.04
193.984	2.56
194.456	-5.24
194.929	-0.64
195.402	-0.44
195.874	-1.34
196.347	1.26
196.82	-7.54
197.292	8.26
197.765	0.26
198.237	-5.24
198.71	1.26
199.182	-4.34
199.655	3.96
200.127	7.66
200.6	0.46
201.072	-0.14
201.544	-6.54
202.017	2.36
202.489	3.66
202.961	0.46
203.433	2.86
203.906	-6.64
204.378	-2.94
204.85	1.96
205.322	-9.84
205.794	-0.24
206.266	-2.04
206.739	-7.84
207.211	-2.24
207.683	-3.44
208.155	-7.44
208.627	-5.34
209.099	-2.84
209.57	-11.44
210.042	-2.34
210.514	-2.94
210.986	1.96
211.458	-8.64
211.93	-7.44
212.402	3.96
212.873	-1.34
213.345	-3.04
213.817	-7.34
214.288	-6.54
214.76	-10.14
215.232	2.46
215.703	-6.24
216.175	-4.04
216.646	-8.14
217.118	-6.44
217.589	-0.44
218.061	-0.04
218.532	-8.74
219.004	0.86
219.475	-1.04
219.946	-4.84
220.418	-10.64
220.889	0.26
221.36	1.06
221.832	-2.14
222.303	-7.04
222.774	3.16
223.245	-10.24
223.717	-4.44
224.188	-2.94
224.659	-5.04
225.13	-10.04
225.601	-3.34
226.072	-0.14
226.543	-4.84
227.014	3.16
227.485	-1.44
227.956	-2.24
228.427	-3.34
228.898	2.56
229.369	2.66
229.839	-2.94
230.31	-12.44
230.781	0.46
231.252	-5.24
231.722	-4.04
232.193	-2.64
232.664	-8.44
233.135	-0.54
233.605	-2.04
234.076	-8.34
234.546	-4.54
235.017	8.66
235.487	-4.44
235.958	-3.94
236.428	-6.94
236.899	-2.94
237.369	0.56
237.84	-9.04
238.31	-0.94
238.78	-0.34
239.251	-6.84
239.721	-0.64
240.191	-2.84
240.662	-4.04
241.132	-3.54
241.602	-6.14
242.072	-3.34
242.542	-0.64
243.013	-0.74
243.483	2.46
243.953	2.96
244.423	-6.14
244.893	-4.94
245.363	-0.04
245.833	-6.34
246.303	-1.64
246.773	3.86
247.243	-7.04
247.712	-1.74
248.182	4.46
248.652	-0.14
249.122	-11.64
249.592	1.66
250.061	3.56
250.531	6.96
251.001	-6.44
251.471	3.46
251.94	5.66
252.41	-5.94
252.879	-3.34
253.349	2.46
253.818	3.66
254.288	6.66
254.757	-2.54
255.227	-7.14
255.696	-0.04
256.166	3.36
256.635	-0.44
257.105	1.06
257.574	0.66
258.043	-1.94
258.513	-5.34
258.982	4.86
259.451	-3.44
259.92	-2.44
260.389	2.06
260.859	7.46
261.328	3.26
261.797	1.76
262.266	-2.54
262.735	3.66
263.204	0.66
263.673	0.06
264.142	4.56
264.611	-8.14
265.08	-1.64
265.549	-4.14
266.018	-3.84
266.487	-1.14
266.955	-4.94
267.424	-5.24
267.893	4.86
268.362	-5.84
268.83	4.46
269.299	6.66
269.768	-0.24
270.236	-3.24
270.705	-3.04
271.174	-1.64
271.642	0.36
272.111	-2.84
272.579	-0.34
273.048	4.56
273.516	-4.44
273.985	-0.44
274.453	7.66
274.922	9.46
275.39	2.76
275.858	2.36
276.327	4.56
276.795	9.46
277.263	-1.74
277.731	9.36
278.2	1.36
278.668	4.76
279.136	4.46
279.604	-1.84
280.072	6.26
280.54	6.96
281.008	2.26
281.477	5.16
281.945	4.66
282.413	6.36
282.881	10.76
283.348	7.56
283.816	4.86
284.284	6.86
284.752	10.66
285.22	10.06
285.688	11.56
286.156	3.66
286.623	13.36
287.091	-2.34
287.559	8.76
288.026	8.66
288.494	9.26
288.962	6.46
289.429	2.56
289.897	12.76
290.364	5.66
290.832	8.86
291.3	7.46
291.767	11.26
292.234	10.96
292.702	8.86
293.169	8.36
293.637	7.26
294.104	9.86
294.571	4.46
295.039	4.46
295.506	4.06
295.973	9.06
296.44	9.06
296.908	8.96
297.375	8.56
297.842	13.36
298.309	10.76
298.776	3.36
299.243	16.46
299.71	-0.14
300.177	13.76
300.644	10.86
301.111	9.66
301.578	12.56
302.045	2.66
302.512	17.76
302.979	22.36
303.446	14.16
303.913	10.36
304.379	12.36
304.846	16.96
305.313	17.26
305.78	8.96
306.246	11.76
306.713	15.06
307.18	15.16
307.646	24.86
308.113	21.16
308.579	14.06
309.046	14.56
309.512	21.56
309.979	10.46
310.445	13.06
310.912	18.76
311.378	22.36
311.845	19.26
312.311	23.16
312.777	21.66
313.244	23.46
313.71	23.16
314.176	22.36
314.642	13.96
315.109	21.96
315.575	22.86
316.041	28.86
316.507	23.66
316.973	21.56
317.439	22.56
317.905	21.46
318.371	23.66
318.837	24.06
319.303	17.86
319.769	17.96
320.235	30.96
320.701	22.36
321.167	24.06
321.633	20.36
322.099	25.56
322.564	25.26
323.03	30.16
323.496	28.26
323.962	32.16
324.427	24.46
324.893	29.86
325.359	33.36
325.824	29.26
326.29	35.56
326.755	26.16
327.221	29.46
327.686	29.76
328.152	34.76
328.617	30.66
329.083	39.46
329.548	42.16
330.014	35.76
330.479	30.56
330.944	38.16
331.41	26.46
331.875	30.76
332.34	31.06
332.805	36.56
333.271	31.56
333.736	27.76
334.201	32.46
334.666	38.56
335.131	35.86
335.596	36.76
336.061	43.76
336.526	28.56
336.991	40.46
337.456	45.26
337.921	36.26
338.386	32.96
338.851	36.46
339.316	37.96
339.781	40.76
340.246	41.96
340.711	37.56
341.175	38.96
341.64	35.46
342.105	40.76
342.569	44.46
343.034	40.66
343.499	42.26
343.963	41.76
344.428	51.26
344.893	49.36
345.357	46.76
345.822	48.66
346.286	54.36
346.751	56.76
347.215	56.06
347.679	54.96
348.144	71.06
348.608	66.26
349.073	56.46
349.537	58.36
350.001	63.56
350.465	71.36
350.93	62.36
351.394	65.76
351.858	58.76
352.322	68.96
352.786	65.86
353.25	69.86
353.715	80.76
354.179	74.26
354.643	88.46
355.107	94.86
355.571	82.66
356.035	83.26
356.498	92.76
356.962	85.26
357.426	94.06
357.89	86.36
358.354	77.56
358.818	68.96
359.281	58.76
359.745	62.26
360.209	66.36
360.673	60.46
361.136	66.86
361.6	75.16
362.064	67.86
362.527	66.96
362.991	75.66
363.454	66.96
363.918	59.66
364.381	61.86
364.845	75.06
365.308	77.76
365.772	77.36
366.235	74.16
366.698	71.46
367.162	75.66
367.625	67.46
368.088	73.06
368.552	74.16
369.015	73.56
369.478	76.46
369.941	88.16
370.404	74.26
370.867	82.56
371.331	89.46
371.794	88.16
372.257	78.06
372.72	91.96
373.183	82.96
373.646	82.46
374.109	78.56
374.572	88.56
375.035	89.06
375.497	99.56
375.96	87.06
376.423	92.56
376.886	96.16
377.349	93.26
377.811	88.46
378.274	91.06
378.737	92.06
379.199	97.76
379.662	94.56
380.125	97.66
380.587	95.96
381.05	90.76
381.512	101.36
381.975	108.86
382.437	108.96
382.9	102.26
383.362	107.56
383.825	114.06
384.287	107.46
384.75	104.86
385.212	111.66
385.674	120.36
386.136	115.36
386.599	109.86
387.061	102.86
387.523	102.96
387.985	112.76
388.447	119.06
388.91	113.66
389.372	111.86
389.834	117.66
390.296	109.66
390.758	117.66
391.22	118.26
391.682	128.76
392.144	140.16
392.606	132.16
393.068	127.66
393.529	136.76
393.991	127.86
394.453	119.66
394.915	115.26
395.377	120.96
395.838	128.36
396.3	124.86
396.762	126.86
397.224	126.16
397.685	119.86
398.147	125.66
398.608	118.96
399.07	125.96
399.531	128.06
399.993	138.96
400.454	140.96
400.916	143.46
401.377	131.66
401.839	137.66
402.3	145.16
402.762	152.16
403.223	160.16
403.684	155.26
404.145	149.46
404.607	147.56
405.068	152.76
405.529	153.96
405.99	175.56
406.451	155.66
406.913	163.26
407.374	157.36
407.835	154.66
408.296	156.46
408.757	165.16
409.218	164.76
409.679	163.16
410.14	165.86
410.601	166.56
411.062	168.36
411.522	168.96
411.983	169.56
412.444	163.66
412.905	169.96
413.366	178.66
413.826	188.46
414.287	208.46
414.748	248.86
415.208	247.96
415.669	209.26
416.13	206.46
416.59	197.06
417.051	211.16
417.511	214.96
417.972	237.36
418.432	244.26
418.893	286.36
419.353	248.06
419.814	194.16
420.274	181.56
420.734	171.56
421.195	187.56
421.655	193.16
422.115	188.96
422.576	191.06
423.036	192.06
423.496	211.26
423.956	207.56
424.416	225.86
424.876	257.26
425.336	252.76
425.797	252.66
426.257	244.36
426.717	230.36
427.177	224.36
427.637	217.26
428.097	225.56
428.556	233.06
429.016	258.16
429.476	255.06
429.936	263.16
430.396	267.86
430.856	272.86
431.315	288.46
431.775	318.06
432.235	359.76
432.694	326.86
433.154	340.06
433.614	369.36
434.073	315.76
434.533	268.86
434.993	253.36
435.452	268.56
435.912	275.56
436.371	269.56
436.83	262.16
437.29	257.46
437.749	238.86
438.209	231.86
438.668	258.16
439.127	278.06
439.587	248.26
440.046	245.16
440.505	251.76
440.964	267.76
441.424	302.16
441.883	295.76
442.342	254.16
442.801	232.26
443.26	221.46
443.719	217.76
444.178	218.66
444.637	214.26
445.096	227.56
445.555	223.96
446.014	221.46
446.473	226.86
446.932	233.66
447.391	223.66
447.849	232.16
448.308	219.56
448.767	223.16
449.226	242.66
449.685	235.76
450.143	249.46
450.602	238.46
451.061	234.66
451.519	236.26
451.978	238.46
452.436	238.86
452.895	244.46
453.353	247.76
453.812	233.26
454.27	237.96
454.729	241.66
455.187	238.06
455.646	242.06
456.104	243.46
456.562	256.36
457.021	264.06
457.479	258.76
457.937	270.86
458.395	266.76
458.854	251.46
459.312	260.36
459.77	278.76
460.228	257.36
460.686	248.26
461.144	244.86
461.602	248.46
462.06	250.26
462.518	252.36
462.976	258.36
463.434	264.66
463.892	256.96
464.35	276.66
464.808	287.46
465.266	269.96
465.724	285.36
466.181	277.86
466.639	275.66
467.097	296.56
467.555	312.66
468.012	296.86
468.47	312.56
468.928	338.76
469.385	350.56
469.843	344.56
470.3	349.16
470.758	367.16
471.215	373.96
471.673	407.06
472.13	404.06
472.588	415.76
473.045	376.56
473.503	382.06
473.96	395.46
474.417	406.26
474.875	431.76
475.332	474.96
475.789	458.26
476.246	470.16
476.704	485.66
477.161	504.26
477.618	514.76
478.075	548.76
478.532	608.46
478.989	673.26
479.446	781.86
479.903	738.76
480.36	780.46
480.817	814.26
481.274	903.86
481.731	993.16
482.188	1069.36
482.645	1190.86
483.102	1271.76
483.558	1380.56
484.015	1427.96
484.472	1392.76
484.929	1361.46
485.385	1316.76
485.842	1288.86
486.299	1238.66
486.755	1208.56
487.212	1032.76
487.668	890.76
488.125	819.06
488.582	753.06
489.038	728.76
489.494	701.06
489.951	682.76
490.407	658.76
490.864	640.06
491.32	639.56
491.776	627.26
492.233	645.96
492.689	612.26
493.145	607.46
493.602	598.26
494.058	614.76
494.514	618.66
494.97	633.56
495.426	643.76
495.882	616.16
496.338	607.06
496.794	622.16
497.251	608.36
497.707	632.16
498.163	627.66
498.618	640.76
499.074	640.66
499.53	662.56
499.986	657.76
500.442	647.36
500.898	621.96
501.354	621.56
501.809	629.76
502.265	623.96
502.721	634.36
503.177	648.36
503.632	637.56
504.088	645.76
504.543	666.66
504.999	696.86
505.455	668.06
505.91	635.86
506.366	649.56
506.821	648.66
507.277	641.76
507.732	648.66
508.187	644.36
508.643	645.26
509.098	650.66
509.553	669.06
510.009	668.76
510.464	683.46
510.919	703.86
511.375	698.96
511.83	711.96
512.285	736.96
512.74	769.16
513.195	801.26
513.65	781.36
514.105	761.26
514.56	772.26
515.015	791.76
515.47	800.16
515.925	785.26
516.38	791.46
516.835	807.66
517.29	777.46
517.745	787.16
518.2	771.26
518.655	753.26
519.109	748.66
519.564	752.86
520.019	743.96
520.474	733.06
520.928	741.86
521.383	737.66
521.838	726.66
522.292	713.56
522.747	723.56
523.201	718.76
523.656	710.96
524.11	703.76
524.565	710.36
525.019	696.26
525.474	708.76
525.928	706.16
526.382	707.06
526.837	710.86
527.291	696.76
527.745	714.86
528.2	711.86
528.654	698.66
529.108	698.56
529.562	692.06
530.016	706.56
530.47	702.76
530.925	691.86
531.379	709.56
531.833	706.16
532.287	716.66
532.741	708.06
533.195	715.16
533.649	714.46
534.103	719.56
534.556	709.36
535.01	714.46
535.464	708.46
535.918	727.56
536.372	724.06
536.826	722.16
537.279	712.36
537.733	713.76
538.187	719.26
538.64	718.46
539.094	730.96
539.548	730.26
540.001	731.16
540.455	734.96
540.908	739.36
541.362	740.06
541.815	762.46
542.269	773.66
542.722	774.36
543.175	781.26
543.629	784.96
544.082	803.06
544.536	803.66
544.989	811.06
545.442	807.56
545.895	807.76
546.349	808.66
546.802	823.26
547.255	817.26
547.708	817.46
548.161	831.86
548.614	834.96
549.067	839.46
549.52	837.66
549.973	827.16
550.426	822.06
550.879	802.86
551.332	818.26
551.785	834.96
552.238	834.76
552.691	845.66
553.144	851.56
553.596	878.66
554.049	894.56
554.502	922.16
554.955	935.16
555.407	930.86
555.86	908.76
556.313	907.96
556.765	906.26
557.218	893.56
557.67	896.26
558.123	895.06
558.576	891.16
559.028	901.76
559.48	907.06
559.933	895.66
560.385	875.06
560.838	834.06
561.29	822.66
561.742	806.46
562.195	792.26
562.647	788.86
563.099	791.66
563.551	795.06
564.004	799.56
564.456	795.66
564.908	783.86
565.36	756.36
565.812	746.96
566.264	726.76
566.716	741.26
567.168	724.36
567.62	724.36
568.072	719.06
568.524	708.16
568.976	704.56
569.428	686.46
569.88	688.06
570.332	704.36
570.784	706.96
571.235	709.46
571.687	709.26
572.139	721.46
572.59	735.66
573.042	736.96
573.494	734.66
573.945	731.66
574.397	713.46
574.849	714.06
575.3	717.16
575.752	696.06
576.203	695.46
576.655	713.76
577.106	687.76
577.557	682.46
578.009	693.56
578.46	685.36
578.912	683.06
579.363	677.76
579.814	688.76
580.265	679.46
580.717	676.56
581.168	678.16
581.619	698.56
582.07	687.36
582.521	687.16
582.972	694.56
583.423	693.66
583.875	699.66
584.326	702.96
584.777	715.66
585.227	729.66
585.678	742.86
586.129	753.86
586.58	776.46
587.031	791.66
587.482	822.46
587.933	839.66
588.384	822.56
588.834	793.56
589.285	785.86
589.736	793.46
590.186	796.56
590.637	786.36
591.088	768.66
591.538	755.76
591.989	753.16
592.439	753.26
592.89	733.06
593.34	724.86
593.791	731.06
594.241	715.66
594.692	716.36
595.142	707.36
595.593	710.26
596.043	724.06
596.493	736.76
596.943	729.36
597.394	743.96
597.844	744.46
598.294	754.56
598.744	786.06
599.195	810.46
599.645	850.26
600.095	894.66
600.545	955.36
600.995	1000.16
601.445	1054.66
601.895	1125.66
602.345	1170.36
602.795	1146.76
603.245	1117.06
603.695	1053.86
604.145	989.06
604.594	931.56
605.044	885.56
605.494	823.26
605.944	781.16
606.393	767.26
606.843	752.96
607.293	758.26
607.743	744.76
608.192	762.56
608.642	769.56
609.091	778.26
609.541	784.66
609.99	780.16
610.44	776.86
610.889	734.86
611.339	724.06
611.788	697.46
612.238	719.86
612.687	730.06
613.136	721.26
613.586	737.36
614.035	723.06
614.484	724.66
614.933	727.66
615.383	733.76
615.832	731.76
616.281	718.96
616.73	700.86
617.179	677.06
617.628	658.66
618.077	648.96
618.526	641.46
618.975	642.26
619.424	639.06
619.873	630.36
620.322	634.86
620.771	629.76
621.22	620.86
621.669	606.66
622.118	610.26
622.567	593.56
623.015	590.06
623.464	584.76
623.913	574.66
624.361	566.76
624.81	567.56
625.259	576.66
625.707	571.76
626.156	568.76
626.604	575.36
627.053	589.66
627.501	583.86
627.95	585.66
628.398	603.56
628.847	586.06
629.295	592.96
629.744	597.56
630.192	585.96
630.64	578.36
631.089	572.06
631.537	561.96
631.985	549.36
632.433	546.16
632.881	541.26
633.33	548.86
633.778	541.66
634.226	537.46
634.674	554.46
635.122	552.96
635.57	576.86
636.018	579.96
636.466	576.56
636.914	576.66
637.362	590.46
637.81	600.96
638.258	603.36
638.705	609.46
639.153	634.76
639.601	648.46
640.049	664.16
640.497	699.06
640.944	717.36
641.392	681.46
641.84	625.76
642.287	595.86
642.735	574.46
643.182	580.96
643.63	576.26
644.078	585.66
644.525	589.86
644.973	602.06
645.42	607.26
645.867	626.16
646.315	660.56
646.762	664.46
647.21	692.36
647.657	714.36
648.104	750.16
648.551	782.76
648.999	839.36
649.446	914.26
649.893	987.76
650.34	1140.76
650.787	1358.96
651.234	1676.76
651.682	2169.26
652.129	2930.56
652.576	4191.26
653.023	6082.66
653.47	8188.26
653.917	10083.36
654.363	11536.16
654.81	12611.36
655.257	11932.76
655.704	7906.96
656.151	4758.56
656.598	3153.46
657.044	2251.36
657.491	1756.46
657.938	1420.16
658.385	1198.06
658.831	1047.86
659.278	947.36
659.724	849.46
660.171	775.36
660.618	721.86
661.064	686.76
661.511	670.86
661.957	658.66
662.404	655.46
662.85	656.56
663.296	631.36
663.743	570.16
664.189	564.66
664.635	554.46
665.082	547.96
665.528	549.66
665.974	534.36
666.42	518.16
666.867	522.46
667.313	505.46
667.759	486.56
668.205	471.66
668.651	463.46
669.097	463.76
669.543	463.66
669.989	458.56
670.435	466.06
670.881	449.06
671.327	470.06
671.773	486.36
672.219	510.46
672.665	583.06
673.11	615.46
673.556	657.56
674.002	688.86
674.448	686.36
674.893	582.36
675.339	511.06
675.785	460.56
676.23	446.96
676.676	408.86
677.122	403.36
677.567	389.36
678.013	387.06
678.458	368.86
678.904	383.86
679.349	370.46
679.794	377.96
680.24	372.96
680.685	378.56
681.131	369.86
681.576	363.96
682.021	376.46
682.466	370.56
682.912	367.56
683.357	375.46
683.802	406.86
684.247	436.46
684.692	474.36
685.137	521.86
685.583	555.66
686.028	595.56
686.473	535.26
686.918	467.16
687.363	441.26
687.807	419.26
688.252	392.16
688.697	371.56
689.142	350.86
689.587	353.96
690.032	340.56
690.477	358.86
690.921	370.46
691.366	399.76
691.811	427.76
692.255	453.66
692.7	489.56
693.145	542.46
693.589	765.96
694.034	1236.86
694.478	1653.46
694.923	1819.56
695.367	2350.86
695.812	1262.16
696.256	532.36
696.701	388.46
697.145	363.56
697.59	345.36
698.034	337.16
698.478	345.36
698.922	340.96
699.367	345.86
699.811	355.26
700.255	374.46
700.699	402.36
701.143	445.66
701.588	494.36
702.032	541.26
702.476	539.96
702.92	521.96
703.364	537.66
703.808	707.56
704.252	1148.46
704.696	1577.36
705.14	1757.96
705.584	2224.46
706.027	1124.56
706.471	557.96
706.915	410.36
707.359	364.86
707.803	339.86
708.246	328.96
708.69	329.96
709.134	330.76
709.577	322.46
710.021	335.36
710.465	319.86
710.908	313.56
711.352	311.96
711.795	329.06
712.239	384.26
712.682	409.76
713.126	434.56
713.569	477.66
714.012	365.56
714.456	314.36
714.899	302.46
715.342	290.36
715.786	269.26
716.229	271.46
716.672	263.86
717.115	260.16
717.558	265.26
718.002	261.96
718.445	279.76
718.888	301.06
719.331	305.66
719.774	327.26
720.217	327.06
720.66	305.36
721.103	280.56
721.546	264.06
721.989	256.86
722.432	247.56
722.874	258.06
723.317	239.16
723.76	249.76
724.203	269.16
724.645	341.76
725.088	479.06
725.531	611.26
725.974	667.26
726.416	576.96
726.859	321.96
727.301	262.06
727.744	255.06
728.187	251.66
728.629	249.06
729.071	262.36
729.514	271.66
729.956	290.56
730.399	298.96
730.841	302.86
731.283	297.36
731.726	285.46
732.168	278.86
732.61	287.36
733.053	311.36
733.495	348.06
733.937	378.16
734.379	427.56
734.821	474.96
735.263	595.46
735.705	925.06
736.148	1765.96
736.59	2783.16
737.032	3190.36
737.474	2601.66
737.916	865.36
738.357	458.76
738.799	359.96
739.241	313.56
739.683	306.66
740.125	311.36
740.567	316.36
741.008	334.96
741.45	334.86
741.892	337.16
742.334	369.66
742.775	382.56
743.217	361.06
743.658	293.76
744.1	273.06
744.542	274.86
744.983	332.66
745.425	363.96
745.866	366.46
746.307	299.46
746.749	297.66
747.19	346.86
747.632	506.66
748.073	989.66
748.514	2070.66
748.956	3045.96
749.397	3854.76
749.838	3187.36
750.279	3087.56
750.72	1590.86
751.162	589.26
751.603	345.86
752.044	275.56
752.485	233.26
752.926	219.56
753.367	215.06
753.808	208.76
754.249	200.76
754.69	191.86
755.131	191.86
755.572	186.96
756.013	189.66
756.453	198.16
756.894	196.06
757.335	205.06
757.776	206.76
758.216	211.26
758.657	202.26
759.098	217.66
759.538	249.16
759.979	287.66
760.42	413.46
760.86	797.86
761.301	2108.46
761.741	4898.16
762.182	6705.86
762.622	4749.96
763.063	1410.16
763.503	567.46
763.943	344.16
