Data from 20171114-ORNL-Ar_H_NY_Subt18_08-04-23-354.txt Node
Date: Tue Nov 14 08:04:23 EST 2017
User: Ender
Spectrometer: HR+D1039
Trigger mode: 0
Integration Time (sec): 2.730000E-2
Scans to average: 10
Electric dark correction enabled: true
Nonlinearity correction enabled: false
Boxcar width: 0
XAxis mode: Wavelengths
Number of Pixels in Spectrum: 2048
>>>>>Begin Spectral Data<<<<<
187.836	-1.64
188.309	-1.64
188.782	-1.64
189.255	0.66
189.728	0.96
190.201	5.06
190.674	0.56
191.147	-2.04
191.619	-7.94
192.092	5.06
192.565	4.86
193.038	0.76
193.511	2.36
193.984	2.26
194.456	-3.24
194.929	-1.64
195.402	-6.04
195.874	0.06
196.347	0.26
196.82	-3.44
197.292	6.06
197.765	-2.14
198.237	-4.44
198.71	1.16
199.182	-2.04
199.655	6.56
200.127	2.86
200.6	1.26
201.072	0.16
201.544	-0.94
202.017	-1.54
202.489	4.86
202.961	1.16
203.433	-1.14
203.906	-4.44
204.378	-6.84
204.85	-0.04
205.322	-9.54
205.794	1.06
206.266	-3.84
206.739	-9.04
207.211	3.66
207.683	-9.34
208.155	-0.44
208.627	-1.34
209.099	-3.24
209.57	-7.74
210.042	-4.24
210.514	-6.14
210.986	0.86
211.458	-12.74
211.93	-7.54
212.402	1.06
212.873	-6.44
213.345	-8.34
213.817	-8.74
214.288	-5.14
214.76	-8.94
215.232	-5.34
215.703	-7.54
216.175	-3.14
216.646	-4.64
217.118	-5.44
217.589	-5.94
218.061	-0.74
218.532	-1.44
219.004	-1.54
219.475	-1.14
219.946	-0.64
220.418	-6.34
220.889	1.76
221.36	0.86
221.832	4.06
222.303	-4.24
222.774	-1.14
223.245	-11.64
223.717	-6.94
224.188	-4.24
224.659	-2.44
225.13	-8.24
225.601	-2.84
226.072	4.36
226.543	-1.54
227.014	0.06
227.485	-3.14
227.956	-4.64
228.427	-0.94
228.898	-1.54
229.369	5.06
229.839	1.36
230.31	-3.64
230.781	8.16
231.252	2.76
231.722	-1.74
232.193	-1.04
232.664	3.76
233.135	4.56
233.605	1.96
234.076	-4.24
234.546	2.26
235.017	9.86
235.487	3.06
235.958	4.16
236.428	0.26
236.899	8.56
237.369	6.36
237.84	-1.84
238.31	3.96
238.78	2.36
239.251	2.96
239.721	3.36
240.191	-4.54
240.662	0.16
241.132	-1.44
241.602	1.96
242.072	0.96
242.542	4.26
243.013	3.36
243.483	10.06
243.953	1.86
244.423	5.76
244.893	-4.84
245.363	3.06
245.833	4.46
246.303	7.06
246.773	12.06
247.243	6.86
247.712	4.56
248.182	9.86
248.652	6.86
249.122	-1.94
249.592	14.16
250.061	25.26
250.531	36.26
251.001	20.86
251.471	22.16
251.94	21.46
252.41	12.76
252.879	4.16
253.349	9.96
253.818	14.36
254.288	4.16
254.757	8.06
255.227	2.76
255.696	-0.94
256.166	8.16
256.635	11.66
257.105	13.96
257.574	7.36
258.043	8.36
258.513	8.36
258.982	20.66
259.451	8.66
259.92	15.96
260.389	7.86
260.859	12.76
261.328	16.86
261.797	19.76
262.266	9.66
262.735	18.86
263.204	10.56
263.673	0.76
264.142	6.76
264.611	2.26
265.08	2.56
265.549	0.66
266.018	6.96
266.487	-1.64
266.955	0.66
267.424	1.56
267.893	5.26
268.362	5.36
268.83	6.66
269.299	9.36
269.768	11.06
270.236	9.26
270.705	6.66
271.174	5.56
271.642	11.36
272.111	17.16
272.579	19.16
273.048	29.16
273.516	21.46
273.985	23.46
274.453	25.86
274.922	17.96
275.39	14.76
275.858	10.16
276.327	11.76
276.795	18.36
277.263	12.96
277.731	29.56
278.2	56.66
278.668	68.26
279.136	54.86
279.604	20.16
280.072	14.46
280.54	15.56
281.008	12.46
281.477	16.86
281.945	16.56
282.413	15.56
282.881	14.16
283.348	12.86
283.816	18.56
284.284	9.96
284.752	19.66
285.22	10.06
285.688	15.26
286.156	20.36
286.623	44.66
287.091	54.56
287.559	29.36
288.026	17.06
288.494	19.66
288.962	6.16
289.429	12.86
289.897	23.66
290.364	19.26
290.832	18.36
291.3	21.86
291.767	18.36
292.234	18.66
292.702	20.26
293.169	19.56
293.637	22.06
294.104	20.36
294.571	8.56
295.039	14.46
295.506	19.36
295.973	21.96
296.44	14.86
296.908	19.56
297.375	26.06
297.842	20.36
298.309	15.56
298.776	15.26
299.243	21.76
299.71	13.06
300.177	20.06
300.644	24.06
301.111	21.66
301.578	22.66
302.045	22.16
302.512	27.06
302.979	26.66
303.446	22.66
303.913	18.86
304.379	23.76
304.846	28.96
305.313	24.26
305.78	22.96
306.246	28.66
306.713	27.96
307.18	21.26
307.646	24.36
308.113	31.36
308.579	33.16
309.046	27.56
309.512	27.16
309.979	20.36
310.445	28.66
310.912	30.26
311.378	36.66
311.845	31.86
312.311	29.26
312.777	32.76
313.244	34.76
313.71	33.66
314.176	27.66
314.642	32.06
315.109	29.36
315.575	34.56
316.041	42.76
316.507	28.36
316.973	45.06
317.439	32.76
317.905	35.46
318.371	34.06
318.837	35.76
319.303	28.06
319.769	38.76
320.235	36.56
320.701	36.36
321.167	35.66
321.633	32.86
322.099	41.96
322.564	43.16
323.03	42.66
323.496	40.66
323.962	43.56
324.427	39.46
324.893	42.66
325.359	37.06
325.824	34.86
326.29	37.46
326.755	39.56
327.221	35.96
327.686	41.66
328.152	42.46
328.617	42.26
329.083	51.66
329.548	48.26
330.014	46.56
330.479	36.56
330.944	40.66
331.41	44.96
331.875	41.26
332.34	40.46
332.805	41.46
333.271	40.86
333.736	49.06
334.201	54.06
334.666	47.26
335.131	50.16
335.596	46.96
336.061	50.36
336.526	40.56
336.991	47.56
337.456	56.56
337.921	48.16
338.386	40.56
338.851	44.36
339.316	48.76
339.781	44.36
340.246	54.76
340.711	47.96
341.175	44.66
341.64	46.76
342.105	52.66
342.569	50.76
343.034	61.76
343.499	47.86
343.963	56.96
344.428	61.96
344.893	58.96
345.357	65.46
345.822	61.26
346.286	63.46
346.751	66.46
347.215	64.16
347.679	71.06
348.144	92.06
348.608	78.96
349.073	66.16
349.537	73.86
350.001	76.76
350.465	79.66
350.93	79.66
351.394	80.66
351.858	68.96
352.322	80.26
352.786	76.46
353.25	94.76
353.715	104.86
354.179	96.96
354.643	110.56
355.107	116.96
355.571	101.76
356.035	101.26
356.498	113.86
356.962	118.96
357.426	125.56
357.89	100.96
358.354	84.36
358.818	80.46
359.281	72.66
359.745	77.76
360.209	69.56
360.673	78.46
361.136	78.96
361.6	87.06
362.064	81.26
362.527	81.26
362.991	85.46
363.454	76.66
363.918	74.46
364.381	76.96
364.845	75.86
365.308	83.86
365.772	87.06
366.235	85.56
366.698	84.96
367.162	87.76
367.625	86.26
368.088	85.76
368.552	82.16
369.015	85.86
369.478	89.06
369.941	94.26
370.404	87.06
370.867	97.26
371.331	98.16
371.794	104.76
372.257	103.36
372.72	110.66
373.183	105.26
373.646	103.06
374.109	100.46
374.572	100.06
375.035	99.56
375.497	103.26
375.96	105.36
376.423	97.86
376.886	106.06
377.349	108.16
377.811	91.76
378.274	100.96
378.737	100.96
379.199	104.06
379.662	108.06
380.125	112.26
380.587	113.36
381.05	116.06
381.512	120.96
381.975	127.96
382.437	120.46
382.9	115.66
383.362	117.56
383.825	132.96
384.287	138.46
384.75	131.76
385.212	129.66
385.674	129.06
386.136	126.16
386.599	117.56
387.061	114.46
387.523	117.66
387.985	124.96
388.447	139.96
388.91	134.76
389.372	148.86
389.834	142.16
390.296	130.66
390.758	145.96
391.22	151.96
391.682	193.06
392.144	263.76
392.606	214.36
393.068	154.86
393.529	155.86
393.991	145.96
394.453	137.76
394.915	144.06
395.377	174.96
395.838	194.56
396.3	151.86
396.762	131.56
397.224	125.26
397.685	123.36
398.147	115.86
398.608	117.96
399.07	117.56
399.531	119.56
399.993	136.16
400.454	141.96
400.916	132.56
401.377	136.26
401.839	143.16
402.3	136.56
402.762	151.46
403.223	167.26
403.684	154.66
404.145	151.56
404.607	149.86
405.068	146.56
405.529	156.66
405.99	172.06
406.451	168.26
406.913	159.16
407.374	152.76
407.835	147.96
408.296	156.26
408.757	160.86
409.218	173.76
409.679	166.36
410.14	167.46
410.601	162.16
411.062	171.46
411.522	175.56
411.983	174.56
412.444	154.86
412.905	167.36
413.366	166.66
413.826	176.16
414.287	200.96
414.748	235.46
415.208	234.16
415.669	200.56
416.13	193.46
416.59	191.86
417.051	198.26
417.511	206.46
417.972	219.46
418.432	226.76
418.893	267.46
419.353	234.96
419.814	181.86
420.274	170.66
420.734	163.66
421.195	175.26
421.655	181.86
422.115	181.96
422.576	178.46
423.036	179.46
423.496	187.16
423.956	197.96
424.416	214.26
424.876	251.46
425.336	232.96
425.797	239.46
426.257	239.66
426.717	220.86
427.177	212.26
427.637	212.96
428.097	215.96
428.556	226.26
429.016	249.56
429.476	244.16
429.936	248.36
430.396	257.96
430.856	266.46
431.315	282.56
431.775	315.66
432.235	341.96
432.694	320.56
433.154	327.86
433.614	350.96
434.073	302.86
434.533	262.46
434.993	241.66
435.452	254.46
435.912	274.36
436.371	259.96
436.83	257.36
437.29	244.26
437.749	222.96
438.209	221.56
438.668	244.76
439.127	266.06
439.587	239.06
440.046	220.86
440.505	231.26
440.964	256.86
441.424	283.26
441.883	277.26
442.342	234.26
442.801	207.26
443.26	202.86
443.719	206.66
444.178	196.16
444.637	191.66
445.096	199.86
445.555	203.26
446.014	204.56
446.473	205.36
446.932	206.26
447.391	207.76
447.849	206.56
448.308	205.16
448.767	201.66
449.226	217.86
449.685	223.86
450.143	223.86
450.602	217.46
451.061	213.06
451.519	223.46
451.978	217.56
452.436	216.86
452.895	222.66
453.353	229.06
453.812	220.86
454.27	222.06
454.729	223.56
455.187	211.66
455.646	221.86
456.104	225.56
456.562	236.76
457.021	239.86
457.479	235.96
457.937	249.66
458.395	229.46
458.854	224.86
459.312	228.36
459.77	248.66
460.228	240.06
460.686	219.26
461.144	231.26
461.602	222.86
462.06	221.36
462.518	235.46
462.976	233.46
463.434	241.76
463.892	244.76
464.35	251.46
464.808	264.56
465.266	248.96
465.724	249.66
466.181	253.66
466.639	244.66
467.097	259.96
467.555	276.36
468.012	276.06
468.47	280.76
468.928	299.16
469.385	311.96
469.843	320.56
470.3	314.46
470.758	325.96
471.215	350.76
471.673	365.16
472.13	366.56
472.588	371.16
473.045	341.66
473.503	338.56
473.96	356.96
474.417	358.86
474.875	386.96
475.332	429.06
475.789	414.86
476.246	425.36
476.704	449.46
477.161	461.86
477.618	471.76
478.075	503.76
478.532	554.06
478.989	621.26
479.446	721.46
479.903	704.56
480.36	734.56
480.817	781.26
481.274	882.26
481.731	986.36
482.188	1071.56
482.645	1205.56
483.102	1294.46
483.558	1412.86
484.015	1468.36
484.472	1439.16
484.929	1397.76
485.385	1360.16
485.842	1311.66
486.299	1248.26
486.755	1179.26
487.212	1002.76
487.668	843.76
488.125	781.86
488.582	721.06
489.038	675.26
489.494	651.56
489.951	631.66
490.407	617.46
490.864	597.16
491.32	585.06
491.776	583.06
492.233	587.16
492.689	549.66
493.145	555.66
493.602	541.76
494.058	561.06
494.514	570.06
494.97	584.86
495.426	588.16
495.882	561.46
496.338	561.56
496.794	573.66
497.251	569.66
497.707	580.96
498.163	583.56
498.618	591.66
499.074	597.86
499.53	613.86
499.986	621.66
500.442	585.96
500.898	566.36
501.354	567.76
501.809	578.16
502.265	589.36
502.721	610.06
503.177	616.76
503.632	606.66
504.088	618.66
504.543	652.76
504.999	638.46
505.455	599.56
505.91	581.76
506.366	570.46
506.821	576.46
507.277	575.96
507.732	576.26
508.187	571.96
508.643	569.76
509.098	572.96
509.553	594.46
510.009	600.76
510.464	607.86
510.919	628.36
511.375	625.56
511.83	642.76
512.285	654.86
512.74	690.06
513.195	711.66
513.65	709.06
514.105	699.36
514.56	708.56
515.015	722.56
515.47	742.56
515.925	728.36
516.38	720.86
516.835	728.36
517.29	714.86
517.745	715.86
518.2	694.56
518.655	689.16
519.109	676.36
519.564	672.66
520.019	673.66
520.474	657.26
520.928	668.96
521.383	662.16
521.838	643.56
522.292	648.76
522.747	644.26
523.201	649.46
523.656	629.76
524.11	626.16
524.565	626.36
525.019	628.86
525.474	626.96
525.928	640.16
526.382	622.86
526.837	629.06
527.291	635.86
527.745	636.26
528.2	635.96
528.654	619.76
529.108	619.26
529.562	626.86
530.016	619.46
530.47	616.86
530.925	618.06
531.379	628.36
531.833	632.06
532.287	640.16
532.741	632.66
533.195	637.16
533.649	643.86
534.103	656.16
534.556	651.26
535.01	653.86
535.464	634.76
535.918	648.46
536.372	642.96
536.826	650.06
537.279	639.76
537.733	643.06
538.187	641.76
538.64	645.46
539.094	652.96
539.548	663.66
540.001	655.36
540.455	646.16
540.908	658.76
541.362	667.96
541.815	674.56
542.269	679.56
542.722	687.76
543.175	691.76
543.629	692.46
544.082	702.36
544.536	704.86
544.989	695.66
545.442	708.76
545.895	705.76
546.349	713.76
546.802	704.66
547.255	708.16
547.708	719.56
548.161	736.76
548.614	733.66
549.067	742.26
549.52	722.96
549.973	721.26
550.426	713.96
550.879	709.66
551.332	714.16
551.785	721.56
552.238	720.46
552.691	733.26
553.144	741.46
553.596	748.56
554.049	770.36
554.502	798.76
554.955	824.66
555.407	817.06
555.86	797.86
556.313	796.06
556.765	787.66
557.218	792.26
557.67	793.66
558.123	797.16
558.576	785.16
559.028	779.96
559.48	797.76
559.933	783.16
560.385	741.56
560.838	718.56
561.29	689.26
561.742	694.66
562.195	677.16
562.647	683.56
563.099	683.46
563.551	681.46
564.004	695.36
564.456	686.06
564.908	684.16
565.36	660.46
565.812	655.66
566.264	638.46
566.716	642.86
567.168	632.16
567.62	635.56
568.072	618.16
568.524	618.16
568.976	602.86
569.428	595.46
569.88	592.56
570.332	589.76
570.784	602.46
571.235	594.76
571.687	616.06
572.139	618.16
572.59	632.06
573.042	628.46
573.494	628.46
573.945	621.96
574.397	609.06
574.849	606.06
575.3	613.96
575.752	596.46
576.203	590.86
576.655	596.76
577.106	584.86
577.557	586.66
578.009	585.76
578.46	575.96
578.912	572.36
579.363	582.06
579.814	588.96
580.265	584.26
580.717	576.96
581.168	582.56
581.619	589.36
582.07	597.26
582.521	593.86
582.972	587.06
583.423	594.56
583.875	593.36
584.326	611.56
584.777	646.76
585.227	709.06
585.678	796.96
586.129	872.36
586.58	956.96
587.031	1022.66
587.482	1165.46
587.933	1340.06
588.384	1161.56
588.834	851.36
589.285	692.96
589.736	678.26
590.186	670.06
590.637	661.06
591.088	638.56
591.538	652.76
591.989	632.06
592.439	620.76
592.89	625.86
593.34	613.76
593.791	606.56
594.241	603.66
594.692	622.96
595.142	599.56
595.593	603.56
596.043	608.16
596.493	613.06
596.943	614.26
597.394	619.26
597.844	614.46
598.294	623.46
598.744	646.46
599.195	663.76
599.645	693.26
600.095	730.46
600.545	782.26
600.995	831.26
601.445	885.66
601.895	929.26
602.345	982.86
602.795	973.76
603.245	921.16
603.695	867.26
604.145	822.26
604.594	779.26
605.044	729.56
605.494	681.76
605.944	638.86
606.393	638.56
606.843	624.66
607.293	624.96
607.743	626.66
608.192	631.16
608.642	639.06
609.091	654.06
609.541	655.26
609.99	652.56
610.44	638.66
610.889	613.26
611.339	596.16
611.788	577.76
612.238	602.06
612.687	611.56
613.136	615.56
613.586	636.36
614.035	634.46
614.484	640.76
614.933	638.46
615.383	630.16
615.832	633.56
616.281	613.76
616.73	576.96
617.179	566.26
617.628	556.06
618.077	535.36
618.526	529.46
618.975	520.46
619.424	516.76
619.873	517.66
620.322	525.76
620.771	508.26
621.22	513.06
621.669	505.96
622.118	502.36
622.567	484.56
623.015	478.96
623.464	486.86
623.913	473.56
624.361	463.56
624.81	463.26
625.259	462.56
625.707	476.16
626.156	468.76
626.604	477.26
627.053	474.16
627.501	476.66
627.95	480.36
628.398	486.16
628.847	478.36
629.295	483.26
629.744	478.36
630.192	480.06
630.64	485.56
631.089	466.46
631.537	479.16
631.985	491.26
632.433	503.36
632.881	504.56
633.33	554.06
633.778	527.86
634.226	483.16
634.674	473.06
635.122	481.46
635.57	494.76
636.018	522.56
636.466	492.66
636.914	466.36
637.362	478.86
637.81	483.36
638.258	487.66
638.705	477.16
639.153	501.16
639.601	507.86
640.049	532.46
640.497	558.66
640.944	580.26
641.392	535.76
641.84	510.86
642.287	487.96
642.735	470.76
643.182	477.56
643.63	485.16
644.078	482.36
644.525	488.66
644.973	493.76
645.42	501.86
645.867	514.46
646.315	539.66
646.762	548.86
647.21	572.96
647.657	587.96
648.104	630.26
648.551	635.16
648.999	690.96
649.446	749.96
649.893	827.76
650.34	952.16
650.787	1147.76
651.234	1411.06
651.682	1824.36
652.129	2510.66
652.576	3565.56
653.023	5311.16
653.47	7363.16
653.917	9336.46
654.363	10896.56
654.81	12330.46
655.257	11742.86
655.704	7578.46
656.151	4441.36
656.598	2865.86
657.044	2034.96
657.491	1557.46
657.938	1246.16
658.385	1033.76
658.831	897.26
659.278	803.66
659.724	705.86
660.171	648.56
660.618	601.36
661.064	563.56
661.511	542.86
661.957	523.86
662.404	516.06
662.85	530.06
663.296	501.26
663.743	467.96
664.189	448.66
664.635	454.46
665.082	432.96
665.528	435.56
665.974	425.86
666.42	420.36
666.867	417.56
667.313	398.16
667.759	401.56
668.205	389.76
668.651	398.36
669.097	410.46
669.543	408.46
669.989	386.06
670.435	367.76
670.881	367.66
671.327	360.66
671.773	384.36
672.219	408.56
672.665	435.66
673.11	471.16
673.556	517.26
674.002	544.56
674.448	541.86
674.893	451.16
675.339	392.26
675.785	353.86
676.23	344.16
676.676	311.66
677.122	310.86
677.567	304.16
678.013	295.16
678.458	296.26
678.904	291.86
679.349	288.46
679.794	282.36
680.24	289.96
680.685	286.36
681.131	283.56
681.576	281.76
682.021	288.96
682.466	286.66
682.912	273.56
683.357	285.76
683.802	306.46
684.247	324.16
684.692	365.26
685.137	400.66
685.583	441.66
686.028	472.86
686.473	425.26
686.918	364.26
687.363	347.16
687.807	328.76
688.252	304.46
688.697	286.56
689.142	274.66
689.587	268.06
690.032	263.56
690.477	273.66
690.921	283.26
691.366	317.16
691.811	318.16
692.255	352.76
692.7	370.86
693.145	398.86
693.589	545.06
694.034	897.36
694.478	1236.26
694.923	1448.86
695.367	1918.06
695.812	993.96
696.256	400.76
696.701	301.56
697.145	283.86
697.59	268.06
698.034	256.16
698.478	272.96
698.922	266.96
699.367	265.96
699.811	275.16
700.255	282.76
700.699	315.76
701.143	344.06
701.588	392.16
702.032	424.26
702.476	419.46
702.92	398.46
703.364	395.56
703.808	501.66
704.252	810.06
704.696	1166.76
705.14	1367.86
705.584	1791.56
706.027	890.06
706.471	426.36
706.915	321.26
707.359	284.86
707.803	257.46
708.246	251.56
708.69	265.76
709.134	255.96
709.577	253.06
710.021	257.66
710.465	247.36
710.908	249.76
711.352	240.96
711.795	254.56
712.239	286.06
712.682	308.46
713.126	345.26
713.569	385.76
714.012	302.76
714.456	263.36
714.899	246.76
715.342	217.76
715.786	211.76
716.229	203.16
716.672	204.66
717.115	201.56
717.558	202.06
718.002	204.36
718.445	217.56
718.888	228.66
719.331	236.36
719.774	253.16
720.217	250.06
720.66	232.06
721.103	220.06
721.546	200.16
721.989	209.66
722.432	184.46
722.874	189.56
723.317	179.36
723.76	192.36
724.203	205.26
724.645	255.66
725.088	354.36
725.531	460.66
725.974	536.26
726.416	452.86
726.859	245.06
727.301	197.86
727.744	192.06
728.187	192.46
728.629	194.26
729.071	196.86
729.514	213.96
729.956	220.26
730.399	219.06
730.841	237.16
731.283	226.86
731.726	212.86
732.168	205.26
732.61	215.06
733.053	231.06
733.495	253.26
733.937	274.36
734.379	317.26
734.821	354.06
735.263	435.66
735.705	658.76
736.148	1250.46
736.59	2073.26
737.032	2569.26
737.474	2081.26
737.916	655.16
738.357	346.66
738.799	272.46
739.241	240.06
739.683	231.76
740.125	229.96
740.567	239.96
741.008	255.46
741.45	256.66
741.892	255.06
742.334	283.26
742.775	286.56
743.217	280.56
743.658	212.46
744.1	204.66
744.542	213.16
744.983	251.46
745.425	284.56
745.866	279.86
746.307	229.06
746.749	232.86
747.19	264.26
747.632	356.76
748.073	676.06
748.514	1467.56
748.956	2329.86
749.397	2895.76
749.838	2424.56
750.279	2484.56
750.72	1245.96
751.162	450.56
751.603	260.66
752.044	207.06
752.485	170.86
752.926	164.76
753.367	169.96
753.808	155.46
754.249	157.26
754.69	150.06
755.131	146.36
755.572	149.86
756.013	142.56
756.453	150.26
756.894	147.76
757.335	151.26
757.776	159.56
758.216	162.36
758.657	150.76
759.098	158.96
759.538	181.76
759.979	210.36
760.42	295.16
760.86	543.46
761.301	1413.76
761.741	3532.26
762.182	5446.46
762.622	3851.86
763.063	1079.06
