Data from 20171114-ORNL-Ar_H_NY_Subt18_08-05-47-977.txt Node
Date: Tue Nov 14 08:05:47 EST 2017
User: Ender
Spectrometer: HR+D1039
Trigger mode: 0
Integration Time (sec): 2.730000E-2
Scans to average: 10
Electric dark correction enabled: true
Nonlinearity correction enabled: false
Boxcar width: 0
XAxis mode: Wavelengths
Number of Pixels in Spectrum: 2048
>>>>>Begin Spectral Data<<<<<
187.836	-2.99
188.309	-2.99
188.782	-2.99
189.255	2.31
189.728	-5.69
190.201	-0.59
190.674	1.21
191.147	4.61
191.619	-9.79
192.092	4.31
192.565	3.81
193.038	-2.69
193.511	4.41
193.984	4.21
194.456	0.21
194.929	0.51
195.402	-2.09
195.874	-1.69
196.347	-0.29
196.82	-8.79
197.292	9.51
197.765	-1.89
198.237	-3.19
198.71	-0.99
199.182	0.41
199.655	-1.99
200.127	1.11
200.6	-4.39
201.072	-4.39
201.544	-6.19
202.017	-8.19
202.489	7.81
202.961	-2.89
203.433	1.81
203.906	-8.29
204.378	-7.89
204.85	-2.59
205.322	-13.09
205.794	-2.49
206.266	-4.69
206.739	-7.29
207.211	2.31
207.683	-8.29
208.155	-4.89
208.627	-9.09
209.099	-11.09
209.57	-6.89
210.042	-2.29
210.514	-6.09
210.986	0.61
211.458	-11.89
211.93	-4.39
212.402	-2.29
212.873	-5.09
213.345	-9.49
213.817	-15.29
214.288	-1.29
214.76	-12.49
215.232	-3.69
215.703	-9.69
216.175	-1.29
216.646	-6.29
217.118	-8.89
217.589	-2.69
218.061	-2.89
218.532	0.21
219.004	-2.89
219.475	-2.49
219.946	-6.39
220.418	-5.69
220.889	2.31
221.36	1.11
221.832	-3.79
222.303	-9.19
222.774	2.71
223.245	-9.09
223.717	-11.39
224.188	-4.09
224.659	-10.99
225.13	-6.59
225.601	-0.89
226.072	-2.19
226.543	-0.19
227.014	-3.19
227.485	-2.49
227.956	-10.89
228.427	-4.09
228.898	0.01
229.369	3.11
229.839	-6.99
230.31	-10.39
230.781	-1.09
231.252	-1.49
231.722	-4.39
232.193	-6.39
232.664	-0.09
233.135	2.41
233.605	-0.49
234.076	-6.89
234.546	0.41
235.017	0.41
235.487	-4.39
235.958	0.41
236.428	-2.39
236.899	2.21
237.369	8.21
237.84	-5.49
238.31	3.81
238.78	5.61
239.251	-4.09
239.721	3.11
240.191	1.81
240.662	1.51
241.132	0.21
241.602	-3.49
242.072	-0.49
242.542	5.91
243.013	3.51
243.483	6.91
243.953	3.71
244.423	1.81
244.893	-2.59
245.363	5.61
245.833	-0.19
246.303	0.41
246.773	8.01
247.243	-0.49
247.712	0.01
248.182	4.81
248.652	9.11
249.122	0.91
249.592	11.91
250.061	20.31
250.531	33.41
251.001	17.51
251.471	19.51
251.94	20.71
252.41	5.01
252.879	0.21
253.349	10.71
253.818	10.51
254.288	8.11
254.757	3.01
255.227	-3.09
255.696	0.61
256.166	0.31
256.635	7.01
257.105	7.11
257.574	1.71
258.043	0.41
258.513	10.91
258.982	14.61
259.451	11.51
259.92	16.71
260.389	12.41
260.859	19.21
261.328	9.81
261.797	17.91
262.266	6.71
262.735	15.61
263.204	4.61
263.673	3.71
264.142	7.21
264.611	-3.59
265.08	-4.79
265.549	3.41
266.018	3.21
266.487	-4.19
266.955	-0.79
267.424	0.61
267.893	9.51
268.362	4.01
268.83	7.21
269.299	14.01
269.768	2.21
270.236	5.51
270.705	1.71
271.174	9.31
271.642	12.41
272.111	11.51
272.579	21.11
273.048	21.91
273.516	28.41
273.985	25.71
274.453	26.71
274.922	19.51
275.39	13.31
275.858	6.21
276.327	15.31
276.795	20.51
277.263	15.41
277.731	29.21
278.2	50.01
278.668	64.81
279.136	51.91
279.604	23.91
280.072	14.31
280.54	15.11
281.008	11.11
281.477	21.51
281.945	14.71
282.413	19.71
282.881	16.61
283.348	10.31
283.816	15.61
284.284	18.11
284.752	16.91
285.22	13.51
285.688	18.11
286.156	18.71
286.623	46.31
287.091	50.11
287.559	30.11
288.026	20.71
288.494	17.31
288.962	4.41
289.429	8.21
289.897	18.91
290.364	13.21
290.832	15.01
291.3	12.91
291.767	13.81
292.234	23.81
292.702	18.21
293.169	22.71
293.637	26.41
294.104	26.51
294.571	10.31
295.039	11.81
295.506	18.11
295.973	13.41
296.44	17.91
296.908	17.41
297.375	16.71
297.842	21.71
298.309	16.71
298.776	12.71
299.243	24.81
299.71	13.61
300.177	23.51
300.644	26.11
301.111	28.21
301.578	27.61
302.045	16.01
302.512	23.61
302.979	20.11
303.446	22.01
303.913	15.31
304.379	21.81
304.846	27.31
305.313	27.41
305.78	22.51
306.246	27.91
306.713	26.41
307.18	27.21
307.646	31.31
308.113	31.31
308.579	23.51
309.046	29.81
309.512	26.51
309.979	17.71
310.445	26.71
310.912	29.21
311.378	33.91
311.845	33.81
312.311	30.71
312.777	33.81
313.244	30.21
313.71	40.21
314.176	29.21
314.642	27.91
315.109	34.61
315.575	36.71
316.041	41.71
316.507	34.81
316.973	36.81
317.439	34.11
317.905	33.81
318.371	41.21
318.837	33.91
319.303	40.01
319.769	33.71
320.235	32.91
320.701	38.41
321.167	43.91
321.633	34.61
322.099	38.11
322.564	49.31
323.03	43.61
323.496	41.81
323.962	41.51
324.427	45.81
324.893	45.61
325.359	38.41
325.824	41.21
326.29	36.81
326.755	43.01
327.221	45.01
327.686	41.31
328.152	42.61
328.617	42.11
329.083	52.11
329.548	52.61
330.014	48.01
330.479	50.91
330.944	47.81
331.41	46.31
331.875	44.51
332.34	45.21
332.805	42.61
333.271	50.31
333.736	48.71
334.201	56.91
334.666	53.91
335.131	57.91
335.596	50.31
336.061	52.21
336.526	34.71
336.991	48.31
337.456	63.11
337.921	42.91
338.386	47.71
338.851	47.91
339.316	44.01
339.781	42.91
340.246	44.31
340.711	48.91
341.175	48.51
341.64	47.31
342.105	54.31
342.569	61.41
343.034	57.41
343.499	62.61
343.963	50.61
344.428	60.71
344.893	63.61
345.357	64.11
345.822	63.81
346.286	75.51
346.751	76.61
347.215	67.41
347.679	81.61
348.144	100.51
348.608	80.41
349.073	72.11
349.537	81.71
350.001	79.51
350.465	91.51
350.93	86.61
351.394	78.01
351.858	79.61
352.322	87.41
352.786	88.91
353.25	104.01
353.715	113.21
354.179	104.11
354.643	124.31
355.107	129.81
355.571	111.01
356.035	105.21
356.498	127.11
356.962	121.41
357.426	136.51
357.89	116.81
358.354	84.81
358.818	84.41
359.281	83.41
359.745	79.71
360.209	78.01
360.673	72.81
361.136	75.61
361.6	85.31
362.064	90.81
362.527	87.21
362.991	95.81
363.454	85.41
363.918	76.01
364.381	80.71
364.845	82.81
365.308	88.81
365.772	89.61
366.235	83.51
366.698	91.11
367.162	86.21
367.625	84.41
368.088	84.81
368.552	87.41
369.015	92.11
369.478	103.81
369.941	101.11
370.404	92.01
370.867	111.71
371.331	115.01
371.794	120.31
372.257	115.41
372.72	119.61
373.183	111.71
373.646	105.01
374.109	102.81
374.572	109.11
375.035	110.11
375.497	104.31
375.96	106.11
376.423	100.61
376.886	116.91
377.349	109.31
377.811	103.61
378.274	108.41
378.737	107.31
379.199	112.01
379.662	115.71
380.125	121.21
380.587	115.11
381.05	122.41
381.512	132.71
381.975	132.01
382.437	127.51
382.9	128.01
383.362	133.61
383.825	141.81
384.287	149.41
384.75	138.21
385.212	144.31
385.674	143.81
386.136	134.11
386.599	130.91
387.061	130.51
387.523	125.11
387.985	139.71
388.447	142.31
388.91	138.41
389.372	154.11
389.834	155.21
390.296	149.51
390.758	156.61
391.22	176.21
391.682	210.21
392.144	298.81
392.606	222.51
393.068	167.61
393.529	168.21
393.991	151.81
394.453	149.61
394.915	157.81
395.377	198.81
395.838	215.71
396.3	159.21
396.762	139.81
397.224	134.11
397.685	134.41
398.147	131.41
398.608	126.21
399.07	131.21
399.531	138.01
399.993	144.11
400.454	152.61
400.916	145.41
401.377	151.01
401.839	148.51
402.3	149.01
402.762	171.01
403.223	179.21
403.684	173.21
404.145	164.61
404.607	160.01
405.068	169.61
405.529	169.61
405.99	184.11
406.451	171.71
406.913	172.61
407.374	169.61
407.835	163.81
408.296	174.51
408.757	180.31
409.218	190.51
409.679	184.11
410.14	179.11
410.601	183.71
411.062	189.11
411.522	192.01
411.983	189.21
412.444	174.11
412.905	176.21
413.366	186.21
413.826	193.71
414.287	223.51
414.748	264.71
415.208	243.31
415.669	218.11
416.13	205.51
416.59	200.71
417.051	217.61
417.511	223.01
417.972	236.91
418.432	256.11
418.893	287.81
419.353	248.71
419.814	201.01
420.274	187.01
420.734	185.91
421.195	193.71
421.655	200.11
422.115	194.01
422.576	189.81
423.036	195.01
423.496	207.01
423.956	215.21
424.416	229.51
424.876	270.61
425.336	259.81
425.797	265.81
426.257	261.91
426.717	243.51
427.177	234.31
427.637	227.21
428.097	238.81
428.556	247.21
429.016	274.41
429.476	263.71
429.936	275.81
430.396	276.91
430.856	297.61
431.315	320.51
431.775	351.91
432.235	381.61
432.694	357.21
433.154	366.01
433.614	392.91
434.073	343.41
434.533	291.11
434.993	272.91
435.452	287.21
435.912	289.51
436.371	285.71
436.83	284.41
437.29	271.31
437.749	251.41
438.209	242.81
438.668	274.11
439.127	294.31
439.587	273.11
440.046	251.31
440.505	267.11
440.964	279.81
441.424	329.31
441.883	313.41
442.342	265.61
442.801	226.91
443.26	228.01
443.719	220.41
444.178	218.11
444.637	213.11
445.096	220.91
445.555	228.51
446.014	228.71
446.473	231.81
446.932	234.11
447.391	229.31
447.849	231.21
448.308	219.01
448.767	223.91
449.226	233.51
449.685	239.01
450.143	252.91
450.602	236.91
451.061	225.91
451.519	234.71
451.978	231.41
452.436	244.71
452.895	237.51
453.353	250.01
453.812	242.71
454.27	245.61
454.729	239.41
455.187	246.31
455.646	245.61
456.104	248.31
456.562	269.41
457.021	266.31
457.479	261.31
457.937	275.31
458.395	267.61
458.854	256.91
459.312	258.71
459.77	281.71
460.228	261.11
460.686	247.61
461.144	249.01
461.602	249.41
462.06	246.41
462.518	257.01
462.976	259.81
463.434	263.41
463.892	261.81
464.35	281.41
464.808	286.41
465.266	267.91
465.724	267.11
466.181	282.01
466.639	275.61
467.097	290.01
467.555	301.41
468.012	300.21
468.47	314.11
468.928	325.21
469.385	344.51
469.843	350.31
470.3	352.01
470.758	365.91
471.215	388.21
471.673	412.61
472.13	413.31
472.588	418.61
473.045	376.11
473.503	389.01
473.96	397.31
474.417	410.21
474.875	436.11
475.332	477.61
475.789	468.01
476.246	469.51
476.704	495.11
477.161	525.71
477.618	533.11
478.075	569.81
478.532	628.71
478.989	706.01
479.446	812.61
479.903	780.51
480.36	822.01
480.817	869.71
481.274	979.71
481.731	1077.31
482.188	1167.21
482.645	1314.51
483.102	1422.11
483.558	1558.91
484.015	1605.51
484.472	1595.81
484.929	1533.41
485.385	1485.01
485.842	1443.71
486.299	1389.51
486.755	1316.81
487.212	1116.21
487.668	935.41
488.125	862.61
488.582	781.91
489.038	761.31
489.494	723.81
489.951	696.71
490.407	679.61
490.864	665.11
491.32	645.91
491.776	656.31
492.233	643.11
492.689	613.31
493.145	618.91
493.602	601.21
494.058	617.11
494.514	621.91
494.97	642.11
495.426	656.21
495.882	631.51
496.338	617.31
496.794	632.01
497.251	626.41
497.707	639.41
498.163	650.11
498.618	656.21
499.074	653.21
499.53	683.21
499.986	688.61
500.442	663.91
500.898	639.61
501.354	629.21
501.809	638.11
502.265	656.71
502.721	665.41
503.177	685.61
503.632	674.11
504.088	685.11
504.543	716.71
504.999	722.41
505.455	674.61
505.91	644.41
506.366	639.01
506.821	633.51
507.277	632.71
507.732	629.31
508.187	632.91
508.643	641.61
509.098	645.21
509.553	662.51
510.009	674.61
510.464	682.61
510.919	691.51
511.375	704.41
511.83	721.41
512.285	724.31
512.74	777.11
513.195	788.81
513.65	793.91
514.105	775.11
514.56	768.21
515.015	802.71
515.47	820.21
515.925	807.11
516.38	795.51
516.835	804.91
517.29	795.31
517.745	793.91
518.2	772.31
518.655	759.21
519.109	742.71
519.564	741.71
520.019	732.81
520.474	733.71
520.928	738.01
521.383	727.21
521.838	722.11
522.292	728.41
522.747	722.81
523.201	712.11
523.656	700.11
524.11	698.51
524.565	696.61
525.019	695.01
525.474	707.61
525.928	705.51
526.382	698.61
526.837	701.71
527.291	711.11
527.745	707.41
528.2	709.41
528.654	700.71
529.108	699.61
529.562	692.81
530.016	698.61
530.47	701.01
530.925	699.11
531.379	696.31
531.833	706.51
532.287	713.51
532.741	713.11
533.195	720.21
533.649	722.41
534.103	726.21
534.556	717.31
535.01	732.61
535.464	723.81
535.918	724.91
536.372	728.01
536.826	724.11
537.279	717.61
537.733	717.81
538.187	723.91
538.64	729.31
539.094	730.01
539.548	734.91
540.001	729.61
540.455	727.11
540.908	727.11
541.362	743.21
541.815	754.01
542.269	765.81
542.722	762.61
543.175	771.41
543.629	773.41
544.082	794.91
544.536	804.21
544.989	786.21
545.442	799.11
545.895	793.71
546.349	797.41
546.802	797.81
547.255	798.11
547.708	821.81
548.161	826.01
548.614	823.71
549.067	829.21
549.52	825.41
549.973	811.41
550.426	822.71
550.879	801.61
551.332	801.11
551.785	807.51
552.238	816.11
552.691	824.21
553.144	846.21
553.596	850.81
554.049	870.81
554.502	903.11
554.955	908.51
555.407	922.71
555.86	923.31
556.313	892.61
556.765	877.31
557.218	883.31
557.67	888.81
558.123	882.71
558.576	883.71
559.028	891.51
559.48	888.41
559.933	870.01
560.385	846.51
560.838	814.41
561.29	794.61
561.742	780.31
562.195	768.31
562.647	765.21
563.099	774.31
563.551	779.91
564.004	776.11
564.456	777.41
564.908	779.31
565.36	750.51
565.812	734.81
566.264	716.01
566.716	719.11
567.168	722.91
567.62	722.01
568.072	710.01
568.524	699.31
568.976	689.61
569.428	678.51
569.88	676.91
570.332	681.01
570.784	686.01
571.235	694.21
571.687	689.41
572.139	707.51
572.59	723.11
573.042	707.01
573.494	709.41
573.945	709.81
574.397	686.91
574.849	690.41
575.3	696.41
575.752	688.71
576.203	679.11
576.655	693.51
577.106	671.91
577.557	664.11
578.009	663.21
578.46	662.11
578.912	663.61
579.363	680.01
579.814	674.51
580.265	665.21
580.717	664.71
581.168	685.91
581.619	685.51
582.07	681.31
582.521	674.21
582.972	677.11
583.423	688.91
583.875	673.01
584.326	691.31
584.777	740.51
585.227	826.91
585.678	909.11
586.129	988.61
586.58	1059.91
587.031	1153.71
587.482	1284.51
587.933	1471.51
588.384	1275.21
588.834	960.71
589.285	809.81
589.736	789.01
590.186	767.11
590.637	762.71
591.088	734.01
591.538	736.51
591.989	726.21
592.439	726.21
592.89	726.51
593.34	703.11
593.791	711.41
594.241	698.01
594.692	707.71
595.142	704.51
595.593	697.41
596.043	703.11
596.493	708.91
596.943	719.21
597.394	710.91
597.844	707.51
598.294	726.61
598.744	748.01
599.195	770.41
599.645	811.41
600.095	851.01
600.545	902.61
600.995	961.91
601.445	1029.31
601.895	1075.31
602.345	1128.61
602.795	1105.11
603.245	1054.11
603.695	1003.31
604.145	966.01
604.594	908.01
605.044	859.11
605.494	791.51
605.944	749.11
606.393	742.31
606.843	723.61
607.293	732.31
607.743	727.61
608.192	737.81
608.642	750.51
609.091	767.11
609.541	767.31
609.99	758.11
610.44	764.91
610.889	717.81
611.339	709.01
611.788	690.41
612.238	700.21
612.687	720.31
613.136	714.51
613.586	731.01
614.035	733.41
614.484	743.91
614.933	751.41
615.383	744.31
615.832	736.81
616.281	718.61
616.73	686.91
617.179	663.51
617.628	655.21
618.077	632.41
618.526	620.31
618.975	613.51
619.424	611.81
619.873	605.01
620.322	608.01
620.771	595.81
621.22	598.31
621.669	582.11
622.118	573.81
622.567	576.51
623.015	570.91
623.464	564.01
623.913	551.81
624.361	546.31
624.81	550.51
625.259	551.01
625.707	557.91
626.156	548.01
626.604	562.61
627.053	549.91
627.501	559.31
627.95	558.41
628.398	569.71
628.847	555.11
629.295	565.11
629.744	569.51
630.192	564.91
630.64	551.41
631.089	549.61
631.537	573.41
631.985	571.51
632.433	584.01
632.881	590.51
633.33	642.51
633.778	636.71
634.226	558.71
634.674	558.61
635.122	564.71
635.57	595.41
636.018	611.91
636.466	568.01
636.914	541.41
637.362	564.51
637.81	572.81
638.258	574.01
638.705	569.81
639.153	602.91
639.601	601.11
640.049	631.21
640.497	657.31
640.944	684.81
641.392	631.91
641.84	607.71
642.287	582.01
642.735	566.61
643.182	560.41
643.63	561.21
644.078	561.71
644.525	585.21
644.973	593.81
645.42	591.81
645.867	612.91
646.315	631.91
646.762	657.11
647.21	678.01
647.657	691.41
648.104	734.31
648.551	752.21
648.999	819.41
649.446	898.31
649.893	985.11
650.34	1132.51
650.787	1365.21
651.234	1689.91
651.682	2198.51
652.129	3024.81
652.576	4332.71
653.023	6398.31
653.47	8794.21
653.917	10984.01
654.363	12787.01
654.81	14151.91
655.257	13488.31
655.704	8854.11
656.151	5193.21
656.598	3366.51
657.044	2390.21
657.491	1837.91
657.938	1478.31
658.385	1224.51
658.831	1066.51
659.278	944.61
659.724	843.71
660.171	775.01
660.618	712.61
661.064	684.71
661.511	662.71
661.957	649.41
662.404	630.61
662.85	635.51
663.296	615.21
663.743	547.71
664.189	525.41
664.635	523.91
665.082	521.11
665.528	516.81
665.974	506.51
666.42	498.31
666.867	497.81
667.313	482.01
667.759	466.21
668.205	466.51
668.651	467.71
669.097	467.51
669.543	489.21
669.989	453.31
670.435	437.61
670.881	430.61
671.327	437.61
671.773	452.91
672.219	475.41
672.665	530.31
673.11	567.01
673.556	614.91
674.002	647.21
674.448	638.71
674.893	529.71
675.339	462.61
675.785	427.71
676.23	406.61
676.676	378.31
677.122	376.31
677.567	367.31
678.013	361.61
678.458	351.71
678.904	359.21
679.349	339.21
679.794	349.11
680.24	343.11
680.685	339.21
681.131	337.31
681.576	338.11
682.021	345.81
682.466	340.81
682.912	335.41
683.357	337.11
683.802	376.51
684.247	398.71
684.692	444.91
685.137	481.61
685.583	527.11
686.028	548.71
686.473	507.21
686.918	434.01
687.363	402.61
687.807	388.21
688.252	360.51
688.697	341.41
689.142	332.51
689.587	324.11
690.032	319.91
690.477	333.31
690.921	342.91
691.366	369.61
691.811	391.11
692.255	417.21
692.7	443.31
693.145	481.01
693.589	674.81
694.034	1074.11
694.478	1472.91
694.923	1686.11
695.367	2210.31
695.812	1161.61
696.256	481.41
696.701	361.01
697.145	329.31
697.59	318.51
698.034	306.91
698.478	323.91
698.922	320.61
699.367	318.11
699.811	329.61
700.255	345.41
700.699	374.01
701.143	417.81
701.588	458.31
702.032	503.01
702.476	495.21
702.92	474.21
703.364	474.61
703.808	608.91
704.252	988.91
704.696	1386.71
705.14	1627.91
705.584	2064.21
706.027	1037.91
706.471	503.81
706.915	383.91
707.359	329.71
707.803	310.71
708.246	306.81
708.69	308.81
709.134	306.81
709.577	296.11
710.021	307.91
710.465	298.61
710.908	287.81
711.352	291.91
711.795	304.11
712.239	344.01
712.682	374.11
713.126	408.91
713.569	450.21
714.012	362.01
714.456	311.81
714.899	285.51
715.342	275.11
715.786	253.21
716.229	250.01
716.672	249.01
717.115	244.11
717.558	241.51
718.002	235.71
718.445	259.81
718.888	276.01
719.331	286.51
719.774	302.71
720.217	300.11
720.66	279.81
721.103	254.31
721.546	246.81
721.989	242.41
722.432	233.61
722.874	228.41
723.317	220.31
723.76	228.91
724.203	246.51
724.645	307.71
725.088	427.31
725.531	552.01
725.974	631.01
726.416	538.61
726.859	305.01
727.301	237.21
727.744	231.71
728.187	221.91
728.629	233.01
729.071	237.51
729.514	247.91
729.956	260.61
730.399	274.21
730.841	292.01
731.283	263.71
731.726	256.31
732.168	245.51
732.61	250.71
733.053	280.01
733.495	310.91
733.937	338.31
734.379	390.11
734.821	419.21
735.263	520.71
735.705	793.61
736.148	1492.01
736.59	2480.31
737.032	2985.21
737.474	2414.41
737.916	773.71
738.357	415.31
738.799	316.61
739.241	288.71
739.683	272.61
740.125	282.51
740.567	290.31
741.008	303.81
741.45	301.51
741.892	304.31
742.334	332.61
742.775	335.01
743.217	328.91
743.658	262.41
744.1	247.01
744.542	254.71
744.983	299.91
745.425	338.11
745.866	333.51
746.307	272.91
746.749	273.61
747.19	314.81
747.632	435.31
748.073	834.71
748.514	1764.71
748.956	2750.51
749.397	3424.61
749.838	2851.31
750.279	2876.11
750.72	1452.41
751.162	540.11
751.603	308.51
752.044	240.01
752.485	214.61
752.926	200.61
753.367	192.11
753.808	190.21
754.249	188.11
754.69	179.11
755.131	173.61
755.572	182.51
756.013	169.41
756.453	184.61
756.894	184.41
757.335	191.01
757.776	188.11
758.216	191.11
758.657	187.41
759.098	198.01
759.538	219.61
759.979	250.11
760.42	353.61
760.86	667.01
761.301	1714.71
761.741	4194.31
762.182	6251.01
