Data from 20171114-ORNL-Ar_H_NY_Subt18_08-07-34-437.txt Node
Date: Tue Nov 14 08:07:34 EST 2017
User: Ender
Spectrometer: HR+D1039
Trigger mode: 0
Integration Time (sec): 2.730000E-2
Scans to average: 10
Electric dark correction enabled: true
Nonlinearity correction enabled: false
Boxcar width: 0
XAxis mode: Wavelengths
Number of Pixels in Spectrum: 2048
>>>>>Begin Spectral Data<<<<<
187.836	-2.85
188.309	-2.85
188.782	-2.85
189.255	-4.35
189.728	-2.05
190.201	7.65
190.674	-2.55
191.147	1.75
191.619	-1.65
192.092	1.65
192.565	3.95
193.038	-0.55
193.511	1.65
193.984	2.65
194.456	-6.75
194.929	1.45
195.402	-2.25
195.874	2.25
196.347	0.05
196.82	-10.05
197.292	6.95
197.765	-2.55
198.237	-5.35
198.71	2.65
199.182	-4.25
199.655	0.55
200.127	2.75
200.6	1.05
201.072	-5.05
201.544	0.95
202.017	-0.05
202.489	12.55
202.961	0.35
203.433	0.15
203.906	-0.05
204.378	-3.35
204.85	3.05
205.322	-10.15
205.794	-0.15
206.266	-4.15
206.739	-5.05
207.211	3.45
207.683	-3.45
208.155	-4.55
208.627	-1.95
209.099	-5.15
209.57	-6.65
210.042	-5.05
210.514	-6.15
210.986	1.05
211.458	-5.35
211.93	-2.65
212.402	2.55
212.873	-7.75
213.345	-9.35
213.817	-9.55
214.288	2.75
214.76	-13.45
215.232	-5.45
215.703	-10.05
216.175	-2.75
216.646	-5.25
217.118	-5.85
217.589	-3.35
218.061	2.55
218.532	-0.75
219.004	-3.45
219.475	-3.85
219.946	-3.35
220.418	-1.85
220.889	4.45
221.36	-4.95
221.832	-4.05
222.303	-9.75
222.774	0.45
223.245	-13.35
223.717	-5.55
224.188	-5.35
224.659	-9.45
225.13	-6.85
225.601	1.45
226.072	-0.45
226.543	-0.75
227.014	-0.15
227.485	-1.45
227.956	-6.85
228.427	-0.35
228.898	5.15
229.369	1.85
229.839	-7.05
230.31	-7.85
230.781	-0.95
231.252	-6.75
231.722	-5.05
232.193	2.75
232.664	-1.95
233.135	1.05
233.605	0.25
234.076	-2.75
234.546	-3.15
235.017	7.25
235.487	1.05
235.958	-5.85
236.428	-2.75
236.899	-3.75
237.369	1.35
237.84	-7.55
238.31	10.35
238.78	4.95
239.251	1.55
239.721	1.05
240.191	4.45
240.662	2.35
241.132	-2.25
241.602	-0.95
242.072	2.65
242.542	8.35
243.013	0.75
243.483	0.25
243.953	1.75
244.423	-0.35
244.893	-3.55
245.363	-1.75
245.833	-1.95
246.303	-5.75
246.773	8.35
247.243	-0.45
247.712	2.05
248.182	8.45
248.652	0.75
249.122	-1.65
249.592	10.35
250.061	22.35
250.531	26.95
251.001	13.15
251.471	18.75
251.94	12.85
252.41	6.15
252.879	-4.85
253.349	10.65
253.818	2.15
254.288	6.45
254.757	1.35
255.227	-0.25
255.696	2.95
256.166	5.45
256.635	-0.65
257.105	4.05
257.574	4.15
258.043	5.75
258.513	11.15
258.982	9.85
259.451	5.65
259.92	6.45
260.389	6.65
260.859	15.35
261.328	4.15
261.797	13.45
262.266	4.65
262.735	10.85
263.204	4.45
263.673	1.75
264.142	5.35
264.611	-3.25
265.08	-0.95
265.549	-0.45
266.018	4.45
266.487	-3.15
266.955	-6.05
267.424	-2.45
267.893	7.15
268.362	1.85
268.83	0.45
269.299	5.85
269.768	3.15
270.236	6.15
270.705	4.35
271.174	8.95
271.642	3.05
272.111	6.65
272.579	10.25
273.048	14.55
273.516	21.25
273.985	23.55
274.453	16.45
274.922	15.05
275.39	13.15
275.858	6.75
276.327	10.25
276.795	12.05
277.263	5.35
277.731	20.15
278.2	45.05
278.668	49.15
279.136	38.45
279.604	11.35
280.072	11.25
280.54	12.15
281.008	10.15
281.477	11.25
281.945	13.95
282.413	10.15
282.881	13.95
283.348	6.95
283.816	17.85
284.284	11.15
284.752	20.45
285.22	9.85
285.688	13.55
286.156	17.95
286.623	37.45
287.091	44.05
287.559	24.65
288.026	16.25
288.494	12.85
288.962	5.45
289.429	9.55
289.897	15.65
290.364	12.95
290.832	14.75
291.3	14.95
291.767	13.45
292.234	13.25
292.702	9.95
293.169	17.05
293.637	15.95
294.104	16.55
294.571	3.05
295.039	7.05
295.506	3.65
295.973	10.75
296.44	14.65
296.908	13.65
297.375	14.25
297.842	15.35
298.309	12.75
298.776	7.55
299.243	16.85
299.71	10.35
300.177	16.35
300.644	17.65
301.111	14.15
301.578	22.65
302.045	9.05
302.512	21.45
302.979	21.85
303.446	21.35
303.913	18.45
304.379	14.65
304.846	24.75
305.313	19.75
305.78	25.55
306.246	15.35
306.713	23.15
307.18	21.95
307.646	26.65
308.113	20.05
308.579	16.25
309.046	23.25
309.512	17.55
309.979	13.45
310.445	27.95
310.912	24.35
311.378	26.35
311.845	32.95
312.311	23.95
312.777	28.75
313.244	29.15
313.71	31.95
314.176	25.75
314.642	25.95
315.109	27.45
315.575	26.05
316.041	31.85
316.507	24.85
316.973	32.05
317.439	28.45
317.905	29.35
318.371	30.85
318.837	28.85
319.303	27.15
319.769	29.65
320.235	31.65
320.701	30.05
321.167	33.45
321.633	31.55
322.099	32.25
322.564	42.95
323.03	24.05
323.496	31.35
323.962	31.55
324.427	30.45
324.893	33.55
325.359	30.25
325.824	34.45
326.29	33.75
326.755	33.05
327.221	26.85
327.686	31.25
328.152	36.75
328.617	37.65
329.083	36.45
329.548	35.85
330.014	40.45
330.479	27.85
330.944	32.85
331.41	38.55
331.875	32.85
332.34	31.05
332.805	31.85
333.271	37.15
333.736	34.75
334.201	44.85
334.666	50.05
335.131	43.55
335.596	46.85
336.061	46.65
336.526	32.35
336.991	41.55
337.456	47.45
337.921	36.35
338.386	38.15
338.851	39.05
339.316	40.45
339.781	38.65
340.246	44.35
340.711	37.55
341.175	45.25
341.64	36.05
342.105	42.25
342.569	47.15
343.034	50.05
343.499	49.25
343.963	45.15
344.428	53.35
344.893	46.85
345.357	58.65
345.822	50.15
346.286	56.75
346.751	59.05
347.215	52.95
347.679	70.65
348.144	79.45
348.608	71.95
349.073	60.75
349.537	62.55
350.001	67.95
350.465	75.35
350.93	69.85
351.394	67.65
351.858	64.35
352.322	66.25
352.786	68.05
353.25	83.25
353.715	90.75
354.179	75.15
354.643	95.15
355.107	102.55
355.571	94.45
356.035	90.55
356.498	97.45
356.962	105.75
357.426	114.75
357.89	96.35
358.354	70.35
358.818	71.35
359.281	70.95
359.745	68.85
360.209	63.55
360.673	68.65
361.136	72.55
361.6	76.15
362.064	70.15
362.527	65.35
362.991	77.95
363.454	65.25
363.918	71.25
364.381	71.15
364.845	73.15
365.308	77.55
365.772	78.95
366.235	81.25
366.698	71.25
367.162	77.75
367.625	76.55
368.088	74.95
368.552	82.35
369.015	72.85
369.478	84.95
369.941	88.25
370.404	87.25
370.867	92.15
371.331	91.55
371.794	101.35
372.257	106.25
372.72	101.45
373.183	98.25
373.646	90.25
374.109	98.95
374.572	99.55
375.035	89.45
375.497	98.75
375.96	98.35
376.423	97.65
376.886	103.45
377.349	100.65
377.811	96.05
378.274	88.85
378.737	91.15
379.199	98.85
379.662	104.95
380.125	104.75
380.587	101.05
381.05	109.05
381.512	117.35
381.975	126.35
382.437	120.15
382.9	116.85
383.362	114.35
383.825	130.35
384.287	135.95
384.75	133.75
385.212	125.05
385.674	131.05
386.136	122.75
386.599	113.25
387.061	119.85
387.523	119.75
387.985	130.65
388.447	137.75
388.91	134.65
389.372	143.95
389.834	147.35
390.296	132.25
390.758	142.45
391.22	150.15
391.682	197.25
392.144	278.65
392.606	209.05
393.068	151.55
393.529	150.65
393.991	146.15
394.453	137.95
394.915	149.15
395.377	178.95
395.838	199.95
396.3	144.35
396.762	130.45
397.224	116.15
397.685	118.55
398.147	115.35
398.608	123.65
399.07	120.05
399.531	122.95
399.993	124.05
400.454	145.95
400.916	134.05
401.377	131.25
401.839	136.05
402.3	135.65
402.762	152.25
403.223	162.45
403.684	156.75
404.145	145.85
404.607	153.25
405.068	154.45
405.529	158.75
405.99	174.55
406.451	158.15
406.913	161.95
407.374	157.65
407.835	151.95
408.296	151.65
408.757	160.35
409.218	169.25
409.679	165.95
410.14	167.75
410.601	168.65
411.062	169.25
411.522	175.25
411.983	176.05
412.444	159.05
412.905	172.15
413.366	166.75
413.826	181.35
414.287	205.25
414.748	246.65
415.208	230.55
415.669	201.15
416.13	187.85
416.59	181.75
417.051	196.55
417.511	205.55
417.972	219.45
418.432	229.35
418.893	271.15
419.353	237.45
419.814	177.95
420.274	173.45
420.734	170.35
421.195	184.65
421.655	177.65
422.115	186.55
422.576	174.45
423.036	186.55
423.496	193.55
423.956	204.75
424.416	214.45
424.876	245.35
425.336	249.35
425.797	242.55
426.257	238.65
426.717	228.15
427.177	218.75
427.637	202.95
428.097	219.55
428.556	230.45
429.016	252.35
429.476	251.15
429.936	254.05
430.396	259.95
430.856	277.05
431.315	298.75
431.775	336.55
432.235	358.55
432.694	331.75
433.154	342.45
433.614	374.25
434.073	317.65
434.533	277.65
434.993	256.95
435.452	267.85
435.912	285.55
436.371	272.65
436.83	265.25
437.29	254.25
437.749	236.55
438.209	232.85
438.668	257.95
439.127	275.65
439.587	246.85
440.046	235.65
440.505	242.15
440.964	254.25
441.424	300.65
441.883	292.65
442.342	248.05
442.801	218.05
443.26	208.85
443.719	213.65
444.178	211.15
444.637	204.85
445.096	212.75
445.555	215.35
446.014	212.75
446.473	210.35
446.932	222.55
447.391	216.25
447.849	219.35
448.308	205.65
448.767	215.95
449.226	230.45
449.685	225.45
450.143	236.65
450.602	227.05
451.061	213.85
451.519	220.15
451.978	222.55
452.436	218.55
452.895	229.25
453.353	233.25
453.812	219.75
454.27	228.05
454.729	230.75
455.187	230.85
455.646	226.35
456.104	235.65
456.562	243.65
457.021	247.85
457.479	243.45
457.937	261.55
458.395	250.65
458.854	234.35
459.312	237.65
459.77	266.25
460.228	246.55
460.686	234.35
461.144	240.75
461.602	229.15
462.06	234.25
462.518	241.85
462.976	247.15
463.434	247.75
463.892	247.55
464.35	264.05
464.808	272.15
465.266	255.45
465.724	251.95
466.181	265.75
466.639	257.75
467.097	274.95
467.555	289.85
468.012	286.35
468.47	295.35
468.928	319.15
469.385	327.25
469.843	328.65
470.3	335.35
470.758	346.75
471.215	363.35
471.673	384.15
472.13	383.35
472.588	405.65
473.045	355.65
473.503	369.65
473.96	376.25
474.417	388.15
474.875	418.35
475.332	455.95
475.789	439.25
476.246	442.95
476.704	463.65
477.161	489.75
477.618	503.15
478.075	540.35
478.532	593.65
478.989	660.25
479.446	765.45
479.903	745.05
480.36	772.25
480.817	832.95
481.274	927.05
481.731	1037.65
482.188	1117.85
482.645	1246.65
483.102	1341.85
483.558	1484.55
484.015	1525.65
484.472	1502.95
484.929	1460.05
485.385	1414.45
485.842	1359.05
486.299	1305.55
486.755	1258.75
487.212	1037.95
487.668	886.35
488.125	818.75
488.582	744.35
489.038	713.95
489.494	694.15
489.951	657.15
490.407	637.25
490.864	615.65
491.32	620.85
491.776	612.65
492.233	624.75
492.689	581.45
493.145	573.85
493.602	570.95
494.058	589.45
494.514	594.05
494.97	610.25
495.426	611.05
495.882	596.55
496.338	591.15
496.794	606.15
497.251	593.55
497.707	609.75
498.163	603.75
498.618	616.05
499.074	623.75
499.53	646.65
499.986	651.75
500.442	627.85
500.898	614.15
501.354	598.55
501.809	611.55
502.265	619.45
502.721	639.25
503.177	643.15
503.632	642.25
504.088	661.95
504.543	691.25
504.999	685.15
505.455	634.95
505.91	601.95
506.366	609.05
506.821	603.05
507.277	602.55
507.732	597.15
508.187	603.35
508.643	617.15
509.098	613.65
509.553	619.25
510.009	641.35
510.464	642.75
510.919	663.05
511.375	665.45
511.83	678.85
512.285	698.75
512.74	718.75
513.195	752.95
513.65	746.35
514.105	735.95
514.56	746.75
515.015	756.55
515.47	782.25
515.925	751.55
516.38	754.85
516.835	767.25
517.29	756.15
517.745	747.75
518.2	741.85
518.655	729.05
519.109	711.45
519.564	725.75
520.019	708.65
520.474	703.05
520.928	700.55
521.383	702.65
521.838	691.75
522.292	693.35
522.747	687.95
523.201	684.05
523.656	672.95
524.11	672.15
524.565	667.15
525.019	665.35
525.474	680.75
525.928	680.45
526.382	670.15
526.837	674.55
527.291	667.15
527.745	674.95
528.2	676.45
528.654	659.65
529.108	663.75
529.562	664.95
530.016	668.95
530.47	659.85
530.925	668.85
531.379	678.65
531.833	685.25
532.287	686.25
532.741	675.75
533.195	679.05
533.649	700.55
534.103	701.35
534.556	688.15
535.01	691.05
535.464	691.65
535.918	696.05
536.372	693.35
536.826	687.15
537.279	683.65
537.733	689.45
538.187	691.25
538.64	689.15
539.094	706.05
539.548	702.25
540.001	702.95
540.455	705.35
540.908	709.25
541.362	716.95
541.815	728.45
542.269	740.15
542.722	744.15
543.175	743.05
543.629	745.05
544.082	770.75
544.536	764.35
544.989	762.35
545.442	771.25
545.895	765.65
546.349	766.15
546.802	766.25
547.255	776.25
547.708	778.55
548.161	787.85
548.614	794.45
549.067	813.25
549.52	789.85
549.973	786.05
550.426	788.45
550.879	774.95
551.332	771.45
551.785	782.25
552.238	779.25
552.691	792.35
553.144	811.55
553.596	807.55
554.049	838.55
554.502	865.05
554.955	890.05
555.407	894.15
555.86	877.75
556.313	861.65
556.765	853.05
557.218	860.75
557.67	849.45
558.123	856.15
558.576	852.75
559.028	847.85
559.48	856.85
559.933	849.25
560.385	814.55
560.838	799.05
561.29	764.35
561.742	764.55
562.195	740.35
562.647	752.85
563.099	756.95
563.551	745.75
564.004	771.25
564.456	758.15
564.908	737.95
565.36	726.45
565.812	712.35
566.264	710.55
566.716	715.05
567.168	709.75
567.62	704.95
568.072	689.25
568.524	684.95
568.976	676.25
569.428	663.05
569.88	661.45
570.332	669.45
570.784	668.35
571.235	662.75
571.687	678.95
572.139	687.45
572.59	692.55
573.042	689.25
573.494	694.55
573.945	686.85
574.397	668.25
574.849	673.75
575.3	676.65
575.752	667.55
576.203	660.95
576.655	670.15
577.106	655.15
577.557	649.55
578.009	642.15
578.46	647.25
578.912	644.75
579.363	646.55
579.814	657.25
580.265	650.05
580.717	654.85
581.168	655.35
581.619	663.75
582.07	658.75
582.521	667.85
582.972	649.35
583.423	668.05
583.875	667.35
584.326	683.55
584.777	737.55
585.227	807.25
585.678	884.25
586.129	980.95
586.58	1043.15
587.031	1135.15
587.482	1274.95
587.933	1442.85
588.384	1258.85
588.834	948.35
589.285	790.45
589.736	767.55
590.186	756.75
590.637	744.95
591.088	719.35
591.538	731.15
591.989	716.85
592.439	713.35
592.89	696.65
593.34	692.05
593.791	688.25
594.241	691.45
594.692	693.25
595.142	688.25
595.593	686.05
596.043	697.45
596.493	703.35
596.943	699.75
597.394	709.65
597.844	697.65
598.294	719.55
598.744	730.45
599.195	765.95
599.645	812.15
600.095	843.65
600.545	882.75
600.995	946.75
601.445	1007.55
601.895	1073.95
602.345	1110.95
602.795	1082.85
603.245	1037.55
603.695	999.05
604.145	931.75
604.594	892.25
605.044	832.05
605.494	787.05
605.944	743.45
606.393	720.55
606.843	721.05
607.293	733.75
607.743	725.35
608.192	736.35
608.642	743.45
609.091	752.05
609.541	756.05
609.99	753.55
610.44	752.05
610.889	706.35
611.339	690.75
611.788	681.15
612.238	690.85
612.687	699.55
613.136	708.75
613.586	726.25
614.035	723.25
614.484	738.15
614.933	739.65
615.383	730.65
615.832	716.85
616.281	703.85
616.73	679.95
617.179	649.15
617.628	642.55
618.077	626.65
618.526	619.15
618.975	599.35
619.424	601.75
619.873	603.45
620.322	603.85
620.771	599.65
621.22	590.35
621.669	574.05
622.118	581.85
622.567	567.25
623.015	556.65
623.464	556.55
623.913	548.95
624.361	545.25
624.81	533.65
625.259	540.05
625.707	540.05
626.156	539.75
626.604	561.15
627.053	554.85
627.501	549.75
627.95	560.35
628.398	565.15
628.847	560.05
629.295	557.35
629.744	559.65
630.192	557.05
630.64	565.85
631.089	562.95
631.537	568.95
631.985	579.35
632.433	592.75
632.881	593.95
633.33	646.45
633.778	625.25
634.226	553.45
634.674	566.05
635.122	570.45
635.57	580.45
636.018	620.85
636.466	557.05
636.914	551.15
637.362	568.95
637.81	562.25
638.258	558.25
638.705	572.05
639.153	595.05
639.601	603.05
640.049	625.55
640.497	645.25
640.944	677.55
641.392	636.05
641.84	599.75
642.287	569.05
642.735	559.55
643.182	563.35
643.63	563.65
644.078	571.25
644.525	588.45
644.973	593.05
645.42	596.65
645.867	621.95
646.315	623.15
646.762	648.45
647.21	689.85
647.657	697.95
648.104	742.25
648.551	756.45
648.999	826.35
649.446	914.65
649.893	998.65
650.34	1146.65
650.787	1379.75
651.234	1720.95
651.682	2236.15
652.129	3081.55
652.576	4445.15
653.023	6562.05
653.47	8951.55
653.917	11123.85
654.363	12813.25
654.81	14102.15
655.257	13460.55
655.704	8766.05
656.151	5176.75
656.598	3351.35
657.044	2365.05
657.491	1836.95
657.938	1460.35
658.385	1221.15
658.831	1058.55
659.278	936.45
659.724	837.15
660.171	775.45
660.618	708.35
661.064	672.65
661.511	661.65
661.957	656.85
662.404	630.85
662.85	643.85
663.296	611.75
663.743	552.45
664.189	536.45
664.635	515.35
665.082	522.05
665.528	515.35
665.974	508.25
666.42	500.55
666.867	503.15
667.313	480.15
667.759	474.85
668.205	468.55
668.651	475.15
669.097	477.45
669.543	485.55
669.989	464.85
670.435	444.15
670.881	435.35
671.327	452.65
671.773	453.75
672.219	478.65
672.665	530.45
673.11	578.05
673.556	619.95
674.002	661.45
674.448	638.25
674.893	533.35
675.339	463.45
675.785	421.45
676.23	405.95
676.676	390.25
677.122	377.55
677.567	363.15
678.013	358.25
678.458	352.45
678.904	356.95
679.349	339.75
679.794	353.25
680.24	350.85
680.685	338.55
681.131	346.85
681.576	339.05
682.021	352.95
682.466	343.85
682.912	341.75
683.357	344.45
683.802	378.65
684.247	399.05
684.692	450.55
685.137	489.85
685.583	528.95
686.028	552.45
686.473	501.85
686.918	434.85
687.363	405.25
687.807	387.05
688.252	356.45
688.697	352.55
689.142	334.35
689.587	328.35
690.032	321.95
690.477	332.25
690.921	349.25
691.366	376.75
691.811	400.45
692.255	415.05
692.7	452.95
693.145	496.15
693.589	687.65
694.034	1126.45
694.478	1511.95
694.923	1703.15
695.367	2200.85
695.812	1161.35
696.256	485.55
696.701	366.15
697.145	333.95
697.59	324.95
698.034	314.45
698.478	316.55
698.922	324.75
699.367	325.05
699.811	336.95
700.255	346.95
700.699	388.75
701.143	422.95
701.588	470.35
702.032	508.35
702.476	505.65
702.92	487.75
703.364	491.45
703.808	631.55
704.252	1029.35
704.696	1424.05
705.14	1626.05
705.584	2064.25
706.027	1045.55
706.471	508.95
706.915	389.95
707.359	344.75
707.803	315.85
708.246	304.45
708.69	306.75
709.134	310.15
709.577	304.95
710.021	308.75
710.465	305.95
710.908	296.35
711.352	289.75
711.795	306.65
712.239	348.35
712.682	389.75
713.126	409.35
713.569	458.05
714.012	371.45
714.456	316.65
714.899	296.65
715.342	261.85
715.786	260.15
716.229	248.45
716.672	252.05
717.115	240.05
717.558	246.45
718.002	245.55
718.445	257.65
718.888	275.75
719.331	290.05
719.774	310.35
720.217	306.65
720.66	274.05
721.103	265.15
721.546	247.85
721.989	251.05
722.432	235.25
722.874	233.55
723.317	225.45
723.76	234.95
724.203	252.75
724.645	322.75
725.088	443.35
725.531	552.65
725.974	631.15
726.416	519.05
726.859	299.45
727.301	237.45
727.744	232.35
728.187	230.45
728.629	236.85
729.071	237.75
729.514	248.25
729.956	273.35
730.399	279.65
730.841	280.05
731.283	267.55
731.726	268.25
732.168	258.25
732.61	268.75
733.053	285.05
733.495	306.05
733.937	349.15
734.379	391.95
734.821	440.05
735.263	529.75
735.705	831.05
736.148	1577.75
736.59	2560.55
737.032	2963.75
737.474	2424.35
737.916	797.55
738.357	418.35
738.799	318.85
739.241	293.95
739.683	282.95
740.125	287.25
740.567	298.75
741.008	313.75
741.45	308.85
741.892	311.85
742.334	338.55
742.775	348.25
743.217	330.05
743.658	267.95
744.1	245.65
744.542	251.35
744.983	305.35
745.425	330.65
745.866	335.55
746.307	273.25
746.749	279.75
747.19	322.15
747.632	457.45
748.073	888.95
748.514	1856.35
748.956	2783.35
749.397	3519.25
749.838	2900.35
750.279	2867.85
750.72	1461.95
751.162	534.25
751.603	315.05
752.044	250.35
752.485	222.15
752.926	205.55
753.367	194.25
753.808	192.65
754.249	196.05
754.69	181.45
755.131	180.85
755.572	180.15
756.013	179.15
756.453	184.85
756.894	185.25
757.335	184.05
757.776	189.35
758.216	187.05
758.657	195.55
759.098	198.45
759.538	226.95
759.979	267.15
760.42	374.65
760.86	712.45
761.301	1848.25
761.741	4385.35
762.182	6260.65
762.622	4414.55
763.063	1278.05
