Data from 20171114-ORNL-Ar_H_NY_Subt18_08-03-12-654.txt Node
Date: Tue Nov 14 08:03:12 EST 2017
User: Ender
Spectrometer: HR+D1039
Trigger mode: 0
Integration Time (sec): 2.730000E-2
Scans to average: 10
Electric dark correction enabled: true
Nonlinearity correction enabled: false
Boxcar width: 0
XAxis mode: Wavelengths
Number of Pixels in Spectrum: 2048
>>>>>Begin Spectral Data<<<<<
187.836	-4.21
188.309	-4.21
188.782	-4.21
189.255	2.09
189.728	-2.41
190.201	5.09
190.674	7.29
191.147	-1.11
191.619	-8.21
192.092	3.69
192.565	6.19
193.038	-2.61
193.511	0.89
193.984	0.69
194.456	-4.31
194.929	-3.11
195.402	1.29
195.874	-1.21
196.347	-3.01
196.82	-12.21
197.292	1.99
197.765	4.79
198.237	-4.61
198.71	0.39
199.182	-1.21
199.655	2.19
200.127	3.49
200.6	0.29
201.072	-4.61
201.544	-5.31
202.017	-9.01
202.489	3.29
202.961	-1.21
203.433	-7.11
203.906	-1.81
204.378	-7.31
204.85	-4.21
205.322	-12.61
205.794	-2.71
206.266	-2.01
206.739	-5.51
207.211	1.09
207.683	-7.41
208.155	-11.31
208.627	-4.71
209.099	-8.71
209.57	-12.91
210.042	-3.91
210.514	-3.61
210.986	-1.31
211.458	-10.51
211.93	-5.51
212.402	0.39
212.873	-9.31
213.345	-12.51
213.817	-10.71
214.288	-6.51
214.76	-12.81
215.232	-4.71
215.703	-4.01
216.175	0.29
216.646	-7.71
217.118	-6.51
217.589	-4.41
218.061	-4.31
218.532	-2.91
219.004	-8.41
219.475	-9.21
219.946	-0.91
220.418	-11.61
220.889	-1.31
221.36	-2.11
221.832	-5.21
222.303	-8.11
222.774	-3.31
223.245	-7.21
223.717	-9.71
224.188	-4.71
224.659	-7.41
225.13	-7.91
225.601	-5.31
226.072	0.49
226.543	-2.11
227.014	0.79
227.485	-6.41
227.956	-7.61
228.427	-5.81
228.898	4.29
229.369	4.09
229.839	-10.01
230.31	-13.91
230.781	-5.01
231.252	-2.91
231.722	-6.31
232.193	0.09
232.664	-6.21
233.135	-5.91
233.605	-4.91
234.076	-13.91
234.546	-4.41
235.017	-3.41
235.487	-3.01
235.958	-5.01
236.428	-4.11
236.899	-4.91
237.369	-0.41
237.84	-8.31
238.31	-4.31
238.78	-1.21
239.251	-10.31
239.721	-4.91
240.191	-3.71
240.662	-0.41
241.132	-2.21
241.602	-10.51
242.072	-7.31
242.542	0.59
243.013	-3.91
243.483	-3.61
243.953	-1.31
244.423	-4.51
244.893	-9.91
245.363	-0.11
245.833	-9.01
246.303	-8.31
246.773	1.29
247.243	-5.11
247.712	-1.71
248.182	2.59
248.652	-1.61
249.122	-10.21
249.592	0.09
250.061	-3.41
250.531	3.89
251.001	-8.21
251.471	-3.41
251.94	-0.81
252.41	-4.81
252.879	-5.11
253.349	3.19
253.818	3.29
254.288	-3.81
254.757	-5.61
255.227	-9.81
255.696	-5.81
256.166	-4.11
256.635	-2.21
257.105	-3.41
257.574	-11.51
258.043	-1.51
258.513	-9.51
258.982	-7.71
259.451	-8.61
259.92	-7.61
260.389	-5.81
260.859	-0.61
261.328	-4.21
261.797	-7.21
262.266	-7.51
262.735	-0.41
263.204	-3.31
263.673	-7.21
264.142	-0.91
264.611	-11.41
265.08	-11.51
265.549	-10.31
266.018	0.09
266.487	-9.51
266.955	-14.81
267.424	-10.01
267.893	-1.51
268.362	-9.61
268.83	-9.21
269.299	1.99
269.768	-4.41
270.236	-4.81
270.705	-13.01
271.174	-4.11
271.642	-4.31
272.111	-8.41
272.579	-10.11
273.048	-13.01
273.516	-9.61
273.985	-3.31
274.453	-0.41
274.922	4.39
275.39	0.09
275.858	-18.11
276.327	-9.71
276.795	1.29
277.263	-4.71
277.731	-0.81
278.2	-6.91
278.668	-3.71
279.136	-3.11
279.604	-13.01
280.072	-3.31
280.54	-0.91
281.008	-6.31
281.477	0.19
281.945	-7.91
282.413	-6.61
282.881	-2.01
283.348	-7.51
283.816	-5.81
284.284	-0.11
284.752	-1.61
285.22	-7.51
285.688	-2.31
286.156	-6.21
286.623	-6.11
287.091	-6.81
287.559	-7.01
288.026	-10.51
288.494	-9.31
288.962	-12.51
289.429	-8.01
289.897	1.59
290.364	-2.51
290.832	-0.91
291.3	-4.91
291.767	-2.91
292.234	-4.01
292.702	-5.71
293.169	-4.61
293.637	-2.81
294.104	-1.21
294.571	-10.01
295.039	-11.11
295.506	-5.11
295.973	-6.61
296.44	-5.71
296.908	-4.81
297.375	-5.51
297.842	-7.21
298.309	-8.01
298.776	-9.51
299.243	-2.11
299.71	-10.21
300.177	-1.01
300.644	-2.31
301.111	-8.71
301.578	-3.21
302.045	-7.21
302.512	-2.91
302.979	-4.51
303.446	-4.21
303.913	-9.31
304.379	-4.11
304.846	-1.01
305.313	-6.01
305.78	-7.41
306.246	-4.91
306.713	-3.41
307.18	-5.71
307.646	-2.81
308.113	-9.91
308.579	-10.81
309.046	-4.71
309.512	-3.21
309.979	-16.61
310.445	-6.91
310.912	-5.61
311.378	-1.91
311.845	2.99
312.311	-5.61
312.777	-6.81
313.244	-6.11
313.71	3.29
314.176	-5.01
314.642	-7.01
315.109	-2.41
315.575	2.69
316.041	1.49
316.507	-4.71
316.973	-2.81
317.439	-1.11
317.905	0.29
318.371	-0.01
318.837	-2.31
319.303	-3.61
319.769	-7.81
320.235	-4.91
320.701	-3.41
321.167	-2.11
321.633	-4.41
322.099	-10.11
322.564	1.79
323.03	-4.31
323.496	-6.91
323.962	-11.71
324.427	-7.91
324.893	-5.11
325.359	-6.91
325.824	-0.81
326.29	-8.61
326.755	-11.81
327.221	-2.21
327.686	-2.41
328.152	0.89
328.617	-9.31
329.083	2.29
329.548	1.49
330.014	-1.31
330.479	-8.11
330.944	-3.61
331.41	-4.61
331.875	-5.91
332.34	-6.41
332.805	-8.41
333.271	-2.71
333.736	-7.51
334.201	-1.11
334.666	-1.41
335.131	-7.81
335.596	-5.01
336.061	-3.01
336.526	-14.61
336.991	-4.01
337.456	0.59
337.921	-5.01
338.386	-5.41
338.851	-4.41
339.316	-4.81
339.781	-6.81
340.246	1.19
340.711	-3.91
341.175	-1.31
341.64	-13.61
342.105	-0.61
342.569	-6.01
343.034	-2.01
343.499	-3.01
343.963	-5.21
344.428	2.09
344.893	-6.61
345.357	-5.71
345.822	-5.31
346.286	-4.31
346.751	-8.41
347.215	-3.11
347.679	-12.01
348.144	-3.71
348.608	-4.31
349.073	-2.71
349.537	-2.21
350.001	-6.61
350.465	-4.61
350.93	-8.91
351.394	0.99
351.858	-5.11
352.322	2.99
352.786	-10.61
353.25	-1.61
353.715	-1.21
354.179	-7.41
354.643	-0.71
355.107	-5.81
355.571	-2.01
356.035	-4.01
356.498	0.79
356.962	-7.31
357.426	-2.11
357.89	-6.91
358.354	-0.91
358.818	1.79
359.281	-2.91
359.745	-8.71
360.209	-3.71
360.673	-8.11
361.136	-4.11
361.6	0.99
362.064	-2.21
362.527	-7.11
362.991	0.09
363.454	-8.71
363.918	-10.41
364.381	-10.51
364.845	-5.51
365.308	-2.41
365.772	4.69
366.235	-6.71
366.698	-5.91
367.162	-1.91
367.625	-10.71
368.088	-4.01
368.552	-1.31
369.015	-4.81
369.478	-0.41
369.941	0.79
370.404	-9.21
370.867	-1.01
371.331	-1.01
371.794	-4.81
372.257	-9.41
372.72	-2.51
373.183	1.49
373.646	-7.21
374.109	-8.41
374.572	3.09
375.035	-5.31
375.497	-11.71
375.96	-7.01
376.423	-2.31
376.886	-3.91
377.349	-3.71
377.811	-11.61
378.274	-4.21
378.737	-3.41
379.199	-5.11
379.662	-6.41
380.125	-1.81
380.587	-11.71
381.05	-7.61
381.512	-4.11
381.975	-3.11
382.437	-4.21
382.9	-12.41
383.362	-4.91
383.825	-2.01
384.287	-3.91
384.75	-6.81
385.212	-2.61
385.674	-2.51
386.136	-5.61
386.599	-6.01
387.061	-4.31
387.523	-4.81
387.985	-5.61
388.447	2.09
388.91	-8.81
389.372	-7.41
389.834	-3.71
390.296	-8.41
390.758	-2.71
391.22	-4.11
391.682	-3.41
392.144	-0.51
392.606	-1.61
393.068	2.39
393.529	-1.11
393.991	-10.11
394.453	-3.11
394.915	-0.21
395.377	-2.01
395.838	-6.41
396.3	1.29
396.762	-1.41
397.224	-1.81
397.685	-3.61
398.147	-5.21
398.608	-11.21
399.07	-10.11
399.531	-7.41
399.993	-1.51
400.454	-1.61
400.916	-4.01
401.377	-4.01
401.839	-1.81
402.3	-11.81
402.762	-7.81
403.223	-7.61
403.684	-4.31
404.145	-6.51
404.607	-9.11
405.068	-7.41
405.529	-6.11
405.99	-8.31
406.451	-11.21
406.913	-2.01
407.374	-4.81
407.835	-9.41
408.296	-8.51
408.757	-9.71
409.218	-9.31
409.679	-9.11
410.14	-3.91
410.601	-0.31
411.062	2.29
411.522	-0.21
411.983	-6.31
412.444	-14.41
412.905	-7.11
413.366	-6.41
413.826	0.19
414.287	-4.31
414.748	-3.11
415.208	-6.21
415.669	-7.61
416.13	7.39
416.59	9.19
417.051	0.09
417.511	-5.81
417.972	-2.51
418.432	-7.51
418.893	-2.21
419.353	2.99
419.814	3.29
420.274	-5.81
420.734	-5.51
421.195	-4.21
421.655	-9.41
422.115	-2.31
422.576	-3.91
423.036	-4.91
423.496	-2.11
423.956	-2.81
424.416	0.19
424.876	-2.51
425.336	-11.71
425.797	2.89
426.257	-2.01
426.717	-1.81
427.177	1.79
427.637	-10.61
428.097	-2.21
428.556	-11.41
429.016	-1.61
429.476	-8.51
429.936	-2.31
430.396	-8.81
430.856	-3.81
431.315	0.89
431.775	-2.91
432.235	7.69
432.694	-10.91
433.154	-0.41
433.614	-13.61
434.073	-9.21
434.533	-3.11
434.993	-2.11
435.452	-7.01
435.912	-8.31
436.371	-8.11
436.83	-7.41
437.29	2.59
437.749	-7.71
438.209	-7.61
438.668	-8.21
439.127	-1.51
439.587	-1.31
440.046	-9.71
440.505	-2.81
440.964	0.69
441.424	-7.01
441.883	-3.61
442.342	1.09
442.801	-5.81
443.26	-0.11
443.719	3.59
444.178	-1.21
444.637	-14.51
445.096	-5.61
445.555	-7.31
446.014	-2.91
446.473	3.09
446.932	-5.31
447.391	-0.11
447.849	-6.21
448.308	-6.81
448.767	-10.71
449.226	-0.61
449.685	-4.61
450.143	-0.41
450.602	-4.81
451.061	-5.51
451.519	-0.31
451.978	-1.91
452.436	-7.81
452.895	-8.31
453.353	0.49
453.812	-2.91
454.27	4.79
454.729	-0.71
455.187	-5.21
455.646	-9.01
456.104	-2.41
456.562	-5.61
457.021	-9.21
457.479	-2.01
457.937	-3.11
458.395	-5.81
458.854	-9.01
459.312	-5.71
459.77	-12.41
460.228	-10.01
460.686	-8.01
461.144	2.19
461.602	-2.91
462.06	-7.01
462.518	-4.01
462.976	-5.21
463.434	-10.51
463.892	-7.01
464.35	-7.11
464.808	0.79
465.266	-3.81
465.724	-0.51
466.181	6.09
466.639	3.69
467.097	0.89
467.555	0.99
468.012	1.49
468.47	-4.41
468.928	3.69
469.385	2.99
469.843	-2.21
470.3	-5.11
470.758	-7.01
471.215	-2.21
471.673	-6.71
472.13	-12.01
472.588	-1.01
473.045	-11.51
473.503	-5.71
473.96	-5.91
474.417	-9.21
474.875	-6.11
475.332	0.79
475.789	-8.41
476.246	-0.81
476.704	-1.91
477.161	-1.41
477.618	-14.51
478.075	-8.01
478.532	-0.21
478.989	-7.71
479.446	-0.01
479.903	-3.11
480.36	-2.51
480.817	-8.11
481.274	2.39
481.731	1.59
482.188	-6.61
482.645	1.99
483.102	-4.71
483.558	0.79
484.015	-0.21
484.472	0.99
484.929	-3.51
485.385	-4.31
485.842	-1.91
486.299	-8.01
486.755	5.19
487.212	-5.31
487.668	-7.71
488.125	-5.91
488.582	1.29
489.038	0.89
489.494	-3.61
489.951	-7.61
490.407	-3.91
490.864	-8.61
491.32	1.59
491.776	-1.91
492.233	0.99
492.689	-12.41
493.145	-2.91
493.602	-5.91
494.058	1.89
494.514	-4.41
494.97	-7.11
495.426	-0.31
495.882	-5.11
496.338	-2.41
496.794	-0.21
497.251	-10.21
497.707	2.79
498.163	-7.71
498.618	-1.81
499.074	1.09
499.53	1.09
499.986	-4.91
500.442	-6.11
500.898	-4.01
501.354	-3.91
501.809	-4.21
502.265	0.29
502.721	-0.81
503.177	5.19
503.632	2.89
504.088	-1.01
504.543	-7.11
504.999	0.99
505.455	0.19
505.91	-8.21
506.366	-2.51
506.821	-10.61
507.277	-10.81
507.732	-8.41
508.187	-8.61
508.643	-6.11
509.098	-9.11
509.553	1.19
510.009	-0.61
510.464	-6.01
510.919	-5.81
511.375	-7.11
511.83	-3.01
512.285	-5.71
512.74	0.79
513.195	-0.21
513.65	0.39
514.105	-5.51
514.56	-2.51
515.015	2.39
515.47	5.69
515.925	-6.71
516.38	1.99
516.835	3.79
517.29	-5.81
517.745	-2.51
518.2	-0.21
518.655	-5.21
519.109	-5.01
519.564	-4.01
520.019	-6.81
520.474	-7.21
520.928	-2.51
521.383	-1.21
521.838	-4.21
522.292	-1.01
522.747	-1.71
523.201	0.79
523.656	-2.91
524.11	0.39
524.565	-6.31
525.019	-4.91
525.474	-5.71
525.928	-0.71
526.382	-4.51
526.837	1.29
527.291	-6.91
527.745	-3.61
528.2	-3.51
528.654	-4.71
529.108	-6.01
529.562	-11.91
530.016	-2.61
530.47	-0.91
530.925	-8.71
531.379	-11.81
531.833	-4.61
532.287	-8.01
532.741	-8.51
533.195	-6.01
533.649	-2.41
534.103	1.29
534.556	-6.01
535.01	-1.81
535.464	-9.81
535.918	0.59
536.372	-3.71
536.826	-1.51
537.279	-5.41
537.733	-3.71
538.187	-10.51
538.64	-4.71
539.094	-2.41
539.548	-9.31
540.001	-0.41
540.455	-4.61
540.908	-6.91
541.362	-7.51
541.815	-2.51
542.269	-0.41
542.722	-8.91
543.175	-3.41
543.629	-8.31
544.082	-1.21
544.536	-4.91
544.989	-1.41
545.442	1.99
545.895	-6.31
546.349	-2.71
546.802	-5.51
547.255	-1.31
547.708	-10.81
548.161	-10.51
548.614	-5.91
549.067	3.19
549.52	-7.11
549.973	-0.41
550.426	7.19
550.879	-14.51
551.332	-3.31
551.785	1.49
552.238	-2.81
552.691	-1.81
553.144	-3.81
553.596	-7.41
554.049	-14.21
554.502	-7.21
554.955	-1.01
555.407	-9.31
555.86	-8.41
556.313	-3.91
556.765	-6.81
557.218	-3.11
557.67	-3.81
558.123	-4.01
558.576	-7.21
559.028	0.79
559.48	-1.51
559.933	-1.61
560.385	-0.51
560.838	-0.51
561.29	-5.41
561.742	-2.81
562.195	-7.11
562.647	-9.81
563.099	0.89
563.551	-0.41
564.004	-0.41
564.456	-12.01
564.908	-0.21
565.36	-4.91
565.812	-8.01
566.264	-6.21
566.716	-3.01
567.168	-8.41
567.62	-0.91
568.072	-4.11
568.524	-10.91
568.976	-8.51
569.428	-9.21
569.88	-11.21
570.332	-1.81
570.784	-4.71
571.235	-5.91
571.687	0.89
572.139	0.99
572.59	-0.81
573.042	-4.51
573.494	-4.61
573.945	1.29
574.397	-4.51
574.849	0.79
575.3	-5.61
575.752	-1.41
576.203	-5.61
576.655	2.59
577.106	0.69
577.557	-3.61
578.009	-0.81
578.46	-7.81
578.912	-0.11
579.363	-1.81
579.814	0.09
580.265	-11.51
580.717	-10.71
581.168	-5.61
581.619	0.09
582.07	-8.41
582.521	-5.91
582.972	-5.81
583.423	-5.61
583.875	-6.21
584.326	-5.61
584.777	-7.21
585.227	-2.31
585.678	-4.11
586.129	-6.71
586.58	-6.71
587.031	-2.11
587.482	-11.51
587.933	-2.71
588.384	-5.11
588.834	-8.01
589.285	-2.01
589.736	-4.91
590.186	-9.01
590.637	-3.41
591.088	-10.51
591.538	4.29
591.989	0.29
592.439	0.69
592.89	-3.91
593.34	-6.81
593.791	-5.61
594.241	-5.01
594.692	1.49
595.142	-6.01
595.593	-4.31
596.043	-1.71
596.493	-8.51
596.943	-5.11
597.394	-4.71
597.844	-10.01
598.294	-13.61
598.744	1.59
599.195	-4.21
599.645	-5.21
600.095	-3.91
600.545	-2.81
600.995	-3.51
601.445	-3.11
601.895	-9.01
602.345	0.09
602.795	-5.11
603.245	-8.71
603.695	-4.31
604.145	-8.61
604.594	-0.11
605.044	-1.61
605.494	-4.81
605.944	-9.71
606.393	-6.11
606.843	-6.61
607.293	0.19
607.743	-9.81
608.192	-4.61
608.642	0.29
609.091	-2.51
609.541	0.39
609.99	-8.91
610.44	2.39
610.889	-4.41
611.339	-7.01
611.788	-7.21
612.238	0.49
612.687	9.59
613.136	2.59
613.586	-1.81
614.035	-13.11
614.484	-9.41
614.933	-11.11
615.383	-0.71
615.832	2.29
616.281	3.79
616.73	0.49
617.179	-0.11
617.628	1.89
618.077	2.39
618.526	-10.51
618.975	-7.41
619.424	-3.21
619.873	-8.91
620.322	-1.81
620.771	-6.31
621.22	1.29
621.669	2.99
622.118	-1.01
622.567	-8.01
623.015	-12.21
623.464	-9.01
623.913	-0.61
624.361	-8.71
624.81	-9.71
625.259	-3.91
625.707	-0.61
626.156	-2.01
626.604	-1.01
627.053	-6.81
627.501	-9.51
627.95	-1.81
628.398	-8.21
628.847	-7.61
629.295	-8.81
629.744	-6.31
630.192	-1.01
630.64	-5.21
631.089	-5.51
631.537	-4.81
631.985	-4.21
632.433	-2.21
632.881	-2.31
633.33	-0.21
633.778	-5.11
634.226	-7.91
634.674	-5.71
635.122	-6.41
635.57	-3.01
636.018	-2.61
636.466	-3.11
636.914	-5.31
637.362	3.19
637.81	-1.01
638.258	2.79
638.705	-1.81
639.153	4.29
639.601	-11.31
640.049	-9.91
640.497	-3.81
640.944	2.99
641.392	-8.91
641.84	-0.11
642.287	-4.01
642.735	-8.51
643.182	-5.61
643.63	-5.31
644.078	-6.51
644.525	-4.91
644.973	-5.21
645.42	-8.61
645.867	-5.31
646.315	-1.81
646.762	-7.21
647.21	-7.91
647.657	-13.21
648.104	2.79
648.551	-9.61
648.999	-6.31
649.446	-1.71
649.893	-3.91
650.34	-7.41
650.787	-12.61
651.234	6.69
651.682	-7.01
652.129	-8.11
652.576	-6.01
653.023	3.29
653.47	2.99
653.917	-9.91
654.363	0.49
654.81	-7.81
655.257	-6.71
655.704	0.69
656.151	-5.21
656.598	-4.61
657.044	-4.71
657.491	-3.41
657.938	-3.41
658.385	1.59
658.831	-1.51
659.278	4.59
659.724	-11.31
660.171	-4.51
660.618	-4.61
661.064	1.89
661.511	-8.91
661.957	-3.11
662.404	-2.61
662.85	5.09
663.296	-3.91
663.743	-3.61
664.189	-3.61
664.635	2.19
665.082	-8.71
665.528	-2.91
665.974	-0.41
666.42	-8.31
666.867	0.09
667.313	-6.21
667.759	-7.21
668.205	-0.71
668.651	-5.11
669.097	2.69
669.543	-10.31
669.989	-4.11
670.435	-0.51
670.881	-0.41
671.327	-3.31
671.773	0.39
672.219	-3.41
672.665	0.79
673.11	-10.31
673.556	-8.91
674.002	-3.41
674.448	-10.61
674.893	0.39
675.339	-5.51
675.785	-3.31
676.23	0.99
676.676	-8.81
677.122	-9.11
677.567	-10.31
678.013	0.09
678.458	-9.61
678.904	-1.31
679.349	-9.31
679.794	-5.81
680.24	-6.41
680.685	-2.61
681.131	-6.71
681.576	-1.51
682.021	-2.31
682.466	-14.21
682.912	-4.11
683.357	-12.51
683.802	-6.11
684.247	-1.51
684.692	-4.71
685.137	-11.21
685.583	-1.11
686.028	-4.61
686.473	-5.51
686.918	-3.01
687.363	-3.91
687.807	-3.61
688.252	-3.21
688.697	6.29
689.142	-5.41
689.587	-5.81
690.032	-14.71
690.477	-4.11
690.921	-6.21
691.366	-5.81
691.811	-6.81
692.255	1.59
692.7	-0.41
693.145	-3.71
693.589	-6.91
694.034	-4.81
694.478	-4.21
694.923	3.69
695.367	-8.71
695.812	-0.71
696.256	-5.21
696.701	-3.61
697.145	-5.51
697.59	-4.81
698.034	-12.11
698.478	-2.41
698.922	-5.41
699.367	-3.61
699.811	1.59
700.255	6.09
700.699	-1.01
701.143	-12.21
701.588	-7.31
702.032	2.19
702.476	-5.01
702.92	-10.41
703.364	-8.71
703.808	-4.11
704.252	-6.81
704.696	-10.41
705.14	-9.21
705.584	-8.71
706.027	-0.61
706.471	-8.41
706.915	-9.11
707.359	-8.01
707.803	-10.31
708.246	-11.01
708.69	-6.31
709.134	0.89
709.577	1.79
710.021	3.59
710.465	1.39
710.908	-2.61
711.352	-3.21
711.795	-11.11
712.239	-4.21
712.682	-14.41
713.126	-1.91
713.569	-3.81
714.012	4.09
714.456	-2.21
714.899	-0.91
715.342	-8.21
715.786	-5.21
716.229	0.49
716.672	5.59
717.115	-6.21
717.558	-5.01
718.002	-4.71
718.445	-9.51
718.888	-1.01
719.331	-5.91
719.774	2.39
720.217	-4.71
720.66	-4.41
721.103	-8.21
721.546	-5.41
721.989	-2.01
722.432	-13.61
722.874	-3.31
723.317	-15.41
723.76	-8.61
724.203	-5.21
724.645	-5.81
725.088	-1.71
725.531	-10.81
725.974	-10.31
726.416	-5.81
726.859	-4.41
727.301	-9.21
727.744	-6.91
728.187	-6.51
728.629	-4.21
729.071	-4.51
729.514	3.19
729.956	-1.01
730.399	-6.61
730.841	1.49
731.283	-7.11
731.726	-4.11
732.168	-0.11
732.61	-3.71
733.053	-2.81
733.495	-13.51
733.937	-10.51
734.379	-3.71
734.821	-4.91
735.263	-4.81
735.705	-6.61
736.148	-3.31
736.59	-1.11
737.032	-5.91
737.474	-3.31
737.916	-7.61
738.357	-3.71
738.799	-5.11
739.241	-5.21
739.683	-11.41
740.125	-4.21
740.567	-9.11
741.008	2.59
741.45	4.09
741.892	-2.41
742.334	-3.61
742.775	-3.81
743.217	0.49
743.658	-7.11
744.1	-6.71
744.542	-10.41
744.983	-2.11
745.425	-4.41
745.866	-5.71
746.307	-6.01
746.749	-6.41
747.19	0.59
747.632	-10.51
748.073	-14.41
748.514	-1.61
748.956	-4.81
749.397	-4.31
749.838	-6.71
750.279	-1.51
750.72	-7.11
751.162	0.39
751.603	-2.41
752.044	-4.61
752.485	-11.21
752.926	-3.41
753.367	-6.21
753.808	-0.81
754.249	-1.61
754.69	-3.21
755.131	0.19
755.572	-1.31
756.013	-7.41
756.453	-2.31
756.894	-0.81
757.335	-3.51
757.776	-4.11
758.216	-5.71
758.657	-2.01
759.098	-8.21
759.538	-10.01
759.979	-7.81
760.42	-9.91
760.86	-6.81
761.301	-5.71
761.741	-4.31
762.182	-2.51
762.622	-3.61
763.063	-7.41
763.503	-6.51
763.943	-7.31
764.384	0.49
764.824	1.19
765.264	-2.41
765.705	-12.11
766.145	-14.01
766.585	-6.01
767.025	-10.81
767.465	-14.01
767.906	-3.21
768.346	-2.81
768.786	-3.41
769.226	-8.91
769.666	1.19
770.106	-6.31
770.546	-6.21
770.986	-5.01
771.426	-6.81
771.866	-6.81
772.306	-4.11
772.745	-8.51
773.185	-11.61
773.625	-1.31
774.065	-9.31
774.505	2.39
774.944	-1.61
775.384	-6.11
775.824	-2.91
776.263	-4.31
776.703	-7.41
777.142	-10.41
777.582	-7.01
778.021	-8.21
778.461	-3.31
778.9	-0.71
779.34	2.39
779.779	-8.51
780.219	-11.11
780.658	-13.21
781.097	-2.41
781.537	-5.41
781.976	-0.31
782.415	-5.41
782.855	-4.81
783.294	-6.91
783.733	-4.61
784.172	-5.21
784.611	-9.51
785.05	-11.81
785.489	-3.81
785.928	-2.41
786.367	-1.41
786.806	-9.21
787.245	-3.31
787.684	-4.31
788.123	6.59
788.562	-7.21
789.001	-4.01
789.44	-7.81
789.879	-7.01
790.317	-11.41
