Data from 20171114-ORNL-Ar_H_NY_Subt18_08-07-03-864.txt Node
Date: Tue Nov 14 08:07:03 EST 2017
User: Ender
Spectrometer: HR+D1039
Trigger mode: 0
Integration Time (sec): 2.730000E-2
Scans to average: 10
Electric dark correction enabled: true
Nonlinearity correction enabled: false
Boxcar width: 0
XAxis mode: Wavelengths
Number of Pixels in Spectrum: 2048
>>>>>Begin Spectral Data<<<<<
187.836	-5.74
188.309	-5.74
188.782	-5.74
189.255	3.56
189.728	2.86
190.201	9.66
190.674	-1.94
191.147	0.06
191.619	-4.04
192.092	-1.84
192.565	8.06
193.038	-0.24
193.511	-2.74
193.984	0.16
194.456	3.96
194.929	-2.04
195.402	-5.64
195.874	-4.04
196.347	2.86
196.82	-5.44
197.292	5.26
197.765	-0.94
198.237	-7.84
198.71	6.06
199.182	-2.94
199.655	4.26
200.127	6.56
200.6	-4.94
201.072	-2.14
201.544	-2.54
202.017	-2.34
202.489	3.56
202.961	-0.24
203.433	-1.74
203.906	-5.44
204.378	-4.24
204.85	-5.74
205.322	-4.94
205.794	-2.94
206.266	-5.34
206.739	-10.84
207.211	-2.44
207.683	0.46
208.155	0.56
208.627	-3.64
209.099	0.16
209.57	-7.04
210.042	-7.84
210.514	-2.34
210.986	-0.74
211.458	-9.24
211.93	-2.44
212.402	4.46
212.873	-0.64
213.345	1.16
213.817	-5.84
214.288	-4.44
214.76	-4.84
215.232	-1.14
215.703	-3.84
216.175	-7.74
216.646	-5.04
217.118	-11.34
217.589	-4.54
218.061	1.76
218.532	-4.54
219.004	-5.44
219.475	-3.84
219.946	-3.74
220.418	-3.14
220.889	4.06
221.36	1.86
221.832	-0.44
222.303	-6.14
222.774	-3.34
223.245	-3.64
223.717	-5.94
224.188	-7.24
224.659	-4.84
225.13	-3.64
225.601	-6.24
226.072	-0.84
226.543	1.16
227.014	3.16
227.485	-1.14
227.956	-5.44
228.427	-5.34
228.898	0.76
229.369	0.96
229.839	-4.44
230.31	-6.14
230.781	-1.44
231.252	-4.04
231.722	-5.14
232.193	-0.54
232.664	-1.04
233.135	0.26
233.605	-2.44
234.076	-6.54
234.546	-2.84
235.017	2.16
235.487	-0.34
235.958	-3.64
236.428	-2.94
236.899	-5.84
237.369	-4.04
237.84	-10.94
238.31	-0.24
238.78	-4.74
239.251	-7.44
239.721	-9.74
240.191	3.66
240.662	-5.34
241.132	-0.04
241.602	-7.84
242.072	-6.54
242.542	1.66
243.013	-1.44
243.483	4.06
243.953	2.96
244.423	1.86
244.893	-5.24
245.363	-0.74
245.833	-1.84
246.303	-6.44
246.773	3.06
247.243	2.26
247.712	-1.44
248.182	-0.74
248.652	2.66
249.122	-6.64
249.592	0.66
250.061	-0.44
250.531	14.06
251.001	-0.64
251.471	-0.64
251.94	6.76
252.41	-6.54
252.879	-7.94
253.349	6.66
253.818	4.46
254.288	-0.24
254.757	3.66
255.227	-3.84
255.696	0.06
256.166	3.66
256.635	1.96
257.105	-0.34
257.574	0.46
258.043	0.76
258.513	-4.14
258.982	-0.14
259.451	-4.74
259.92	4.76
260.389	-2.84
260.859	10.66
261.328	-0.44
261.797	1.46
262.266	-1.74
262.735	5.46
263.204	2.66
263.673	-0.84
264.142	8.36
264.611	-3.34
265.08	-3.44
265.549	-1.84
266.018	3.76
266.487	-2.14
266.955	-7.54
267.424	3.96
267.893	5.26
268.362	0.06
268.83	3.86
269.299	6.56
269.768	-1.54
270.236	5.26
270.705	-0.94
271.174	0.36
271.642	-1.44
272.111	2.26
272.579	2.76
273.048	-1.64
273.516	4.76
273.985	6.06
274.453	5.86
274.922	9.46
275.39	3.56
275.858	-0.94
276.327	4.06
276.795	11.56
277.263	-3.34
277.731	7.26
278.2	11.26
278.668	2.46
279.136	10.46
279.604	2.56
280.072	8.56
280.54	4.26
281.008	9.86
281.477	11.56
281.945	4.06
282.413	13.76
282.881	8.36
283.348	0.96
283.816	10.06
284.284	15.36
284.752	19.26
285.22	11.16
285.688	8.56
286.156	14.36
286.623	19.56
287.091	7.16
287.559	8.36
288.026	6.66
288.494	6.26
288.962	-0.64
289.429	4.36
289.897	12.76
290.364	11.46
290.832	14.06
291.3	7.26
291.767	15.36
292.234	12.96
292.702	11.16
293.169	7.76
293.637	15.66
294.104	12.66
294.571	3.46
295.039	8.66
295.506	6.86
295.973	11.86
296.44	5.76
296.908	11.46
297.375	10.26
297.842	15.06
298.309	14.46
298.776	10.86
299.243	17.26
299.71	10.86
300.177	18.26
300.644	14.86
301.111	12.16
301.578	18.46
302.045	13.66
302.512	16.56
302.979	19.96
303.446	17.56
303.913	14.36
304.379	11.76
304.846	23.36
305.313	21.36
305.78	17.06
306.246	21.16
306.713	20.56
307.18	12.86
307.646	20.56
308.113	23.06
308.579	19.26
309.046	14.26
309.512	20.76
309.979	16.96
310.445	28.16
310.912	23.76
311.378	27.86
311.845	23.36
312.311	20.46
312.777	24.46
313.244	25.26
313.71	26.96
314.176	20.36
314.642	28.16
315.109	23.16
315.575	25.26
316.041	34.46
316.507	15.16
316.973	22.36
317.439	19.96
317.905	33.86
318.371	27.06
318.837	26.66
319.303	22.56
319.769	25.86
320.235	24.56
320.701	23.56
321.167	28.66
321.633	23.26
322.099	32.06
322.564	30.86
323.03	28.06
323.496	29.36
323.962	29.16
324.427	30.16
324.893	37.06
325.359	28.16
325.824	30.26
326.29	26.86
326.755	28.56
327.221	34.96
327.686	32.06
328.152	37.06
328.617	32.46
329.083	37.96
329.548	40.76
330.014	41.16
330.479	34.36
330.944	40.86
331.41	40.56
331.875	38.66
332.34	34.96
332.805	35.16
333.271	39.56
333.736	33.56
334.201	41.26
334.666	42.36
335.131	44.06
335.596	43.96
336.061	42.26
336.526	32.46
336.991	45.66
337.456	46.46
337.921	33.66
338.386	40.36
338.851	41.96
339.316	37.46
339.781	40.46
340.246	43.56
340.711	40.66
341.175	47.86
341.64	35.36
342.105	42.96
342.569	47.56
343.034	53.06
343.499	46.56
343.963	44.26
344.428	61.06
344.893	53.26
345.357	53.06
345.822	53.46
346.286	50.56
346.751	63.66
347.215	54.16
347.679	60.46
348.144	75.46
348.608	68.76
349.073	64.66
349.537	68.66
350.001	63.86
350.465	77.76
350.93	67.86
351.394	71.66
351.858	57.06
352.322	78.46
352.786	73.46
353.25	80.66
353.715	94.76
354.179	82.46
354.643	102.46
355.107	106.46
355.571	90.76
356.035	86.46
356.498	95.66
356.962	96.36
357.426	103.96
357.89	93.16
358.354	77.66
358.818	75.76
359.281	73.56
359.745	68.66
360.209	68.76
360.673	68.36
361.136	65.86
361.6	82.36
362.064	75.96
362.527	73.36
362.991	79.26
363.454	71.26
363.918	68.66
364.381	71.36
364.845	70.96
365.308	71.66
365.772	79.16
366.235	79.86
366.698	73.06
367.162	73.66
367.625	78.86
368.088	78.26
368.552	80.56
369.015	76.06
369.478	82.06
369.941	88.06
370.404	78.16
370.867	88.06
371.331	93.56
371.794	98.06
372.257	92.66
372.72	89.26
373.183	91.66
373.646	81.66
374.109	83.66
374.572	91.96
375.035	89.86
375.497	97.16
375.96	103.16
376.423	95.46
376.886	102.16
377.349	98.46
377.811	94.26
378.274	95.96
378.737	90.66
379.199	92.16
379.662	100.16
380.125	97.96
380.587	98.36
381.05	92.56
381.512	103.36
381.975	108.86
382.437	108.56
382.9	107.66
383.362	112.26
383.825	121.36
384.287	120.66
384.75	108.96
385.212	116.36
385.674	120.36
386.136	120.46
386.599	113.26
387.061	114.06
387.523	109.56
387.985	115.66
388.447	124.36
388.91	113.86
389.372	119.66
389.834	117.66
390.296	119.26
390.758	121.16
391.22	126.66
391.682	133.26
392.144	142.16
392.606	136.16
393.068	137.06
393.529	136.96
393.991	132.16
394.453	123.96
394.915	125.06
395.377	126.96
395.838	134.96
396.3	125.96
396.762	135.46
397.224	124.66
397.685	124.86
398.147	133.96
398.608	126.96
399.07	125.86
399.531	125.36
399.993	141.96
400.454	148.16
400.916	141.46
401.377	136.26
401.839	150.56
402.3	135.16
402.762	159.06
403.223	164.96
403.684	158.66
404.145	157.36
404.607	149.76
405.068	157.56
405.529	158.66
405.99	172.16
406.451	163.36
406.913	163.26
407.374	159.96
407.835	154.36
408.296	161.26
408.757	168.26
409.218	171.16
409.679	167.96
410.14	167.46
410.601	165.86
411.062	177.26
411.522	171.66
411.983	171.36
412.444	166.16
412.905	170.86
413.366	178.16
413.826	196.46
414.287	213.36
414.748	260.46
415.208	247.06
415.669	217.86
416.13	203.76
416.59	201.06
417.051	203.76
417.511	220.36
417.972	237.06
418.432	242.26
418.893	287.86
419.353	246.96
419.814	188.66
420.274	179.66
420.734	177.66
421.195	189.46
421.655	184.26
422.115	191.36
422.576	189.96
423.036	195.76
423.496	208.16
423.956	214.76
424.416	230.16
424.876	261.86
425.336	253.86
425.797	259.36
426.257	246.86
426.717	240.66
427.177	225.86
427.637	221.06
428.097	232.46
428.556	237.56
429.016	267.76
429.476	255.46
429.936	264.96
430.396	265.76
430.856	279.46
431.315	301.56
431.775	332.46
432.235	364.66
432.694	335.06
433.154	346.36
433.614	365.36
434.073	325.16
434.533	271.16
434.993	268.36
435.452	282.26
435.912	284.16
436.371	286.56
436.83	272.56
437.29	260.06
437.749	238.06
438.209	250.26
438.668	263.16
439.127	282.56
439.587	256.76
440.046	253.46
440.505	252.06
440.964	272.66
441.424	313.56
441.883	310.36
442.342	265.46
442.801	224.26
443.26	225.36
443.719	224.36
444.178	226.96
444.637	211.76
445.096	220.66
445.555	229.86
446.014	231.56
446.473	229.96
446.932	230.06
447.391	228.86
447.849	238.46
448.308	222.06
448.767	224.06
449.226	237.66
449.685	247.16
450.143	251.66
450.602	239.36
451.061	237.26
451.519	239.06
451.978	238.86
452.436	241.86
452.895	249.36
453.353	262.06
453.812	242.26
454.27	239.86
454.729	246.26
455.187	246.46
455.646	247.36
456.104	254.16
456.562	263.66
457.021	273.26
457.479	260.96
457.937	274.66
458.395	270.26
458.854	249.46
459.312	261.96
459.77	277.06
460.228	264.06
460.686	256.46
461.144	251.26
461.602	250.16
462.06	254.76
462.518	264.96
462.976	265.36
463.434	263.16
463.892	273.66
464.35	284.56
464.808	297.96
465.266	274.36
465.724	282.46
466.181	281.76
466.639	277.46
467.097	288.96
467.555	304.66
468.012	304.66
468.47	307.76
468.928	341.46
469.385	354.96
469.843	352.16
470.3	358.96
470.758	370.46
471.215	390.36
471.673	419.96
472.13	414.56
472.588	419.16
473.045	383.06
473.503	391.66
473.96	409.06
474.417	408.56
474.875	435.56
475.332	481.66
475.789	463.96
476.246	471.56
476.704	494.56
477.161	522.46
477.618	527.76
478.075	568.36
478.532	605.36
478.989	688.46
479.446	787.26
479.903	754.16
480.36	787.66
480.817	837.06
481.274	930.36
481.731	1018.06
482.188	1085.76
482.645	1200.16
483.102	1305.26
483.558	1421.46
484.015	1458.26
484.472	1429.66
484.929	1391.46
485.385	1342.06
485.842	1323.56
486.299	1273.36
486.755	1242.46
487.212	1052.26
487.668	899.46
488.125	840.76
488.582	766.86
489.038	746.96
489.494	706.86
489.951	687.86
490.407	675.36
490.864	653.86
491.32	653.86
491.776	655.96
492.233	656.56
492.689	625.56
493.145	620.06
493.602	616.76
494.058	621.76
494.514	622.76
494.97	650.06
495.426	651.96
495.882	636.26
496.338	630.56
496.794	627.76
497.251	625.66
497.707	644.76
498.163	653.36
498.618	651.46
499.074	655.06
499.53	681.66
499.986	690.06
500.442	661.36
500.898	635.26
501.354	618.66
501.809	639.36
502.265	641.06
502.721	643.26
503.177	644.06
503.632	659.46
504.088	663.76
504.543	691.16
504.999	707.76
505.455	675.86
505.91	646.36
506.366	660.66
506.821	650.46
507.277	652.86
507.732	654.46
508.187	654.86
508.643	660.06
509.098	665.36
509.553	675.86
510.009	682.76
510.464	693.46
510.919	720.66
511.375	722.56
511.83	726.36
512.285	739.66
512.74	775.76
513.195	814.16
513.65	784.76
514.105	786.06
514.56	790.36
515.015	809.36
515.47	824.96
515.925	799.46
516.38	794.96
516.835	810.36
517.29	794.26
517.745	807.66
518.2	789.66
518.655	767.76
519.109	762.86
519.564	757.16
520.019	752.06
520.474	737.46
520.928	742.86
521.383	744.46
521.838	731.66
522.292	732.86
522.747	734.46
523.201	729.16
523.656	722.56
524.11	719.96
524.565	724.66
525.019	712.86
525.474	715.06
525.928	719.36
526.382	723.96
526.837	714.16
527.291	719.36
527.745	711.56
528.2	724.96
528.654	716.26
529.108	710.26
529.562	707.86
530.016	713.16
530.47	715.56
530.925	716.16
531.379	708.26
531.833	724.26
532.287	724.56
532.741	720.16
533.195	718.76
533.649	736.06
534.103	734.86
534.556	726.86
535.01	731.46
535.464	726.76
535.918	733.36
536.372	751.46
536.826	737.66
537.279	733.66
537.733	735.16
538.187	729.06
538.64	729.96
539.094	748.26
539.548	751.46
540.001	740.36
540.455	738.96
540.908	754.86
541.362	763.16
541.815	765.66
542.269	780.66
542.722	778.46
543.175	802.66
543.629	794.36
544.082	811.06
544.536	811.06
544.989	809.36
545.442	830.26
545.895	824.56
546.349	822.66
546.802	826.56
547.255	832.36
547.708	838.66
548.161	840.06
548.614	838.36
549.067	862.26
549.52	857.16
549.973	848.06
550.426	844.96
550.879	826.96
551.332	825.06
551.785	827.66
552.238	837.86
552.691	852.46
553.144	870.86
553.596	879.36
554.049	899.26
554.502	928.96
554.955	938.26
555.407	953.56
555.86	935.36
556.313	921.76
556.765	907.66
557.218	921.16
557.67	917.76
558.123	907.66
558.576	903.26
559.028	903.16
559.48	916.66
559.933	898.26
560.385	880.56
560.838	848.36
561.29	815.66
561.742	814.06
562.195	804.96
562.647	797.46
563.099	813.26
563.551	799.96
564.004	804.66
564.456	808.66
564.908	777.66
565.36	761.76
565.812	749.16
566.264	739.86
566.716	742.36
567.168	727.96
567.62	735.36
568.072	713.76
568.524	722.56
568.976	716.96
569.428	696.96
569.88	701.96
570.332	709.76
570.784	702.66
571.235	705.86
571.687	726.76
572.139	732.56
572.59	742.16
573.042	738.36
573.494	735.56
573.945	729.96
574.397	705.56
574.849	712.76
575.3	717.76
575.752	714.06
576.203	703.56
576.655	703.46
577.106	699.66
577.557	688.96
578.009	688.56
578.46	682.06
578.912	677.86
579.363	684.96
579.814	694.06
580.265	682.96
580.717	693.16
581.168	689.46
581.619	696.66
582.07	703.46
582.521	699.26
582.972	692.36
583.423	691.26
583.875	696.56
584.326	708.26
584.777	721.76
585.227	742.46
585.678	752.86
586.129	773.76
586.58	789.16
587.031	814.06
587.482	839.06
587.933	852.06
588.384	835.36
588.834	816.86
589.285	791.76
589.736	796.76
590.186	797.36
590.637	788.36
591.088	763.46
591.538	755.16
591.989	745.16
592.439	748.26
592.89	739.16
593.34	733.26
593.791	728.16
594.241	714.26
594.692	713.46
595.142	716.06
595.593	721.86
596.043	725.86
596.493	726.56
596.943	729.96
597.394	735.56
597.844	732.46
598.294	751.96
598.744	781.86
599.195	809.26
599.645	839.86
600.095	889.66
600.545	946.46
600.995	1006.76
601.445	1059.66
601.895	1122.06
602.345	1170.76
602.795	1150.26
603.245	1112.16
603.695	1058.76
604.145	993.06
604.594	946.96
605.044	889.06
605.494	835.66
605.944	779.66
606.393	757.96
606.843	749.46
607.293	739.16
607.743	745.06
608.192	767.16
608.642	769.86
609.091	781.66
609.541	780.36
609.99	771.56
610.44	779.96
610.889	732.66
611.339	714.86
611.788	705.86
612.238	707.86
612.687	712.46
613.136	721.76
613.586	727.56
614.035	721.06
614.484	723.46
614.933	725.96
615.383	726.96
615.832	722.76
616.281	720.66
616.73	695.76
617.179	674.76
617.628	654.16
618.077	638.16
618.526	634.16
618.975	640.06
619.424	626.96
619.873	630.06
620.322	634.76
620.771	625.46
621.22	622.96
621.669	614.06
622.118	604.96
622.567	594.16
623.015	588.56
623.464	570.26
623.913	575.96
624.361	569.96
624.81	564.16
625.259	557.46
625.707	575.36
626.156	576.76
626.604	578.16
627.053	568.26
627.501	580.96
627.95	576.86
628.398	592.66
628.847	575.06
629.295	578.86
629.744	599.86
630.192	584.16
630.64	576.26
631.089	555.86
631.537	558.36
631.985	541.06
632.433	543.76
632.881	537.36
633.33	544.36
633.778	545.56
634.226	532.56
634.674	550.96
635.122	555.16
635.57	561.26
636.018	560.66
636.466	582.36
636.914	567.56
637.362	586.66
637.81	586.76
638.258	593.36
638.705	601.56
639.153	616.76
639.601	630.96
640.049	660.36
640.497	686.16
640.944	706.76
641.392	667.16
641.84	619.76
642.287	597.36
642.735	566.46
643.182	572.56
643.63	572.06
644.078	577.26
644.525	586.56
644.973	583.56
645.42	598.66
645.867	637.66
646.315	644.06
646.762	666.66
647.21	691.66
647.657	710.06
648.104	738.26
648.551	769.26
648.999	825.16
649.446	889.06
649.893	978.46
650.34	1112.46
650.787	1324.26
651.234	1624.96
651.682	2094.06
652.129	2843.06
652.576	4012.06
653.023	5870.26
653.47	7961.16
653.917	9894.16
654.363	11395.66
654.81	12564.56
655.257	11919.26
655.704	7895.26
656.151	4765.06
656.598	3125.46
657.044	2237.66
657.491	1746.06
657.938	1405.66
658.385	1198.76
658.831	1035.06
659.278	944.36
659.724	836.06
660.171	775.46
660.618	712.86
661.064	690.16
661.511	667.16
661.957	651.56
662.404	649.26
662.85	650.56
663.296	634.46
663.743	569.16
664.189	537.66
664.635	545.36
665.082	544.06
665.528	530.76
665.974	531.06
666.42	523.76
666.867	523.46
667.313	487.86
667.759	470.86
668.205	465.86
668.651	465.76
669.097	450.56
669.543	443.66
669.989	451.06
670.435	459.56
670.881	443.76
671.327	458.16
671.773	481.36
672.219	503.16
672.665	554.46
673.11	604.76
673.556	658.16
674.002	687.36
674.448	677.16
674.893	559.06
675.339	490.46
675.785	450.86
676.23	427.76
676.676	408.46
677.122	392.16
677.567	385.36
678.013	378.16
678.458	381.36
678.904	371.56
679.349	358.46
679.794	363.46
680.24	355.26
680.685	362.06
681.131	360.76
681.576	360.36
682.021	358.46
682.466	356.26
682.912	356.06
683.357	372.06
683.802	392.56
684.247	421.76
684.692	472.76
685.137	509.46
685.583	560.46
686.028	583.06
686.473	532.96
686.918	460.36
687.363	430.96
687.807	405.76
688.252	377.56
688.697	368.06
689.142	339.76
689.587	345.56
690.032	334.06
690.477	354.96
690.921	364.06
691.366	393.56
691.811	422.26
692.255	440.66
692.7	475.06
693.145	521.26
693.589	721.86
694.034	1178.66
694.478	1606.56
694.923	1796.06
695.367	2338.26
695.812	1233.56
696.256	515.96
696.701	390.06
697.145	353.06
697.59	340.26
698.034	328.36
698.478	343.06
698.922	324.36
699.367	337.36
699.811	345.96
700.255	371.66
700.699	400.56
701.143	433.16
701.588	494.86
702.032	531.26
702.476	534.76
702.92	508.26
703.364	516.46
703.808	670.46
704.252	1084.06
704.696	1512.36
705.14	1715.46
705.584	2216.26
706.027	1109.96
706.471	553.46
706.915	416.26
707.359	365.56
707.803	330.56
708.246	323.06
708.69	315.86
709.134	322.66
709.577	313.56
710.021	324.66
710.465	315.06
710.908	310.16
711.352	301.26
711.795	326.06
712.239	368.16
712.682	396.26
713.126	428.86
713.569	462.86
714.012	359.36
714.456	318.56
714.899	294.76
715.342	280.86
715.786	270.26
716.229	264.76
716.672	266.06
717.115	254.96
717.558	263.46
718.002	260.96
718.445	261.96
718.888	286.86
719.331	300.66
719.774	323.66
720.217	310.86
720.66	296.66
721.103	279.96
721.546	266.46
721.989	254.56
722.432	234.36
722.874	236.46
723.317	234.86
723.76	252.16
724.203	266.96
724.645	329.36
725.088	457.66
725.531	592.86
725.974	667.56
726.416	567.86
726.859	319.66
727.301	252.96
727.744	240.06
728.187	241.96
728.629	244.46
729.071	249.46
729.514	257.46
729.956	283.56
730.399	295.56
730.841	298.66
731.283	283.86
731.726	278.86
732.168	274.46
732.61	271.06
733.053	296.96
733.495	321.56
733.937	361.76
734.379	413.06
734.821	458.36
735.263	564.46
735.705	881.36
736.148	1669.46
736.59	2683.06
737.032	3163.26
737.474	2574.56
737.916	847.76
738.357	444.16
738.799	342.26
739.241	309.16
739.683	288.66
740.125	299.46
740.567	311.46
741.008	323.26
741.45	322.26
741.892	326.86
742.334	357.36
742.775	380.76
743.217	356.36
743.658	286.36
744.1	272.56
744.542	280.66
744.983	330.06
745.425	365.16
745.866	358.66
746.307	286.26
746.749	281.16
747.19	337.06
747.632	476.36
748.073	920.76
748.514	1936.46
748.956	2954.16
749.397	3738.66
749.838	3089.76
750.279	3069.06
750.72	1567.16
751.162	577.86
751.603	334.06
752.044	266.16
752.485	223.26
752.926	222.06
753.367	205.56
753.808	197.16
754.249	195.86
754.69	188.16
755.131	191.56
755.572	185.26
756.013	182.96
756.453	191.96
756.894	200.66
757.335	190.66
757.776	203.66
758.216	198.66
758.657	206.56
759.098	211.56
759.538	234.06
759.979	279.76
760.42	392.56
760.86	740.16
761.301	1911.66
761.741	4639.56
762.182	6657.26
762.622	4743.66
763.063	1372.06
763.503	567.06
