Data from 20171114-ORNL-Ar_H_NY_Subt18_08-08-53-629.txt Node
Date: Tue Nov 14 08:08:53 EST 2017
User: Ender
Spectrometer: HR+D1039
Trigger mode: 0
Integration Time (sec): 2.730000E-2
Scans to average: 10
Electric dark correction enabled: true
Nonlinearity correction enabled: false
Boxcar width: 0
XAxis mode: Wavelengths
Number of Pixels in Spectrum: 2048
>>>>>Begin Spectral Data<<<<<
187.836	-2.06
188.309	-2.06
188.782	-2.06
189.255	0.04
189.728	3.04
190.201	9.84
190.674	1.84
191.147	2.84
191.619	-8.26
192.092	0.44
192.565	5.94
193.038	-5.86
193.511	0.14
193.984	-0.26
194.456	-3.16
194.929	-1.66
195.402	-5.26
195.874	2.34
196.347	-0.56
196.82	-4.96
197.292	2.84
197.765	-4.96
198.237	-9.06
198.71	-0.36
199.182	1.74
199.655	-0.16
200.127	2.24
200.6	-2.26
201.072	0.54
201.544	-7.36
202.017	-3.56
202.489	-0.66
202.961	-5.66
203.433	-4.26
203.906	-5.96
204.378	-5.96
204.85	-8.96
205.322	-13.86
205.794	-3.96
206.266	-5.76
206.739	-11.06
207.211	0.94
207.683	-9.16
208.155	-9.16
208.627	-6.66
209.099	-2.26
209.57	-3.96
210.042	-3.96
210.514	-3.86
210.986	-0.36
211.458	-8.26
211.93	0.64
212.402	0.34
212.873	-6.36
213.345	-6.26
213.817	-10.06
214.288	-4.06
214.76	-10.66
215.232	-4.26
215.703	-8.86
216.175	-8.06
216.646	-5.76
217.118	-8.56
217.589	-6.26
218.061	-3.06
218.532	-3.36
219.004	-7.06
219.475	-5.06
219.946	-7.86
220.418	-4.26
220.889	4.24
221.36	1.24
221.832	-3.76
222.303	-5.96
222.774	-3.06
223.245	-8.96
223.717	-12.16
224.188	-4.36
224.659	-8.26
225.13	-13.66
225.601	-3.46
226.072	-1.66
226.543	-1.46
227.014	-4.86
227.485	-2.56
227.956	-11.56
228.427	-2.46
228.898	4.84
229.369	0.94
229.839	-6.46
230.31	-14.46
230.781	3.74
231.252	-2.76
231.722	-6.56
232.193	-0.96
232.664	-6.86
233.135	-0.96
233.605	0.24
234.076	-5.46
234.546	-5.46
235.017	6.74
235.487	1.74
235.958	-4.16
236.428	-5.46
236.899	-6.76
237.369	-0.56
237.84	-8.46
238.31	-0.96
238.78	-0.86
239.251	-1.16
239.721	-2.66
240.191	-0.96
240.662	0.54
241.132	-10.16
241.602	-0.26
242.072	-4.16
242.542	2.34
243.013	-5.66
243.483	2.34
243.953	-4.36
244.423	-0.86
244.893	-1.46
245.363	2.04
245.833	3.34
246.303	-1.86
246.773	0.94
247.243	1.64
247.712	-0.16
248.182	4.54
248.652	10.64
249.122	-6.56
249.592	4.34
250.061	8.34
250.531	14.74
251.001	-5.76
251.471	4.54
251.94	9.04
252.41	0.04
252.879	-4.36
253.349	12.54
253.818	5.84
254.288	-2.66
254.757	-2.76
255.227	-3.86
255.696	0.94
256.166	2.14
256.635	-4.16
257.105	-1.26
257.574	-1.36
258.043	1.94
258.513	-3.46
258.982	2.74
259.451	1.74
259.92	4.24
260.389	1.94
260.859	9.24
261.328	2.04
261.797	4.94
262.266	-4.86
262.735	3.74
263.204	-0.96
263.673	-1.66
264.142	3.14
264.611	-1.86
265.08	-4.16
265.549	-4.16
266.018	-3.66
266.487	-2.06
266.955	-8.56
267.424	-5.16
267.893	1.14
268.362	-2.26
268.83	-0.56
269.299	3.94
269.768	-1.96
270.236	1.84
270.705	1.14
271.174	2.94
271.642	3.54
272.111	-3.16
272.579	6.64
273.048	11.84
273.516	12.44
273.985	9.74
274.453	13.74
274.922	6.54
275.39	0.64
275.858	-1.06
276.327	2.84
276.795	14.74
277.263	-0.86
277.731	17.84
278.2	20.74
278.668	26.44
279.136	25.94
279.604	10.14
280.072	3.44
280.54	1.14
281.008	4.44
281.477	13.54
281.945	7.94
282.413	4.44
282.881	9.34
283.348	0.64
283.816	5.54
284.284	8.74
284.752	14.44
285.22	2.24
285.688	8.44
286.156	0.24
286.623	25.84
287.091	27.24
287.559	13.04
288.026	8.94
288.494	9.74
288.962	-2.36
289.429	-0.66
289.897	13.04
290.364	8.34
290.832	11.04
291.3	3.84
291.767	10.54
292.234	2.74
292.702	6.54
293.169	16.14
293.637	15.84
294.104	11.04
294.571	2.04
295.039	3.14
295.506	3.04
295.973	14.34
296.44	16.44
296.908	9.54
297.375	9.24
297.842	10.84
298.309	7.94
298.776	0.54
299.243	7.34
299.71	2.04
300.177	14.34
300.644	9.84
301.111	6.44
301.578	22.74
302.045	7.24
302.512	15.74
302.979	14.04
303.446	16.84
303.913	8.24
304.379	10.64
304.846	18.64
305.313	20.14
305.78	11.64
306.246	17.84
306.713	15.14
307.18	11.34
307.646	20.84
308.113	21.04
308.579	17.74
309.046	15.04
309.512	19.94
309.979	12.84
310.445	15.64
310.912	16.44
311.378	20.54
311.845	18.24
312.311	18.94
312.777	18.64
313.244	15.64
313.71	24.54
314.176	18.24
314.642	20.84
315.109	22.74
315.575	25.04
316.041	28.94
316.507	19.04
316.973	27.14
317.439	24.44
317.905	21.54
318.371	28.14
318.837	21.54
319.303	23.14
319.769	21.84
320.235	24.44
320.701	22.34
321.167	28.04
321.633	23.84
322.099	24.34
322.564	28.04
323.03	21.34
323.496	27.64
323.962	27.34
324.427	22.04
324.893	28.14
325.359	24.94
325.824	21.94
326.29	26.94
326.755	32.54
327.221	27.74
327.686	31.64
328.152	36.34
328.617	29.34
329.083	43.64
329.548	38.64
330.014	35.64
330.479	27.74
330.944	28.44
331.41	29.84
331.875	32.14
332.34	30.94
332.805	31.94
333.271	31.74
333.736	30.34
334.201	38.24
334.666	35.74
335.131	41.54
335.596	36.84
336.061	37.84
336.526	28.94
336.991	38.04
337.456	43.14
337.921	32.94
338.386	33.64
338.851	34.44
339.316	31.04
339.781	26.04
340.246	40.14
340.711	34.54
341.175	38.14
341.64	31.84
342.105	40.84
342.569	37.04
343.034	48.74
343.499	43.94
343.963	41.34
344.428	53.94
344.893	47.44
345.357	42.24
345.822	44.74
346.286	49.34
346.751	48.44
347.215	51.04
347.679	50.24
348.144	77.84
348.608	58.04
349.073	56.14
349.537	59.34
350.001	58.54
350.465	73.14
350.93	58.04
351.394	59.84
351.858	55.44
352.322	65.44
352.786	59.94
353.25	74.74
353.715	87.64
354.179	76.84
354.643	98.84
355.107	96.34
355.571	83.94
356.035	78.34
356.498	90.14
356.962	90.64
357.426	103.04
357.89	89.94
358.354	65.14
358.818	69.74
359.281	62.94
359.745	63.14
360.209	63.34
360.673	59.94
361.136	64.84
361.6	63.54
362.064	68.94
362.527	64.24
362.991	73.64
363.454	61.54
363.918	58.74
364.381	61.54
364.845	67.54
365.308	71.34
365.772	72.74
366.235	70.84
366.698	68.74
367.162	68.14
367.625	68.24
368.088	72.44
368.552	66.34
369.015	65.44
369.478	80.84
369.941	78.94
370.404	79.74
370.867	89.04
371.331	85.74
371.794	88.24
372.257	88.84
372.72	88.64
373.183	90.04
373.646	86.54
374.109	78.04
374.572	85.74
375.035	84.34
375.497	92.74
375.96	85.54
376.423	87.14
376.886	96.94
377.349	99.94
377.811	87.54
378.274	94.44
378.737	94.14
379.199	95.44
379.662	94.84
380.125	95.14
380.587	98.84
381.05	103.04
381.512	107.74
381.975	112.64
382.437	106.54
382.9	99.34
383.362	110.04
383.825	115.14
384.287	123.84
384.75	112.64
385.212	116.24
385.674	126.24
386.136	112.54
386.599	110.64
387.061	109.44
387.523	109.34
387.985	112.84
388.447	129.34
388.91	124.14
389.372	123.14
389.834	129.64
390.296	126.14
390.758	126.34
391.22	143.44
391.682	166.64
392.144	221.34
392.606	172.14
393.068	136.64
393.529	147.04
393.991	124.84
394.453	119.64
394.915	131.74
395.377	152.14
395.838	166.24
396.3	135.64
396.762	125.04
397.224	118.24
397.685	114.14
398.147	118.64
398.608	114.14
399.07	122.04
399.531	124.34
399.993	128.64
400.454	138.94
400.916	131.94
401.377	128.04
401.839	128.94
402.3	139.14
402.762	153.94
403.223	157.84
403.684	152.14
404.145	148.64
404.607	142.94
405.068	147.14
405.529	149.04
405.99	163.54
406.451	157.14
406.913	154.84
407.374	147.04
407.835	143.84
408.296	156.04
408.757	152.84
409.218	166.24
409.679	161.04
410.14	154.14
410.601	161.54
411.062	162.04
411.522	171.14
411.983	174.54
412.444	163.74
412.905	163.54
413.366	167.04
413.826	179.14
414.287	195.34
414.748	248.84
415.208	231.74
415.669	202.04
416.13	191.34
416.59	188.74
417.051	204.74
417.511	206.34
417.972	226.84
418.432	228.14
418.893	269.64
419.353	230.54
419.814	187.44
420.274	165.54
420.734	170.34
421.195	184.54
421.655	180.94
422.115	179.54
422.576	175.64
423.036	192.64
423.496	186.94
423.956	197.04
424.416	214.54
424.876	243.84
425.336	238.84
425.797	241.84
426.257	232.94
426.717	223.94
427.177	223.44
427.637	202.64
428.097	217.74
428.556	227.44
429.016	248.84
429.476	243.64
429.936	251.64
430.396	257.14
430.856	263.84
431.315	289.14
431.775	321.94
432.235	348.64
432.694	326.44
433.154	333.94
433.614	363.94
434.073	311.04
434.533	268.54
434.993	250.04
435.452	257.94
435.912	271.34
436.371	264.44
436.83	257.44
437.29	246.04
437.749	230.14
438.209	223.44
438.668	254.44
439.127	262.64
439.587	244.54
440.046	230.14
440.505	232.84
440.964	255.34
441.424	291.64
441.883	286.34
442.342	246.74
442.801	208.04
443.26	209.94
443.719	208.14
444.178	206.44
444.637	206.64
445.096	212.84
445.555	204.04
446.014	212.04
446.473	213.24
446.932	221.54
447.391	216.64
447.849	218.14
448.308	203.84
448.767	214.64
449.226	222.04
449.685	220.14
450.143	235.74
450.602	222.24
451.061	214.14
451.519	215.84
451.978	220.94
452.436	221.94
452.895	230.54
453.353	238.44
453.812	226.94
454.27	227.94
454.729	226.34
455.187	235.64
455.646	237.34
456.104	239.04
456.562	238.44
457.021	251.84
457.479	240.94
457.937	258.94
458.395	252.44
458.854	238.24
459.312	240.04
459.77	266.84
460.228	238.74
460.686	229.34
461.144	234.34
461.602	233.34
462.06	227.04
462.518	244.74
462.976	241.44
463.434	239.54
463.892	245.34
464.35	257.34
464.808	271.44
465.266	254.84
465.724	256.24
466.181	253.24
466.639	251.74
467.097	268.44
467.555	281.64
468.012	285.84
468.47	291.34
468.928	312.94
469.385	324.84
469.843	328.64
470.3	323.24
470.758	344.34
471.215	369.14
471.673	390.34
472.13	392.14
472.588	403.84
473.045	352.34
473.503	359.14
473.96	371.74
474.417	380.14
474.875	409.84
475.332	448.64
475.789	440.64
476.246	452.24
476.704	465.94
477.161	476.14
477.618	493.64
478.075	536.04
478.532	582.54
478.989	649.84
479.446	753.74
479.903	725.04
480.36	755.94
480.817	808.54
481.274	882.14
481.731	978.24
482.188	1052.54
482.645	1171.74
483.102	1268.24
483.558	1391.04
484.015	1439.54
484.472	1403.14
484.929	1377.84
485.385	1321.44
485.842	1304.44
486.299	1229.74
486.755	1207.44
487.212	1000.04
487.668	863.04
488.125	799.74
488.582	726.64
489.038	700.14
489.494	666.54
489.951	639.94
490.407	624.14
490.864	607.04
491.32	615.94
491.776	603.44
492.233	616.44
492.689	582.34
493.145	578.64
493.602	564.94
494.058	582.44
494.514	581.94
494.97	613.64
495.426	626.14
495.882	583.94
496.338	578.74
496.794	589.84
497.251	587.84
497.707	604.34
498.163	601.14
498.618	606.04
499.074	612.84
499.53	628.04
499.986	632.24
500.442	613.34
500.898	602.44
501.354	588.74
501.809	599.54
502.265	603.24
502.721	619.64
503.177	633.14
503.632	617.54
504.088	629.14
504.543	660.84
504.999	667.14
505.455	625.24
505.91	603.44
506.366	606.74
506.821	605.24
507.277	601.94
507.732	599.94
508.187	599.64
508.643	610.24
509.098	612.04
509.553	632.24
510.009	628.84
510.464	643.74
510.919	659.24
511.375	663.84
511.83	680.84
512.285	690.04
512.74	727.44
513.195	742.44
513.65	739.94
514.105	735.74
514.56	735.74
515.015	750.24
515.47	762.14
515.925	752.84
516.38	749.94
516.835	753.64
517.29	750.64
517.745	755.74
518.2	723.94
518.655	715.04
519.109	708.54
519.564	707.34
520.019	698.34
520.474	696.94
520.928	700.74
521.383	687.84
521.838	682.84
522.292	682.04
522.747	681.24
523.201	683.14
523.656	658.94
524.11	670.64
524.565	660.24
525.019	666.14
525.474	665.44
525.928	667.94
526.382	672.14
526.837	677.34
527.291	671.64
527.745	666.94
528.2	659.74
528.654	668.04
529.108	655.34
529.562	658.34
530.016	659.44
530.47	666.24
530.925	664.94
531.379	663.04
531.833	670.94
532.287	665.04
532.741	668.84
533.195	677.64
533.649	684.14
534.103	685.64
534.556	678.74
535.01	678.54
535.464	674.14
535.918	682.44
536.372	686.14
536.826	691.44
537.279	676.04
537.733	681.04
538.187	681.64
538.64	689.24
539.094	701.34
539.548	696.94
540.001	686.54
540.455	685.74
540.908	698.94
541.362	713.74
541.815	722.74
542.269	727.84
542.722	728.84
543.175	732.24
543.629	745.54
544.082	758.64
544.536	758.34
544.989	753.34
545.442	765.34
545.895	770.34
546.349	764.64
546.802	773.54
547.255	768.84
547.708	776.64
548.161	790.14
548.614	794.74
549.067	800.34
549.52	794.34
549.973	782.04
550.426	769.24
550.879	773.44
551.332	773.64
551.785	774.04
552.238	780.24
552.691	785.54
553.144	804.94
553.596	817.94
554.049	838.64
554.502	864.84
554.955	872.84
555.407	872.44
555.86	861.54
556.313	857.54
556.765	847.64
557.218	848.14
557.67	842.24
558.123	849.24
558.576	845.64
559.028	837.34
559.48	847.34
559.933	840.54
560.385	819.14
560.838	778.74
561.29	770.04
561.742	752.84
562.195	747.44
562.647	753.14
563.099	754.84
563.551	745.34
564.004	757.74
564.456	754.54
564.908	733.44
565.36	719.34
565.812	714.64
566.264	701.34
566.716	701.34
567.168	689.14
567.62	696.64
568.072	683.24
568.524	675.24
568.976	666.54
569.428	657.34
569.88	661.84
570.332	667.14
570.784	655.84
571.235	661.54
571.687	677.44
572.139	680.74
572.59	689.94
573.042	680.64
573.494	684.54
573.945	691.34
574.397	669.54
574.849	670.24
575.3	676.04
575.752	666.94
576.203	650.94
576.655	664.94
577.106	651.24
577.557	651.84
578.009	648.94
578.46	643.44
578.912	646.44
579.363	648.34
579.814	651.54
580.265	642.24
580.717	645.24
581.168	655.74
581.619	666.24
582.07	669.54
582.521	657.54
582.972	652.94
583.423	659.84
583.875	654.84
584.326	670.04
584.777	708.34
585.227	758.44
585.678	818.44
586.129	873.94
586.58	916.84
587.031	964.54
587.482	1068.54
587.933	1198.14
588.384	1072.34
588.834	869.04
589.285	764.74
589.736	755.44
590.186	748.24
590.637	746.84
591.088	729.44
591.538	716.34
591.989	709.54
592.439	707.74
592.89	706.74
593.34	686.94
593.791	690.44
594.241	689.64
594.692	690.14
595.142	686.04
595.593	687.54
596.043	692.64
596.493	700.04
596.943	695.94
597.394	708.64
597.844	696.34
598.294	712.14
598.744	739.64
599.195	765.74
599.645	800.54
600.095	836.44
600.545	891.94
600.995	932.24
601.445	1000.64
601.895	1059.04
602.345	1108.14
602.795	1082.74
603.245	1033.44
603.695	977.94
604.145	930.44
604.594	895.34
605.044	831.54
605.494	783.64
605.944	726.34
606.393	724.64
606.843	708.04
607.293	721.24
607.743	709.84
608.192	719.04
608.642	739.24
609.091	739.14
609.541	748.14
609.99	747.24
610.44	753.44
610.889	713.24
611.339	694.74
611.788	666.64
612.238	679.14
612.687	694.64
613.136	687.64
613.586	705.64
614.035	711.04
614.484	718.04
614.933	707.74
615.383	716.04
615.832	708.34
616.281	701.74
616.73	667.74
617.179	649.14
617.628	638.64
618.077	616.94
618.526	614.34
618.975	601.44
619.424	609.44
619.873	599.44
620.322	611.44
620.771	595.44
621.22	592.34
621.669	575.34
622.118	574.24
622.567	559.34
623.015	551.34
623.464	555.44
623.913	551.34
624.361	544.24
624.81	544.74
625.259	536.04
625.707	546.64
626.156	544.54
626.604	554.64
627.053	547.04
627.501	560.64
627.95	564.44
628.398	569.14
628.847	562.34
629.295	554.04
629.744	559.04
630.192	553.24
630.64	550.34
631.089	541.84
631.537	556.04
631.985	557.74
632.433	562.84
632.881	555.94
633.33	596.74
633.778	592.84
634.226	543.84
634.674	542.94
635.122	556.94
635.57	572.74
636.018	593.84
636.466	569.44
636.914	546.94
637.362	560.74
637.81	569.74
638.258	567.14
638.705	576.34
639.153	604.24
639.601	608.84
640.049	628.94
640.497	656.84
640.944	676.84
641.392	629.74
641.84	603.04
642.287	577.74
642.735	555.74
643.182	555.54
643.63	558.14
644.078	558.84
644.525	568.74
644.973	583.54
645.42	586.54
645.867	614.34
646.315	626.64
646.762	647.64
647.21	673.14
647.657	690.74
648.104	729.34
648.551	753.24
648.999	806.44
649.446	883.54
649.893	971.84
650.34	1103.44
650.787	1333.64
651.234	1667.74
651.682	2166.84
652.129	2937.64
652.576	4213.84
653.023	6192.04
653.47	8350.94
653.917	10371.74
654.363	11848.24
654.81	13035.94
655.257	12341.84
655.704	8126.24
656.151	4860.44
656.598	3159.44
657.044	2252.34
657.491	1753.64
657.938	1414.34
658.385	1180.34
658.831	1047.24
659.278	926.34
659.724	819.64
660.171	754.04
660.618	698.34
661.064	669.34
661.511	649.64
661.957	637.94
662.404	636.24
662.85	624.14
663.296	613.44
663.743	554.04
664.189	526.94
664.635	519.84
665.082	523.04
665.528	521.84
665.974	507.44
666.42	502.74
666.867	497.14
667.313	480.34
667.759	463.44
668.205	452.34
668.651	461.44
669.097	458.44
669.543	463.94
669.989	450.14
670.435	440.54
670.881	434.14
671.327	443.64
671.773	459.64
672.219	487.74
672.665	543.84
673.11	585.34
673.556	622.84
674.002	660.24
674.448	641.14
674.893	539.54
675.339	466.94
675.785	436.84
676.23	416.14
676.676	392.64
677.122	372.64
677.567	366.84
678.013	361.84
678.458	359.74
678.904	359.14
679.349	336.84
679.794	347.54
680.24	354.54
680.685	351.34
681.131	345.94
681.576	349.54
682.021	348.54
682.466	352.64
682.912	340.14
683.357	351.64
683.802	372.64
684.247	407.94
684.692	449.74
685.137	492.64
685.583	533.74
686.028	561.54
686.473	511.44
686.918	444.64
687.363	409.24
687.807	378.04
688.252	364.14
688.697	351.64
689.142	328.84
689.587	330.14
690.032	323.94
690.477	333.64
690.921	345.84
691.366	378.14
691.811	397.34
692.255	436.34
692.7	459.74
693.145	506.04
693.589	717.64
694.034	1166.74
694.478	1558.34
694.923	1712.94
695.367	2222.74
695.812	1181.84
696.256	499.34
696.701	356.34
697.145	347.84
697.59	325.44
698.034	314.54
698.478	321.54
698.922	315.24
699.367	329.14
699.811	329.74
700.255	352.84
700.699	385.64
701.143	429.64
701.588	478.34
702.032	509.14
702.476	512.64
702.92	489.34
703.364	498.44
703.808	653.84
704.252	1065.24
704.696	1466.24
705.14	1641.74
705.584	2098.84
706.027	1063.94
706.471	512.54
706.915	395.94
707.359	348.24
707.803	317.24
708.246	306.04
708.69	304.64
709.134	313.54
709.577	308.94
710.021	312.34
710.465	304.44
710.908	299.74
711.352	297.84
711.795	310.54
712.239	351.74
712.682	386.24
713.126	410.94
713.569	459.34
714.012	364.24
714.456	310.24
714.899	299.04
715.342	280.24
715.786	263.04
716.229	254.84
716.672	251.74
717.115	243.94
717.558	251.04
718.002	247.94
718.445	261.54
718.888	283.34
719.331	286.64
719.774	303.04
720.217	293.74
720.66	284.64
721.103	266.34
721.546	254.84
721.989	241.64
722.432	228.64
722.874	232.84
723.317	226.34
723.76	240.44
724.203	263.34
724.645	324.44
725.088	453.04
725.531	576.44
725.974	641.04
726.416	539.84
726.859	302.54
727.301	250.44
727.744	235.14
728.187	231.94
728.629	240.14
729.071	238.24
729.514	263.74
729.956	267.14
730.399	285.64
730.841	284.34
731.283	275.54
731.726	257.14
732.168	257.94
732.61	265.24
733.053	287.64
733.495	318.54
733.937	357.44
734.379	393.14
734.821	438.64
735.263	559.24
735.705	876.54
736.148	1648.94
736.59	2605.64
737.032	3012.14
737.474	2451.14
737.916	814.84
738.357	428.34
738.799	326.54
739.241	291.04
739.683	282.74
740.125	291.44
740.567	299.84
741.008	316.44
741.45	307.74
741.892	318.24
742.334	352.24
742.775	354.34
743.217	348.44
743.658	272.94
744.1	246.64
744.542	259.54
744.983	317.74
745.425	335.14
745.866	334.24
746.307	280.94
746.749	284.14
747.19	328.14
747.632	471.24
748.073	922.84
748.514	1953.44
748.956	2869.94
749.397	3616.94
749.838	2999.14
750.279	2925.14
750.72	1499.74
751.162	546.74
751.603	323.04
752.044	252.84
752.485	221.44
752.926	213.74
753.367	199.04
753.808	195.94
754.249	186.14
754.69	186.14
755.131	178.84
755.572	185.64
756.013	182.54
756.453	184.34
756.894	188.74
757.335	189.94
757.776	192.74
758.216	190.54
758.657	192.74
759.098	206.04
759.538	227.44
759.979	269.74
760.42	388.04
760.86	752.34
761.301	1954.14
761.741	4578.54
762.182	6318.64
762.622	4463.44
763.063	1312.94
763.503	545.04
