Data from 20171114-ORNL-Ar_H_NY_Subt18_08-09-07-582.txt Node
Date: Tue Nov 14 08:09:07 EST 2017
User: Ender
Spectrometer: HR+D1039
Trigger mode: 0
Integration Time (sec): 2.730000E-2
Scans to average: 10
Electric dark correction enabled: true
Nonlinearity correction enabled: false
Boxcar width: 0
XAxis mode: Wavelengths
Number of Pixels in Spectrum: 2048
>>>>>Begin Spectral Data<<<<<
187.836	-4.47
188.309	-4.47
188.782	-4.47
189.255	2.93
189.728	3.73
190.201	5.73
190.674	2.13
191.147	-2.37
191.619	-6.27
192.092	2.43
192.565	6.33
193.038	1.33
193.511	-1.27
193.984	-3.17
194.456	-3.57
194.929	1.53
195.402	-6.77
195.874	1.73
196.347	-6.97
196.82	-9.67
197.292	0.73
197.765	0.13
198.237	-11.17
198.71	-5.07
199.182	-2.47
199.655	1.73
200.127	3.03
200.6	-3.47
201.072	-1.67
201.544	-9.97
202.017	-5.97
202.489	0.93
202.961	-2.37
203.433	-3.47
203.906	-10.27
204.378	-6.87
204.85	-3.97
205.322	-15.07
205.794	-3.97
206.266	-2.87
206.739	-11.17
207.211	1.13
207.683	-9.17
208.155	-10.47
208.627	-4.57
209.099	-0.97
209.57	-5.57
210.042	-8.67
210.514	-6.67
210.986	-5.37
211.458	-12.67
211.93	-2.57
212.402	-3.77
212.873	-5.17
213.345	-11.57
213.817	-10.37
214.288	-7.67
214.76	-9.97
215.232	-0.77
215.703	-6.77
216.175	0.13
216.646	-4.87
217.118	-1.67
217.589	-3.57
218.061	-1.87
218.532	-6.87
219.004	-2.17
219.475	-4.27
219.946	-2.87
220.418	-11.27
220.889	0.33
221.36	-1.67
221.832	-3.47
222.303	-12.17
222.774	1.93
223.245	-8.47
223.717	-7.57
224.188	-7.47
224.659	-4.87
225.13	-9.67
225.601	-1.27
226.072	0.73
226.543	-7.27
227.014	1.43
227.485	-3.37
227.956	-6.97
228.427	-7.87
228.898	-0.17
229.369	0.13
229.839	-1.37
230.31	-6.17
230.781	4.43
231.252	-7.37
231.722	-8.87
232.193	-2.87
232.664	-8.27
233.135	-1.77
233.605	-2.17
234.076	-5.57
234.546	-1.47
235.017	5.33
235.487	-8.77
235.958	-0.07
236.428	-5.27
236.899	-0.67
237.369	-0.07
237.84	-4.67
238.31	0.33
238.78	-5.67
239.251	-5.87
239.721	-4.97
240.191	-2.17
240.662	-4.27
241.132	1.83
241.602	-5.57
242.072	1.23
242.542	3.63
243.013	-5.97
243.483	-2.77
243.953	1.73
244.423	-2.97
244.893	-3.07
245.363	-0.27
245.833	0.93
246.303	-6.77
246.773	-7.37
247.243	-6.47
247.712	-0.37
248.182	2.23
248.652	-0.87
249.122	-3.47
249.592	-3.57
250.061	2.23
250.531	8.43
251.001	-2.97
251.471	5.23
251.94	3.93
252.41	-5.17
252.879	-10.97
253.349	5.83
253.818	3.03
254.288	-0.67
254.757	-6.27
255.227	0.53
255.696	-7.27
256.166	4.53
256.635	2.63
257.105	4.13
257.574	-0.17
258.043	0.83
258.513	-3.07
258.982	7.13
259.451	-4.97
259.92	-6.07
260.389	-5.27
260.859	3.13
261.328	-1.07
261.797	8.93
262.266	-3.87
262.735	1.93
263.204	3.03
263.673	3.43
264.142	2.43
264.611	-2.37
265.08	-4.17
265.549	-2.57
266.018	1.63
266.487	-6.67
266.955	-3.27
267.424	-7.17
267.893	4.03
268.362	-3.67
268.83	-1.17
269.299	12.33
269.768	1.43
270.236	6.03
270.705	-6.87
271.174	2.73
271.642	-0.77
272.111	3.53
272.579	-3.57
273.048	-2.97
273.516	-1.27
273.985	-0.37
274.453	1.03
274.922	8.03
275.39	1.43
275.858	-4.97
276.327	7.63
276.795	9.43
277.263	-4.57
277.731	9.03
278.2	9.43
278.668	3.63
279.136	11.53
279.604	2.33
280.072	11.63
280.54	1.43
281.008	4.13
281.477	10.03
281.945	5.53
282.413	1.13
282.881	5.53
283.348	-0.47
283.816	5.43
284.284	2.33
284.752	9.43
285.22	6.03
285.688	12.43
286.156	5.53
286.623	8.53
287.091	5.53
287.559	4.93
288.026	4.33
288.494	6.33
288.962	1.43
289.429	4.23
289.897	14.03
290.364	7.63
290.832	7.53
291.3	8.33
291.767	9.73
292.234	13.43
292.702	5.63
293.169	13.93
293.637	11.63
294.104	19.73
294.571	2.73
295.039	3.53
295.506	0.13
295.973	7.83
296.44	6.53
296.908	5.93
297.375	7.93
297.842	8.23
298.309	7.73
298.776	3.13
299.243	14.73
299.71	8.23
300.177	12.13
300.644	8.73
301.111	9.73
301.578	13.63
302.045	10.13
302.512	15.03
302.979	15.13
303.446	11.93
303.913	8.53
304.379	8.93
304.846	16.53
305.313	21.03
305.78	15.13
306.246	18.13
306.713	16.33
307.18	12.13
307.646	14.23
308.113	17.53
308.579	14.73
309.046	17.83
309.512	11.83
309.979	3.13
310.445	18.43
310.912	22.43
311.378	22.93
311.845	23.73
312.311	17.53
312.777	15.83
313.244	16.03
313.71	24.53
314.176	18.33
314.642	18.33
315.109	13.13
315.575	22.53
316.041	26.83
316.507	17.03
316.973	24.23
317.439	17.13
317.905	23.63
318.371	24.23
318.837	22.23
319.303	25.43
319.769	19.63
320.235	22.83
320.701	24.83
321.167	25.83
321.633	13.83
322.099	22.33
322.564	30.23
323.03	25.03
323.496	26.83
323.962	24.83
324.427	21.73
324.893	28.53
325.359	32.53
325.824	24.43
326.29	26.93
326.755	26.13
327.221	27.23
327.686	24.43
328.152	34.73
328.617	29.13
329.083	31.93
329.548	37.13
330.014	30.73
330.479	28.83
330.944	34.83
331.41	26.73
331.875	28.13
332.34	29.93
332.805	33.23
333.271	27.03
333.736	25.03
334.201	32.53
334.666	39.03
335.131	40.43
335.596	35.23
336.061	40.33
336.526	27.03
336.991	38.93
337.456	41.03
337.921	39.23
338.386	34.83
338.851	35.93
339.316	31.43
339.781	35.43
340.246	34.63
340.711	39.03
341.175	47.23
341.64	35.73
342.105	32.93
342.569	42.23
343.034	43.03
343.499	40.93
343.963	39.93
344.428	53.73
344.893	46.13
345.357	52.93
345.822	45.93
346.286	50.33
346.751	53.73
347.215	50.93
347.679	59.13
348.144	68.93
348.608	67.73
349.073	52.03
349.537	55.43
350.001	60.63
350.465	59.73
350.93	66.93
351.394	62.43
351.858	51.33
352.322	68.93
352.786	62.73
353.25	78.63
353.715	87.13
354.179	82.13
354.643	87.53
355.107	89.83
355.571	84.13
356.035	74.53
356.498	81.83
356.962	89.03
357.426	95.43
357.89	84.23
358.354	69.13
358.818	65.83
359.281	66.13
359.745	63.23
360.209	59.43
360.673	55.63
361.136	63.73
361.6	66.73
362.064	69.13
362.527	65.13
362.991	71.13
363.454	65.33
363.918	64.73
364.381	63.83
364.845	65.83
365.308	72.73
365.772	74.53
366.235	68.53
366.698	67.03
367.162	69.23
367.625	65.83
368.088	74.83
368.552	72.63
369.015	73.23
369.478	80.13
369.941	80.93
370.404	79.53
370.867	78.63
371.331	88.93
371.794	88.93
372.257	84.83
372.72	85.43
373.183	87.63
373.646	77.03
374.109	74.53
374.572	88.83
375.035	83.03
375.497	87.13
375.96	90.33
376.423	94.93
376.886	100.53
377.349	89.53
377.811	85.03
378.274	90.43
378.737	92.63
379.199	100.53
379.662	91.53
380.125	95.33
380.587	87.33
381.05	90.13
381.512	97.33
381.975	111.33
382.437	100.13
382.9	104.13
383.362	101.83
383.825	108.23
384.287	113.63
384.75	99.23
385.212	110.63
385.674	120.93
386.136	113.33
386.599	105.43
387.061	106.53
387.523	108.43
387.985	112.93
388.447	114.53
388.91	111.43
389.372	109.43
389.834	120.13
390.296	117.03
390.758	121.13
391.22	126.13
391.682	135.23
392.144	149.13
392.606	128.53
393.068	131.63
393.529	135.73
393.991	130.13
394.453	123.33
394.915	117.83
395.377	122.63
395.838	129.23
396.3	124.03
396.762	122.33
397.224	118.03
397.685	119.63
398.147	117.13
398.608	115.83
399.07	112.83
399.531	119.83
399.993	133.13
400.454	138.43
400.916	132.03
401.377	127.73
401.839	135.33
402.3	135.13
402.762	148.13
403.223	163.03
403.684	152.53
404.145	147.53
404.607	144.13
405.068	136.23
405.529	148.23
405.99	169.13
406.451	155.73
406.913	162.33
407.374	151.03
407.835	148.23
408.296	148.13
408.757	152.03
409.218	167.33
409.679	157.23
410.14	161.23
410.601	158.23
411.062	175.03
411.522	166.23
411.983	163.23
412.444	160.13
412.905	164.63
413.366	174.23
413.826	189.03
414.287	208.83
414.748	248.23
415.208	233.23
415.669	196.73
416.13	196.33
416.59	196.03
417.051	194.73
417.511	204.43
417.972	223.73
418.432	232.73
418.893	278.53
419.353	232.23
419.814	192.83
420.274	174.93
420.734	170.63
421.195	187.33
421.655	179.13
422.115	170.63
422.576	179.53
423.036	185.13
423.496	197.53
423.956	209.23
424.416	221.73
424.876	252.13
425.336	251.23
425.797	246.23
426.257	241.03
426.717	227.63
427.177	217.23
427.637	216.23
428.097	222.03
428.556	232.33
429.016	243.83
429.476	245.53
429.936	249.23
430.396	264.13
430.856	268.73
431.315	290.53
431.775	320.13
432.235	351.63
432.694	319.93
433.154	335.03
433.614	357.03
434.073	309.83
434.533	274.23
434.993	243.53
435.452	265.53
435.912	268.63
436.371	262.33
436.83	257.53
437.29	240.73
437.749	228.43
438.209	233.83
438.668	252.43
439.127	271.53
439.587	246.93
440.046	233.33
440.505	243.93
440.964	251.93
441.424	302.43
441.883	294.73
442.342	245.83
442.801	212.03
443.26	210.43
443.719	216.73
444.178	209.13
444.637	212.33
445.096	218.33
445.555	216.63
446.014	210.43
446.473	223.03
446.932	227.43
447.391	220.83
447.849	225.43
448.308	214.93
448.767	214.83
449.226	226.43
449.685	230.43
450.143	244.63
450.602	228.23
451.061	217.53
451.519	226.73
451.978	222.13
452.436	229.43
452.895	234.23
453.353	248.33
453.812	234.83
454.27	227.13
454.729	228.43
455.187	234.53
455.646	238.23
456.104	242.73
456.562	251.83
457.021	259.13
457.479	249.63
457.937	265.63
458.395	259.83
458.854	244.43
459.312	253.23
459.77	267.43
460.228	247.53
460.686	233.33
461.144	246.43
461.602	241.03
462.06	239.43
462.518	250.43
462.976	248.63
463.434	249.53
463.892	260.63
464.35	267.53
464.808	276.23
465.266	259.53
465.724	271.53
466.181	267.73
466.639	266.83
467.097	284.53
467.555	296.13
468.012	298.63
468.47	295.13
468.928	322.63
469.385	329.23
469.843	345.53
470.3	337.93
470.758	357.13
471.215	376.33
471.673	395.13
472.13	386.43
472.588	407.03
473.045	364.53
473.503	375.53
473.96	382.23
474.417	387.23
474.875	424.93
475.332	468.73
475.789	446.23
476.246	456.73
476.704	472.33
477.161	496.63
477.618	499.33
478.075	545.43
478.532	592.23
478.989	661.73
479.446	762.03
479.903	726.73
480.36	757.13
480.817	811.33
481.274	889.83
481.731	973.23
482.188	1057.63
482.645	1165.93
483.102	1255.43
483.558	1362.63
484.015	1406.43
484.472	1378.23
484.929	1330.83
485.385	1312.13
485.842	1266.93
486.299	1220.13
486.755	1196.03
487.212	1014.73
487.668	859.63
488.125	798.73
488.582	739.23
489.038	710.23
489.494	675.43
489.951	655.53
490.407	634.33
490.864	610.63
491.32	611.93
491.776	617.53
492.233	626.03
492.689	594.63
493.145	590.23
493.602	586.03
494.058	593.33
494.514	593.13
494.97	621.63
495.426	637.53
495.882	603.53
496.338	593.53
496.794	599.03
497.251	590.93
497.707	612.03
498.163	614.43
498.618	623.63
499.074	620.63
499.53	651.23
499.986	657.13
500.442	639.03
500.898	607.03
501.354	603.93
501.809	610.33
502.265	617.03
502.721	626.03
503.177	635.43
503.632	638.53
504.088	641.63
504.543	665.73
504.999	667.43
505.455	638.03
505.91	609.93
506.366	622.93
506.821	630.13
507.277	620.23
507.732	623.03
508.187	619.43
508.643	631.73
509.098	638.73
509.553	653.13
510.009	666.03
510.464	666.23
510.919	680.53
511.375	685.63
511.83	695.63
512.285	712.33
512.74	752.93
513.195	764.03
513.65	750.53
514.105	749.23
514.56	755.73
515.015	778.83
515.47	782.13
515.925	759.03
516.38	769.63
516.835	783.03
517.29	781.53
517.745	767.93
518.2	772.73
518.655	740.23
519.109	729.13
519.564	723.33
520.019	718.03
520.474	722.83
520.928	718.53
521.383	709.33
521.838	696.13
522.292	701.13
522.747	714.13
523.201	693.83
523.656	688.83
524.11	693.23
524.565	681.53
525.019	689.33
525.474	693.33
525.928	694.73
526.382	686.33
526.837	694.13
527.291	692.93
527.745	690.23
528.2	693.63
528.654	686.13
529.108	685.73
529.562	689.63
530.016	680.33
530.47	690.73
530.925	682.53
531.379	684.43
531.833	697.13
532.287	689.73
532.741	696.63
533.195	695.23
533.649	708.03
534.103	706.93
534.556	706.53
535.01	698.23
535.464	687.93
535.918	697.83
536.372	704.03
536.826	707.63
537.279	694.03
537.733	701.33
538.187	711.53
538.64	698.13
539.094	719.93
539.548	729.23
540.001	715.43
540.455	719.43
540.908	715.63
541.362	733.23
541.815	741.43
542.269	751.43
542.722	751.03
543.175	766.83
543.629	766.23
544.082	781.03
544.536	787.33
544.989	772.03
545.442	786.83
545.895	784.13
546.349	793.83
546.802	789.93
547.255	788.13
547.708	812.83
548.161	810.73
548.614	812.13
549.067	827.23
549.52	814.63
549.973	813.83
550.426	805.73
550.879	794.73
551.332	796.73
551.785	801.13
552.238	812.53
552.691	821.63
553.144	829.23
553.596	851.33
554.049	861.13
554.502	892.83
554.955	907.23
555.407	907.93
555.86	898.43
556.313	886.33
556.765	883.23
557.218	882.93
557.67	883.13
558.123	868.53
558.576	863.93
559.028	879.53
559.48	881.43
559.933	872.23
560.385	846.23
560.838	812.73
561.29	789.93
561.742	787.13
562.195	772.63
562.647	771.73
563.099	784.53
563.551	777.13
564.004	782.83
564.456	784.83
564.908	755.03
565.36	738.53
565.812	742.93
566.264	722.03
566.716	718.83
567.168	703.83
567.62	712.53
568.072	701.43
568.524	695.33
568.976	688.53
569.428	673.23
569.88	680.73
570.332	695.83
570.784	686.13
571.235	685.43
571.687	695.63
572.139	708.33
572.59	711.93
573.042	724.13
573.494	719.83
573.945	710.23
574.397	683.83
574.849	691.73
575.3	694.03
575.752	683.83
576.203	678.93
576.655	683.83
577.106	673.93
577.557	673.03
578.009	668.13
578.46	670.83
578.912	672.23
579.363	668.13
579.814	673.53
580.265	668.13
580.717	669.53
581.168	675.23
581.619	680.13
582.07	684.63
582.521	668.23
582.972	677.13
583.423	680.83
583.875	684.43
584.326	681.13
584.777	699.93
585.227	733.23
585.678	752.23
586.129	765.33
586.58	796.83
587.031	821.63
587.482	862.93
587.933	913.63
588.384	870.03
588.834	808.03
589.285	772.73
589.736	781.03
590.186	779.93
590.637	767.73
591.088	745.83
591.538	744.93
591.989	730.43
592.439	721.23
592.89	725.33
593.34	714.13
593.791	711.73
594.241	706.93
594.692	701.83
595.142	708.03
595.593	701.73
596.043	718.03
596.493	714.73
596.943	722.03
597.394	727.43
597.844	723.33
598.294	744.23
598.744	763.53
599.195	793.43
599.645	828.53
600.095	870.63
600.545	936.23
600.995	979.13
601.445	1038.33
601.895	1100.23
602.345	1141.33
602.795	1125.03
603.245	1081.73
603.695	1021.93
604.145	962.53
604.594	927.53
605.044	870.33
605.494	814.73
605.944	755.83
606.393	752.13
606.843	736.53
607.293	735.73
607.743	734.43
608.192	751.73
608.642	763.43
609.091	755.43
609.541	772.43
609.99	771.63
610.44	760.13
610.889	730.33
611.339	700.53
611.788	693.53
612.238	700.23
612.687	713.13
613.136	706.73
613.586	718.73
614.035	709.63
614.484	727.33
614.933	714.33
615.383	720.03
615.832	707.33
616.281	700.93
616.73	674.73
617.179	655.73
617.628	656.73
618.077	641.83
618.526	627.53
618.975	625.13
619.424	621.63
619.873	617.63
620.322	626.53
620.771	610.53
621.22	606.73
621.669	606.93
622.118	601.13
622.567	583.03
623.015	572.13
623.464	570.93
623.913	561.83
624.361	564.03
624.81	557.93
625.259	562.23
625.707	553.83
626.156	562.93
626.604	569.53
627.053	574.13
627.501	569.13
627.95	571.33
628.398	588.43
628.847	581.03
629.295	577.23
629.744	574.93
630.192	580.53
630.64	570.13
631.089	555.63
631.537	552.83
631.985	536.63
632.433	542.73
632.881	540.53
633.33	551.93
633.778	535.93
634.226	534.63
634.674	551.73
635.122	556.53
635.57	566.73
636.018	568.93
636.466	579.33
636.914	564.33
637.362	576.13
637.81	582.53
638.258	594.63
638.705	595.43
639.153	621.83
639.601	635.43
640.049	651.13
640.497	680.73
640.944	694.83
641.392	659.13
641.84	623.83
642.287	592.93
642.735	564.53
643.182	564.23
643.63	569.03
644.078	575.53
644.525	578.73
644.973	586.33
645.42	599.33
645.867	621.03
646.315	643.23
646.762	662.73
647.21	699.83
647.657	709.23
648.104	740.73
648.551	763.13
648.999	824.33
649.446	895.53
649.893	973.93
650.34	1122.73
650.787	1343.13
651.234	1658.73
651.682	2139.83
652.129	2900.23
652.576	4111.13
653.023	6007.33
653.47	8073.23
653.917	10000.63
654.363	11433.33
654.81	12524.53
655.257	11831.43
655.704	7871.53
656.151	4733.53
656.598	3109.33
657.044	2231.23
657.491	1747.23
657.938	1404.93
658.385	1181.43
658.831	1039.83
659.278	932.43
659.724	835.53
660.171	772.03
660.618	711.83
661.064	680.93
661.511	658.73
661.957	647.93
662.404	638.03
662.85	652.23
663.296	619.03
663.743	560.03
664.189	534.53
664.635	536.03
665.082	530.73
665.528	526.13
665.974	520.03
666.42	521.53
666.867	510.53
667.313	491.23
667.759	475.43
668.205	465.13
668.651	461.73
669.097	456.03
669.543	443.33
669.989	443.93
670.435	450.03
670.881	449.93
671.327	458.33
671.773	482.43
672.219	504.93
672.665	553.33
673.11	598.73
673.556	650.83
674.002	677.43
674.448	667.93
674.893	567.73
675.339	488.83
675.785	456.13
676.23	428.93
676.676	393.73
677.122	390.43
677.567	388.33
678.013	374.03
678.458	369.13
678.904	375.63
679.349	359.33
679.794	366.13
680.24	357.03
680.685	358.93
681.131	358.23
681.576	356.63
682.021	358.53
682.466	352.83
682.912	356.83
683.357	360.73
683.802	393.03
684.247	423.93
684.692	477.13
685.137	506.23
685.583	556.83
686.028	570.63
686.473	531.73
686.918	458.73
687.363	433.03
687.807	405.13
688.252	384.63
688.697	366.63
689.142	349.03
689.587	335.03
690.032	343.73
690.477	352.03
690.921	366.83
691.366	394.23
691.811	418.13
692.255	445.83
692.7	478.83
693.145	530.13
693.589	754.03
694.034	1200.83
694.478	1623.03
694.923	1780.13
695.367	2287.33
695.812	1234.03
696.256	516.93
696.701	388.43
697.145	349.53
697.59	336.13
698.034	327.53
698.478	335.43
698.922	333.33
699.367	330.93
699.811	345.33
700.255	356.03
700.699	391.03
701.143	449.63
701.588	485.73
702.032	528.63
702.476	529.03
702.92	517.73
703.364	520.13
703.808	683.03
704.252	1118.33
704.696	1539.03
705.14	1721.83
705.584	2171.83
706.027	1088.13
706.471	540.03
706.915	415.73
707.359	354.13
707.803	333.73
708.246	321.03
708.69	319.13
709.134	317.13
709.577	324.33
710.021	318.93
710.465	316.83
710.908	311.63
711.352	306.33
711.795	321.93
712.239	364.83
712.682	403.03
713.126	417.13
713.569	467.43
714.012	366.63
714.456	316.43
714.899	294.63
715.342	278.03
715.786	268.53
716.229	265.83
716.672	265.63
717.115	249.63
717.558	250.63
718.002	254.53
718.445	273.43
718.888	295.13
719.331	306.83
719.774	312.03
720.217	316.23
720.66	295.43
721.103	275.53
721.546	262.13
721.989	252.93
722.432	240.93
722.874	248.43
723.317	236.43
723.76	239.13
724.203	266.73
724.645	328.33
725.088	463.73
725.531	594.33
725.974	650.63
726.416	563.83
726.859	316.43
727.301	254.33
727.744	244.13
728.187	238.33
728.629	246.83
729.071	247.63
729.514	265.73
729.956	283.93
730.399	294.53
730.841	295.33
731.283	285.93
731.726	280.43
732.168	272.73
732.61	280.13
733.053	294.93
733.495	325.73
733.937	363.33
734.379	415.63
734.821	460.13
735.263	571.93
735.705	911.03
736.148	1720.63
736.59	2728.03
737.032	3115.73
737.474	2550.83
737.916	850.33
738.357	446.23
738.799	344.53
739.241	312.23
739.683	300.53
740.125	304.03
740.567	316.23
741.008	322.63
741.45	329.43
741.892	330.03
742.334	368.23
742.775	372.53
743.217	359.53
743.658	284.93
744.1	264.33
744.542	275.53
744.983	329.43
745.425	356.83
745.866	357.23
746.307	290.33
746.749	294.73
747.19	346.03
747.632	487.93
748.073	974.73
748.514	2024.73
748.956	2991.43
749.397	3803.23
749.838	3117.73
750.279	3031.23
750.72	1548.63
751.162	578.03
751.603	336.53
752.044	264.83
752.485	233.53
752.926	213.83
753.367	203.33
753.808	201.53
754.249	198.33
754.69	192.53
755.131	188.43
755.572	176.63
756.013	188.63
756.453	190.13
756.894	190.03
757.335	199.93
757.776	199.63
758.216	203.93
758.657	201.13
759.098	217.53
759.538	234.33
759.979	278.93
760.42	408.23
760.86	783.03
761.301	2052.23
761.741	4779.13
762.182	6558.03
762.622	4646.43
763.063	1381.63
763.503	570.13
763.943	340.13
