Data from 20171114-ORNL-Ar_H_NY_Subt18_08-06-51-580.txt Node
Date: Tue Nov 14 08:06:51 EST 2017
User: Ender
Spectrometer: HR+D1039
Trigger mode: 0
Integration Time (sec): 2.730000E-2
Scans to average: 10
Electric dark correction enabled: true
Nonlinearity correction enabled: false
Boxcar width: 0
XAxis mode: Wavelengths
Number of Pixels in Spectrum: 2048
>>>>>Begin Spectral Data<<<<<
187.836	-10.35
188.309	-10.35
188.782	-10.35
189.255	-1.55
189.728	-3.15
190.201	5.95
190.674	3.85
191.147	2.15
191.619	-6.45
192.092	1.65
192.565	3.95
193.038	-1.25
193.511	3.65
193.984	-1.05
194.456	-3.25
194.929	2.75
195.402	1.85
195.874	1.25
196.347	-3.05
196.82	-5.55
197.292	3.95
197.765	-5.55
198.237	-6.95
198.71	4.75
199.182	0.95
199.655	3.95
200.127	3.75
200.6	1.95
201.072	-0.05
201.544	-1.95
202.017	-4.85
202.489	3.55
202.961	2.25
203.433	-4.75
203.906	-14.95
204.378	-1.95
204.85	1.25
205.322	-2.85
205.794	2.95
206.266	-0.15
206.739	-5.55
207.211	6.25
207.683	-6.45
208.155	-2.55
208.627	-6.45
209.099	0.15
209.57	-5.85
210.042	0.15
210.514	2.65
210.986	-1.55
211.458	-12.45
211.93	-0.75
212.402	1.85
212.873	-4.35
213.345	-8.35
213.817	-10.75
214.288	-5.45
214.76	-8.05
215.232	-9.75
215.703	-2.95
216.175	-5.45
216.646	-4.35
217.118	-6.45
217.589	-4.45
218.061	-0.05
218.532	-4.85
219.004	-1.55
219.475	-2.25
219.946	1.55
220.418	-1.65
220.889	4.95
221.36	-3.45
221.832	-8.55
222.303	-7.55
222.774	5.15
223.245	-13.35
223.717	-3.45
224.188	-1.15
224.659	-2.05
225.13	-4.95
225.601	-3.85
226.072	-5.95
226.543	5.45
227.014	3.25
227.485	-3.15
227.956	-0.25
228.427	-4.45
228.898	-0.05
229.369	3.25
229.839	-4.85
230.31	-6.65
230.781	6.25
231.252	0.45
231.722	-5.25
232.193	-6.65
232.664	-1.95
233.135	2.05
233.605	-2.85
234.076	-4.75
234.546	-3.45
235.017	4.05
235.487	1.35
235.958	-5.55
236.428	-3.95
236.899	-2.45
237.369	5.45
237.84	-0.75
238.31	0.35
238.78	2.05
239.251	-3.75
239.721	-4.65
240.191	0.55
240.662	-3.25
241.132	-0.35
241.602	-4.95
242.072	-2.85
242.542	6.75
243.013	-5.05
243.483	-0.05
243.953	3.45
244.423	-0.65
244.893	-7.85
245.363	4.05
245.833	1.35
246.303	-1.75
246.773	5.75
247.243	1.25
247.712	3.45
248.182	4.05
248.652	-3.25
249.122	-7.75
249.592	2.85
250.061	0.85
250.531	10.75
251.001	-2.85
251.471	10.05
251.94	9.95
252.41	-5.05
252.879	-2.35
253.349	8.65
253.818	1.75
254.288	3.35
254.757	2.45
255.227	-0.35
255.696	-1.85
256.166	6.45
256.635	4.75
257.105	3.65
257.574	-0.35
258.043	0.45
258.513	-0.95
258.982	9.45
259.451	-0.55
259.92	2.05
260.389	6.05
260.859	5.45
261.328	3.05
261.797	2.75
262.266	3.45
262.735	11.75
263.204	1.45
263.673	-2.35
264.142	7.95
264.611	-4.95
265.08	-7.55
265.549	0.55
266.018	-0.25
266.487	3.25
266.955	-4.35
267.424	3.45
267.893	3.85
268.362	1.35
268.83	6.75
269.299	8.05
269.768	4.25
270.236	10.65
270.705	-3.05
271.174	3.45
271.642	6.85
272.111	2.15
272.579	3.75
273.048	10.35
273.516	7.05
273.985	4.35
274.453	4.05
274.922	7.55
275.39	6.95
275.858	2.45
276.327	-3.45
276.795	12.95
277.263	3.25
277.731	17.35
278.2	6.65
278.668	8.65
279.136	10.75
279.604	2.05
280.072	10.45
280.54	5.35
281.008	9.75
281.477	9.65
281.945	7.75
282.413	9.05
282.881	13.15
283.348	-2.25
283.816	10.75
284.284	4.65
284.752	17.75
285.22	11.75
285.688	8.55
286.156	13.65
286.623	20.95
287.091	8.35
287.559	14.95
288.026	11.95
288.494	9.55
288.962	2.55
289.429	7.85
289.897	13.55
290.364	14.85
290.832	18.05
291.3	15.65
291.767	7.75
292.234	7.95
292.702	13.15
293.169	10.15
293.637	20.55
294.104	21.05
294.571	7.65
295.039	7.35
295.506	15.65
295.973	12.05
296.44	15.95
296.908	13.15
297.375	12.35
297.842	20.25
298.309	12.05
298.776	6.85
299.243	21.05
299.71	12.85
300.177	20.25
300.644	19.05
301.111	15.05
301.578	21.55
302.045	9.25
302.512	22.55
302.979	19.05
303.446	14.75
303.913	19.55
304.379	15.15
304.846	28.45
305.313	21.95
305.78	19.05
306.246	25.05
306.713	22.55
307.18	17.75
307.646	24.35
308.113	23.35
308.579	19.25
309.046	20.45
309.512	21.85
309.979	15.85
310.445	22.95
310.912	25.65
311.378	29.45
311.845	23.55
312.311	33.05
312.777	28.35
313.244	27.55
313.71	33.05
314.176	34.45
314.642	28.45
315.109	19.65
315.575	32.05
316.041	29.45
316.507	27.65
316.973	32.35
317.439	24.65
317.905	36.45
318.371	28.85
318.837	28.75
319.303	28.75
319.769	29.45
320.235	25.75
320.701	35.75
321.167	37.95
321.633	31.45
322.099	29.35
322.564	31.05
323.03	31.35
323.496	35.45
323.962	39.75
324.427	30.15
324.893	38.75
325.359	32.45
325.824	34.65
326.29	30.05
326.755	32.95
327.221	30.55
327.686	35.45
328.152	44.55
328.617	42.75
329.083	47.35
329.548	46.75
330.014	41.95
330.479	36.55
330.944	36.95
331.41	40.55
331.875	41.95
332.34	33.25
332.805	41.85
333.271	49.55
333.736	38.65
334.201	48.65
334.666	47.35
335.131	47.65
335.596	39.45
336.061	44.65
336.526	42.25
336.991	41.35
337.456	49.65
337.921	49.75
338.386	41.25
338.851	39.25
339.316	42.15
339.781	45.05
340.246	45.85
340.711	46.35
341.175	46.65
341.64	43.15
342.105	48.35
342.569	48.05
343.034	55.85
343.499	55.15
343.963	45.65
344.428	57.95
344.893	56.05
345.357	57.15
345.822	62.85
346.286	64.35
346.751	61.25
347.215	61.75
347.679	69.05
348.144	90.45
348.608	77.35
349.073	70.65
349.537	69.25
350.001	77.85
350.465	79.25
350.93	73.95
351.394	71.55
351.858	64.95
352.322	81.95
352.786	75.45
353.25	97.15
353.715	100.25
354.179	96.65
354.643	107.75
355.107	116.65
355.571	95.65
356.035	94.25
356.498	104.75
356.962	100.55
357.426	110.15
357.89	108.05
358.354	85.35
358.818	74.55
359.281	76.05
359.745	74.85
360.209	76.85
360.673	69.05
361.136	79.65
361.6	75.35
362.064	77.55
362.527	80.65
362.991	87.65
363.454	83.85
363.918	73.35
364.381	75.65
364.845	72.75
365.308	83.05
365.772	80.05
366.235	80.55
366.698	79.15
367.162	81.15
367.625	83.75
368.088	78.05
368.552	83.05
369.015	82.55
369.478	86.75
369.941	99.35
370.404	80.75
370.867	96.35
371.331	97.15
371.794	103.65
372.257	92.85
372.72	106.15
373.183	103.15
373.646	92.85
374.109	97.85
374.572	97.75
375.035	99.35
375.497	96.95
375.96	98.95
376.423	104.05
376.886	108.45
377.349	104.65
377.811	105.25
378.274	105.95
378.737	104.45
379.199	104.45
379.662	107.15
380.125	108.85
380.587	99.35
381.05	109.15
381.512	108.85
381.975	122.75
382.437	118.45
382.9	110.35
383.362	119.95
383.825	126.85
384.287	125.35
384.75	116.85
385.212	126.65
385.674	136.45
386.136	134.15
386.599	121.75
387.061	119.05
387.523	125.35
387.985	121.95
388.447	137.05
388.91	124.35
389.372	126.75
389.834	128.05
390.296	128.25
390.758	135.35
391.22	136.45
391.682	142.95
392.144	153.35
392.606	150.55
393.068	145.95
393.529	155.65
393.991	146.35
394.453	132.45
394.915	132.65
395.377	133.05
395.838	132.55
396.3	139.25
396.762	138.45
397.224	136.15
397.685	137.95
398.147	134.05
398.608	130.15
399.07	136.85
399.531	135.85
399.993	140.85
400.454	157.25
400.916	145.25
401.377	146.75
401.839	153.75
402.3	157.25
402.762	163.95
403.223	179.55
403.684	172.65
404.145	156.45
404.607	159.45
405.068	162.25
405.529	168.55
405.99	183.75
406.451	177.35
406.913	177.15
407.374	170.45
407.835	168.05
408.296	172.05
408.757	177.65
409.218	186.45
409.679	178.55
410.14	172.95
410.601	180.75
411.062	181.15
411.522	177.55
411.983	179.05
412.444	172.75
412.905	183.65
413.366	192.05
413.826	202.25
414.287	225.85
414.748	273.45
415.208	256.15
415.669	221.45
416.13	214.05
416.59	210.25
417.051	222.15
417.511	231.65
417.972	245.95
418.432	268.85
418.893	298.75
419.353	257.05
419.814	203.95
420.274	192.55
420.734	189.95
421.195	203.15
421.655	200.55
422.115	195.35
422.576	199.05
423.036	204.75
423.496	216.45
423.956	218.65
424.416	234.65
424.876	274.65
425.336	275.55
425.797	269.15
426.257	258.85
426.717	249.25
427.177	238.05
427.637	236.15
428.097	242.75
428.556	253.65
429.016	271.75
429.476	257.55
429.936	278.85
430.396	280.95
430.856	290.65
431.315	312.35
431.775	343.15
432.235	377.95
432.694	350.85
433.154	366.35
433.614	400.45
434.073	334.65
434.533	281.75
434.993	270.65
435.452	279.15
435.912	293.15
436.371	286.55
436.83	288.75
437.29	270.25
437.749	252.35
438.209	251.95
438.668	283.15
439.127	299.55
439.587	269.85
440.046	254.05
440.505	268.45
440.964	286.05
441.424	333.05
441.883	329.05
442.342	270.15
442.801	234.55
443.26	236.85
443.719	236.75
444.178	234.55
444.637	221.25
445.096	230.75
445.555	231.05
446.014	236.25
446.473	239.75
446.932	245.05
447.391	241.55
447.849	245.65
448.308	236.25
448.767	234.85
449.226	245.35
449.685	247.85
450.143	260.75
450.602	250.25
451.061	238.05
451.519	250.05
451.978	248.05
452.436	242.95
452.895	252.45
453.353	272.75
453.812	258.75
454.27	257.05
454.729	252.75
455.187	253.25
455.646	257.85
456.104	262.55
456.562	273.35
457.021	282.85
457.479	274.95
457.937	297.95
458.395	280.85
458.854	264.75
459.312	272.95
459.77	289.55
460.228	263.25
460.686	257.95
461.144	267.65
461.602	263.75
462.06	269.05
462.518	277.55
462.976	271.15
463.434	276.05
463.892	281.15
464.35	292.15
464.808	305.55
465.266	280.25
465.724	289.65
466.181	286.95
466.639	287.85
467.097	310.15
467.555	314.95
468.012	324.35
468.47	330.35
468.928	342.75
469.385	359.75
469.843	373.65
470.3	370.25
470.758	382.55
471.215	411.15
471.673	431.95
472.13	424.05
472.588	428.35
473.045	392.25
473.503	407.15
473.96	419.45
474.417	426.95
474.875	457.05
475.332	503.85
475.789	486.95
476.246	494.25
476.704	512.45
477.161	533.75
477.618	545.15
478.075	578.35
478.532	636.65
478.989	704.75
479.446	820.55
479.903	777.25
480.36	819.25
480.817	871.85
481.274	947.55
481.731	1052.95
482.188	1134.25
482.645	1247.75
483.102	1347.85
483.558	1461.85
484.015	1505.15
484.472	1471.75
484.929	1436.75
485.385	1393.45
485.842	1368.05
486.299	1310.55
486.755	1276.35
487.212	1096.75
487.668	931.25
488.125	863.45
488.582	797.35
489.038	761.35
489.494	737.35
489.951	705.55
490.407	691.65
490.864	673.25
491.32	683.35
491.776	673.55
492.233	676.15
492.689	638.15
493.145	627.75
493.602	620.65
494.058	645.55
494.514	645.25
494.97	661.15
495.426	676.35
495.882	656.45
496.338	639.85
496.794	642.35
497.251	647.05
497.707	670.35
498.163	666.95
498.618	668.55
499.074	676.05
499.53	704.45
499.986	701.55
500.442	681.85
500.898	651.45
501.354	645.35
501.809	647.05
502.265	654.95
502.721	660.65
503.177	673.05
503.632	681.55
504.088	676.15
504.543	700.05
504.999	730.45
505.455	694.75
505.91	669.45
506.366	672.45
506.821	667.45
507.277	668.95
507.732	671.25
508.187	666.15
508.643	672.75
509.098	672.45
509.553	705.75
510.009	706.95
510.464	717.85
510.919	729.55
511.375	734.25
511.83	754.25
512.285	755.35
512.74	805.95
513.195	818.75
513.65	820.65
514.105	809.15
514.56	804.05
515.015	837.35
515.47	843.75
515.925	830.25
516.38	828.85
516.835	839.05
517.29	823.85
517.745	814.05
518.2	809.65
518.655	793.65
519.109	787.85
519.564	778.95
520.019	775.45
520.474	774.45
520.928	775.85
521.383	758.55
521.838	750.55
522.292	748.55
522.747	747.75
523.201	743.05
523.656	739.65
524.11	737.45
524.565	738.55
525.019	721.85
525.474	744.65
525.928	732.55
526.382	727.25
526.837	738.55
527.291	744.65
527.745	735.15
528.2	739.65
528.654	731.45
529.108	723.75
529.562	722.65
530.016	732.25
530.47	735.55
530.925	731.05
531.379	735.15
531.833	735.85
532.287	737.65
532.741	733.45
533.195	743.65
533.649	735.25
534.103	757.65
534.556	742.95
535.01	747.75
535.464	755.85
535.918	764.35
536.372	764.45
536.826	755.05
537.279	752.05
537.733	744.55
538.187	742.35
538.64	753.75
539.094	758.75
539.548	769.45
540.001	750.95
540.455	765.25
540.908	779.05
541.362	773.65
541.815	787.75
542.269	812.15
542.722	800.45
543.175	809.35
543.629	819.55
544.082	828.55
544.536	836.45
544.989	828.25
545.442	833.75
545.895	839.95
546.349	832.15
546.802	830.55
547.255	844.45
547.708	852.55
548.161	860.85
548.614	871.65
549.067	874.85
549.52	866.65
549.973	856.15
550.426	860.95
550.879	849.95
551.332	847.15
551.785	854.95
552.238	859.75
552.691	864.65
553.144	883.65
553.596	899.75
554.049	909.55
554.502	950.85
554.955	958.45
555.407	964.55
555.86	949.05
556.313	943.25
556.765	935.35
557.218	932.35
557.67	941.05
558.123	929.25
558.576	925.25
559.028	933.75
559.48	934.75
559.933	932.75
560.385	889.55
560.838	864.25
561.29	831.85
561.742	825.05
562.195	811.65
562.647	806.05
563.099	811.25
563.551	819.75
564.004	832.45
564.456	809.25
564.908	803.85
565.36	789.75
565.812	761.85
566.264	757.35
566.716	758.15
567.168	744.55
567.62	753.95
568.072	747.15
568.524	729.05
568.976	726.75
569.428	714.65
569.88	714.15
570.332	723.05
570.784	727.05
571.235	723.45
571.687	737.25
572.139	743.25
572.59	747.55
573.042	751.75
573.494	753.25
573.945	744.75
574.397	722.45
574.849	741.55
575.3	732.55
575.752	724.75
576.203	719.55
576.655	713.15
577.106	706.25
577.557	699.05
578.009	707.85
578.46	706.15
578.912	697.25
579.363	702.75
579.814	708.45
580.265	704.25
580.717	705.05
581.168	712.55
581.619	709.25
582.07	717.05
582.521	714.15
582.972	702.55
583.423	711.05
583.875	718.95
584.326	716.65
584.777	730.65
585.227	752.15
585.678	768.45
586.129	788.05
586.58	816.25
587.031	842.95
587.482	869.95
587.933	900.75
588.384	868.75
588.834	827.85
589.285	809.15
589.736	806.55
590.186	811.05
590.637	798.85
591.088	785.75
591.538	770.65
591.989	773.15
592.439	768.05
592.89	757.55
593.34	745.55
593.791	749.85
594.241	735.85
594.692	732.65
595.142	731.55
595.593	726.25
596.043	735.75
596.493	742.35
596.943	741.35
597.394	760.65
597.844	746.55
598.294	773.55
598.744	789.15
599.195	830.25
599.645	859.75
600.095	912.75
600.545	964.25
600.995	1015.75
601.445	1088.45
601.895	1135.45
602.345	1189.95
602.795	1175.95
603.245	1121.25
603.695	1065.65
604.145	1001.45
604.594	962.45
605.044	912.35
605.494	835.85
605.944	795.45
606.393	784.75
606.843	765.75
607.293	766.95
607.743	754.65
608.192	777.05
608.642	790.35
609.091	803.45
609.541	799.35
609.99	793.45
610.44	795.75
610.889	742.55
611.339	717.85
611.788	711.45
612.238	723.65
612.687	734.25
613.136	735.05
613.586	738.85
614.035	729.65
614.484	735.75
614.933	746.95
615.383	746.05
615.832	736.45
616.281	733.45
616.73	699.95
617.179	687.95
617.628	673.85
618.077	655.55
618.526	647.55
618.975	647.15
619.424	641.05
619.873	642.35
620.322	646.15
620.771	637.65
621.22	632.85
621.669	622.85
622.118	614.95
622.567	604.85
623.015	586.55
623.464	596.55
623.913	575.55
624.361	579.35
624.81	569.75
625.259	571.45
625.707	579.95
626.156	577.45
626.604	592.65
627.053	596.45
627.501	581.35
627.95	588.15
628.398	602.05
628.847	588.35
629.295	588.55
629.744	592.25
630.192	596.25
630.64	582.05
631.089	567.25
631.537	566.35
631.985	549.65
632.433	554.65
632.881	542.15
633.33	554.65
633.778	549.65
634.226	545.05
634.674	556.85
635.122	556.55
635.57	573.15
636.018	585.15
636.466	587.65
636.914	577.45
637.362	596.95
637.81	592.25
638.258	608.45
638.705	598.95
639.153	632.15
639.601	643.85
640.049	664.65
640.497	694.15
640.944	724.85
641.392	673.35
641.84	633.35
642.287	602.85
642.735	589.25
643.182	589.95
643.63	583.35
644.078	586.95
644.525	603.65
644.973	596.95
645.42	610.95
645.867	643.85
646.315	653.95
646.762	666.85
647.21	713.35
647.657	721.75
648.104	750.65
648.551	774.05
648.999	844.75
649.446	922.75
649.893	999.55
650.34	1142.35
650.787	1359.85
651.234	1655.95
651.682	2136.75
652.129	2897.45
652.576	4119.15
653.023	5956.35
653.47	8085.95
653.917	10048.65
654.363	11612.05
654.81	12831.45
655.257	12147.25
655.704	8062.85
656.151	4856.95
656.598	3200.15
657.044	2292.15
657.491	1782.85
657.938	1437.65
658.385	1222.75
658.831	1067.05
659.278	959.35
659.724	852.65
660.171	788.55
660.618	725.45
661.064	704.15
661.511	684.05
661.957	673.45
662.404	651.35
662.85	662.35
663.296	639.45
663.743	585.65
664.189	555.85
664.635	550.35
665.082	550.45
665.528	548.05
665.974	538.75
666.42	530.45
666.867	517.45
667.313	505.45
667.759	476.65
668.205	471.05
668.651	476.15
669.097	467.05
669.543	460.15
669.989	460.35
670.435	471.15
670.881	468.05
671.327	469.25
671.773	492.35
672.219	515.95
672.665	562.25
673.11	612.65
673.556	651.55
674.002	691.45
674.448	689.95
674.893	581.25
675.339	505.05
675.785	455.95
676.23	442.45
676.676	410.95
677.122	401.55
677.567	389.25
678.013	387.45
678.458	377.45
678.904	380.25
679.349	367.95
679.794	362.05
680.24	369.05
680.685	369.05
681.131	360.95
681.576	368.85
682.021	365.95
682.466	360.55
682.912	363.75
683.357	369.65
683.802	395.15
684.247	430.85
684.692	477.55
685.137	520.25
685.583	562.95
686.028	581.15
686.473	541.05
686.918	466.15
687.363	435.75
687.807	410.05
688.252	386.45
688.697	367.45
689.142	352.95
689.587	347.25
690.032	343.15
690.477	370.55
690.921	362.15
691.366	391.65
691.811	414.75
692.255	452.05
692.7	478.15
693.145	521.85
693.589	734.25
694.034	1190.15
694.478	1611.75
694.923	1817.85
695.367	2383.95
695.812	1259.35
696.256	517.25
696.701	390.45
697.145	359.85
697.59	343.95
698.034	336.85
698.478	340.05
698.922	336.05
699.367	343.05
699.811	352.35
700.255	363.45
700.699	398.65
701.143	446.65
701.588	492.35
702.032	539.25
702.476	537.15
702.92	508.85
703.364	519.15
703.808	672.05
704.252	1082.15
704.696	1547.35
705.14	1759.95
705.584	2241.75
706.027	1116.65
706.471	542.85
706.915	417.95
707.359	368.25
707.803	337.15
708.246	332.95
708.69	330.15
709.134	326.95
709.577	326.45
710.021	331.25
710.465	320.45
710.908	314.45
711.352	313.95
711.795	327.95
712.239	367.25
712.682	401.45
713.126	430.55
713.569	478.25
714.012	362.95
714.456	317.65
714.899	300.55
715.342	280.35
715.786	270.65
716.229	272.35
716.672	265.05
717.115	265.85
717.558	257.25
718.002	266.05
718.445	271.95
718.888	292.65
719.331	301.45
719.774	318.75
720.217	320.05
720.66	301.75
721.103	267.15
721.546	266.55
721.989	253.75
722.432	251.35
722.874	250.05
723.317	240.55
723.76	247.25
724.203	264.85
724.645	329.75
725.088	475.05
725.531	594.35
725.974	669.35
726.416	570.95
726.859	328.65
727.301	256.45
727.744	249.75
728.187	248.15
728.629	252.85
729.071	257.55
729.514	271.15
729.956	286.15
730.399	298.35
730.841	303.85
731.283	287.65
731.726	277.95
732.168	272.45
732.61	271.55
733.053	304.45
733.495	330.95
733.937	373.95
734.379	421.55
734.821	459.35
735.263	571.95
735.705	866.95
736.148	1670.85
736.59	2726.55
737.032	3198.85
737.474	2627.45
737.916	853.65
738.357	447.15
738.799	341.45
739.241	317.75
739.683	301.85
740.125	311.85
740.567	315.55
741.008	342.45
741.45	328.35
741.892	333.15
742.334	367.15
742.775	375.75
743.217	368.55
743.658	283.15
744.1	272.75
744.542	276.85
744.983	323.75
745.425	360.55
745.866	358.95
746.307	288.85
746.749	294.35
747.19	337.05
747.632	478.05
748.073	932.45
748.514	1956.15
748.956	3001.45
749.397	3784.05
749.838	3119.15
750.279	3120.55
750.72	1576.95
751.162	575.35
751.603	337.65
752.044	268.85
752.485	227.45
752.926	213.95
753.367	213.75
753.808	198.55
754.249	200.95
754.69	192.75
755.131	197.15
755.572	181.55
756.013	192.65
756.453	190.95
756.894	197.85
757.335	198.15
757.776	199.75
758.216	205.15
758.657	205.75
759.098	210.85
759.538	236.45
759.979	282.45
760.42	390.65
760.86	745.65
761.301	1926.15
761.741	4672.75
762.182	6748.65
762.622	4781.35
763.063	1380.55
763.503	569.25
