Data from Subt2_09-55-33-206.txt Node
Date: Fri Apr 06 09:55:33 EDT 2018
User: janas
Spectrometer: HR+D1039
Trigger mode: 0
Integration Time (sec): 1.000000E-1
Scans to average: 1
Electric dark correction enabled: true
Nonlinearity correction enabled: false
Boxcar width: 0
XAxis mode: Wavelengths
Number of Pixels in Spectrum: 2048
>>>>>Begin Spectral Data<<<<<
187.836	11.56
188.309	11.56
188.782	11.56
189.255	-14.44
189.728	10.56
190.201	-11.44
190.674	-7.44
191.147	-5.44
191.619	-19.44
192.092	10.56
192.565	5.56
193.038	0.56
193.511	-14.44
193.984	-2.44
194.456	3.56
194.929	18.56
195.402	8.56
195.874	5.56
196.347	-15.44
196.82	12.56
197.292	-12.44
197.765	5.56
198.237	2.56
198.71	-6.44
199.182	-12.44
199.655	-3.44
200.127	-21.44
200.6	-8.44
201.072	-19.44
201.544	-6.44
202.017	18.56
202.489	-6.44
202.961	-17.44
203.433	5.56
203.906	9.56
204.378	0.56
204.85	9.56
205.322	-18.44
205.794	6.56
206.266	-28.44
206.739	4.56
207.211	-2.44
207.683	13.56
208.155	-7.44
208.627	-1.44
209.099	19.56
209.57	8.56
210.042	17.56
210.514	-10.44
210.986	-32.44
211.458	-2.44
211.93	10.56
212.402	3.56
212.873	3.56
213.345	14.56
213.817	1.56
214.288	-4.44
214.76	28.56
215.232	9.56
215.703	0.56
216.175	-2.44
216.646	-8.44
217.118	-15.44
217.589	-13.44
218.061	12.56
218.532	1.56
219.004	-6.44
219.475	-4.44
219.946	-11.44
220.418	18.56
220.889	12.56
221.36	3.56
221.832	-9.44
222.303	13.56
222.774	6.56
223.245	2.56
223.717	4.56
224.188	9.56
224.659	1.56
225.13	10.56
225.601	-13.44
226.072	-24.44
226.543	-10.44
227.014	-4.44
227.485	-5.44
227.956	-3.44
228.427	-16.44
228.898	4.56
229.369	-2.44
229.839	1.56
230.31	-2.44
230.781	8.56
231.252	23.56
231.722	-5.44
232.193	-3.44
232.664	26.56
233.135	6.56
233.605	10.56
234.076	12.56
234.546	12.56
235.017	11.56
235.487	-17.44
235.958	6.56
236.428	-11.44
236.899	-31.44
237.369	-14.44
237.84	-24.44
238.31	4.56
238.78	3.56
239.251	12.56
239.721	-7.44
240.191	-24.44
240.662	-14.44
241.132	14.56
241.602	14.56
242.072	19.56
242.542	12.56
243.013	-2.44
243.483	-2.44
243.953	-3.44
244.423	-6.44
244.893	-26.44
245.363	4.56
245.833	-9.44
246.303	7.56
246.773	6.56
247.243	14.56
247.712	10.56
248.182	4.56
248.652	-2.44
249.122	-3.44
249.592	10.56
250.061	6.56
250.531	-5.44
251.001	1.56
251.471	-20.44
251.94	6.56
252.41	12.56
252.879	-10.44
253.349	13.56
253.818	2.56
254.288	-15.44
254.757	5.56
255.227	-13.44
255.696	-17.44
256.166	-16.44
256.635	-11.44
257.105	-16.44
257.574	36.56
258.043	4.56
258.513	9.56
258.982	-16.44
259.451	7.56
259.92	17.56
260.389	-10.44
260.859	-19.44
261.328	1.56
261.797	-0.44
262.266	-1.44
262.735	-15.44
263.204	3.56
263.673	-18.44
264.142	-20.44
264.611	-23.44
265.08	4.56
265.549	-9.44
266.018	29.56
266.487	-2.44
266.955	16.56
267.424	2.56
267.893	7.56
268.362	10.56
268.83	3.56
269.299	-6.44
269.768	6.56
270.236	-0.44
270.705	-12.44
271.174	11.56
271.642	16.56
272.111	-19.44
272.579	-1.44
273.048	-23.44
273.516	-10.44
273.985	13.56
274.453	-11.44
274.922	-3.44
275.39	2.56
275.858	-27.44
276.327	10.56
276.795	-0.44
277.263	-10.44
277.731	-26.44
278.2	-6.44
278.668	0.56
279.136	-8.44
279.604	-7.44
280.072	38.56
280.54	8.56
281.008	13.56
281.477	-20.44
281.945	-13.44
282.413	2.56
282.881	-1.44
283.348	0.56
283.816	-3.44
284.284	6.56
284.752	11.56
285.22	10.56
285.688	16.56
286.156	-8.44
286.623	11.56
287.091	-11.44
287.559	-0.44
288.026	1.56
288.494	-15.44
288.962	-8.44
289.429	10.56
289.897	29.56
290.364	23.56
290.832	-6.44
291.3	2.56
291.767	-5.44
292.234	1.56
292.702	19.56
293.169	11.56
293.637	-14.44
294.104	-3.44
294.571	-15.44
295.039	-10.44
295.506	-9.44
295.973	1.56
296.44	-0.44
296.908	1.56
297.375	-7.44
297.842	0.56
298.309	-7.44
298.776	-7.44
299.243	-13.44
299.71	-29.44
300.177	-0.44
300.644	6.56
301.111	5.56
301.578	-0.44
302.045	8.56
302.512	-37.44
302.979	-23.44
303.446	-28.44
303.913	10.56
304.379	-18.44
304.846	7.56
305.313	-9.44
305.78	-0.44
306.246	-15.44
306.713	22.56
307.18	0.56
307.646	33.56
308.113	8.56
308.579	26.56
309.046	-14.44
309.512	-8.44
309.979	-7.44
310.445	-2.44
310.912	-14.44
311.378	-27.44
311.845	3.56
312.311	-8.44
312.777	6.56
313.244	-2.44
313.71	3.56
314.176	-17.44
314.642	-23.44
315.109	-19.44
315.575	-32.44
316.041	-20.44
316.507	-23.44
316.973	0.56
317.439	-7.44
317.905	9.56
318.371	-1.44
318.837	-27.44
319.303	-7.44
319.769	-27.44
320.235	17.56
320.701	-5.44
321.167	14.56
321.633	-23.44
322.099	25.56
322.564	-14.44
323.03	-5.44
323.496	-11.44
323.962	-6.44
324.427	20.56
324.893	-5.44
325.359	-0.44
325.824	1.56
326.29	16.56
326.755	-19.44
327.221	5.56
327.686	0.56
328.152	5.56
328.617	20.56
329.083	-11.44
329.548	-9.44
330.014	-12.44
330.479	-3.44
330.944	-6.44
331.41	-7.44
331.875	-17.44
332.34	-16.44
332.805	-17.44
333.271	16.56
333.736	13.56
334.201	-11.44
334.666	-16.44
335.131	3.56
335.596	-1.44
336.061	7.56
336.526	-8.44
336.991	-17.44
337.456	1.56
337.921	5.56
338.386	8.56
338.851	-12.44
339.316	-13.44
339.781	8.56
340.246	24.56
340.711	9.56
341.175	-32.44
341.64	-0.44
342.105	-1.44
342.569	25.56
343.034	10.56
343.499	-1.44
343.963	12.56
344.428	31.56
344.893	14.56
345.357	-0.44
345.822	9.56
346.286	-10.44
346.751	0.56
347.215	11.56
347.679	29.56
348.144	-9.44
348.608	-23.44
349.073	-28.44
349.537	3.56
350.001	-31.44
350.465	5.56
350.93	-13.44
351.394	-23.44
351.858	-9.44
352.322	10.56
352.786	-11.44
353.25	-7.44
353.715	7.56
354.179	-3.44
354.643	5.56
355.107	13.56
355.571	-2.44
356.035	9.56
356.498	13.56
356.962	10.56
357.426	5.56
357.89	-4.44
358.354	-0.44
358.818	14.56
359.281	-6.44
359.745	27.56
360.209	-8.44
360.673	3.56
361.136	-28.44
361.6	-6.44
362.064	0.56
362.527	2.56
362.991	22.56
363.454	12.56
363.918	25.56
364.381	-8.44
364.845	15.56
365.308	-1.44
365.772	13.56
366.235	-23.44
366.698	-3.44
367.162	-14.44
367.625	-8.44
368.088	-2.44
368.552	-18.44
369.015	-4.44
369.478	-19.44
369.941	21.56
370.404	-5.44
370.867	10.56
371.331	5.56
371.794	-9.44
372.257	-8.44
372.72	-5.44
373.183	-22.44
373.646	-7.44
374.109	7.56
374.572	4.56
375.035	-10.44
375.497	-9.44
375.96	-13.44
376.423	3.56
376.886	-18.44
377.349	-1.44
377.811	14.56
378.274	18.56
378.737	2.56
379.199	18.56
379.662	3.56
380.125	-2.44
380.587	-27.44
381.05	-7.44
381.512	-27.44
381.975	-6.44
382.437	0.56
382.9	-9.44
383.362	-2.44
383.825	8.56
384.287	6.56
384.75	1.56
385.212	15.56
385.674	-10.44
386.136	18.56
386.599	-26.44
387.061	-18.44
387.523	-5.44
387.985	-10.44
388.447	2.56
388.91	-1.44
389.372	6.56
389.834	-0.44
390.296	13.56
390.758	-2.44
391.22	-5.44
391.682	-7.44
392.144	-1.44
392.606	-10.44
393.068	14.56
393.529	-7.44
393.991	-17.44
394.453	-1.44
394.915	-15.44
395.377	-5.44
395.838	-8.44
396.3	-7.44
396.762	9.56
397.224	-2.44
397.685	6.56
398.147	-9.44
398.608	-5.44
399.07	-5.44
399.531	-12.44
399.993	-12.44
400.454	-16.44
400.916	2.56
401.377	7.56
401.839	-21.44
402.3	15.56
402.762	3.56
403.223	-21.44
403.684	17.56
404.145	3.56
404.607	-13.44
405.068	2.56
405.529	29.56
405.99	-23.44
406.451	22.56
406.913	22.56
407.374	-14.44
407.835	0.56
408.296	-12.44
408.757	-1.44
409.218	4.56
409.679	0.56
410.14	7.56
410.601	35.56
411.062	-6.44
411.522	4.56
411.983	3.56
412.444	-32.44
412.905	-15.44
413.366	-19.44
413.826	-17.44
414.287	-10.44
414.748	-26.44
415.208	-8.44
415.669	2.56
416.13	-18.44
416.59	19.56
417.051	-5.44
417.511	15.56
417.972	-8.44
418.432	11.56
418.893	-5.44
419.353	-7.44
419.814	14.56
420.274	-9.44
420.734	2.56
421.195	8.56
421.655	7.56
422.115	-19.44
422.576	20.56
423.036	-5.44
423.496	-7.44
423.956	8.56
424.416	-18.44
424.876	10.56
425.336	-24.44
425.797	-31.44
426.257	-4.44
426.717	9.56
427.177	-14.44
427.637	-5.44
428.097	-4.44
428.556	13.56
429.016	-2.44
429.476	-6.44
429.936	-11.44
430.396	6.56
430.856	-17.44
431.315	9.56
431.775	7.56
432.235	-7.44
432.694	6.56
433.154	-1.44
433.614	-8.44
434.073	20.56
434.533	2.56
434.993	-4.44
435.452	7.56
435.912	12.56
436.371	2.56
436.83	-12.44
437.29	-27.44
437.749	19.56
438.209	4.56
438.668	25.56
439.127	38.56
439.587	-2.44
440.046	-17.44
440.505	-10.44
440.964	-3.44
441.424	5.56
441.883	5.56
442.342	-23.44
442.801	-28.44
443.26	0.56
443.719	11.56
444.178	-7.44
444.637	-4.44
445.096	-15.44
445.555	-17.44
446.014	-3.44
446.473	-4.44
446.932	-5.44
447.391	-6.44
447.849	3.56
448.308	14.56
448.767	-13.44
449.226	-23.44
449.685	15.56
450.143	-9.44
450.602	-29.44
451.061	-11.44
451.519	25.56
451.978	9.56
452.436	-1.44
452.895	-3.44
453.353	20.56
453.812	-7.44
454.27	-31.44
454.729	-6.44
455.187	2.56
455.646	16.56
456.104	-14.44
456.562	7.56
457.021	12.56
457.479	6.56
457.937	3.56
458.395	-8.44
458.854	7.56
459.312	-18.44
459.77	-2.44
460.228	-6.44
460.686	18.56
461.144	1.56
461.602	14.56
462.06	9.56
462.518	5.56
462.976	-13.44
463.434	-14.44
463.892	-3.44
464.35	7.56
464.808	-1.44
465.266	-30.44
465.724	17.56
466.181	3.56
466.639	-8.44
467.097	0.56
467.555	15.56
468.012	29.56
468.47	15.56
468.928	3.56
469.385	5.56
469.843	16.56
470.3	-11.44
470.758	15.56
471.215	-8.44
471.673	-23.44
472.13	16.56
472.588	26.56
473.045	21.56
473.503	-22.44
473.96	19.56
474.417	-15.44
474.875	6.56
475.332	4.56
475.789	-3.44
476.246	-8.44
476.704	-0.44
477.161	3.56
477.618	4.56
478.075	-6.44
478.532	3.56
478.989	8.56
479.446	-8.44
479.903	12.56
480.36	-20.44
480.817	16.56
481.274	1.56
481.731	25.56
482.188	-1.44
482.645	8.56
483.102	-12.44
483.558	-8.44
484.015	-1.44
484.472	6.56
484.929	-0.44
485.385	7.56
485.842	-14.44
486.299	-2.44
486.755	20.56
487.212	32.56
487.668	9.56
488.125	2.56
488.582	8.56
489.038	-3.44
489.494	8.56
489.951	12.56
490.407	0.56
490.864	4.56
491.32	15.56
491.776	4.56
492.233	10.56
492.689	14.56
493.145	9.56
493.602	16.56
494.058	11.56
494.514	13.56
494.97	-2.44
495.426	13.56
495.882	19.56
496.338	9.56
496.794	20.56
497.251	-8.44
497.707	10.56
498.163	-4.44
498.618	14.56
499.074	2.56
499.53	-8.44
499.986	1.56
500.442	-3.44
500.898	13.56
501.354	24.56
501.809	1.56
502.265	-7.44
502.721	-4.44
503.177	-4.44
503.632	22.56
504.088	1.56
504.543	-2.44
504.999	3.56
505.455	0.56
505.91	4.56
506.366	24.56
506.821	-4.44
507.277	1.56
507.732	-2.44
508.187	7.56
508.643	-15.44
509.098	21.56
509.553	-0.44
510.009	1.56
510.464	27.56
510.919	-13.44
511.375	-9.44
511.83	0.56
512.285	15.56
512.74	7.56
513.195	-5.44
513.65	0.56
514.105	-3.44
514.56	-13.44
515.015	-0.44
515.47	-7.44
515.925	-10.44
516.38	18.56
516.835	2.56
517.29	19.56
517.745	13.56
518.2	-20.44
518.655	16.56
519.109	3.56
519.564	-10.44
520.019	16.56
520.474	18.56
520.928	-6.44
521.383	-21.44
521.838	3.56
522.292	-3.44
522.747	-5.44
523.201	-5.44
523.656	7.56
524.11	-39.44
524.565	18.56
525.019	9.56
525.474	-10.44
525.928	-2.44
526.382	-8.44
526.837	-2.44
527.291	2.56
527.745	19.56
528.2	-4.44
528.654	-11.44
529.108	-13.44
529.562	-23.44
530.016	9.56
530.47	-8.44
530.925	12.56
531.379	-18.44
531.833	-5.44
532.287	-0.44
532.741	7.56
533.195	-3.44
533.649	11.56
534.103	-1.44
534.556	8.56
535.01	21.56
535.464	-10.44
535.918	-11.44
536.372	11.56
536.826	-25.44
537.279	-26.44
537.733	-4.44
538.187	-13.44
538.64	5.56
539.094	4.56
539.548	-5.44
540.001	-8.44
540.455	8.56
540.908	28.56
541.362	-7.44
541.815	8.56
542.269	-2.44
542.722	17.56
543.175	4.56
543.629	0.56
544.082	-2.44
544.536	-2.44
544.989	3.56
545.442	-4.44
545.895	-6.44
546.349	-2.44
546.802	11.56
547.255	8.56
547.708	11.56
548.161	-14.44
548.614	11.56
549.067	-21.44
549.52	-12.44
549.973	18.56
550.426	23.56
550.879	30.56
551.332	26.56
551.785	-3.44
552.238	6.56
552.691	14.56
553.144	-29.44
553.596	-3.44
554.049	-23.44
554.502	17.56
554.955	-3.44
555.407	-27.44
555.86	-4.44
556.313	-13.44
556.765	-8.44
557.218	11.56
557.67	13.56
558.123	3.56
558.576	2.56
559.028	-0.44
559.48	6.56
559.933	-10.44
560.385	16.56
560.838	1.56
561.29	4.56
561.742	4.56
562.195	8.56
562.647	16.56
563.099	15.56
563.551	-8.44
564.004	13.56
564.456	-22.44
564.908	-5.44
565.36	-12.44
565.812	16.56
566.264	-3.44
566.716	28.56
567.168	12.56
567.62	-13.44
568.072	9.56
568.524	15.56
568.976	-1.44
569.428	0.56
569.88	-5.44
570.332	-2.44
570.784	9.56
571.235	-10.44
571.687	6.56
572.139	11.56
572.59	15.56
573.042	-14.44
573.494	-4.44
573.945	1.56
574.397	18.56
574.849	-12.44
575.3	-4.44
575.752	-3.44
576.203	4.56
576.655	3.56
577.106	1.56
577.557	-16.44
578.009	-19.44
578.46	-17.44
578.912	0.56
579.363	0.56
579.814	-13.44
580.265	-6.44
580.717	31.56
581.168	3.56
581.619	-5.44
582.07	11.56
582.521	-4.44
582.972	11.56
583.423	-15.44
583.875	4.56
584.326	-7.44
584.777	14.56
585.227	10.56
585.678	-1.44
586.129	10.56
586.58	9.56
587.031	1.56
587.482	-9.44
587.933	8.56
588.384	21.56
588.834	19.56
589.285	20.56
589.736	-19.44
590.186	-24.44
590.637	-0.44
591.088	-24.44
591.538	-0.44
591.989	4.56
592.439	14.56
592.89	-19.44
593.34	-18.44
593.791	-11.44
594.241	-21.44
594.692	-19.44
595.142	2.56
595.593	4.56
596.043	-5.44
596.493	-0.44
596.943	34.56
597.394	1.56
597.844	5.56
598.294	6.56
598.744	14.56
599.195	5.56
599.645	-7.44
600.095	-10.44
600.545	-7.44
600.995	12.56
601.445	39.56
601.895	26.56
602.345	4.56
602.795	-8.44
603.245	-12.44
603.695	8.56
604.145	-3.44
604.594	-14.44
605.044	8.56
605.494	10.56
605.944	13.56
606.393	12.56
606.843	4.56
607.293	15.56
607.743	13.56
608.192	-19.44
608.642	-5.44
609.091	-1.44
609.541	29.56
609.99	4.56
610.44	17.56
610.889	5.56
611.339	19.56
611.788	-7.44
612.238	-5.44
612.687	-31.44
613.136	-4.44
613.586	-5.44
614.035	-11.44
614.484	0.56
614.933	-0.44
615.383	-10.44
615.832	34.56
616.281	13.56
616.73	11.56
617.179	-2.44
617.628	10.56
618.077	1.56
618.526	-2.44
618.975	-14.44
619.424	-23.44
619.873	0.56
620.322	30.56
620.771	3.56
621.22	20.56
621.669	-7.44
622.118	18.56
622.567	-27.44
623.015	-4.44
623.464	16.56
623.913	-4.44
624.361	4.56
624.81	-26.44
625.259	14.56
625.707	-19.44
626.156	15.56
626.604	13.56
627.053	0.56
627.501	9.56
627.95	5.56
628.398	10.56
628.847	2.56
629.295	13.56
629.744	-13.44
630.192	-2.44
630.64	-9.44
631.089	-18.44
631.537	23.56
631.985	8.56
632.433	-0.44
632.881	-7.44
633.33	13.56
633.778	16.56
634.226	8.56
634.674	15.56
635.122	0.56
635.57	2.56
636.018	-7.44
636.466	-9.44
636.914	-1.44
637.362	16.56
637.81	-2.44
638.258	5.56
638.705	28.56
639.153	3.56
639.601	-4.44
640.049	-17.44
640.497	-8.44
640.944	-15.44
641.392	7.56
641.84	-12.44
642.287	-0.44
642.735	-12.44
643.182	-11.44
643.63	-3.44
644.078	-20.44
644.525	-2.44
644.973	9.56
645.42	-1.44
645.867	-0.44
646.315	6.56
646.762	12.56
647.21	-8.44
647.657	-14.44
648.104	1.56
648.551	-5.44
648.999	-1.44
649.446	1.56
649.893	-2.44
650.34	-5.44
650.787	-15.44
651.234	-20.44
651.682	13.56
652.129	-7.44
652.576	0.56
653.023	-16.44
653.47	-1.44
653.917	-3.44
654.363	15.56
654.81	-4.44
655.257	7.56
655.704	1.56
656.151	-1.44
656.598	18.56
657.044	-23.44
657.491	1.56
657.938	-0.44
658.385	-25.44
658.831	2.56
659.278	-11.44
659.724	20.56
660.171	-15.44
660.618	-9.44
661.064	3.56
661.511	-14.44
661.957	-20.44
662.404	-3.44
662.85	2.56
663.296	4.56
663.743	-20.44
664.189	-32.44
664.635	-2.44
665.082	-16.44
665.528	-1.44
665.974	8.56
666.42	1.56
666.867	-10.44
667.313	8.56
667.759	2.56
668.205	-10.44
668.651	-11.44
669.097	-14.44
669.543	22.56
669.989	11.56
670.435	-17.44
670.881	-6.44
671.327	6.56
671.773	20.56
672.219	21.56
672.665	25.56
673.11	2.56
673.556	-5.44
674.002	29.56
674.448	14.56
674.893	-4.44
675.339	-7.44
675.785	6.56
676.23	28.56
676.676	6.56
677.122	23.56
677.567	-5.44
678.013	4.56
678.458	-8.44
678.904	5.56
679.349	-1.44
679.794	-4.44
680.24	-24.44
680.685	-7.44
681.131	-23.44
681.576	25.56
682.021	1.56
682.466	-20.44
682.912	15.56
683.357	-7.44
683.802	-0.44
684.247	-7.44
684.692	8.56
685.137	-1.44
685.583	9.56
686.028	-18.44
686.473	-7.44
686.918	-2.44
687.363	-12.44
687.807	5.56
688.252	4.56
688.697	-0.44
689.142	-3.44
689.587	-5.44
690.032	4.56
690.477	8.56
690.921	-0.44
691.366	-35.44
691.811	2.56
692.255	-14.44
692.7	7.56
693.145	1.56
693.589	-3.44
694.034	-17.44
694.478	3.56
694.923	-3.44
695.367	14.56
695.812	2.56
696.256	5.56
696.701	11.56
697.145	-19.44
697.59	-10.44
698.034	-12.44
698.478	30.56
698.922	-4.44
699.367	-14.44
699.811	-5.44
700.255	1.56
700.699	-15.44
701.143	-4.44
701.588	5.56
702.032	-11.44
702.476	-14.44
702.92	-4.44
703.364	-13.44
703.808	-0.44
704.252	-1.44
704.696	-7.44
705.14	-24.44
705.584	-10.44
706.027	-12.44
706.471	0.56
706.915	21.56
707.359	21.56
707.803	-10.44
708.246	-28.44
708.69	-8.44
709.134	10.56
709.577	8.56
710.021	-9.44
710.465	14.56
710.908	9.56
711.352	3.56
711.795	-28.44
712.239	-20.44
712.682	-33.44
713.126	2.56
713.569	-8.44
714.012	-13.44
714.456	-1.44
714.899	-5.44
715.342	-24.44
715.786	20.56
716.229	-0.44
716.672	7.56
717.115	4.56
717.558	-17.44
718.002	5.56
718.445	-20.44
718.888	1.56
719.331	11.56
719.774	-10.44
720.217	6.56
720.66	-2.44
721.103	-20.44
721.546	-4.44
721.989	4.56
722.432	-14.44
722.874	10.56
723.317	1.56
723.76	-19.44
724.203	-10.44
724.645	3.56
725.088	-12.44
725.531	-3.44
725.974	-10.44
726.416	5.56
726.859	-4.44
727.301	0.56
727.744	10.56
728.187	-1.44
728.629	-9.44
729.071	-3.44
729.514	-5.44
729.956	-13.44
730.399	-6.44
730.841	-17.44
731.283	11.56
731.726	23.56
732.168	-4.44
732.61	-11.44
733.053	-4.44
733.495	9.56
733.937	1.56
734.379	-6.44
734.821	-22.44
735.263	0.56
735.705	16.56
736.148	-5.44
736.59	0.56
737.032	-13.44
737.474	0.56
737.916	19.56
738.357	-19.44
738.799	4.56
739.241	-11.44
739.683	4.56
740.125	11.56
740.567	-21.44
741.008	-15.44
741.45	2.56
741.892	-17.44
742.334	-16.44
742.775	-11.44
743.217	-4.44
743.658	-20.44
744.1	-23.44
744.542	-22.44
744.983	1.56
745.425	2.56
745.866	15.56
746.307	14.56
746.749	-0.44
747.19	-14.44
747.632	18.56
748.073	11.56
748.514	-2.44
748.956	-1.44
749.397	-11.44
749.838	14.56
750.279	1.56
750.72	10.56
751.162	8.56
751.603	6.56
752.044	11.56
752.485	-12.44
752.926	-13.44
753.367	-29.44
753.808	-10.44
754.249	-9.44
754.69	19.56
755.131	-11.44
755.572	7.56
756.013	-3.44
756.453	-3.44
756.894	9.56
757.335	-15.44
757.776	12.56
758.216	0.56
758.657	10.56
759.098	-19.44
759.538	6.56
759.979	-15.44
760.42	9.56
760.86	2.56
761.301	-12.44
761.741	7.56
762.182	-7.44
762.622	-16.44
763.063	-30.44
763.503	3.56
763.943	-21.44
764.384	3.56
764.824	-9.44
765.264	-12.44
765.705	12.56
766.145	9.56
766.585	-8.44
767.025	0.56
767.465	-6.44
767.906	8.56
768.346	35.56
768.786	2.56
769.226	-4.44
769.666	-10.44
770.106	-13.44
770.546	-11.44
770.986	-2.44
771.426	-6.44
771.866	4.56
772.306	4.56
772.745	8.56
773.185	2.56
773.625	-12.44
774.065	2.56
774.505	-21.44
774.944	-4.44
775.384	29.56
775.824	-14.44
776.263	-33.44
776.703	-15.44
777.142	11.56
777.582	-4.44
778.021	-8.44
778.461	0.56
778.9	-2.44
779.34	-23.44
779.779	21.56
780.219	-0.44
780.658	20.56
781.097	3.56
781.537	-13.44
781.976	-4.44
782.415	-5.44
782.855	14.56
783.294	25.56
783.733	9.56
784.172	-31.44
784.611	-23.44
785.05	-4.44
785.489	-1.44
785.928	-13.44
786.367	-24.44
786.806	-4.44
787.245	-20.44
787.684	-6.44
788.123	-5.44
788.562	5.56
789.001	-23.44
789.44	-2.44
