Data from DH-3PlusCalLight-Background_HRD10391_13-40-46-304.txt Node
Date: Thu Feb 15 13:40:46 EST 2018
User: Ender
Spectrometer: HR+D1039
Trigger mode: 0
Integration Time (sec): 2.730000E-2
Scans to average: 10
Electric dark correction enabled: true
Nonlinearity correction enabled: false
Boxcar width: 0
XAxis mode: Wavelengths
Number of Pixels in Spectrum: 2048
>>>>>Begin Spectral Data<<<<<
187.836	1.28
188.309	1.28
188.782	1.28
189.255	-4.42
189.728	-6.72
190.201	-3.72
190.674	-6.02
191.147	-8.52
191.619	-9.82
192.092	-8.92
192.565	-7.12
193.038	-0.72
193.511	0.38
193.984	3.28
194.456	8.48
194.929	10.08
195.402	14.98
195.874	17.48
196.347	21.58
196.82	19.38
197.292	26.58
197.765	33.08
198.237	37.88
198.71	38.48
199.182	41.58
199.655	44.38
200.127	48.38
200.6	52.68
201.072	55.68
201.544	56.88
202.017	61.08
202.489	61.58
202.961	69.38
203.433	68.08
203.906	70.48
204.378	77.78
204.85	76.08
205.322	79.08
205.794	76.28
206.266	77.48
206.739	80.08
207.211	81.78
207.683	86.48
208.155	85.58
208.627	84.88
209.099	83.78
209.57	83.98
210.042	86.28
210.514	83.38
210.986	79.78
211.458	83.28
211.93	85.18
212.402	76.98
212.873	80.68
213.345	79.18
213.817	78.68
214.288	74.18
214.76	78.28
215.232	76.68
215.703	77.58
216.175	84.38
216.646	79.88
217.118	79.38
217.589	76.38
218.061	77.48
218.532	73.68
219.004	74.08
219.475	79.38
219.946	76.78
220.418	72.58
220.889	70.58
221.36	74.78
221.832	77.78
222.303	75.68
222.774	75.68
223.245	72.08
223.717	75.58
224.188	72.78
224.659	71.48
225.13	74.88
225.601	80.18
226.072	74.78
226.543	75.08
227.014	71.58
227.485	71.38
227.956	76.58
228.427	72.88
228.898	67.78
229.369	71.68
229.839	73.48
230.31	77.68
230.781	75.28
231.252	73.58
231.722	81.08
232.193	78.58
232.664	76.18
233.135	76.48
233.605	73.38
234.076	71.18
234.546	73.98
235.017	76.18
235.487	73.38
235.958	76.78
236.428	74.78
236.899	75.58
237.369	80.38
237.84	82.68
238.31	77.38
238.78	84.18
239.251	77.78
239.721	77.58
240.191	73.78
240.662	75.88
241.132	78.58
241.602	75.78
242.072	79.48
242.542	73.68
243.013	78.98
243.483	76.68
243.953	79.78
244.423	78.08
244.893	77.48
245.363	71.58
245.833	80.38
246.303	79.58
246.773	77.78
247.243	75.68
247.712	78.58
248.182	77.88
248.652	80.68
249.122	78.78
249.592	74.68
250.061	73.88
250.531	71.38
251.001	75.58
251.471	78.38
251.94	79.78
252.41	79.48
252.879	82.28
253.349	83.28
253.818	79.58
254.288	83.98
254.757	82.38
255.227	77.68
255.696	76.58
256.166	77.48
256.635	71.18
257.105	82.08
257.574	77.28
258.043	77.28
258.513	76.18
258.982	79.48
259.451	80.28
259.92	82.28
260.389	78.68
260.859	78.08
261.328	79.08
261.797	79.68
262.266	73.78
262.735	82.78
263.204	77.88
263.673	79.18
264.142	78.08
264.611	81.68
265.08	79.38
265.549	80.28
266.018	78.78
266.487	78.98
266.955	77.58
267.424	80.28
267.893	75.38
268.362	82.68
268.83	75.98
269.299	78.98
269.768	84.18
270.236	77.48
270.705	77.48
271.174	77.28
271.642	79.68
272.111	77.38
272.579	80.78
273.048	78.18
273.516	85.18
273.985	79.18
274.453	83.08
274.922	82.28
275.39	84.68
275.858	82.78
276.327	75.78
276.795	79.88
277.263	82.68
277.731	83.48
278.2	81.98
278.668	80.28
279.136	78.78
279.604	82.78
280.072	77.98
280.54	78.38
281.008	82.18
281.477	79.08
281.945	82.38
282.413	77.28
282.881	78.38
283.348	79.68
283.816	77.58
284.284	83.28
284.752	75.98
285.22	85.08
285.688	82.88
286.156	80.18
286.623	79.98
287.091	76.68
287.559	82.08
288.026	78.98
288.494	80.78
288.962	81.88
289.429	83.08
289.897	83.78
290.364	78.58
290.832	77.78
291.3	79.98
291.767	79.98
292.234	79.38
292.702	81.58
293.169	80.48
293.637	80.38
294.104	81.78
294.571	77.08
295.039	82.78
295.506	73.28
295.973	83.78
296.44	81.38
296.908	80.38
297.375	83.88
297.842	78.68
298.309	83.88
298.776	80.78
299.243	81.08
299.71	79.28
300.177	81.18
300.644	81.98
301.111	80.88
301.578	83.68
302.045	79.18
302.512	83.18
302.979	84.38
303.446	84.58
303.913	76.78
304.379	80.58
304.846	84.78
305.313	79.98
305.78	79.98
306.246	76.18
306.713	80.48
307.18	79.68
307.646	81.88
308.113	78.58
308.579	79.28
309.046	85.98
309.512	76.98
309.979	81.98
310.445	79.58
310.912	87.98
311.378	86.18
311.845	77.18
312.311	84.28
312.777	84.98
313.244	78.68
313.71	80.78
314.176	74.98
314.642	73.48
315.109	86.78
315.575	88.38
316.041	82.28
316.507	79.38
316.973	87.68
317.439	79.88
317.905	77.88
318.371	79.08
318.837	82.78
319.303	81.08
319.769	80.58
320.235	78.78
320.701	82.48
321.167	76.38
321.633	84.58
322.099	83.08
322.564	84.58
323.03	84.48
323.496	77.88
323.962	80.98
324.427	79.08
324.893	83.18
325.359	84.28
325.824	81.68
326.29	81.68
326.755	87.28
327.221	77.28
327.686	82.88
328.152	81.88
328.617	83.88
329.083	80.18
329.548	84.68
330.014	81.18
330.479	78.38
330.944	80.98
331.41	81.88
331.875	85.78
332.34	81.88
332.805	84.88
333.271	80.28
333.736	85.78
334.201	88.48
334.666	84.98
335.131	83.98
335.596	82.38
336.061	83.98
336.526	84.28
336.991	81.98
337.456	78.88
337.921	79.78
338.386	81.88
338.851	81.98
339.316	81.88
339.781	87.78
340.246	85.48
340.711	83.48
341.175	82.28
341.64	80.48
342.105	78.48
342.569	81.68
343.034	83.08
343.499	80.88
343.963	82.08
344.428	82.08
344.893	78.98
345.357	77.48
345.822	83.08
346.286	79.18
346.751	82.08
347.215	87.18
347.679	86.78
348.144	85.18
348.608	84.28
349.073	86.68
349.537	85.08
350.001	86.98
350.465	81.28
350.93	87.88
351.394	89.28
351.858	78.48
352.322	73.98
352.786	75.58
353.25	85.98
353.715	84.78
354.179	86.58
354.643	82.28
355.107	79.98
355.571	80.88
356.035	82.88
356.498	85.68
356.962	83.78
357.426	84.48
357.89	82.48
358.354	79.58
358.818	84.68
359.281	82.88
359.745	82.18
360.209	84.58
360.673	85.38
361.136	80.98
361.6	88.68
362.064	80.58
362.527	85.58
362.991	85.28
363.454	86.18
363.918	82.58
364.381	79.18
364.845	80.08
365.308	85.78
365.772	82.28
366.235	85.08
366.698	82.08
367.162	85.78
367.625	81.78
368.088	81.08
368.552	82.08
369.015	84.78
369.478	79.78
369.941	79.58
370.404	79.18
370.867	83.48
371.331	89.18
371.794	82.48
372.257	78.48
372.72	81.18
373.183	79.48
373.646	85.38
374.109	86.88
374.572	86.28
375.035	84.38
375.497	79.28
375.96	78.98
376.423	85.68
376.886	84.58
377.349	77.58
377.811	81.78
378.274	80.38
378.737	88.18
379.199	85.78
379.662	84.88
380.125	80.98
380.587	80.98
381.05	82.18
381.512	83.98
381.975	86.48
382.437	88.48
382.9	84.48
383.362	83.88
383.825	83.68
384.287	86.18
384.75	78.48
385.212	81.08
385.674	81.48
386.136	82.98
386.599	78.98
387.061	78.38
387.523	83.38
387.985	81.58
388.447	82.18
388.91	85.28
389.372	82.58
389.834	83.18
390.296	84.38
390.758	78.98
391.22	82.68
391.682	76.98
392.144	83.18
392.606	82.48
393.068	78.18
393.529	78.68
393.991	84.78
394.453	81.18
394.915	82.58
395.377	77.98
395.838	78.48
396.3	81.48
396.762	81.08
397.224	85.38
397.685	81.28
398.147	77.28
398.608	78.08
399.07	81.28
399.531	86.48
399.993	78.38
400.454	84.48
400.916	80.48
401.377	80.38
401.839	80.28
402.3	78.88
402.762	85.18
403.223	76.58
403.684	80.88
404.145	84.68
404.607	76.88
405.068	77.58
405.529	82.58
405.99	81.68
406.451	72.88
406.913	79.38
407.374	84.48
407.835	77.18
408.296	77.68
408.757	78.48
409.218	82.08
409.679	83.78
410.14	82.48
410.601	82.68
411.062	81.58
411.522	84.18
411.983	85.48
412.444	80.48
412.905	81.68
413.366	81.78
413.826	80.78
414.287	82.88
414.748	80.48
415.208	83.18
415.669	84.08
416.13	80.48
416.59	83.28
417.051	80.08
417.511	83.18
417.972	78.58
418.432	81.48
418.893	82.78
419.353	82.68
419.814	81.48
420.274	85.18
420.734	83.28
421.195	79.78
421.655	79.38
422.115	82.48
422.576	85.48
423.036	81.98
423.496	80.88
423.956	81.68
424.416	85.38
424.876	82.98
425.336	81.48
425.797	80.38
426.257	83.18
426.717	83.18
427.177	82.58
427.637	79.08
428.097	84.08
428.556	84.88
429.016	84.88
429.476	80.48
429.936	80.08
430.396	84.38
430.856	83.48
431.315	81.78
431.775	79.48
432.235	90.48
432.694	83.08
433.154	82.28
433.614	84.18
434.073	87.28
434.533	78.28
434.993	83.88
435.452	82.58
435.912	82.98
436.371	78.28
436.83	83.18
437.29	84.38
437.749	78.18
438.209	82.98
438.668	85.48
439.127	79.28
439.587	86.38
440.046	84.38
440.505	83.88
440.964	85.68
441.424	81.68
441.883	82.18
442.342	86.38
442.801	85.48
443.26	82.78
443.719	83.28
444.178	83.98
444.637	86.18
445.096	81.78
445.555	83.58
446.014	82.18
446.473	83.58
446.932	88.38
447.391	84.28
447.849	80.28
448.308	83.08
448.767	83.88
449.226	77.88
449.685	87.18
450.143	86.18
450.602	83.08
451.061	87.38
451.519	84.68
451.978	85.18
452.436	83.38
452.895	87.58
453.353	80.38
453.812	81.48
454.27	80.18
454.729	84.28
455.187	81.88
455.646	82.78
456.104	88.58
456.562	84.18
457.021	83.98
457.479	84.68
457.937	84.58
458.395	89.28
458.854	89.48
459.312	89.88
459.77	90.48
460.228	86.78
460.686	82.88
461.144	87.88
461.602	85.88
462.06	82.98
462.518	87.98
462.976	86.08
463.434	88.88
463.892	83.98
464.35	85.68
464.808	83.78
465.266	88.38
465.724	87.78
466.181	86.98
466.639	85.98
467.097	88.08
467.555	86.78
468.012	82.98
468.47	87.08
468.928	87.98
469.385	86.88
469.843	82.08
470.3	83.58
470.758	87.88
471.215	87.78
471.673	84.58
472.13	84.08
472.588	87.48
473.045	86.58
473.503	87.68
473.96	89.58
474.417	87.78
474.875	87.38
475.332	82.98
475.789	87.18
476.246	86.38
476.704	85.08
477.161	86.78
477.618	86.88
478.075	85.38
478.532	89.08
478.989	88.98
479.446	84.48
479.903	94.58
480.36	87.58
480.817	88.18
481.274	87.88
481.731	86.48
482.188	87.48
482.645	83.88
483.102	89.28
483.558	80.58
484.015	89.78
484.472	86.78
484.929	89.38
485.385	89.18
485.842	83.88
486.299	87.38
486.755	86.18
487.212	95.18
487.668	87.98
488.125	92.58
488.582	89.08
489.038	86.98
489.494	85.78
489.951	91.08
490.407	90.68
490.864	89.48
491.32	88.88
491.776	91.08
492.233	90.98
492.689	86.88
493.145	84.48
493.602	87.58
494.058	87.38
494.514	88.88
494.97	86.48
495.426	88.28
495.882	86.18
496.338	86.78
496.794	89.48
497.251	85.18
497.707	94.98
498.163	93.08
498.618	93.78
499.074	89.58
499.53	93.48
499.986	89.98
500.442	85.38
500.898	90.48
501.354	91.68
501.809	89.58
502.265	90.58
502.721	95.28
503.177	93.98
503.632	88.48
504.088	86.18
504.543	85.68
504.999	90.08
505.455	89.18
505.91	90.28
506.366	86.08
506.821	91.88
507.277	85.88
507.732	87.58
508.187	90.18
508.643	91.08
509.098	91.38
509.553	81.58
510.009	89.68
510.464	92.38
510.919	90.08
511.375	94.18
511.83	91.58
512.285	83.28
512.74	91.08
513.195	91.38
513.65	86.88
514.105	90.68
514.56	88.08
515.015	89.38
515.47	94.18
515.925	87.08
516.38	95.78
516.835	88.18
517.29	90.38
517.745	85.58
518.2	90.88
518.655	90.78
519.109	91.38
519.564	86.38
520.019	89.38
520.474	90.78
520.928	98.48
521.383	91.18
521.838	87.38
522.292	90.18
522.747	88.98
523.201	91.78
523.656	90.38
524.11	86.98
524.565	89.98
525.019	91.78
525.474	88.08
525.928	86.18
526.382	93.98
526.837	93.78
527.291	91.58
527.745	92.38
528.2	84.78
528.654	95.68
529.108	80.58
529.562	89.78
530.016	85.08
530.47	91.18
530.925	88.08
531.379	88.88
531.833	91.48
532.287	88.28
532.741	90.18
533.195	88.68
533.649	82.68
534.103	89.38
534.556	91.18
535.01	87.08
535.464	86.88
535.918	82.68
536.372	90.58
536.826	90.28
537.279	92.28
537.733	90.68
538.187	95.18
538.64	87.88
539.094	98.68
539.548	90.58
540.001	88.08
540.455	89.28
540.908	92.18
541.362	96.88
541.815	89.28
542.269	90.78
542.722	87.58
543.175	92.18
543.629	89.48
544.082	90.28
544.536	91.28
544.989	89.48
545.442	86.98
545.895	86.48
546.349	94.48
546.802	85.08
547.255	86.98
547.708	83.68
548.161	90.08
548.614	90.78
549.067	90.38
549.52	89.78
549.973	89.88
550.426	91.08
550.879	89.08
551.332	85.38
551.785	90.48
552.238	84.58
552.691	84.38
553.144	89.78
553.596	87.68
554.049	89.78
554.502	89.18
554.955	83.78
555.407	86.68
555.86	92.38
556.313	91.08
556.765	89.18
557.218	91.68
557.67	91.78
558.123	92.38
558.576	89.48
559.028	90.88
559.48	88.88
559.933	93.38
560.385	95.68
560.838	87.18
561.29	92.88
561.742	84.88
562.195	93.38
562.647	88.68
563.099	90.48
563.551	91.38
564.004	90.88
564.456	85.38
564.908	85.28
565.36	85.58
565.812	89.28
566.264	85.68
566.716	89.58
567.168	87.38
567.62	90.38
568.072	92.58
568.524	86.08
568.976	88.18
569.428	91.08
569.88	88.68
570.332	86.98
570.784	89.28
571.235	88.28
571.687	91.18
572.139	89.88
572.59	91.28
573.042	92.38
573.494	86.98
573.945	88.08
574.397	88.28
574.849	99.68
575.3	94.78
575.752	91.68
576.203	89.58
576.655	95.48
577.106	92.48
577.557	87.08
578.009	92.88
578.46	90.88
578.912	90.48
579.363	87.18
579.814	89.58
580.265	92.98
580.717	87.88
581.168	91.58
581.619	93.28
582.07	93.58
582.521	88.68
582.972	84.38
583.423	88.88
583.875	87.88
584.326	91.68
584.777	91.38
585.227	90.68
585.678	90.08
586.129	92.08
586.58	86.88
587.031	85.78
587.482	94.28
587.933	88.88
588.384	91.48
588.834	89.48
589.285	85.38
589.736	93.38
590.186	86.48
590.637	91.38
591.088	90.08
591.538	94.38
591.989	90.48
592.439	91.48
592.89	89.18
593.34	92.18
593.791	89.78
594.241	86.98
594.692	93.98
595.142	90.78
595.593	86.98
596.043	88.28
596.493	83.58
596.943	92.08
597.394	86.68
597.844	89.28
598.294	89.48
598.744	92.28
599.195	88.08
599.645	88.88
600.095	89.98
600.545	89.18
600.995	90.78
601.445	87.28
601.895	93.48
602.345	92.38
602.795	93.68
603.245	91.08
603.695	89.18
604.145	93.68
604.594	94.18
605.044	89.48
605.494	85.88
605.944	93.78
606.393	83.58
606.843	90.68
607.293	89.28
607.743	89.38
608.192	92.48
608.642	95.48
609.091	89.58
609.541	88.58
609.99	100.08
610.44	87.18
610.889	93.18
611.339	90.58
611.788	90.28
612.238	89.78
612.687	85.38
613.136	93.78
613.586	91.68
614.035	90.68
614.484	91.08
614.933	95.58
615.383	92.18
615.832	89.98
616.281	90.78
616.73	84.68
617.179	95.78
617.628	89.88
618.077	95.88
618.526	90.38
618.975	87.58
619.424	89.78
619.873	88.18
620.322	90.18
620.771	87.58
621.22	91.88
621.669	87.48
622.118	90.58
622.567	90.18
623.015	90.88
623.464	95.08
623.913	89.48
624.361	85.38
624.81	88.08
625.259	95.78
625.707	88.48
626.156	92.98
626.604	92.08
627.053	95.98
627.501	95.28
627.95	86.68
628.398	95.38
628.847	91.78
629.295	97.18
629.744	87.88
630.192	90.98
630.64	94.28
631.089	90.28
631.537	90.78
631.985	93.88
632.433	90.78
632.881	92.48
633.33	89.18
633.778	90.28
634.226	93.68
634.674	87.78
635.122	84.98
635.57	94.38
636.018	88.18
636.466	88.98
636.914	85.18
637.362	90.98
637.81	94.18
638.258	94.38
638.705	92.58
639.153	95.78
639.601	97.78
640.049	88.78
640.497	91.38
640.944	92.28
641.392	90.98
641.84	88.58
642.287	86.88
642.735	91.48
643.182	88.78
643.63	90.18
644.078	89.58
644.525	91.38
644.973	88.08
645.42	94.28
645.867	94.08
646.315	87.78
646.762	89.08
647.21	91.18
647.657	92.48
648.104	88.68
648.551	93.18
648.999	90.48
649.446	87.48
649.893	90.48
650.34	92.38
650.787	89.38
651.234	86.38
651.682	88.68
652.129	87.88
652.576	94.18
653.023	85.78
653.47	94.48
653.917	88.98
654.363	91.18
654.81	89.88
655.257	93.88
655.704	90.38
656.151	91.48
656.598	94.18
657.044	95.48
657.491	87.08
657.938	88.68
658.385	91.48
658.831	93.98
659.278	92.48
659.724	94.18
660.171	92.58
660.618	93.38
661.064	94.68
661.511	86.98
661.957	88.38
662.404	87.28
662.85	93.48
663.296	91.48
663.743	89.98
664.189	94.88
664.635	89.98
665.082	91.58
665.528	91.28
665.974	93.28
666.42	85.98
666.867	86.58
667.313	90.88
667.759	89.38
668.205	94.38
668.651	94.68
669.097	91.08
669.543	93.28
669.989	90.08
670.435	90.78
670.881	93.78
671.327	95.98
671.773	92.58
672.219	88.28
672.665	97.78
673.11	95.18
673.556	91.18
674.002	91.18
674.448	89.38
674.893	86.38
675.339	88.58
675.785	92.48
676.23	87.78
676.676	89.48
677.122	91.28
677.567	88.28
678.013	90.18
678.458	90.38
678.904	87.38
679.349	91.28
679.794	87.98
680.24	91.58
680.685	93.18
681.131	87.18
681.576	86.48
682.021	91.28
682.466	90.48
682.912	89.58
683.357	84.38
683.802	89.38
684.247	93.28
684.692	89.98
685.137	91.68
685.583	86.08
686.028	86.28
686.473	87.08
686.918	93.48
687.363	92.08
687.807	91.68
688.252	89.98
688.697	89.88
689.142	87.48
689.587	89.88
690.032	88.98
690.477	90.78
690.921	90.08
691.366	89.38
691.811	88.88
692.255	92.08
692.7	90.28
693.145	91.78
693.589	88.78
694.034	86.88
694.478	85.88
694.923	86.68
695.367	89.28
695.812	84.38
696.256	91.28
696.701	92.38
697.145	88.68
697.59	88.98
698.034	89.18
698.478	85.78
698.922	92.18
699.367	88.78
699.811	95.08
700.255	89.18
700.699	93.28
701.143	87.68
701.588	85.88
702.032	86.38
702.476	85.98
702.92	93.88
703.364	87.68
703.808	88.58
704.252	89.98
704.696	89.08
705.14	89.18
705.584	89.68
706.027	82.98
706.471	88.58
706.915	87.78
707.359	88.98
707.803	88.88
708.246	84.98
708.69	84.38
709.134	83.38
709.577	87.38
710.021	89.88
710.465	92.98
710.908	87.28
711.352	89.38
711.795	90.88
712.239	90.98
712.682	90.28
713.126	89.48
713.569	92.38
714.012	88.38
714.456	91.38
714.899	85.48
715.342	93.18
715.786	89.58
716.229	88.18
716.672	88.18
717.115	84.88
717.558	89.28
718.002	87.98
718.445	88.98
718.888	86.28
719.331	85.18
719.774	87.18
720.217	90.68
720.66	87.88
721.103	87.58
721.546	86.28
721.989	89.18
722.432	88.88
722.874	91.08
723.317	90.78
723.76	88.28
724.203	90.18
724.645	90.98
725.088	89.68
725.531	89.98
725.974	82.38
726.416	88.68
726.859	88.98
727.301	84.18
727.744	91.68
728.187	90.68
728.629	86.88
729.071	90.48
729.514	93.28
729.956	84.08
730.399	84.08
730.841	88.48
731.283	87.78
731.726	89.98
732.168	90.08
732.61	89.38
733.053	84.68
733.495	88.68
733.937	93.88
734.379	88.68
734.821	91.28
735.263	88.58
735.705	91.98
736.148	87.08
736.59	91.58
737.032	82.38
737.474	83.98
737.916	85.68
738.357	88.88
738.799	86.08
739.241	91.58
739.683	86.18
740.125	82.58
740.567	88.48
741.008	88.28
741.45	91.88
741.892	87.98
742.334	86.38
742.775	89.78
743.217	86.28
743.658	91.08
744.1	84.78
744.542	85.08
744.983	91.28
745.425	83.88
745.866	89.78
746.307	82.38
746.749	87.08
747.19	83.38
747.632	85.88
748.073	91.08
748.514	88.78
748.956	88.58
749.397	83.78
749.838	84.58
750.279	86.08
750.72	90.48
751.162	87.08
751.603	91.08
752.044	86.08
752.485	84.08
752.926	94.48
753.367	83.98
753.808	86.28
754.249	90.28
754.69	93.08
755.131	82.78
755.572	83.38
756.013	84.18
756.453	81.18
756.894	89.78
757.335	91.28
757.776	86.88
758.216	91.88
758.657	87.08
759.098	88.58
759.538	83.78
759.979	88.18
760.42	84.58
760.86	87.78
761.301	87.18
761.741	86.48
762.182	87.08
762.622	85.98
763.063	89.78
763.503	82.98
763.943	88.38
764.384	86.38
764.824	84.38
765.264	88.48
765.705	91.68
766.145	85.68
766.585	86.98
767.025	85.28
767.465	84.68
767.906	91.38
768.346	83.78
768.786	88.18
769.226	85.28
769.666	84.28
770.106	87.28
770.546	82.18
770.986	83.48
771.426	84.98
771.866	86.38
772.306	89.98
772.745	86.88
773.185	88.08
773.625	85.48
774.065	91.88
774.505	86.88
774.944	88.68
775.384	82.08
775.824	83.58
776.263	83.48
776.703	87.88
777.142	92.88
777.582	87.18
778.021	89.98
778.461	91.68
778.9	85.08
779.34	85.58
779.779	83.68
780.219	90.68
780.658	77.18
781.097	86.38
781.537	91.88
781.976	89.18
782.415	83.58
782.855	88.08
783.294	84.38
783.733	83.28
784.172	86.88
784.611	85.08
785.05	85.18
785.489	84.58
785.928	85.38
786.367	86.08
786.806	91.38
787.245	84.88
787.684	79.88
788.123	86.88
