Data from DH-3PlusCalLight-DeuteriumHalogen_HRD10391_13-38-38-538.txt Node
Date: Thu Feb 15 13:38:38 EST 2018
User: Ender
Spectrometer: HR+D1039
Trigger mode: 0
Integration Time (sec): 2.730000E-2
Scans to average: 10
Electric dark correction enabled: true
Nonlinearity correction enabled: false
Boxcar width: 0
XAxis mode: Wavelengths
Number of Pixels in Spectrum: 2048
>>>>>Begin Spectral Data<<<<<
187.836	-2.27
188.309	-2.27
188.782	-2.27
189.255	0.42
189.728	-5.27
190.201	-1.98
190.674	-3.58
191.147	-9.18
191.619	-4.77
192.092	-6.08
192.565	-2.58
193.038	0.23
193.511	0.12
193.984	-1.68
194.456	6.32
194.929	7.92
195.402	8.12
195.874	14.23
196.347	16.32
196.82	24.73
197.292	20.62
197.765	33.62
198.237	32.82
198.71	40.23
199.182	42.32
199.655	50.92
200.127	49.92
200.6	59.82
201.072	57.92
201.544	56.52
202.017	66.02
202.489	66.12
202.961	70.52
203.433	72.32
203.906	68.42
204.378	74.92
204.85	74.92
205.322	78.92
205.794	75.52
206.266	84.02
206.739	83.02
207.211	85.32
207.683	88.02
208.155	87.23
208.627	83.02
209.099	84.62
209.57	84.52
210.042	81.02
210.514	90.12
210.986	89.52
211.458	86.23
211.93	86.02
212.402	86.32
212.873	85.12
213.345	87.52
213.817	88.23
214.288	85.92
214.76	88.12
215.232	84.82
215.703	81.42
216.175	89.52
216.646	88.62
217.118	79.62
217.589	79.02
218.061	82.12
218.532	78.52
219.004	86.02
219.475	83.12
219.946	79.92
220.418	81.52
220.889	83.42
221.36	84.52
221.832	82.32
222.303	87.52
222.774	82.32
223.245	88.42
223.717	91.82
224.188	86.52
224.659	87.52
225.13	88.42
225.601	97.73
226.072	99.82
226.543	92.73
227.014	99.62
227.485	104.82
227.956	103.42
228.427	100.82
228.898	106.92
229.369	106.12
229.839	116.62
230.31	112.23
230.781	114.82
231.252	113.42
231.722	118.12
232.193	118.32
232.664	116.42
233.135	116.82
233.605	119.73
234.076	116.92
234.546	109.73
235.017	106.42
235.487	107.82
235.958	105.52
236.428	103.92
236.899	96.02
237.369	95.02
237.84	97.62
238.31	90.32
238.78	90.62
239.251	94.23
239.721	90.92
240.191	87.12
240.662	89.92
241.132	82.02
241.602	85.32
242.072	86.23
242.542	83.02
243.013	84.23
243.483	82.02
243.953	83.23
244.423	84.92
244.893	85.92
245.363	84.32
245.833	86.12
246.303	90.02
246.773	87.02
247.243	81.32
247.712	82.32
248.182	87.73
248.652	86.52
249.122	84.02
249.592	87.92
250.061	86.12
250.531	84.92
251.001	82.73
251.471	88.02
251.94	87.82
252.41	94.42
252.879	84.32
253.349	90.92
253.818	92.73
254.288	98.52
254.757	105.23
255.227	102.42
255.696	110.42
256.166	105.82
256.635	116.42
257.105	117.42
257.574	132.52
258.043	128.73
258.513	142.02
258.982	149.42
259.451	151.73
259.92	164.92
260.389	172.73
260.859	177.62
261.328	189.23
261.797	211.12
262.266	208.73
262.735	217.73
263.204	227.73
263.673	238.12
264.142	241.52
264.611	246.12
265.08	264.02
265.549	272.42
266.018	275.02
266.487	284.42
266.955	289.73
267.424	293.32
267.893	298.92
268.362	313.02
268.83	315.92
269.299	324.73
269.768	325.32
270.236	326.92
270.705	330.12
271.174	337.32
271.642	329.23
272.111	338.92
272.579	339.82
273.048	346.82
273.516	345.32
273.985	345.82
274.453	359.32
274.922	354.12
275.39	354.42
275.858	356.93
276.327	359.73
276.795	356.52
277.263	360.12
277.731	358.12
278.2	361.93
278.668	348.92
279.136	353.02
279.604	351.92
280.072	349.12
280.54	347.42
281.008	351.92
281.477	344.32
281.945	341.52
282.413	340.92
282.881	340.02
283.348	338.23
283.816	328.23
284.284	330.02
284.752	325.73
285.22	326.12
285.688	321.02
286.156	324.02
286.623	327.73
287.091	319.42
287.559	312.32
288.026	325.82
288.494	322.92
288.962	316.92
289.429	324.92
289.897	325.52
290.364	319.12
290.832	331.02
291.3	330.62
291.767	328.52
292.234	344.02
292.702	343.02
293.169	349.52
293.637	349.32
294.104	353.52
294.571	360.02
295.039	362.23
295.506	360.62
295.973	368.32
296.44	381.73
296.908	386.43
297.375	379.73
297.842	383.43
298.309	382.43
298.776	381.02
299.243	387.43
299.71	383.23
300.177	389.23
300.644	392.23
301.111	399.23
301.578	391.12
302.045	387.32
302.512	399.43
302.979	389.82
303.446	394.23
303.913	389.82
304.379	393.32
304.846	396.82
305.313	390.43
305.78	385.12
306.246	382.62
306.713	385.23
307.18	380.02
307.646	382.93
308.113	382.02
308.579	373.52
309.046	375.43
309.512	366.93
309.979	372.93
310.445	372.02
310.912	373.62
311.378	367.32
311.845	366.73
312.311	364.23
312.777	362.12
313.244	366.02
313.71	370.93
314.176	373.43
314.642	356.23
315.109	369.52
315.575	365.12
316.041	366.12
316.507	378.12
316.973	375.62
317.439	369.73
317.905	375.12
318.371	373.52
318.837	377.02
319.303	379.12
319.769	380.52
320.235	380.73
320.701	390.93
321.167	395.23
321.633	396.52
322.099	400.73
322.564	391.82
323.03	394.73
323.496	393.82
323.962	404.43
324.427	401.32
324.893	405.52
325.359	401.82
325.824	410.82
326.29	400.32
326.755	402.02
327.221	394.23
327.686	397.93
328.152	403.62
328.617	398.52
329.083	401.02
329.548	405.73
330.014	398.82
330.479	391.82
330.944	399.62
331.41	399.02
331.875	385.23
332.34	387.93
332.805	374.23
333.271	376.12
333.736	366.52
334.201	372.62
334.666	369.32
335.131	371.43
335.596	374.02
336.061	369.52
336.526	366.82
336.991	358.12
337.456	359.52
337.921	355.52
338.386	352.42
338.851	354.32
339.316	355.12
339.781	354.92
340.246	369.32
340.711	372.73
341.175	372.82
341.64	382.62
342.105	384.12
342.569	390.52
343.034	389.43
343.499	396.62
343.963	401.62
344.428	401.82
344.893	400.02
345.357	403.93
345.822	408.12
346.286	416.32
346.751	418.73
347.215	418.93
347.679	429.12
348.144	424.62
348.608	437.52
349.073	439.93
349.537	452.02
350.001	436.73
350.465	447.93
350.93	439.43
351.394	433.52
351.858	437.23
352.322	437.23
352.786	441.02
353.25	442.12
353.715	432.82
354.179	440.52
354.643	446.32
355.107	440.73
355.571	437.43
356.035	441.52
356.498	442.32
356.962	443.62
357.426	444.23
357.89	446.73
358.354	439.93
358.818	435.02
359.281	446.62
359.745	439.93
360.209	447.93
360.673	443.12
361.136	445.62
361.6	442.23
362.064	451.52
362.527	442.32
362.991	448.32
363.454	441.82
363.918	434.93
364.381	447.62
364.845	447.23
365.308	443.82
365.772	451.43
366.235	446.93
366.698	448.32
367.162	447.23
367.625	445.12
368.088	451.32
368.552	446.73
369.015	448.12
369.478	436.32
369.941	448.23
370.404	449.52
370.867	439.43
371.331	447.62
371.794	451.82
372.257	451.52
372.72	451.23
373.183	452.93
373.646	452.43
374.109	462.93
374.572	461.43
375.035	458.73
375.497	463.52
375.96	460.82
376.423	467.93
376.886	472.62
377.349	478.52
377.811	476.93
378.274	488.93
378.737	482.62
379.199	477.82
379.662	478.62
380.125	482.43
380.587	475.43
381.05	474.12
381.512	486.73
381.975	487.82
382.437	484.43
382.9	487.82
383.362	492.93
383.825	486.73
384.287	490.32
384.75	492.62
385.212	499.12
385.674	499.12
386.136	505.62
386.599	509.12
387.061	517.02
387.523	505.23
387.985	510.43
388.447	503.12
388.91	509.52
389.372	507.93
389.834	513.43
390.296	510.32
390.758	519.12
391.22	532.12
391.682	529.02
392.144	534.12
392.606	523.62
393.068	519.02
393.529	512.12
393.991	523.12
394.453	518.93
394.915	521.23
395.377	525.52
395.838	522.62
396.3	536.23
396.762	546.43
397.224	555.23
397.685	553.32
398.147	545.12
398.608	542.82
399.07	529.82
399.531	524.23
399.993	537.43
400.454	538.73
400.916	534.32
401.377	538.32
401.839	527.52
402.3	533.43
402.762	541.52
403.223	544.82
403.684	548.02
404.145	548.62
404.607	557.02
405.068	548.12
405.529	533.32
405.99	530.62
406.451	531.12
406.913	526.32
407.374	539.82
407.835	543.23
408.296	539.73
408.757	543.23
409.218	545.82
409.679	531.82
410.14	533.73
410.601	540.52
411.062	536.93
411.522	555.12
411.983	549.62
412.444	544.93
412.905	552.52
413.366	542.43
413.826	553.32
414.287	546.12
414.748	548.62
415.208	557.93
415.669	545.23
416.13	553.73
416.59	550.43
417.051	557.23
417.511	562.52
417.972	576.82
418.432	586.82
418.893	595.62
419.353	604.32
419.814	615.52
420.274	617.23
420.734	633.52
421.195	640.73
421.655	617.93
422.115	633.02
422.576	633.52
423.036	630.32
423.496	639.23
423.956	637.12
424.416	639.02
424.876	656.73
425.336	650.62
425.797	661.32
426.257	680.62
426.717	699.43
427.177	683.62
427.637	705.73
428.097	711.43
428.556	728.02
429.016	740.82
429.476	752.32
429.936	758.12
430.396	747.82
430.856	755.62
431.315	746.73
431.775	772.93
432.235	783.73
432.694	817.62
433.154	820.62
433.614	804.73
434.073	827.62
434.533	835.62
434.993	835.12
435.452	861.12
435.912	863.32
436.371	872.43
436.83	881.43
437.29	885.62
437.749	894.73
438.209	899.32
438.668	915.52
439.127	930.23
439.587	948.93
440.046	948.12
440.505	962.73
440.964	960.12
441.424	985.23
441.883	995.93
442.342	1009.02
442.801	1025.62
443.26	1046.62
443.719	1043.03
444.178	1058.53
444.637	1075.72
445.096	1098.82
445.555	1110.93
446.014	1118.43
446.473	1108.72
446.932	1133.43
447.391	1149.22
447.849	1190.82
448.308	1169.53
448.767	1186.22
449.226	1211.12
449.685	1222.43
450.143	1223.62
450.602	1266.32
451.061	1243.43
451.519	1277.72
451.978	1299.82
452.436	1296.72
452.895	1306.12
453.353	1312.82
453.812	1317.72
454.27	1349.03
454.729	1373.72
455.187	1392.22
455.646	1385.62
456.104	1402.83
456.562	1425.72
457.021	1455.83
457.479	1400.83
457.937	1449.22
458.395	1493.03
458.854	1474.33
459.312	1462.83
459.77	1478.12
460.228	1493.53
460.686	1516.53
461.144	1524.12
461.602	1505.22
462.06	1511.53
462.518	1527.53
462.976	1530.43
463.434	1509.93
463.892	1503.53
464.35	1501.93
464.808	1516.03
465.266	1527.12
465.724	1528.72
466.181	1545.33
466.639	1512.22
467.097	1563.43
467.555	1604.03
468.012	1559.72
468.47	1557.22
468.928	1578.83
469.385	1584.43
469.843	1626.62
470.3	1617.53
470.758	1637.03
471.215	1638.12
471.673	1650.03
472.13	1686.12
472.588	1724.12
473.045	1719.43
473.503	1766.72
473.96	1818.53
474.417	1817.33
474.875	1873.43
475.332	1888.33
475.789	1919.93
476.246	1947.53
476.704	1993.83
477.161	2010.43
477.618	2044.22
478.075	2065.93
478.532	2122.53
478.989	2169.53
479.446	2200.43
479.903	2213.72
480.36	2337.53
480.817	2323.72
481.274	2374.83
481.731	2405.72
482.188	2453.12
482.645	2511.93
483.102	2509.93
483.558	2551.03
484.015	2621.22
484.472	2660.53
484.929	2719.93
485.385	2742.62
485.842	2752.03
486.299	2814.43
486.755	2841.83
487.212	2845.53
487.668	2856.72
488.125	2902.72
488.582	2880.43
489.038	2908.43
489.494	2957.12
489.951	2963.72
490.407	2980.12
490.864	2978.72
491.32	3005.72
491.776	3016.03
492.233	3026.12
492.689	2982.43
493.145	3014.93
493.602	2998.43
494.058	3028.22
494.514	3023.43
494.97	3028.43
495.426	3027.43
495.882	3036.62
496.338	3020.22
496.794	3050.33
497.251	3017.62
497.707	3058.33
498.163	3050.22
498.618	3054.43
499.074	3043.03
499.53	3048.33
499.986	3067.43
500.442	3076.12
500.898	3038.12
501.354	3079.22
501.809	3067.62
502.265	3053.72
502.721	3054.72
503.177	3071.53
503.632	3094.22
504.088	3067.03
504.543	3074.03
504.999	3088.12
505.455	3071.62
505.91	3062.43
506.366	3059.72
506.821	3078.12
507.277	3066.22
507.732	3065.93
508.187	3039.43
508.643	3057.93
509.098	3041.33
509.553	3046.93
510.009	3013.33
510.464	3031.12
510.919	3022.43
511.375	3010.03
511.83	2985.83
512.285	2980.03
512.74	3002.53
513.195	2960.93
513.65	2939.33
514.105	2946.33
514.56	2921.72
515.015	2925.53
515.47	2942.93
515.925	2911.12
516.38	2891.43
516.835	2914.22
517.29	2869.43
517.745	2891.03
518.2	2868.72
518.655	2841.72
519.109	2827.33
519.564	2838.83
520.019	2849.43
520.474	2811.53
520.928	2834.83
521.383	2807.93
521.838	2781.93
522.292	2790.72
522.747	2773.53
523.201	2782.43
523.656	2772.33
524.11	2758.22
524.565	2758.43
525.019	2753.62
525.474	2753.03
525.928	2737.03
526.382	2728.83
526.837	2747.33
527.291	2764.93
527.745	2733.72
528.2	2750.53
528.654	2735.93
529.108	2733.22
529.562	2742.93
530.016	2725.43
530.47	2736.93
530.925	2728.83
531.379	2733.62
531.833	2757.93
532.287	2743.43
532.741	2728.62
533.195	2731.62
533.649	2746.43
534.103	2752.93
534.556	2725.03
535.01	2740.33
535.464	2747.03
535.918	2734.53
536.372	2753.03
536.826	2750.03
537.279	2724.83
537.733	2738.33
538.187	2740.43
538.64	2712.72
539.094	2742.43
539.548	2768.12
540.001	2742.43
540.455	2713.53
540.908	2707.03
541.362	2703.93
541.815	2713.43
542.269	2718.03
542.722	2680.22
543.175	2700.43
543.629	2671.53
544.082	2685.22
544.536	2674.62
544.989	2654.93
545.442	2659.83
545.895	2670.62
546.349	2644.03
546.802	2648.33
547.255	2640.83
547.708	2627.22
548.161	2637.43
548.614	2612.93
549.067	2631.22
549.52	2628.53
549.973	2605.12
550.426	2615.43
550.879	2627.93
551.332	2611.72
551.785	2608.12
552.238	2629.03
552.691	2603.12
553.144	2605.62
553.596	2614.33
554.049	2625.22
554.502	2618.83
554.955	2625.12
555.407	2641.83
555.86	2641.72
556.313	2649.22
556.765	2642.43
557.218	2633.43
557.67	2641.62
558.123	2664.33
558.576	2656.22
559.028	2653.83
559.48	2661.83
559.933	2671.03
560.385	2667.43
560.838	2661.12
561.29	2670.22
561.742	2684.33
562.195	2678.53
562.647	2691.53
563.099	2719.62
563.551	2686.72
564.004	2695.83
564.456	2715.22
564.908	2725.72
565.36	2721.72
565.812	2699.53
566.264	2732.33
566.716	2718.03
567.168	2701.93
567.62	2742.62
568.072	2714.72
568.524	2721.93
568.976	2725.72
569.428	2701.33
569.88	2705.83
570.332	2715.03
570.784	2716.72
571.235	2697.43
571.687	2717.43
572.139	2692.12
572.59	2707.03
573.042	2698.83
573.494	2692.33
573.945	2664.43
574.397	2634.03
574.849	2644.72
575.3	2665.22
575.752	2657.22
576.203	2620.53
576.655	2653.62
577.106	2649.53
577.557	2620.22
578.009	2621.22
578.46	2645.72
578.912	2600.53
579.363	2633.22
579.814	2617.72
580.265	2594.12
580.717	2606.62
581.168	2622.53
581.619	2609.83
582.07	2615.93
582.521	2599.72
582.972	2590.22
583.423	2605.83
583.875	2611.62
584.326	2601.53
584.777	2608.93
585.227	2578.62
585.678	2593.62
586.129	2595.12
586.58	2609.03
587.031	2590.53
587.482	2619.03
587.933	2596.03
588.384	2611.03
588.834	2609.83
589.285	2604.83
589.736	2629.22
590.186	2594.22
590.637	2615.03
591.088	2628.33
591.538	2624.72
591.989	2616.33
592.439	2613.93
592.89	2633.12
593.34	2613.93
593.791	2634.62
594.241	2641.83
594.692	2619.72
595.142	2657.62
595.593	2625.12
596.043	2645.72
596.493	2649.53
596.943	2628.83
597.394	2666.83
597.844	2639.22
598.294	2657.33
598.744	2647.43
599.195	2641.03
599.645	2664.22
600.095	2662.93
600.545	2669.72
600.995	2674.53
601.445	2669.03
601.895	2685.03
602.345	2682.33
602.795	2677.43
603.245	2690.72
603.695	2667.62
604.145	2686.62
604.594	2679.12
605.044	2675.53
605.494	2671.53
605.944	2673.33
606.393	2689.12
606.843	2690.03
607.293	2707.72
607.743	2695.43
608.192	2712.72
608.642	2689.93
609.091	2700.33
609.541	2679.93
609.99	2716.22
610.44	2685.22
610.889	2707.83
611.339	2703.53
611.788	2689.33
612.238	2702.43
612.687	2694.22
613.136	2686.62
613.586	2693.43
614.035	2685.03
614.484	2695.03
614.933	2675.83
615.383	2675.12
615.832	2677.83
616.281	2688.83
616.73	2691.43
617.179	2682.33
617.628	2667.03
618.077	2681.03
618.526	2661.33
618.975	2661.83
619.424	2646.12
619.873	2672.22
620.322	2665.12
620.771	2685.62
621.22	2668.03
621.669	2645.53
622.118	2668.22
622.567	2674.12
623.015	2635.53
623.464	2656.43
623.913	2654.83
624.361	2660.83
624.81	2654.12
625.259	2667.33
625.707	2648.72
626.156	2646.53
626.604	2668.33
627.053	2651.33
627.501	2626.03
627.95	2634.93
628.398	2653.72
628.847	2616.83
629.295	2625.43
629.744	2618.72
630.192	2622.53
630.64	2627.33
631.089	2626.72
631.537	2612.93
631.985	2610.83
632.433	2617.22
632.881	2599.93
633.33	2613.43
633.778	2585.33
634.226	2578.03
634.674	2600.12
635.122	2571.33
635.57	2574.43
636.018	2592.33
636.466	2572.93
636.914	2561.22
637.362	2571.62
637.81	2553.72
638.258	2578.62
638.705	2544.22
639.153	2568.53
639.601	2533.53
640.049	2549.22
640.497	2536.12
640.944	2549.12
641.392	2529.03
641.84	2556.62
642.287	2541.03
642.735	2544.62
643.182	2524.53
643.63	2518.43
644.078	2518.62
644.525	2510.33
644.973	2535.62
645.42	2529.12
645.867	2534.62
646.315	2490.03
646.762	2527.53
647.21	2504.03
647.657	2540.43
648.104	2521.22
648.551	2476.62
648.999	2518.62
649.446	2519.22
649.893	2483.33
650.34	2492.83
650.787	2500.33
651.234	2483.62
651.682	2510.93
652.129	2491.53
652.576	2491.33
653.023	2500.53
653.47	2486.43
653.917	2505.43
654.363	2494.62
654.81	2506.53
655.257	2492.83
655.704	2460.62
656.151	2466.12
656.598	2463.53
657.044	2450.53
657.491	2450.53
657.938	2457.93
658.385	2438.62
658.831	2445.62
659.278	2427.53
659.724	2422.72
660.171	2442.12
660.618	2426.62
661.064	2408.33
661.511	2426.62
661.957	2430.53
662.404	2403.83
662.85	2413.83
663.296	2397.03
663.743	2391.53
664.189	2391.83
664.635	2413.03
665.082	2391.83
665.528	2391.43
665.974	2386.72
666.42	2376.53
666.867	2380.33
667.313	2381.43
667.759	2373.83
668.205	2364.53
668.651	2360.03
669.097	2347.53
669.543	2367.33
669.989	2354.22
670.435	2343.22
670.881	2332.43
671.327	2326.53
671.773	2347.83
672.219	2303.03
672.665	2333.33
673.11	2309.12
673.556	2301.22
674.002	2287.33
674.448	2289.03
674.893	2279.72
675.339	2275.93
675.785	2255.93
676.23	2248.62
676.676	2253.22
677.122	2254.43
677.567	2232.03
678.013	2206.53
678.458	2213.43
678.904	2231.53
679.349	2205.93
679.794	2194.22
680.24	2175.72
680.685	2174.33
681.131	2154.93
681.576	2163.43
682.021	2159.83
682.466	2123.12
682.912	2129.72
683.357	2130.72
683.802	2121.22
684.247	2104.03
684.692	2076.12
685.137	2076.33
685.583	2078.53
686.028	2052.72
686.473	2065.53
686.918	2045.53
687.363	2054.93
687.807	2039.33
688.252	2021.33
688.697	2016.03
689.142	2022.72
689.587	2011.33
690.032	2021.12
690.477	2009.62
690.921	1975.12
691.366	1989.43
691.811	1996.93
692.255	1973.43
692.7	1967.83
693.145	1973.43
693.589	1957.53
694.034	1938.43
694.478	1962.53
694.923	1923.93
695.367	1936.12
695.812	1918.93
696.256	1910.03
696.701	1924.93
697.145	1909.72
697.59	1901.22
698.034	1889.62
698.478	1887.72
698.922	1890.43
699.367	1877.22
699.811	1866.93
700.255	1871.83
700.699	1861.03
701.143	1862.12
701.588	1862.03
702.032	1843.03
702.476	1852.62
702.92	1855.62
703.364	1831.03
703.808	1823.22
704.252	1815.53
704.696	1830.83
705.14	1822.72
705.584	1815.93
706.027	1810.62
706.471	1824.22
706.915	1798.53
707.359	1799.22
707.803	1783.93
708.246	1781.03
708.69	1784.22
709.134	1771.83
709.577	1758.12
710.021	1767.53
710.465	1741.03
710.908	1743.72
711.352	1750.62
711.795	1755.03
712.239	1750.22
712.682	1739.12
713.126	1741.53
713.569	1731.22
714.012	1716.53
714.456	1718.62
714.899	1712.12
715.342	1711.43
715.786	1700.33
716.229	1693.22
716.672	1697.62
717.115	1700.83
717.558	1688.62
718.002	1697.62
718.445	1675.12
718.888	1680.62
719.331	1671.93
719.774	1656.03
720.217	1663.43
720.66	1649.53
721.103	1642.72
721.546	1632.62
721.989	1633.53
722.432	1633.43
722.874	1653.03
723.317	1630.12
723.76	1632.53
724.203	1617.03
724.645	1626.62
725.088	1627.33
725.531	1619.93
725.974	1589.43
726.416	1601.33
726.859	1600.43
727.301	1598.72
727.744	1606.43
728.187	1590.83
728.629	1586.53
729.071	1576.83
729.514	1570.12
729.956	1575.72
730.399	1566.93
730.841	1570.43
731.283	1569.53
731.726	1536.72
732.168	1547.83
732.61	1543.12
733.053	1511.33
733.495	1525.33
733.937	1514.33
734.379	1524.93
734.821	1508.33
735.263	1506.33
735.705	1490.83
736.148	1501.53
736.59	1488.33
