Data from DH-3PlusCalLight-Halogen_HRD10391_13-39-46-248.txt Node
Date: Thu Feb 15 13:39:46 EST 2018
User: Ender
Spectrometer: HR+D1039
Trigger mode: 0
Integration Time (sec): 2.730000E-2
Scans to average: 10
Electric dark correction enabled: true
Nonlinearity correction enabled: false
Boxcar width: 0
XAxis mode: Wavelengths
Number of Pixels in Spectrum: 2048
>>>>>Begin Spectral Data<<<<<
187.836	3.67
188.309	3.67
188.782	3.67
189.255	-4.52
189.728	-1.62
190.201	-3.93
190.674	-6.02
191.147	-6.62
191.619	-5.12
192.092	-5.62
192.565	-6.73
193.038	-4.52
193.511	-1.12
193.984	-0.93
194.456	6.48
194.929	11.07
195.402	12.98
195.874	12.57
196.347	17.07
196.82	22.07
197.292	29.98
197.765	36.27
198.237	36.88
198.71	34.88
199.182	44.27
199.655	49.67
200.127	56.98
200.6	56.67
201.072	59.38
201.544	62.38
202.017	65.07
202.489	65.48
202.961	72.57
203.433	71.77
203.906	76.67
204.378	75.07
204.85	85.67
205.322	80.07
205.794	80.88
206.266	83.98
206.739	83.07
207.211	79.77
207.683	77.38
208.155	88.17
208.627	82.07
209.099	82.07
209.57	86.77
210.042	84.17
210.514	84.07
210.986	84.17
211.458	82.77
211.93	82.67
212.402	86.67
212.873	82.48
213.345	86.98
213.817	81.17
214.288	81.17
214.76	85.27
215.232	80.67
215.703	86.17
216.175	84.57
216.646	82.17
217.118	86.67
217.589	81.07
218.061	80.67
218.532	77.27
219.004	76.67
219.475	84.27
219.946	77.27
220.418	79.38
220.889	83.07
221.36	80.88
221.832	76.38
222.303	76.27
222.774	76.57
223.245	75.67
223.717	81.57
224.188	83.98
224.659	78.48
225.13	77.17
225.601	77.57
226.072	78.27
226.543	76.57
227.014	75.77
227.485	78.48
227.956	75.67
228.427	77.98
228.898	83.67
229.369	75.57
229.839	79.38
230.31	73.98
230.781	82.27
231.252	79.07
231.722	84.38
232.193	82.17
232.664	79.67
233.135	79.57
233.605	75.48
234.076	83.77
234.546	80.38
235.017	77.88
235.487	78.17
235.958	76.07
236.428	78.38
236.899	84.27
237.369	80.07
237.84	77.38
238.31	82.07
238.78	80.67
239.251	78.57
239.721	78.48
240.191	80.38
240.662	81.27
241.132	77.98
241.602	81.98
242.072	79.57
242.542	85.07
243.013	80.67
243.483	81.77
243.953	78.88
244.423	77.67
244.893	85.57
245.363	86.57
245.833	85.67
246.303	76.67
246.773	82.67
247.243	86.38
247.712	81.77
248.182	84.38
248.652	84.27
249.122	83.38
249.592	82.48
250.061	78.77
250.531	85.98
251.001	84.38
251.471	84.67
251.94	80.67
252.41	82.48
252.879	76.38
253.349	82.48
253.818	83.07
254.288	85.07
254.757	81.77
255.227	81.17
255.696	82.88
256.166	82.88
256.635	79.77
257.105	80.48
257.574	82.27
258.043	81.27
258.513	84.07
258.982	86.48
259.451	81.67
259.92	85.27
260.389	79.27
260.859	82.98
261.328	88.07
261.797	87.17
262.266	81.27
262.735	87.88
263.204	83.88
263.673	82.67
264.142	82.98
264.611	82.48
265.08	84.67
265.549	81.17
266.018	81.98
266.487	80.27
266.955	84.07
267.424	81.98
267.893	84.67
268.362	78.48
268.83	85.57
269.299	84.07
269.768	86.88
270.236	90.38
270.705	82.98
271.174	82.98
271.642	85.27
272.111	85.98
272.579	86.48
273.048	92.17
273.516	81.98
273.985	80.67
274.453	88.07
274.922	84.27
275.39	82.67
275.858	87.38
276.327	80.48
276.795	84.27
277.263	84.77
277.731	83.17
278.2	85.67
278.668	83.88
279.136	83.77
279.604	83.38
280.072	81.77
280.54	85.98
281.008	83.17
281.477	82.07
281.945	84.27
282.413	87.88
282.881	85.77
283.348	84.67
283.816	85.27
284.284	81.88
284.752	84.77
285.22	84.98
285.688	82.07
286.156	82.17
286.623	88.07
287.091	88.48
287.559	89.67
288.026	84.27
288.494	86.27
288.962	87.48
289.429	85.07
289.897	79.07
290.364	84.38
290.832	82.77
291.3	83.48
291.767	82.27
292.234	82.27
292.702	85.17
293.169	83.17
293.637	89.07
294.104	83.07
294.571	81.77
295.039	83.27
295.506	85.57
295.973	83.48
296.44	86.77
296.908	80.38
297.375	88.38
297.842	83.67
298.309	84.88
298.776	88.98
299.243	83.57
299.71	87.38
300.177	85.17
300.644	79.27
301.111	91.48
301.578	83.67
302.045	88.48
302.512	86.98
302.979	88.77
303.446	89.98
303.913	83.57
304.379	85.88
304.846	86.17
305.313	87.88
305.78	91.07
306.246	85.27
306.713	87.88
307.18	87.27
307.646	84.27
308.113	83.17
308.579	85.77
309.046	84.98
309.512	91.48
309.979	84.27
310.445	85.38
310.912	83.88
311.378	82.98
311.845	89.07
312.311	88.27
312.777	83.88
313.244	89.57
313.71	90.07
314.176	83.27
314.642	87.57
315.109	87.48
315.575	90.27
316.041	90.67
316.507	88.27
316.973	88.17
317.439	90.17
317.905	91.98
318.371	89.17
318.837	88.38
319.303	87.27
319.769	90.77
320.235	88.67
320.701	87.17
321.167	86.88
321.633	82.88
322.099	86.57
322.564	85.57
323.03	80.17
323.496	83.88
323.962	90.17
324.427	85.07
324.893	85.17
325.359	83.88
325.824	88.77
326.29	86.98
326.755	87.57
327.221	88.17
327.686	85.48
328.152	87.07
328.617	84.88
329.083	82.77
329.548	84.67
330.014	88.77
330.479	88.67
330.944	86.77
331.41	88.27
331.875	85.88
332.34	87.88
332.805	92.27
333.271	86.57
333.736	85.57
334.201	89.17
334.666	85.88
335.131	87.38
335.596	85.77
336.061	89.07
336.526	83.07
336.991	88.27
337.456	88.17
337.921	90.57
338.386	87.77
338.851	88.88
339.316	85.07
339.781	84.67
340.246	87.88
340.711	89.77
341.175	90.07
341.64	83.38
342.105	90.27
342.569	86.98
343.034	87.38
343.499	88.48
343.963	84.38
344.428	86.98
344.893	85.57
345.357	89.17
345.822	87.38
346.286	85.77
346.751	85.27
347.215	88.67
347.679	83.98
348.144	88.98
348.608	86.77
349.073	87.98
349.537	94.48
350.001	88.77
350.465	84.77
350.93	84.07
351.394	85.67
351.858	88.27
352.322	84.67
352.786	84.98
353.25	88.77
353.715	89.38
354.179	92.17
354.643	88.17
355.107	87.38
355.571	87.07
356.035	90.67
356.498	91.07
356.962	92.77
357.426	87.67
357.89	89.38
358.354	88.38
358.818	96.27
359.281	88.27
359.745	81.17
360.209	92.17
360.673	92.38
361.136	88.77
361.6	89.27
362.064	91.77
362.527	93.07
362.991	88.07
363.454	90.38
363.918	86.48
364.381	94.07
364.845	90.48
365.308	90.88
365.772	88.48
366.235	88.17
366.698	87.88
367.162	89.57
367.625	92.88
368.088	91.48
368.552	90.07
369.015	90.48
369.478	89.48
369.941	93.17
370.404	89.98
370.867	94.57
371.331	88.38
371.794	99.98
372.257	95.88
372.72	93.38
373.183	93.67
373.646	89.27
374.109	93.57
374.572	90.38
375.035	97.98
375.497	93.98
375.96	95.67
376.423	94.48
376.886	101.57
377.349	102.57
377.811	91.77
378.274	93.98
378.737	98.48
379.199	101.77
379.662	99.27
380.125	100.17
380.587	103.67
381.05	93.77
381.512	95.67
381.975	103.38
382.437	107.98
382.9	105.17
383.362	98.98
383.825	101.38
384.287	100.57
384.75	99.07
385.212	105.07
385.674	106.67
386.136	109.27
386.599	106.17
387.061	105.17
387.523	102.48
387.985	104.77
388.447	106.88
388.91	103.98
389.372	104.17
389.834	108.98
390.296	108.57
390.758	115.17
391.22	109.17
391.682	114.57
392.144	107.88
392.606	108.67
393.068	112.38
393.529	112.48
393.991	113.48
394.453	112.07
394.915	117.88
395.377	117.88
395.838	117.27
396.3	118.67
396.762	120.98
397.224	130.38
397.685	117.98
398.147	124.38
398.608	125.88
399.07	125.27
399.531	126.07
399.993	129.38
400.454	126.48
400.916	134.07
401.377	131.17
401.839	127.88
402.3	135.98
402.762	135.77
403.223	133.67
403.684	138.98
404.145	139.07
404.607	142.17
405.068	142.88
405.529	144.67
405.99	142.88
406.451	149.48
406.913	154.17
407.374	156.38
407.835	159.57
408.296	165.88
408.757	162.07
409.218	161.27
409.679	173.38
410.14	174.57
410.601	175.57
411.062	178.27
411.522	183.77
411.983	185.17
412.444	191.07
412.905	195.48
413.366	192.17
413.826	200.88
414.287	202.98
414.748	214.38
415.208	215.07
415.669	214.27
416.13	220.17
416.59	221.48
417.051	239.07
417.511	236.67
417.972	243.98
418.432	243.98
418.893	249.57
419.353	259.48
419.814	266.48
420.274	269.98
420.734	276.38
421.195	283.98
421.655	283.27
422.115	308.38
422.576	304.88
423.036	314.88
423.496	322.88
423.956	334.57
424.416	343.48
424.876	363.68
425.336	376.18
425.797	377.18
426.257	390.07
426.717	411.87
427.177	406.77
427.637	428.98
428.097	431.07
428.556	446.87
429.016	454.68
429.476	464.77
429.936	486.98
430.396	500.57
430.856	516.48
431.315	522.98
431.775	552.27
432.235	557.48
432.694	573.27
433.154	600.57
433.614	605.18
434.073	629.87
434.533	641.87
434.993	640.98
435.452	679.77
435.912	685.07
436.371	696.37
436.83	706.68
437.29	723.77
437.749	743.57
438.209	760.57
438.668	775.18
439.127	789.27
439.587	815.37
440.046	822.18
440.505	841.77
440.964	847.48
441.424	876.37
441.883	902.48
442.342	908.18
442.801	924.57
443.26	963.77
443.719	976.27
444.178	983.18
444.637	1007.48
445.096	1035.78
445.555	1043.07
446.014	1048.38
446.473	1054.57
446.932	1066.57
447.391	1108.78
447.849	1130.68
448.308	1123.97
448.767	1141.97
449.226	1163.78
449.685	1179.38
450.143	1204.18
450.602	1235.68
451.061	1211.38
451.519	1252.57
451.978	1268.18
452.436	1281.47
452.895	1283.78
453.353	1299.18
453.812	1311.28
454.27	1341.18
454.729	1354.78
455.187	1371.47
455.646	1377.28
456.104	1387.97
456.562	1401.58
457.021	1425.88
457.479	1382.78
457.937	1417.38
458.395	1466.97
458.854	1442.58
459.312	1437.68
459.77	1443.18
460.228	1446.68
460.686	1493.68
461.144	1485.58
461.602	1471.08
462.06	1468.08
462.518	1483.18
462.976	1495.78
463.434	1478.08
463.892	1466.47
464.35	1470.28
464.808	1460.88
465.266	1479.18
465.724	1488.58
466.181	1495.47
466.639	1465.28
467.097	1513.38
467.555	1542.68
468.012	1521.58
468.47	1514.88
468.928	1533.18
469.385	1548.08
469.843	1575.78
470.3	1558.58
470.758	1597.97
471.215	1585.88
471.673	1598.18
472.13	1650.78
472.588	1676.78
473.045	1677.88
473.503	1724.68
473.96	1778.68
474.417	1774.58
474.875	1823.68
475.332	1818.88
475.789	1834.18
476.246	1881.47
476.704	1908.08
477.161	1948.78
477.618	1970.68
478.075	1993.08
478.532	2053.38
478.989	2105.58
479.446	2125.28
479.903	2161.18
480.36	2242.18
480.817	2248.28
481.274	2280.78
481.731	2324.08
482.188	2359.88
482.645	2405.38
483.102	2441.78
483.558	2472.88
484.015	2527.58
484.472	2569.28
484.929	2621.78
485.385	2641.38
485.842	2672.47
486.299	2739.28
486.755	2724.97
487.212	2734.08
487.668	2773.78
488.125	2810.78
488.582	2790.97
489.038	2836.88
489.494	2849.97
489.951	2864.97
490.407	2892.28
490.864	2899.47
491.32	2916.08
491.776	2894.38
492.233	2902.58
492.689	2910.58
493.145	2941.58
493.602	2915.47
494.058	2954.28
494.514	2938.58
494.97	2918.68
495.426	2935.47
495.882	2937.18
496.338	2914.78
496.794	2941.97
497.251	2936.68
497.707	2960.47
498.163	2967.58
498.618	2969.47
499.074	2935.58
499.53	2968.88
499.986	2971.88
500.442	2959.47
500.898	2934.18
501.354	2982.68
501.809	2986.97
502.265	2955.88
502.721	2967.58
503.177	2970.78
503.632	2981.78
504.088	2971.68
504.543	2969.38
504.999	2988.47
505.455	2980.08
505.91	2970.18
506.366	2987.88
506.821	2980.47
507.277	2993.28
507.732	2978.08
508.187	2951.08
508.643	2966.68
509.098	2959.38
509.553	2962.38
510.009	2947.78
510.464	2961.97
510.919	2946.08
511.375	2944.08
511.83	2898.58
512.285	2894.97
512.74	2906.97
513.195	2896.78
513.65	2867.28
514.105	2862.08
514.56	2844.58
515.015	2837.08
515.47	2845.78
515.925	2835.97
516.38	2820.08
516.835	2806.97
517.29	2781.08
517.745	2792.47
518.2	2791.38
518.655	2767.88
519.109	2755.88
519.564	2740.38
520.019	2733.08
520.474	2723.18
520.928	2751.68
521.383	2697.88
521.838	2705.58
522.292	2700.78
522.747	2680.78
523.201	2695.97
523.656	2690.08
524.11	2682.47
524.565	2677.47
525.019	2689.97
525.474	2669.58
525.928	2665.18
526.382	2672.68
526.837	2665.78
527.291	2667.38
527.745	2659.58
528.2	2672.28
528.654	2658.68
529.108	2662.58
529.562	2671.58
530.016	2658.78
530.47	2668.38
530.925	2662.68
531.379	2656.18
531.833	2686.28
532.287	2657.78
532.741	2657.78
533.195	2674.68
533.649	2682.78
534.103	2674.78
534.556	2667.78
535.01	2674.38
535.464	2657.47
535.918	2672.58
536.372	2699.08
536.826	2689.47
537.279	2656.08
537.733	2680.78
538.187	2681.97
538.64	2652.38
539.094	2683.47
539.548	2688.78
540.001	2660.78
540.455	2660.08
540.908	2645.28
541.362	2639.58
541.815	2633.38
542.269	2647.47
542.722	2626.38
543.175	2620.38
543.629	2596.18
544.082	2607.68
544.536	2602.18
544.989	2589.88
545.442	2587.18
545.895	2581.58
546.349	2571.08
546.802	2575.28
547.255	2561.18
547.708	2547.47
548.161	2562.97
548.614	2551.97
549.067	2561.78
549.52	2558.08
549.973	2552.47
550.426	2536.78
550.879	2536.08
551.332	2539.47
551.785	2538.18
552.238	2542.08
552.691	2542.38
553.144	2541.68
553.596	2532.88
554.049	2551.58
554.502	2562.97
554.955	2577.08
555.407	2561.28
555.86	2571.58
556.313	2561.58
556.765	2585.38
557.218	2575.28
557.67	2597.97
558.123	2596.97
558.576	2587.78
559.028	2580.08
559.48	2591.68
559.933	2605.38
560.385	2630.18
560.838	2607.97
561.29	2611.38
561.742	2651.28
562.195	2636.88
562.647	2630.97
563.099	2633.38
563.551	2610.38
564.004	2647.47
564.456	2649.28
564.908	2658.97
565.36	2648.47
565.812	2648.18
566.264	2648.38
566.716	2667.58
567.168	2663.38
567.62	2669.68
568.072	2672.88
568.524	2666.78
568.976	2662.68
569.428	2629.78
569.88	2639.88
570.332	2650.47
570.784	2651.18
571.235	2627.28
571.687	2630.78
572.139	2613.28
572.59	2634.18
573.042	2622.47
573.494	2631.78
573.945	2608.28
574.397	2588.28
574.849	2596.68
575.3	2600.97
575.752	2596.18
576.203	2570.88
576.655	2593.58
577.106	2563.08
577.557	2562.68
578.009	2566.78
578.46	2564.18
578.912	2546.68
579.363	2567.28
579.814	2550.08
580.265	2531.78
580.717	2539.97
581.168	2549.28
581.619	2519.58
582.07	2544.18
582.521	2526.47
582.972	2519.97
583.423	2544.28
583.875	2529.18
584.326	2532.28
584.777	2537.78
585.227	2529.38
585.678	2532.47
586.129	2536.47
586.58	2532.78
587.031	2541.58
587.482	2533.38
587.933	2540.78
588.384	2537.58
588.834	2536.97
589.285	2554.78
589.736	2565.38
590.186	2552.18
590.637	2547.78
591.088	2558.28
591.538	2560.97
591.989	2558.47
592.439	2562.47
592.89	2560.58
593.34	2556.08
593.791	2578.47
594.241	2578.38
594.692	2571.88
595.142	2590.38
595.593	2571.68
596.043	2594.28
596.493	2594.78
596.943	2560.28
597.394	2590.58
597.844	2576.58
598.294	2592.38
598.744	2599.47
599.195	2594.28
599.645	2597.08
600.095	2586.58
600.545	2608.88
600.995	2604.88
601.445	2602.58
601.895	2617.08
602.345	2623.08
602.795	2607.97
603.245	2619.88
603.695	2601.47
604.145	2624.38
604.594	2634.58
605.044	2614.47
605.494	2598.47
605.944	2614.68
606.393	2650.58
606.843	2617.58
607.293	2629.47
607.743	2626.08
608.192	2632.78
608.642	2636.28
609.091	2632.68
609.541	2642.58
609.99	2638.18
610.44	2623.68
610.889	2649.68
611.339	2634.18
611.788	2612.47
612.238	2621.58
612.687	2639.18
613.136	2620.78
613.586	2640.97
614.035	2618.38
614.484	2626.18
614.933	2610.97
615.383	2620.18
615.832	2622.78
616.281	2617.47
616.73	2618.28
617.179	2618.78
617.628	2613.47
618.077	2595.47
618.526	2596.97
618.975	2605.47
619.424	2580.08
619.873	2618.88
620.322	2594.88
620.771	2604.18
621.22	2595.47
621.669	2604.28
622.118	2594.78
622.567	2598.88
623.015	2586.18
623.464	2611.47
623.913	2590.08
624.361	2601.88
624.81	2597.47
625.259	2597.97
625.707	2595.97
626.156	2601.68
626.604	2595.08
627.053	2597.97
627.501	2588.28
627.95	2589.18
628.398	2604.38
628.847	2571.18
629.295	2580.88
629.744	2571.97
630.192	2561.68
630.64	2582.18
631.089	2568.88
631.537	2557.18
631.985	2555.68
632.433	2548.97
632.881	2548.88
633.33	2556.08
633.778	2537.78
634.226	2532.28
634.674	2552.38
635.122	2525.58
635.57	2520.58
636.018	2541.08
636.466	2496.68
636.914	2512.58
637.362	2505.58
637.81	2501.38
638.258	2521.97
638.705	2474.28
639.153	2516.47
639.601	2488.97
640.049	2504.28
640.497	2487.88
640.944	2485.68
641.392	2492.18
641.84	2488.47
642.287	2483.97
642.735	2469.28
643.182	2479.28
643.63	2476.18
644.078	2494.38
644.525	2473.78
644.973	2482.58
645.42	2460.47
645.867	2493.58
646.315	2450.58
646.762	2472.78
647.21	2461.08
647.657	2444.88
648.104	2462.47
648.551	2417.18
648.999	2463.58
649.446	2449.18
649.893	2435.08
650.34	2419.78
650.787	2437.38
651.234	2443.28
651.682	2440.58
652.129	2435.28
652.576	2417.97
653.023	2435.78
653.47	2426.58
653.917	2423.18
654.363	2408.58
654.81	2417.08
655.257	2407.18
655.704	2400.47
656.151	2411.88
656.598	2401.18
657.044	2389.68
657.491	2414.38
657.938	2400.58
658.385	2390.47
658.831	2395.18
659.278	2380.78
659.724	2368.78
660.171	2397.18
660.618	2377.38
661.064	2360.08
661.511	2374.68
661.957	2361.68
662.404	2355.18
662.85	2365.68
663.296	2352.68
663.743	2355.47
664.189	2348.08
664.635	2360.38
665.082	2338.47
665.528	2353.18
665.974	2354.58
666.42	2334.78
666.867	2339.18
667.313	2322.38
667.759	2324.78
668.205	2335.78
668.651	2334.47
669.097	2289.18
669.543	2307.28
669.989	2288.08
670.435	2297.47
670.881	2298.58
671.327	2271.47
671.773	2297.78
672.219	2276.78
672.665	2263.88
673.11	2267.68
673.556	2251.88
674.002	2244.88
674.448	2232.78
674.893	2235.68
675.339	2223.78
675.785	2225.08
676.23	2208.68
676.676	2206.47
677.122	2211.18
677.567	2201.78
678.013	2195.58
678.458	2180.08
678.904	2170.47
679.349	2159.08
679.794	2146.28
680.24	2145.28
680.685	2130.47
681.131	2118.88
681.576	2108.47
682.021	2110.18
682.466	2097.58
682.912	2072.18
683.357	2090.18
683.802	2086.18
684.247	2069.68
684.692	2037.28
685.137	2027.97
685.583	2040.58
686.028	2028.38
686.473	2026.18
686.918	2010.88
687.363	2000.38
687.807	1994.97
688.252	1987.97
688.697	1969.78
689.142	1978.18
689.587	1967.88
690.032	1953.47
690.477	1948.78
690.921	1949.58
691.366	1951.88
691.811	1947.47
692.255	1929.68
692.7	1924.97
693.145	1915.47
693.589	1907.78
694.034	1903.88
694.478	1907.58
694.923	1885.18
695.367	1898.97
695.812	1872.28
696.256	1880.58
696.701	1893.78
697.145	1880.18
697.59	1856.47
698.034	1848.78
698.478	1841.78
698.922	1864.47
699.367	1851.47
699.811	1847.38
700.255	1816.97
700.699	1823.58
701.143	1820.08
701.588	1812.58
702.032	1814.47
702.476	1801.18
702.92	1808.18
703.364	1788.08
703.808	1788.58
704.252	1783.47
704.696	1786.47
705.14	1770.08
705.584	1777.68
706.027	1763.47
706.471	1756.08
706.915	1757.68
707.359	1756.58
707.803	1759.97
708.246	1728.47
708.69	1728.38
709.134	1737.47
709.577	1738.47
710.021	1727.18
710.465	1710.78
710.908	1715.18
711.352	1704.88
711.795	1723.28
712.239	1700.18
712.682	1711.58
713.126	1689.88
713.569	1687.18
714.012	1684.58
714.456	1673.38
714.899	1672.58
715.342	1677.97
715.786	1672.38
716.229	1664.78
716.672	1654.68
717.115	1662.68
717.558	1657.78
718.002	1656.88
718.445	1642.97
718.888	1638.28
719.331	1629.58
719.774	1626.78
720.217	1624.08
720.66	1610.68
721.103	1618.38
721.546	1606.08
721.989	1611.97
722.432	1613.38
722.874	1614.88
723.317	1599.38
723.76	1601.88
724.203	1579.97
724.645	1594.28
725.088	1587.68
725.531	1579.88
725.974	1576.88
726.416	1565.28
726.859	1558.68
727.301	1555.68
727.744	1539.97
728.187	1539.68
728.629	1542.18
729.071	1551.18
729.514	1530.88
729.956	1532.47
730.399	1532.68
730.841	1534.68
731.283	1526.08
731.726	1489.97
732.168	1515.47
732.61	1501.78
733.053	1506.28
733.495	1482.78
733.937	1481.47
734.379	1496.68
734.821	1475.68
735.263	1467.47
735.705	1468.68
736.148	1468.78
736.59	1444.47
737.032	1452.88
737.474	1449.68
737.916	1430.58
738.357	1444.28
738.799	1432.47
739.241	1433.88
739.683	1434.88
740.125	1438.58
740.567	1416.28
741.008	1418.28
741.45	1413.88
741.892	1411.97
742.334	1393.38
742.775	1404.28
743.217	1394.47
743.658	1395.28
744.1	1385.28
744.542	1380.28
