Data from DH-3PlusCalLight-DeuteriumHalogen_HRD10391_13-38-34-171.txt Node
Date: Thu Feb 15 13:38:34 EST 2018
User: Ender
Spectrometer: HR+D1039
Trigger mode: 0
Integration Time (sec): 2.730000E-2
Scans to average: 10
Electric dark correction enabled: true
Nonlinearity correction enabled: false
Boxcar width: 0
XAxis mode: Wavelengths
Number of Pixels in Spectrum: 2048
>>>>>Begin Spectral Data<<<<<
187.836	0.69
188.309	0.69
188.782	0.69
189.255	-5.81
189.728	-6.51
190.201	-10.81
190.674	-8.81
191.147	-7.21
191.619	-10.51
192.092	-10.71
192.565	-1.61
193.038	-4.61
193.511	1.99
193.984	8.09
194.456	5.79
194.929	13.29
195.402	20.19
195.874	16.59
196.347	24.39
196.82	23.19
197.292	29.89
197.765	32.19
198.237	36.79
198.71	39.59
199.182	46.19
199.655	43.39
200.127	51.99
200.6	59.09
201.072	56.39
201.544	57.69
202.017	64.89
202.489	65.59
202.961	67.59
203.433	70.79
203.906	74.99
204.378	76.09
204.85	80.49
205.322	78.59
205.794	90.49
206.266	82.99
206.739	88.89
207.211	82.59
207.683	79.59
208.155	81.59
208.627	89.49
209.099	89.09
209.57	85.39
210.042	85.59
210.514	87.19
210.986	84.89
211.458	84.69
211.93	94.19
212.402	84.09
212.873	88.59
213.345	90.69
213.817	80.39
214.288	90.79
214.76	83.79
215.232	88.49
215.703	86.19
216.175	81.29
216.646	87.99
217.118	83.19
217.589	83.89
218.061	83.09
218.532	88.59
219.004	83.29
219.475	79.69
219.946	83.49
220.418	82.89
220.889	84.29
221.36	82.89
221.832	84.29
222.303	80.79
222.774	82.19
223.245	86.69
223.717	92.89
224.188	83.49
224.659	89.19
225.13	93.59
225.601	93.59
226.072	99.39
226.543	97.69
227.014	105.49
227.485	100.89
227.956	105.69
228.427	112.19
228.898	106.09
229.369	112.99
229.839	112.19
230.31	112.39
230.781	115.99
231.252	114.49
231.722	124.49
232.193	120.59
232.664	112.49
233.135	119.19
233.605	121.79
234.076	114.59
234.546	112.19
235.017	111.59
235.487	108.49
235.958	102.19
236.428	103.69
236.899	97.29
237.369	97.39
237.84	93.69
238.31	95.49
238.78	97.39
239.251	93.99
239.721	87.59
240.191	89.99
240.662	80.49
241.132	91.49
241.602	80.89
242.072	84.69
242.542	83.49
243.013	84.79
243.483	91.09
243.953	86.19
244.423	84.79
244.893	76.89
245.363	89.79
245.833	83.99
246.303	83.39
246.773	80.99
247.243	86.29
247.712	85.29
248.182	80.29
248.652	85.29
249.122	84.29
249.592	85.09
250.061	89.09
250.531	83.09
251.001	85.09
251.471	90.59
251.94	95.29
252.41	89.39
252.879	96.99
253.349	95.39
253.818	98.69
254.288	99.79
254.757	101.29
255.227	105.09
255.696	111.39
256.166	114.19
256.635	119.19
257.105	128.29
257.574	129.29
258.043	129.59
258.513	143.49
258.982	149.29
259.451	157.69
259.92	167.49
260.389	177.19
260.859	183.69
261.328	186.49
261.797	203.89
262.266	211.49
262.735	216.19
263.204	233.69
263.673	243.19
264.142	250.09
264.611	259.29
265.08	262.59
265.549	268.39
266.018	279.99
266.487	287.79
266.955	290.79
267.424	296.79
267.893	304.99
268.362	310.39
268.83	322.79
269.299	323.99
269.768	323.49
270.236	335.89
270.705	337.39
271.174	340.09
271.642	339.49
272.111	350.19
272.579	351.79
273.048	356.49
273.516	352.69
273.985	364.29
274.453	356.49
274.922	362.19
275.39	359.59
275.858	355.09
276.327	361.39
276.795	358.49
277.263	358.79
277.731	362.49
278.2	363.39
278.668	355.19
279.136	350.49
279.604	357.09
280.072	350.99
280.54	353.79
281.008	348.99
281.477	353.19
281.945	349.89
282.413	343.29
282.881	339.39
283.348	344.89
283.816	337.49
284.284	336.29
284.752	336.99
285.22	330.09
285.688	335.49
286.156	327.29
286.623	328.89
287.091	317.39
287.559	314.09
288.026	319.19
288.494	325.59
288.962	323.49
289.429	322.89
289.897	328.89
290.364	333.69
290.832	331.59
291.3	333.09
291.767	330.89
292.234	341.69
292.702	344.39
293.169	354.29
293.637	354.09
294.104	356.49
294.571	369.79
295.039	371.69
295.506	368.69
295.973	372.79
296.44	375.49
296.908	380.99
297.375	383.09
297.842	389.39
298.309	386.19
298.776	391.09
299.243	387.49
299.71	399.79
300.177	391.09
300.644	392.19
301.111	397.09
301.578	389.79
302.045	397.79
302.512	396.19
302.979	395.49
303.446	397.29
303.913	396.19
304.379	395.89
304.846	394.49
305.313	393.29
305.78	393.09
306.246	392.99
306.713	379.39
307.18	390.39
307.646	378.09
308.113	384.09
308.579	381.39
309.046	376.39
309.512	377.49
309.979	382.49
310.445	375.89
310.912	384.59
311.378	370.89
311.845	374.19
312.311	370.19
312.777	372.79
313.244	367.69
313.71	374.99
314.176	367.49
314.642	372.99
315.109	370.89
315.575	372.59
316.041	363.19
316.507	380.29
316.973	371.99
317.439	369.79
317.905	375.99
318.371	383.49
318.837	374.09
319.303	382.69
319.769	389.29
320.235	390.59
320.701	395.89
321.167	393.79
321.633	399.69
322.099	403.39
322.564	399.39
323.03	398.29
323.496	399.29
323.962	406.19
324.427	408.99
324.893	410.89
325.359	407.99
325.824	412.29
326.29	410.49
326.755	406.19
327.221	411.59
327.686	404.59
328.152	414.19
328.617	400.29
329.083	406.19
329.548	406.99
330.014	404.09
330.479	394.89
330.944	398.29
331.41	402.69
331.875	380.99
332.34	376.79
332.805	386.59
333.271	376.39
333.736	371.29
334.201	374.19
334.666	379.19
335.131	374.99
335.596	370.39
336.061	369.59
336.526	371.59
336.991	368.69
337.456	365.19
337.921	355.99
338.386	359.39
338.851	364.69
339.316	363.99
339.781	361.79
340.246	371.79
340.711	376.89
341.175	377.69
341.64	388.69
342.105	384.39
342.569	394.49
343.034	399.79
343.499	393.79
343.963	407.79
344.428	393.29
344.893	401.89
345.357	407.39
345.822	410.39
346.286	414.79
346.751	424.59
347.215	424.29
347.679	430.79
348.144	436.19
348.608	441.79
349.073	444.39
349.537	453.79
350.001	445.19
350.465	438.89
350.93	448.89
351.394	441.89
351.858	440.09
352.322	451.59
352.786	444.79
353.25	443.29
353.715	449.69
354.179	446.59
354.643	441.89
355.107	453.19
355.571	444.89
356.035	449.39
356.498	457.19
356.962	448.89
357.426	453.59
357.89	440.79
358.354	446.79
358.818	451.89
359.281	448.79
359.745	451.79
360.209	448.89
360.673	445.39
361.136	452.49
361.6	453.59
362.064	461.09
362.527	448.99
362.991	452.89
363.454	447.59
363.918	441.49
364.381	450.29
364.845	449.29
365.308	457.49
365.772	451.19
366.235	452.19
366.698	445.39
367.162	452.09
367.625	449.09
368.088	454.89
368.552	449.59
369.015	451.59
369.478	445.99
369.941	454.29
370.404	450.59
370.867	448.59
371.331	456.09
371.794	453.79
372.257	453.49
372.72	454.29
373.183	454.69
373.646	461.49
374.109	467.59
374.572	459.99
375.035	461.59
375.497	472.39
375.96	460.39
376.423	478.79
376.886	479.49
377.349	486.59
377.811	480.29
378.274	495.89
378.737	487.79
379.199	479.99
379.662	484.59
380.125	490.89
380.587	496.09
381.05	488.29
381.512	502.49
381.975	490.79
382.437	481.39
382.9	499.49
383.362	497.99
383.825	498.19
384.287	493.99
384.75	496.49
385.212	507.79
385.674	510.29
386.136	512.49
386.599	518.99
387.061	517.69
387.523	511.79
387.985	516.99
388.447	510.89
388.91	514.59
389.372	512.89
389.834	511.39
390.296	519.69
390.758	518.29
391.22	532.89
391.682	532.19
392.144	543.69
392.606	532.99
393.068	525.69
393.529	529.99
393.991	523.39
394.453	523.49
394.915	523.49
395.377	530.29
395.838	532.89
396.3	543.59
396.762	553.59
397.224	551.39
397.685	559.89
398.147	548.89
398.608	549.29
399.07	537.59
399.531	533.39
399.993	543.39
400.454	543.69
400.916	536.59
401.377	541.19
401.839	541.89
402.3	540.09
402.762	541.49
403.223	555.89
403.684	554.79
404.145	559.29
404.607	555.69
405.068	537.89
405.529	531.09
405.99	529.39
406.451	535.69
406.913	536.49
407.374	544.59
407.835	542.69
408.296	539.29
408.757	533.29
409.218	547.49
409.679	547.79
410.14	538.49
410.601	541.99
411.062	545.09
411.522	544.99
411.983	552.19
412.444	561.99
412.905	550.29
413.366	542.09
413.826	541.19
414.287	550.89
414.748	547.79
415.208	561.39
415.669	556.39
416.13	553.19
416.59	551.49
417.051	558.79
417.511	565.69
417.972	573.89
418.432	601.39
418.893	592.69
419.353	608.49
419.814	619.09
420.274	629.19
420.734	632.99
421.195	636.79
421.655	623.69
422.115	633.19
422.576	634.49
423.036	638.79
423.496	637.09
423.956	647.39
424.416	641.99
424.876	656.79
425.336	645.69
425.797	664.39
426.257	679.39
426.717	708.59
427.177	686.19
427.637	702.29
428.097	716.69
428.556	729.89
429.016	741.69
429.476	754.39
429.936	748.69
430.396	746.79
430.856	743.19
431.315	741.59
431.775	776.29
432.235	785.69
432.694	816.59
433.154	826.19
433.614	796.39
434.073	836.59
434.533	841.49
434.993	842.19
435.452	871.89
435.912	851.19
436.371	854.59
436.83	865.79
437.29	890.89
437.749	900.79
438.209	900.19
438.668	914.59
439.127	924.49
439.587	935.19
440.046	948.79
440.505	972.89
440.964	969.89
441.424	975.89
441.883	992.89
442.342	1003.09
442.801	1012.89
443.26	1038.19
443.719	1049.89
444.178	1063.69
444.637	1084.09
445.096	1100.79
445.555	1105.89
446.014	1103.49
446.473	1115.19
446.932	1125.79
447.391	1151.19
447.849	1176.09
448.308	1164.59
448.767	1183.09
449.226	1211.49
449.685	1210.59
450.143	1235.69
450.602	1267.49
451.061	1248.29
451.519	1271.69
451.978	1297.59
452.436	1297.69
452.895	1310.69
453.353	1305.79
453.812	1322.29
454.27	1360.69
454.729	1368.79
455.187	1378.09
455.646	1381.99
456.104	1389.69
456.562	1409.89
457.021	1452.39
457.479	1405.69
457.937	1442.39
458.395	1487.99
458.854	1458.79
459.312	1476.39
459.77	1469.09
460.228	1479.79
460.686	1515.99
461.144	1520.29
461.602	1502.19
462.06	1497.19
462.518	1528.59
462.976	1512.49
463.434	1518.09
463.892	1512.29
464.35	1512.69
464.808	1516.99
465.266	1529.19
465.724	1541.19
466.181	1547.29
466.639	1518.59
467.097	1565.69
467.555	1596.49
468.012	1565.79
468.47	1576.99
468.928	1583.39
469.385	1596.59
469.843	1627.79
470.3	1610.19
470.758	1639.99
471.215	1636.99
471.673	1662.39
472.13	1693.09
472.588	1729.19
473.045	1736.29
473.503	1786.39
473.96	1831.79
474.417	1813.19
474.875	1869.49
475.332	1893.59
475.789	1910.79
476.246	1958.39
476.704	1992.09
477.161	2005.69
477.618	2036.29
478.075	2062.99
478.532	2142.19
478.989	2177.29
479.446	2198.49
479.903	2222.09
480.36	2328.59
480.817	2323.99
481.274	2384.49
481.731	2412.09
482.188	2439.89
482.645	2505.49
483.102	2531.69
483.558	2555.59
484.015	2619.09
484.472	2666.69
484.929	2705.69
485.385	2744.09
485.842	2756.39
486.299	2825.49
486.755	2839.39
487.212	2836.19
487.668	2866.69
488.125	2913.49
488.582	2886.19
489.038	2914.09
489.494	2934.39
489.951	2963.09
490.407	2997.39
490.864	2987.49
491.32	2998.69
491.776	2990.19
492.233	3021.39
492.689	3022.09
493.145	3002.89
493.602	3003.19
494.058	3024.09
494.514	3023.69
494.97	3038.59
495.426	3024.79
495.882	3052.19
496.338	3025.59
496.794	3070.29
497.251	3036.69
497.707	3063.19
498.163	3057.09
498.618	3087.09
499.074	3049.29
499.53	3064.39
499.986	3074.09
500.442	3056.29
500.898	3039.69
501.354	3095.09
501.809	3077.89
502.265	3054.09
502.721	3060.39
503.177	3075.99
503.632	3103.69
504.088	3066.89
504.543	3091.29
504.999	3074.79
505.455	3060.19
505.91	3065.39
506.366	3078.49
506.821	3077.09
507.277	3055.79
507.732	3067.19
508.187	3042.19
508.643	3047.79
509.098	3032.39
509.553	3036.19
510.009	3027.59
510.464	3024.59
510.919	3014.99
511.375	3025.99
511.83	3000.19
512.285	2968.99
512.74	2996.59
513.195	2965.79
513.65	2969.89
514.105	2964.29
514.56	2913.99
515.015	2948.09
515.47	2944.09
515.925	2892.29
516.38	2908.99
516.835	2895.99
517.29	2895.69
517.745	2878.69
518.2	2878.89
518.655	2853.39
519.109	2844.49
519.564	2829.69
520.019	2834.09
520.474	2828.29
520.928	2832.59
521.383	2802.49
521.838	2771.59
522.292	2775.89
522.747	2784.69
523.201	2795.69
523.656	2776.69
524.11	2776.69
524.565	2765.39
525.019	2771.49
525.474	2785.59
525.928	2762.29
526.382	2747.69
526.837	2739.79
527.291	2754.79
527.745	2753.29
528.2	2761.99
528.654	2728.79
529.108	2755.19
529.562	2736.49
530.016	2738.69
530.47	2748.99
530.925	2737.29
531.379	2736.29
531.833	2762.39
532.287	2747.19
532.741	2730.69
533.195	2727.59
533.649	2753.29
534.103	2745.59
534.556	2730.09
535.01	2749.39
535.464	2731.49
535.918	2742.89
536.372	2770.49
536.826	2757.79
537.279	2737.49
537.733	2744.79
538.187	2741.09
538.64	2727.59
539.094	2733.09
539.548	2762.09
540.001	2743.29
540.455	2710.49
540.908	2707.39
541.362	2702.79
541.815	2700.19
542.269	2710.69
542.722	2702.49
543.175	2691.99
543.629	2678.29
544.082	2675.09
544.536	2676.49
544.989	2650.59
545.442	2662.89
545.895	2645.19
546.349	2644.69
546.802	2642.99
547.255	2632.89
547.708	2634.29
548.161	2650.99
548.614	2628.09
549.067	2632.69
549.52	2643.99
549.973	2608.19
550.426	2609.59
550.879	2617.29
551.332	2626.69
551.785	2625.09
552.238	2612.79
552.691	2597.29
553.144	2627.39
553.596	2631.09
554.049	2627.79
554.502	2648.49
554.955	2633.69
555.407	2658.89
555.86	2659.09
556.313	2638.29
556.765	2644.39
557.218	2645.89
557.67	2658.69
558.123	2658.29
558.576	2650.29
559.028	2669.29
559.48	2688.29
559.933	2680.89
560.385	2689.79
560.838	2661.79
561.29	2670.79
561.742	2693.09
562.195	2700.89
562.647	2701.59
563.099	2704.49
563.551	2699.59
564.004	2701.29
564.456	2712.29
564.908	2725.79
565.36	2726.09
565.812	2708.69
566.264	2722.99
566.716	2726.99
567.168	2712.19
567.62	2729.29
568.072	2721.89
568.524	2725.19
568.976	2724.19
569.428	2712.79
569.88	2706.69
570.332	2708.19
570.784	2717.69
571.235	2699.09
571.687	2709.99
572.139	2697.59
572.59	2696.09
573.042	2693.29
573.494	2698.59
573.945	2677.29
574.397	2655.79
574.849	2679.29
575.3	2704.99
575.752	2656.89
576.203	2638.49
576.655	2655.29
577.106	2631.59
577.557	2634.79
578.009	2624.99
578.46	2650.09
578.912	2619.09
579.363	2634.39
579.814	2613.89
580.265	2617.39
580.717	2615.69
581.168	2611.09
581.619	2594.69
582.07	2628.69
582.521	2596.09
582.972	2599.19
583.423	2614.09
583.875	2613.39
584.326	2622.39
584.777	2606.69
585.227	2603.69
585.678	2587.69
586.129	2606.69
586.58	2605.69
587.031	2603.79
587.482	2611.49
587.933	2606.09
588.384	2597.79
588.834	2610.49
589.285	2629.29
589.736	2631.29
590.186	2625.29
590.637	2622.09
591.088	2626.49
591.538	2628.49
591.989	2626.99
592.439	2613.59
592.89	2607.79
593.34	2640.99
593.791	2642.29
594.241	2646.09
594.692	2629.09
595.142	2642.29
595.593	2648.39
596.043	2647.59
596.493	2664.59
596.943	2625.79
597.394	2653.69
597.844	2644.49
598.294	2655.39
598.744	2656.89
599.195	2673.49
599.645	2666.19
600.095	2672.89
600.545	2665.79
600.995	2644.29
601.445	2647.69
601.895	2693.29
602.345	2682.89
602.795	2683.69
603.245	2674.09
603.695	2665.89
604.145	2680.49
604.594	2697.69
605.044	2682.59
605.494	2685.59
605.944	2708.99
606.393	2709.19
606.843	2689.69
607.293	2708.69
607.743	2711.39
608.192	2700.69
608.642	2693.69
609.091	2685.49
609.541	2709.39
609.99	2718.79
610.44	2683.99
610.889	2704.29
611.339	2711.89
611.788	2680.29
612.238	2683.89
612.687	2696.99
613.136	2695.09
613.586	2709.89
614.035	2680.99
614.484	2709.49
614.933	2679.89
615.383	2672.59
615.832	2685.39
616.281	2679.89
616.73	2682.89
617.179	2675.39
617.628	2683.59
618.077	2680.09
618.526	2665.49
618.975	2685.69
619.424	2641.99
619.873	2689.69
620.322	2678.09
620.771	2675.29
621.22	2651.59
621.669	2653.19
622.118	2655.69
622.567	2679.29
623.015	2660.09
623.464	2669.19
623.913	2668.79
624.361	2654.09
624.81	2652.19
625.259	2657.69
625.707	2626.19
626.156	2657.29
626.604	2668.69
627.053	2638.09
627.501	2647.19
627.95	2630.39
628.398	2670.39
628.847	2617.29
629.295	2625.29
629.744	2638.09
630.192	2606.29
630.64	2613.39
631.089	2624.19
631.537	2615.09
631.985	2605.59
632.433	2597.29
632.881	2602.09
633.33	2614.89
633.778	2598.19
634.226	2594.39
634.674	2576.19
635.122	2588.99
635.57	2592.69
636.018	2592.79
636.466	2571.49
636.914	2561.59
637.362	2595.99
637.81	2560.79
638.258	2577.09
638.705	2550.89
639.153	2566.49
639.601	2542.29
640.049	2548.59
640.497	2544.59
640.944	2536.79
641.392	2546.29
641.84	2536.79
642.287	2535.69
642.735	2529.59
643.182	2524.59
643.63	2522.19
644.078	2529.19
644.525	2521.49
644.973	2533.89
645.42	2529.59
645.867	2527.89
646.315	2493.59
646.762	2541.89
647.21	2494.89
647.657	2523.89
648.104	2517.49
648.551	2481.69
648.999	2528.59
649.446	2524.59
649.893	2475.89
650.34	2493.09
650.787	2506.69
651.234	2499.79
651.682	2505.59
652.129	2486.99
652.576	2467.29
653.023	2497.49
653.47	2502.69
653.917	2496.09
654.363	2505.09
654.81	2511.89
655.257	2484.49
655.704	2456.69
656.151	2468.09
656.598	2469.49
657.044	2435.39
657.491	2457.49
657.938	2458.79
658.385	2437.29
658.831	2472.19
659.278	2441.69
659.724	2435.89
660.171	2447.89
660.618	2419.19
661.064	2417.39
661.511	2424.69
661.957	2430.39
662.404	2418.79
662.85	2426.49
663.296	2409.19
663.743	2397.49
664.189	2393.89
664.635	2411.89
665.082	2396.09
665.528	2388.89
665.974	2395.29
666.42	2392.39
666.867	2387.19
667.313	2380.09
667.759	2386.99
668.205	2371.49
668.651	2382.39
669.097	2360.09
669.543	2343.69
669.989	2338.09
670.435	2350.79
670.881	2347.99
671.327	2328.09
671.773	2343.99
672.219	2304.89
672.665	2320.59
673.11	2311.79
673.556	2288.89
674.002	2291.39
674.448	2298.59
674.893	2265.19
675.339	2287.89
675.785	2268.79
676.23	2272.79
676.676	2258.09
677.122	2253.29
677.567	2243.59
678.013	2230.29
678.458	2214.19
678.904	2220.49
679.349	2196.09
679.794	2201.59
680.24	2192.59
680.685	2172.29
681.131	2171.59
681.576	2157.29
682.021	2153.99
682.466	2142.89
682.912	2126.79
683.357	2127.09
683.802	2116.79
684.247	2107.49
684.692	2089.19
685.137	2081.59
685.583	2086.29
686.028	2070.09
686.473	2056.79
686.918	2062.79
687.363	2048.99
687.807	2038.09
688.252	2036.59
688.697	2024.29
689.142	2018.09
689.587	2016.69
690.032	2009.39
690.477	1995.19
690.921	1989.49
691.366	1994.59
691.811	1976.29
692.255	1974.79
692.7	1965.39
693.145	1957.39
693.589	1958.89
694.034	1940.89
694.478	1952.69
694.923	1950.49
695.367	1927.99
695.812	1927.99
696.256	1913.89
696.701	1930.49
697.145	1931.79
697.59	1902.79
698.034	1890.69
698.478	1907.39
698.922	1890.49
699.367	1898.59
699.811	1883.99
700.255	1871.09
700.699	1858.19
701.143	1859.39
701.588	1860.79
702.032	1840.89
702.476	1856.19
702.92	1847.99
703.364	1843.39
703.808	1821.09
704.252	1827.49
704.696	1816.99
705.14	1808.49
705.584	1822.99
706.027	1800.69
706.471	1819.89
706.915	1801.29
707.359	1788.19
707.803	1771.79
708.246	1774.29
708.69	1775.89
709.134	1767.89
709.577	1768.19
710.021	1760.19
710.465	1756.59
710.908	1749.99
711.352	1759.29
711.795	1758.39
712.239	1751.69
712.682	1733.49
713.126	1720.99
713.569	1728.29
714.012	1730.99
714.456	1721.49
714.899	1720.99
715.342	1721.69
715.786	1698.89
716.229	1697.99
716.672	1696.29
717.115	1689.89
717.558	1687.79
718.002	1686.69
718.445	1675.79
718.888	1677.99
719.331	1661.39
719.774	1671.39
720.217	1660.99
720.66	1657.79
721.103	1642.19
721.546	1642.69
721.989	1646.69
722.432	1628.29
722.874	1653.49
723.317	1634.49
723.76	1635.59
724.203	1620.59
724.645	1625.99
725.088	1617.29
725.531	1631.59
725.974	1604.19
726.416	1608.39
726.859	1603.99
727.301	1596.79
727.744	1604.69
728.187	1589.19
728.629	1581.29
729.071	1580.49
729.514	1567.29
729.956	1571.89
730.399	1571.39
730.841	1560.59
731.283	1563.59
731.726	1546.39
732.168	1539.19
732.61	1536.39
733.053	1527.79
733.495	1522.89
733.937	1516.09
734.379	1519.29
734.821	1508.09
735.263	1507.99
735.705	1495.19
736.148	1490.69
736.59	1502.09
