Data from DH-3PlusCalLight-DeuteriumHalogen_HRD10391_13-38-35-537.txt Node
Date: Thu Feb 15 13:38:35 EST 2018
User: Ender
Spectrometer: HR+D1039
Trigger mode: 0
Integration Time (sec): 2.730000E-2
Scans to average: 10
Electric dark correction enabled: true
Nonlinearity correction enabled: false
Boxcar width: 0
XAxis mode: Wavelengths
Number of Pixels in Spectrum: 2048
>>>>>Begin Spectral Data<<<<<
187.836	0.14
188.309	0.14
188.782	0.14
189.255	-0.26
189.728	-2.16
190.201	-9.26
190.674	-8.86
191.147	-10.86
191.619	-4.86
192.092	-5.66
192.565	-1.76
193.038	-3.26
193.511	-4.66
193.984	4.24
194.456	0.44
194.929	12.34
195.402	13.84
195.874	20.54
196.347	25.64
196.82	24.04
197.292	23.24
197.765	30.74
198.237	36.34
198.71	36.84
199.182	47.64
199.655	50.94
200.127	58.64
200.6	59.24
201.072	60.04
201.544	56.24
202.017	60.14
202.489	69.44
202.961	71.34
203.433	76.84
203.906	73.44
204.378	77.64
204.85	81.14
205.322	76.54
205.794	77.84
206.266	76.44
206.739	83.64
207.211	82.34
207.683	85.64
208.155	83.64
208.627	85.84
209.099	83.24
209.57	82.74
210.042	85.04
210.514	85.94
210.986	82.44
211.458	81.04
211.93	85.74
212.402	86.54
212.873	78.04
213.345	87.74
213.817	89.34
214.288	85.14
214.76	87.64
215.232	84.64
215.703	87.44
216.175	85.64
216.646	86.14
217.118	89.94
217.589	84.44
218.061	83.54
218.532	85.14
219.004	85.24
219.475	89.44
219.946	83.64
220.418	82.14
220.889	86.74
221.36	87.94
221.832	82.74
222.303	89.44
222.774	81.94
223.245	86.04
223.717	84.14
224.188	89.34
224.659	89.54
225.13	95.84
225.601	99.14
226.072	98.54
226.543	97.44
227.014	101.94
227.485	100.14
227.956	106.34
228.427	108.84
228.898	106.14
229.369	107.74
229.839	109.54
230.31	114.64
230.781	119.64
231.252	119.44
231.722	115.74
232.193	118.54
232.664	119.64
233.135	119.54
233.605	119.44
234.076	114.14
234.546	113.04
235.017	102.74
235.487	110.54
235.958	110.04
236.428	101.44
236.899	101.14
237.369	96.14
237.84	99.04
238.31	89.24
238.78	88.84
239.251	90.24
239.721	90.34
240.191	89.84
240.662	84.64
241.132	91.74
241.602	85.74
242.072	81.54
242.542	80.34
243.013	86.34
243.483	83.34
243.953	87.14
244.423	82.64
244.893	85.84
245.363	82.94
245.833	79.34
246.303	83.54
246.773	84.44
247.243	82.74
247.712	88.74
248.182	83.44
248.652	85.44
249.122	87.74
249.592	88.84
250.061	83.14
250.531	83.24
251.001	90.54
251.471	95.14
251.94	88.94
252.41	85.44
252.879	93.04
253.349	94.64
253.818	96.44
254.288	101.44
254.757	109.94
255.227	107.64
255.696	104.24
256.166	110.44
256.635	114.94
257.105	120.44
257.574	125.34
258.043	129.94
258.513	134.14
258.982	146.54
259.451	155.14
259.92	162.04
260.389	175.24
260.859	181.24
261.328	191.74
261.797	203.14
262.266	205.94
262.735	219.44
263.204	225.94
263.673	233.34
264.142	243.94
264.611	254.64
265.08	259.04
265.549	269.24
266.018	275.94
266.487	280.84
266.955	290.54
267.424	303.94
267.893	306.54
268.362	302.34
268.83	317.24
269.299	323.24
269.768	325.24
270.236	328.24
270.705	337.14
271.174	338.54
271.642	334.24
272.111	345.74
272.579	342.54
273.048	352.94
273.516	342.44
273.985	358.74
274.453	360.74
274.922	352.74
275.39	344.34
275.858	353.04
276.327	350.04
276.795	354.94
277.263	361.54
277.731	350.94
278.2	350.84
278.668	344.84
279.136	346.04
279.604	348.24
280.072	353.84
280.54	346.04
281.008	344.34
281.477	341.04
281.945	340.34
282.413	344.64
282.881	336.94
283.348	338.44
283.816	334.64
284.284	325.94
284.752	322.54
285.22	323.74
285.688	327.34
286.156	312.64
286.623	311.54
287.091	304.94
287.559	322.44
288.026	319.44
288.494	313.44
288.962	316.74
289.429	309.04
289.897	316.04
290.364	325.84
290.832	318.44
291.3	329.64
291.767	334.84
292.234	337.04
292.702	340.64
293.169	342.44
293.637	346.74
294.104	354.24
294.571	362.74
295.039	358.34
295.506	369.44
295.973	368.24
296.44	375.24
296.908	380.14
297.375	383.34
297.842	378.24
298.309	383.74
298.776	388.04
299.243	386.94
299.71	381.34
300.177	378.14
300.644	391.54
301.111	389.44
301.578	387.04
302.045	394.34
302.512	388.34
302.979	391.44
303.446	389.04
303.913	387.24
304.379	389.24
304.846	387.64
305.313	394.14
305.78	384.54
306.246	382.24
306.713	382.24
307.18	380.44
307.646	376.04
308.113	376.94
308.579	374.54
309.046	376.64
309.512	364.94
309.979	368.94
310.445	376.84
310.912	362.54
311.378	366.44
311.845	362.64
312.311	365.54
312.777	362.54
313.244	362.54
313.71	368.54
314.176	368.74
314.642	363.64
315.109	367.64
315.575	360.94
316.041	368.64
316.507	380.74
316.973	372.64
317.439	365.64
317.905	368.84
318.371	371.24
318.837	374.04
319.303	385.74
319.769	385.44
320.235	379.44
320.701	388.04
321.167	387.64
321.633	391.04
322.099	391.94
322.564	390.24
323.03	394.84
323.496	394.14
323.962	398.74
324.427	406.94
324.893	401.54
325.359	394.34
325.824	396.74
326.29	395.44
326.755	404.94
327.221	396.04
327.686	403.74
328.152	399.94
328.617	399.74
329.083	398.74
329.548	399.14
330.014	390.24
330.479	391.64
330.944	387.04
331.41	391.04
331.875	379.04
332.34	378.34
332.805	377.24
333.271	371.24
333.736	370.34
334.201	367.64
334.666	375.04
335.131	358.34
335.596	359.14
336.061	367.94
336.526	360.84
336.991	355.14
337.456	358.94
337.921	350.54
338.386	344.24
338.851	351.64
339.316	357.24
339.781	366.84
340.246	366.64
340.711	364.34
341.175	377.04
341.64	378.94
342.105	379.04
342.569	388.74
343.034	390.14
343.499	397.04
343.963	392.74
344.428	395.14
344.893	401.94
345.357	400.74
345.822	407.14
346.286	411.84
346.751	417.44
347.215	426.44
347.679	419.34
348.144	435.34
348.608	432.94
349.073	430.94
349.537	442.64
350.001	434.74
350.465	434.14
350.93	446.94
351.394	434.54
351.858	430.84
352.322	437.94
352.786	441.14
353.25	435.94
353.715	439.24
354.179	449.14
354.643	430.64
355.107	440.24
355.571	436.94
356.035	438.84
356.498	440.24
356.962	439.94
357.426	446.84
357.89	442.84
358.354	442.04
358.818	448.24
359.281	443.34
359.745	446.54
360.209	428.64
360.673	443.94
361.136	448.24
361.6	443.44
362.064	443.84
362.527	437.34
362.991	452.54
363.454	441.54
363.918	441.14
364.381	443.94
364.845	443.44
365.308	449.34
365.772	446.14
366.235	442.74
366.698	440.54
367.162	436.14
367.625	445.34
368.088	454.84
368.552	448.74
369.015	440.64
369.478	443.34
369.941	446.64
370.404	446.44
370.867	437.44
371.331	447.54
371.794	449.34
372.257	452.64
372.72	442.04
373.183	448.04
373.646	458.24
374.109	455.34
374.572	461.54
375.035	457.74
375.497	461.74
375.96	461.84
376.423	463.54
376.886	470.64
377.349	486.74
377.811	475.84
378.274	492.04
378.737	482.74
379.199	478.74
379.662	484.64
380.125	476.44
380.587	481.94
381.05	482.74
381.512	485.24
381.975	492.84
382.437	481.24
382.9	475.74
383.362	488.54
383.825	497.64
384.287	503.74
384.75	495.64
385.212	496.84
385.674	499.24
386.136	503.44
386.599	497.54
387.061	512.24
387.523	517.24
387.985	505.74
388.447	493.74
388.91	495.74
389.372	512.34
389.834	508.04
390.296	519.14
390.758	514.44
391.22	526.94
391.682	525.64
392.144	531.34
392.606	511.14
393.068	516.64
393.529	522.44
393.991	516.94
394.453	512.24
394.915	509.54
395.377	525.74
395.838	530.04
396.3	534.54
396.762	547.34
397.224	550.54
397.685	552.54
398.147	531.64
398.608	535.34
399.07	535.24
399.531	522.34
399.993	539.14
400.454	540.54
400.916	525.64
401.377	532.44
401.839	525.04
402.3	534.64
402.762	553.24
403.223	543.34
403.684	536.54
404.145	548.64
404.607	552.04
405.068	542.84
405.529	533.94
405.99	532.34
406.451	524.14
406.913	525.64
407.374	532.84
407.835	542.24
408.296	537.44
408.757	536.04
409.218	541.74
409.679	528.64
410.14	524.54
410.601	534.24
411.062	537.84
411.522	558.94
411.983	547.34
412.444	551.94
412.905	539.94
413.366	545.24
413.826	544.24
414.287	546.34
414.748	540.04
415.208	560.64
415.669	554.24
416.13	545.24
416.59	551.14
417.051	553.84
417.511	566.04
417.972	573.24
418.432	590.74
418.893	591.14
419.353	602.54
419.814	604.54
420.274	617.24
420.734	622.84
421.195	626.94
421.655	609.94
422.115	621.84
422.576	622.64
423.036	627.14
423.496	639.04
423.956	639.24
424.416	640.54
424.876	650.14
425.336	642.14
425.797	659.44
426.257	677.94
426.717	695.04
427.177	689.04
427.637	698.84
428.097	718.54
428.556	729.44
429.016	735.74
429.476	744.24
429.936	749.94
430.396	748.34
430.856	735.44
431.315	746.24
431.775	778.04
432.235	787.34
432.694	813.44
433.154	825.84
433.614	802.04
434.073	831.44
434.533	834.94
434.993	834.84
435.452	858.94
435.912	852.64
436.371	868.64
436.83	877.34
437.29	889.34
437.749	891.74
438.209	901.44
438.668	906.34
439.127	921.04
439.587	931.94
440.046	948.24
440.505	969.14
440.964	956.14
441.424	978.84
441.883	1003.84
442.342	1014.24
442.801	1012.14
443.26	1048.04
443.719	1054.74
444.178	1062.44
444.637	1081.94
445.096	1087.54
445.555	1103.14
446.014	1110.84
446.473	1106.34
446.932	1130.14
447.391	1151.84
447.849	1187.94
448.308	1165.54
448.767	1177.24
449.226	1196.04
449.685	1198.04
450.143	1229.64
450.602	1253.04
451.061	1254.34
451.519	1277.24
451.978	1288.24
452.436	1296.74
452.895	1313.64
453.353	1312.54
453.812	1315.44
454.27	1357.64
454.729	1356.64
455.187	1375.94
455.646	1378.04
456.104	1404.24
456.562	1402.44
457.021	1439.94
457.479	1392.34
457.937	1442.64
458.395	1478.84
458.854	1468.34
459.312	1461.74
459.77	1475.74
460.228	1479.24
460.686	1526.24
461.144	1507.14
461.602	1500.14
462.06	1496.94
462.518	1523.54
462.976	1506.84
463.434	1509.64
463.892	1495.74
464.35	1521.04
464.808	1513.54
465.266	1517.24
465.724	1517.84
466.181	1538.84
466.639	1511.94
467.097	1555.14
467.555	1595.04
468.012	1558.24
468.47	1562.64
468.928	1582.04
469.385	1585.14
469.843	1606.94
470.3	1595.34
470.758	1636.54
471.215	1624.94
471.673	1653.64
472.13	1692.24
472.588	1711.04
473.045	1715.24
473.503	1761.44
473.96	1832.54
474.417	1825.04
474.875	1868.64
475.332	1879.74
475.789	1893.94
476.246	1941.14
476.704	1965.54
477.161	2013.14
477.618	2020.34
478.075	2068.34
478.532	2129.14
478.989	2161.14
479.446	2184.64
479.903	2207.24
480.36	2318.74
480.817	2312.04
481.274	2374.94
481.731	2418.14
482.188	2432.74
482.645	2494.54
483.102	2519.34
483.558	2548.94
484.015	2606.44
484.472	2633.84
484.929	2694.24
485.385	2734.24
485.842	2756.34
486.299	2797.44
486.755	2812.84
487.212	2824.54
487.668	2861.74
488.125	2914.24
488.582	2874.54
489.038	2913.04
489.494	2930.74
489.951	2949.94
490.407	2967.04
490.864	2967.64
491.32	2995.24
491.776	2985.44
492.233	3002.24
492.689	3002.94
493.145	3017.64
493.602	2991.64
494.058	3015.74
494.514	3013.14
494.97	3014.84
495.426	3014.64
495.882	3014.34
496.338	2994.54
496.794	3025.34
497.251	3019.64
497.707	3045.04
498.163	3048.94
498.618	3044.34
499.074	3014.04
499.53	3047.64
499.986	3070.14
500.442	3058.54
500.898	3036.34
501.354	3093.24
501.809	3061.24
502.265	3038.14
502.721	3053.94
503.177	3064.64
503.632	3061.14
504.088	3056.74
504.543	3059.94
504.999	3067.24
505.455	3046.44
505.91	3078.94
506.366	3069.04
506.821	3055.44
507.277	3057.14
507.732	3061.84
508.187	3026.24
508.643	3033.64
509.098	3025.64
509.553	3024.64
510.009	3021.24
510.464	3006.94
510.919	3017.64
511.375	3018.64
511.83	2973.34
512.285	2962.64
512.74	2986.34
513.195	2963.14
513.65	2945.74
514.105	2937.94
514.56	2896.04
515.015	2937.84
515.47	2910.14
515.925	2872.84
516.38	2909.04
516.835	2895.54
517.29	2876.04
517.745	2863.14
518.2	2841.74
518.655	2851.64
519.109	2818.94
519.564	2830.34
520.019	2810.34
520.474	2823.64
520.928	2801.64
521.383	2782.34
521.838	2791.54
522.292	2766.74
522.747	2774.04
523.201	2753.84
523.656	2763.54
524.11	2744.74
524.565	2739.44
525.019	2761.44
525.474	2744.24
525.928	2738.74
526.382	2755.24
526.837	2723.94
527.291	2759.54
527.745	2724.54
528.2	2734.74
528.654	2737.14
529.108	2733.74
529.562	2736.94
530.016	2732.64
530.47	2750.14
530.925	2729.74
531.379	2734.94
531.833	2764.64
532.287	2718.44
532.741	2730.94
533.195	2729.14
533.649	2738.94
534.103	2741.24
534.556	2727.84
535.01	2734.34
535.464	2731.64
535.918	2732.74
536.372	2755.84
536.826	2737.94
537.279	2705.04
537.733	2718.34
538.187	2743.54
538.64	2734.24
539.094	2740.74
539.548	2736.14
540.001	2720.14
540.455	2707.94
540.908	2711.14
541.362	2720.64
541.815	2700.04
542.269	2710.44
542.722	2705.04
543.175	2688.54
543.629	2682.74
544.082	2670.14
544.536	2659.04
544.989	2640.54
545.442	2672.94
545.895	2654.24
546.349	2653.84
546.802	2650.94
547.255	2637.34
547.708	2637.04
548.161	2638.34
548.614	2618.34
549.067	2623.54
549.52	2627.14
549.973	2622.24
550.426	2603.24
550.879	2633.34
551.332	2601.94
551.785	2607.44
552.238	2597.64
552.691	2603.34
553.144	2615.04
553.596	2605.64
554.049	2607.14
554.502	2621.64
554.955	2623.84
555.407	2619.74
555.86	2627.94
556.313	2626.14
556.765	2632.74
557.218	2647.34
557.67	2661.14
558.123	2646.84
558.576	2639.14
559.028	2663.74
559.48	2671.24
559.933	2661.74
560.385	2662.04
560.838	2660.14
561.29	2657.74
561.742	2694.54
562.195	2668.34
562.647	2684.84
563.099	2707.84
563.551	2668.54
564.004	2699.14
564.456	2702.54
564.908	2726.34
565.36	2703.24
565.812	2687.54
566.264	2716.34
566.716	2707.84
567.168	2708.64
567.62	2728.74
568.072	2710.14
568.524	2714.04
568.976	2727.04
569.428	2696.64
569.88	2709.24
570.332	2718.04
570.784	2714.34
571.235	2684.84
571.687	2710.64
572.139	2691.64
572.59	2708.24
573.042	2680.44
573.494	2688.54
573.945	2675.34
574.397	2639.54
574.849	2669.14
575.3	2672.24
575.752	2648.74
576.203	2627.74
576.655	2655.64
577.106	2644.14
577.557	2636.24
578.009	2629.44
578.46	2639.74
578.912	2604.34
579.363	2608.84
579.814	2615.44
580.265	2609.24
580.717	2604.84
581.168	2597.34
581.619	2600.14
582.07	2595.24
582.521	2594.64
582.972	2583.24
583.423	2611.34
583.875	2612.44
584.326	2585.04
584.777	2604.94
585.227	2601.54
585.678	2590.24
586.129	2614.74
586.58	2598.84
587.031	2592.34
587.482	2601.94
587.933	2602.24
588.384	2609.94
588.834	2589.34
589.285	2606.54
589.736	2610.34
590.186	2594.34
590.637	2615.44
591.088	2608.64
591.538	2621.64
591.989	2618.54
592.439	2625.04
592.89	2624.44
593.34	2633.14
593.791	2622.34
594.241	2619.44
594.692	2619.84
595.142	2631.14
595.593	2640.94
596.043	2649.74
596.493	2660.14
596.943	2617.84
597.394	2648.64
597.844	2639.14
598.294	2652.74
598.744	2647.44
599.195	2661.74
599.645	2672.14
600.095	2656.54
600.545	2659.54
600.995	2651.34
601.445	2654.34
601.895	2684.74
602.345	2684.04
602.795	2651.84
603.245	2671.24
603.695	2678.74
604.145	2670.44
604.594	2666.84
605.044	2675.94
605.494	2682.74
605.944	2692.84
606.393	2685.54
606.843	2685.64
607.293	2688.94
607.743	2693.94
608.192	2704.64
608.642	2696.64
609.091	2679.14
609.541	2685.04
609.99	2703.74
610.44	2675.74
610.889	2709.64
611.339	2690.94
611.788	2681.14
612.238	2710.94
612.687	2684.84
613.136	2691.84
613.586	2676.44
614.035	2660.04
614.484	2686.34
614.933	2672.94
615.383	2667.34
615.832	2676.74
616.281	2669.74
616.73	2687.14
617.179	2678.24
617.628	2675.64
618.077	2664.84
618.526	2663.34
618.975	2670.24
619.424	2640.74
619.873	2661.14
620.322	2659.14
620.771	2685.94
621.22	2653.64
621.669	2638.14
622.118	2654.54
622.567	2656.44
623.015	2630.04
623.464	2634.34
623.913	2659.34
624.361	2655.04
624.81	2644.74
625.259	2656.64
625.707	2639.44
626.156	2640.54
626.604	2659.34
627.053	2651.64
627.501	2623.34
627.95	2637.54
628.398	2654.64
628.847	2614.44
629.295	2614.54
629.744	2622.24
630.192	2590.54
630.64	2617.74
631.089	2628.94
631.537	2618.74
631.985	2593.44
632.433	2613.24
632.881	2599.94
633.33	2606.24
633.778	2581.34
634.226	2586.94
634.674	2589.04
635.122	2568.54
635.57	2563.14
636.018	2592.24
636.466	2558.44
636.914	2548.84
637.362	2549.14
637.81	2535.64
638.258	2571.94
638.705	2527.64
639.153	2558.14
639.601	2527.74
640.049	2554.94
640.497	2550.54
640.944	2540.04
641.392	2528.94
641.84	2550.84
642.287	2535.14
642.735	2538.94
643.182	2535.24
643.63	2548.54
644.078	2526.14
644.525	2509.44
644.973	2530.14
645.42	2509.44
645.867	2532.44
646.315	2486.44
646.762	2510.74
647.21	2502.44
647.657	2514.54
648.104	2512.14
648.551	2470.44
648.999	2499.14
649.446	2512.84
649.893	2490.84
650.34	2487.84
650.787	2501.84
651.234	2482.54
651.682	2477.54
652.129	2486.74
652.576	2485.84
653.023	2482.64
653.47	2480.94
653.917	2488.84
654.363	2495.74
654.81	2518.74
655.257	2485.24
655.704	2471.04
656.151	2457.94
656.598	2457.84
657.044	2447.14
657.491	2449.24
657.938	2433.24
658.385	2444.54
658.831	2455.84
659.278	2449.74
659.724	2428.34
660.171	2442.04
660.618	2412.14
661.064	2398.14
661.511	2425.54
661.957	2412.14
662.404	2403.34
662.85	2404.14
663.296	2401.34
663.743	2392.14
664.189	2404.04
664.635	2407.64
665.082	2386.94
665.528	2368.14
665.974	2392.94
666.42	2370.64
666.867	2375.54
667.313	2355.54
667.759	2358.74
668.205	2345.14
668.651	2368.24
669.097	2353.34
669.543	2363.44
669.989	2343.24
670.435	2344.84
670.881	2333.14
671.327	2294.24
671.773	2328.14
672.219	2310.44
672.665	2315.74
673.11	2294.44
673.556	2304.34
674.002	2277.04
674.448	2290.24
674.893	2258.14
675.339	2255.44
675.785	2251.44
676.23	2264.54
676.676	2238.84
677.122	2239.74
677.567	2243.94
678.013	2204.14
678.458	2223.34
678.904	2233.14
679.349	2197.94
679.794	2192.74
680.24	2171.44
680.685	2164.34
681.131	2155.44
681.576	2161.64
682.021	2158.24
682.466	2132.94
682.912	2114.74
683.357	2112.84
683.802	2118.84
684.247	2099.14
684.692	2090.24
685.137	2074.94
685.583	2078.44
686.028	2073.74
686.473	2058.64
686.918	2055.64
687.363	2024.44
687.807	2031.74
688.252	2015.04
688.697	2014.44
689.142	2004.34
689.587	1996.44
690.032	1997.84
690.477	1991.94
690.921	1979.44
691.366	1973.24
691.811	1982.14
692.255	1968.14
692.7	1964.84
693.145	1973.94
693.589	1943.44
694.034	1933.44
694.478	1959.64
694.923	1933.44
695.367	1924.74
695.812	1926.64
696.256	1909.64
696.701	1922.04
697.145	1916.24
697.59	1884.04
698.034	1882.84
698.478	1880.64
698.922	1887.84
699.367	1880.34
699.811	1884.14
700.255	1868.94
700.699	1850.64
701.143	1862.94
701.588	1856.74
702.032	1835.24
702.476	1835.54
702.92	1844.64
703.364	1829.74
703.808	1819.64
704.252	1823.54
704.696	1812.54
705.14	1812.74
705.584	1813.14
706.027	1794.04
706.471	1805.44
706.915	1804.04
707.359	1799.04
707.803	1779.34
708.246	1773.64
708.69	1775.74
709.134	1769.14
709.577	1761.04
710.021	1766.44
710.465	1744.34
710.908	1749.54
711.352	1732.14
711.795	1735.54
712.239	1739.74
712.682	1726.84
713.126	1727.04
713.569	1721.24
714.012	1723.24
714.456	1710.14
714.899	1707.24
715.342	1710.14
715.786	1700.04
716.229	1708.14
716.672	1698.94
717.115	1711.74
717.558	1682.24
718.002	1678.64
718.445	1691.54
718.888	1684.04
719.331	1661.74
719.774	1665.74
720.217	1652.94
720.66	1656.84
721.103	1642.74
721.546	1636.74
721.989	1640.54
722.432	1626.64
722.874	1639.04
723.317	1624.34
723.76	1629.04
724.203	1609.74
724.645	1617.04
725.088	1635.34
725.531	1629.94
725.974	1602.24
726.416	1600.14
726.859	1607.44
727.301	1589.04
727.744	1572.44
728.187	1588.34
728.629	1577.54
729.071	1588.04
729.514	1556.94
729.956	1569.14
730.399	1565.54
730.841	1556.84
731.283	1554.24
731.726	1523.94
732.168	1538.44
732.61	1542.44
733.053	1529.44
733.495	1515.94
733.937	1520.34
734.379	1512.04
734.821	1506.14
735.263	1502.54
735.705	1489.14
736.148	1490.04
736.59	1489.54
