Data from DH-3PlusCalLight-DeuteriumHalogen_HRD10391_13-38-35-263.txt Node
Date: Thu Feb 15 13:38:35 EST 2018
User: Ender
Spectrometer: HR+D1039
Trigger mode: 0
Integration Time (sec): 2.730000E-2
Scans to average: 10
Electric dark correction enabled: true
Nonlinearity correction enabled: false
Boxcar width: 0
XAxis mode: Wavelengths
Number of Pixels in Spectrum: 2048
>>>>>Begin Spectral Data<<<<<
187.836	3.34
188.309	3.34
188.782	3.34
189.255	-4.36
189.728	-5.86
190.201	-3.36
190.674	-13.96
191.147	-8.46
191.619	-9.76
192.092	-4.66
192.565	-4.46
193.038	0.34
193.511	-2.96
193.984	1.94
194.456	7.44
194.929	6.44
195.402	16.24
195.874	22.14
196.347	24.44
196.82	19.94
197.292	28.24
197.765	29.54
198.237	29.84
198.71	39.64
199.182	39.94
199.655	52.14
200.127	54.94
200.6	56.34
201.072	57.44
201.544	66.34
202.017	67.74
202.489	63.14
202.961	70.84
203.433	66.84
203.906	75.74
204.378	77.34
204.85	76.24
205.322	79.14
205.794	80.94
206.266	84.64
206.739	83.64
207.211	86.34
207.683	86.14
208.155	87.44
208.627	82.74
209.099	84.14
209.57	83.14
210.042	86.04
210.514	86.84
210.986	85.64
211.458	86.14
211.93	83.84
212.402	86.64
212.873	82.94
213.345	78.64
213.817	90.14
214.288	81.54
214.76	81.74
215.232	78.44
215.703	81.64
216.175	88.64
216.646	86.74
217.118	85.04
217.589	86.94
218.061	81.74
218.532	82.44
219.004	81.24
219.475	83.74
219.946	85.24
220.418	80.54
220.889	81.94
221.36	81.34
221.832	81.54
222.303	89.04
222.774	85.64
223.245	87.14
223.717	88.54
224.188	90.84
224.659	85.74
225.13	93.34
225.601	98.74
226.072	94.64
226.543	100.74
227.014	97.84
227.485	106.04
227.956	103.94
228.427	105.54
228.898	112.04
229.369	107.74
229.839	114.44
230.31	113.04
230.781	118.14
231.252	114.84
231.722	113.84
232.193	117.24
232.664	122.04
233.135	116.44
233.605	117.04
234.076	114.04
234.546	111.74
235.017	109.84
235.487	105.64
235.958	99.44
236.428	103.24
236.899	100.34
237.369	98.14
237.84	96.64
238.31	94.14
238.78	89.14
239.251	92.74
239.721	81.84
240.191	89.54
240.662	87.74
241.132	84.34
241.602	89.04
242.072	85.34
242.542	83.14
243.013	84.84
243.483	85.84
243.953	83.44
244.423	79.44
244.893	85.04
245.363	86.64
245.833	90.64
246.303	87.14
246.773	86.14
247.243	81.14
247.712	85.44
248.182	86.84
248.652	84.24
249.122	84.64
249.592	88.24
250.061	88.14
250.531	84.84
251.001	91.14
251.471	90.84
251.94	85.04
252.41	90.54
252.879	96.54
253.349	94.04
253.818	95.34
254.288	94.24
254.757	90.54
255.227	99.54
255.696	102.64
256.166	106.84
256.635	115.54
257.105	121.74
257.574	132.84
258.043	131.94
258.513	138.84
258.982	144.64
259.451	158.34
259.92	162.54
260.389	171.34
260.859	186.24
261.328	185.34
261.797	200.64
262.266	210.54
262.735	215.94
263.204	222.24
263.673	236.04
264.142	246.84
264.611	255.74
265.08	263.74
265.549	265.14
266.018	273.34
266.487	278.34
266.955	292.24
267.424	292.84
267.893	300.74
268.362	299.54
268.83	314.64
269.299	313.24
269.768	321.54
270.236	328.24
270.705	325.04
271.174	335.64
271.642	340.54
272.111	336.74
272.579	341.34
273.048	348.74
273.516	342.24
273.985	349.54
274.453	350.14
274.922	348.94
275.39	349.74
275.858	342.44
276.327	345.14
276.795	354.14
277.263	348.64
277.731	354.24
278.2	348.54
278.668	349.74
279.136	349.54
279.604	350.54
280.072	348.04
280.54	339.44
281.008	347.04
281.477	335.04
281.945	330.64
282.413	337.04
282.881	328.34
283.348	331.44
283.816	331.24
284.284	336.24
284.752	323.24
285.22	321.34
285.688	315.14
286.156	318.44
286.623	314.64
287.091	311.64
287.559	317.04
288.026	310.24
288.494	316.34
288.962	313.44
289.429	314.24
289.897	319.14
290.364	331.24
290.832	327.24
291.3	328.54
291.767	328.24
292.234	332.74
292.702	334.44
293.169	340.94
293.637	350.04
294.104	351.44
294.571	360.14
295.039	358.24
295.506	359.44
295.973	363.34
296.44	368.54
296.908	380.34
297.375	373.74
297.842	381.14
298.309	382.34
298.776	377.04
299.243	383.24
299.71	380.94
300.177	386.94
300.644	382.74
301.111	384.94
301.578	381.34
302.045	379.84
302.512	392.34
302.979	380.74
303.446	385.34
303.913	386.24
304.379	385.04
304.846	380.74
305.313	384.04
305.78	375.24
306.246	373.34
306.713	367.24
307.18	378.34
307.646	377.94
308.113	377.44
308.579	374.34
309.046	360.34
309.512	370.14
309.979	368.74
310.445	377.44
310.912	374.44
311.378	362.54
311.845	364.54
312.311	360.04
312.777	363.24
313.244	361.84
313.71	362.84
314.176	363.14
314.642	357.44
315.109	369.64
315.575	372.64
316.041	359.04
316.507	366.04
316.973	364.84
317.439	358.74
317.905	363.84
318.371	377.34
318.837	375.54
319.303	377.74
319.769	386.24
320.235	386.04
320.701	375.64
321.167	382.04
321.633	388.74
322.099	396.74
322.564	386.04
323.03	392.04
323.496	394.24
323.962	395.84
324.427	404.54
324.893	392.04
325.359	407.94
325.824	397.14
326.29	400.74
326.755	391.94
327.221	402.34
327.686	394.44
328.152	400.34
328.617	395.34
329.083	390.44
329.548	397.14
330.014	393.24
330.479	391.94
330.944	389.54
331.41	387.24
331.875	377.54
332.34	374.04
332.805	381.04
333.271	369.64
333.736	373.94
334.201	374.44
334.666	369.04
335.131	365.04
335.596	358.64
336.061	356.14
336.526	356.04
336.991	359.64
337.456	355.44
337.921	345.54
338.386	341.14
338.851	353.64
339.316	349.14
339.781	358.14
340.246	368.74
340.711	362.54
341.175	372.44
341.64	382.94
342.105	381.74
342.569	387.74
343.034	382.04
343.499	393.04
343.963	383.54
344.428	392.24
344.893	393.94
345.357	399.84
345.822	396.94
346.286	411.04
346.751	416.94
347.215	423.34
347.679	418.84
348.144	422.44
348.608	436.24
349.073	433.14
349.537	448.54
350.001	439.64
350.465	429.84
350.93	438.84
351.394	432.34
351.858	435.84
352.322	434.84
352.786	443.24
353.25	427.54
353.715	432.64
354.179	431.24
354.643	431.74
355.107	436.44
355.571	432.84
356.035	437.44
356.498	435.64
356.962	440.04
357.426	442.24
357.89	439.14
358.354	442.84
358.818	438.44
359.281	439.94
359.745	431.64
360.209	431.94
360.673	434.14
361.136	445.04
361.6	436.24
362.064	445.44
362.527	437.94
362.991	438.24
363.454	437.04
363.918	434.64
364.381	442.84
364.845	442.84
365.308	450.04
365.772	449.04
366.235	435.24
366.698	447.74
367.162	441.34
367.625	436.94
368.088	446.44
368.552	444.24
369.015	439.44
369.478	438.34
369.941	442.34
370.404	437.84
370.867	443.94
371.331	438.74
371.794	446.74
372.257	442.34
372.72	451.74
373.183	447.34
373.646	452.54
374.109	454.94
374.572	453.74
375.035	462.94
375.497	454.74
375.96	458.44
376.423	460.64
376.886	474.94
377.349	476.04
377.811	472.14
378.274	494.14
378.737	468.84
379.199	473.24
379.662	478.74
380.125	483.44
380.587	481.14
381.05	488.14
381.512	478.34
381.975	480.34
382.437	485.24
382.9	478.04
383.362	484.74
383.825	483.14
384.287	491.24
384.75	480.94
385.212	495.04
385.674	490.74
386.136	503.64
386.599	505.84
387.061	503.84
387.523	511.94
387.985	500.14
388.447	499.04
388.91	496.44
389.372	502.14
389.834	505.94
390.296	508.44
390.758	524.14
391.22	525.64
391.682	514.84
392.144	520.94
392.606	517.14
393.068	514.64
393.529	519.94
393.991	512.34
394.453	508.94
394.915	513.74
395.377	518.34
395.838	526.24
396.3	526.34
396.762	544.04
397.224	542.04
397.685	535.24
398.147	535.14
398.608	530.74
399.07	529.24
399.531	530.24
399.993	531.34
400.454	535.14
400.916	524.44
401.377	540.94
401.839	528.54
402.3	528.04
402.762	541.84
403.223	552.84
403.684	542.64
404.145	544.84
404.607	548.14
405.068	528.94
405.529	523.74
405.99	522.64
406.451	529.74
406.913	525.24
407.374	536.94
407.835	531.24
408.296	536.04
408.757	532.94
409.218	541.24
409.679	524.94
410.14	524.24
410.601	536.04
411.062	539.84
411.522	546.74
411.983	548.24
412.444	544.14
412.905	539.04
413.366	526.84
413.826	531.74
414.287	537.24
414.748	536.14
415.208	551.64
415.669	554.24
416.13	552.64
416.59	547.94
417.051	544.34
417.511	555.24
417.972	570.54
418.432	583.74
418.893	589.84
419.353	602.54
419.814	608.54
420.274	621.04
420.734	620.94
421.195	633.64
421.655	608.74
422.115	621.44
422.576	617.74
423.036	627.74
423.496	633.34
423.956	634.84
424.416	641.74
424.876	649.14
425.336	638.74
425.797	650.74
426.257	674.14
426.717	700.74
427.177	676.34
427.637	694.94
428.097	700.74
428.556	714.94
429.016	725.94
429.476	750.94
429.936	741.44
430.396	748.94
430.856	736.74
431.315	755.84
431.775	780.24
432.235	775.44
432.694	816.54
433.154	813.34
433.614	791.24
434.073	836.44
434.533	839.54
434.993	837.94
435.452	861.64
435.912	851.64
436.371	850.84
436.83	872.74
437.29	873.54
437.749	888.94
438.209	892.04
438.668	908.44
439.127	923.24
439.587	940.14
440.046	942.74
440.505	979.54
440.964	969.04
441.424	977.84
441.883	990.24
442.342	1007.94
442.801	1011.94
443.26	1045.84
443.719	1047.34
444.178	1053.14
444.637	1067.14
445.096	1087.64
445.555	1104.34
446.014	1101.64
446.473	1108.54
446.932	1129.04
447.391	1147.24
447.849	1166.94
448.308	1158.64
448.767	1180.74
449.226	1195.04
449.685	1211.74
450.143	1228.14
450.602	1250.74
451.061	1241.74
451.519	1266.24
451.978	1293.44
452.436	1286.94
452.895	1302.74
453.353	1321.84
453.812	1317.54
454.27	1344.34
454.729	1358.34
455.187	1378.24
455.646	1387.14
456.104	1393.84
456.562	1411.64
457.021	1430.84
457.479	1403.24
457.937	1424.04
458.395	1484.64
458.854	1462.04
459.312	1467.24
459.77	1466.14
460.228	1460.74
460.686	1515.54
461.144	1520.54
461.602	1496.84
462.06	1488.84
462.518	1506.44
462.976	1521.54
463.434	1504.94
463.892	1502.04
464.35	1493.34
464.808	1492.14
465.266	1517.04
465.724	1526.24
466.181	1528.84
466.639	1518.04
467.097	1549.44
467.555	1590.04
468.012	1557.24
468.47	1560.64
468.928	1574.14
469.385	1589.74
469.843	1615.84
470.3	1602.24
470.758	1646.64
471.215	1638.94
471.673	1655.94
472.13	1684.04
472.588	1700.64
473.045	1716.24
473.503	1764.44
473.96	1809.14
474.417	1808.34
474.875	1850.14
475.332	1880.84
475.789	1880.24
476.246	1931.44
476.704	1976.94
477.161	1993.04
477.618	2020.04
478.075	2050.64
478.532	2140.04
478.989	2160.54
479.446	2171.04
479.903	2198.44
480.36	2310.84
480.817	2306.14
481.274	2367.34
481.731	2396.34
482.188	2415.34
482.645	2488.64
483.102	2502.94
483.558	2534.34
484.015	2589.74
484.472	2645.34
484.929	2684.24
485.385	2717.24
485.842	2743.54
486.299	2804.74
486.755	2816.44
487.212	2821.44
487.668	2859.54
488.125	2874.14
488.582	2846.34
489.038	2900.54
489.494	2907.44
489.951	2922.84
490.407	2966.84
490.864	2976.94
491.32	2971.84
491.776	2980.84
492.233	2974.34
492.689	3000.24
493.145	3005.04
493.602	2982.94
494.058	3026.84
494.514	3017.04
494.97	2996.34
495.426	3015.54
495.882	3008.74
496.338	2987.84
496.794	3029.04
497.251	3008.64
497.707	3034.04
498.163	3025.04
498.618	3035.24
499.074	3026.34
499.53	3036.14
499.986	3051.04
500.442	3041.24
500.898	3009.24
501.354	3076.04
501.809	3057.84
502.265	3026.64
502.721	3018.74
503.177	3034.84
503.632	3055.64
504.088	3037.44
504.543	3047.14
504.999	3060.24
505.455	3046.34
505.91	3023.44
506.366	3057.94
506.821	3083.14
507.277	3048.14
507.732	3054.74
508.187	3016.84
508.643	3033.74
509.098	3014.64
509.553	3020.84
510.009	3003.24
510.464	3013.14
510.919	3014.74
511.375	3008.64
511.83	2972.34
512.285	2954.74
512.74	2991.84
513.195	2944.34
513.65	2939.44
514.105	2942.44
514.56	2915.64
515.015	2910.04
515.47	2901.54
515.925	2886.64
516.38	2908.34
516.835	2900.64
517.29	2855.04
517.745	2859.34
518.2	2848.24
518.655	2839.04
519.109	2817.14
519.564	2806.34
520.019	2822.24
520.474	2786.84
520.928	2802.04
521.383	2788.84
521.838	2775.84
522.292	2766.84
522.747	2758.14
523.201	2763.84
523.656	2771.04
524.11	2743.34
524.565	2751.54
525.019	2738.54
525.474	2730.94
525.928	2724.74
526.382	2710.64
526.837	2735.64
527.291	2751.34
527.745	2723.84
528.2	2715.64
528.654	2713.44
529.108	2715.14
529.562	2707.94
530.016	2733.44
530.47	2719.14
530.925	2718.64
531.379	2727.24
531.833	2743.54
532.287	2733.44
532.741	2707.24
533.195	2725.64
533.649	2734.34
534.103	2722.74
534.556	2701.94
535.01	2724.34
535.464	2713.04
535.918	2706.64
536.372	2750.74
536.826	2734.04
537.279	2686.64
537.733	2716.24
538.187	2718.24
538.64	2705.34
539.094	2707.74
539.548	2751.54
540.001	2699.24
540.455	2721.24
540.908	2688.74
541.362	2699.84
541.815	2691.54
542.269	2694.54
542.722	2669.94
543.175	2702.14
543.629	2674.14
544.082	2650.54
544.536	2673.04
544.989	2651.24
545.442	2663.44
545.895	2645.94
546.349	2635.44
546.802	2636.04
547.255	2621.54
547.708	2618.04
548.161	2617.74
548.614	2610.64
549.067	2598.14
549.52	2626.14
549.973	2612.34
550.426	2611.44
550.879	2601.34
551.332	2611.34
551.785	2612.74
552.238	2594.64
552.691	2603.54
553.144	2608.64
553.596	2610.04
554.049	2620.54
554.502	2609.04
554.955	2608.14
555.407	2622.04
555.86	2631.74
556.313	2631.34
556.765	2636.94
557.218	2621.54
557.67	2659.64
558.123	2650.94
558.576	2633.14
559.028	2643.94
559.48	2643.24
559.933	2658.64
560.385	2660.14
560.838	2669.24
561.29	2664.04
561.742	2688.74
562.195	2658.64
562.647	2677.34
563.099	2683.54
563.551	2677.04
564.004	2694.64
564.456	2694.64
564.908	2682.14
565.36	2705.04
565.812	2697.34
566.264	2714.74
566.716	2696.04
567.168	2704.34
567.62	2710.34
568.072	2701.24
568.524	2700.04
568.976	2705.04
569.428	2697.74
569.88	2699.94
570.332	2718.14
570.784	2703.84
571.235	2686.64
571.687	2703.84
572.139	2689.94
572.59	2685.04
573.042	2680.34
573.494	2678.24
573.945	2674.24
574.397	2609.74
574.849	2641.14
575.3	2665.24
575.752	2643.94
576.203	2610.24
576.655	2649.14
577.106	2625.64
577.557	2627.64
578.009	2613.44
578.46	2639.94
578.912	2603.44
579.363	2611.34
579.814	2597.84
580.265	2585.44
580.717	2598.44
581.168	2598.34
581.619	2612.64
582.07	2601.74
582.521	2584.34
582.972	2579.84
583.423	2604.34
583.875	2590.74
584.326	2584.14
584.777	2596.04
585.227	2589.54
585.678	2593.74
586.129	2591.44
586.58	2584.84
587.031	2600.04
587.482	2599.04
587.933	2585.94
588.384	2578.04
588.834	2575.04
589.285	2603.14
589.736	2594.24
590.186	2584.74
590.637	2606.34
591.088	2592.94
591.538	2620.24
591.989	2613.34
592.439	2606.94
592.89	2624.34
593.34	2622.64
593.791	2626.74
594.241	2616.44
594.692	2635.44
595.142	2607.14
595.593	2617.64
596.043	2633.34
596.493	2648.04
596.943	2607.14
597.394	2644.04
597.844	2625.34
598.294	2623.64
598.744	2636.54
599.195	2645.74
599.645	2657.94
600.095	2643.04
600.545	2660.04
600.995	2636.24
601.445	2649.74
601.895	2670.74
602.345	2660.54
602.795	2669.74
603.245	2678.64
603.695	2661.64
604.145	2669.64
604.594	2646.74
605.044	2658.74
605.494	2654.04
605.944	2670.44
606.393	2671.54
606.843	2677.64
607.293	2693.04
607.743	2670.14
608.192	2680.44
608.642	2693.54
609.091	2683.84
609.541	2680.54
609.99	2684.14
610.44	2661.34
610.889	2692.84
611.339	2702.54
611.788	2670.64
612.238	2682.14
612.687	2677.54
613.136	2668.54
613.586	2670.54
614.035	2658.74
614.484	2670.14
614.933	2672.44
615.383	2680.34
615.832	2656.24
616.281	2665.44
616.73	2662.24
617.179	2673.24
617.628	2654.54
618.077	2662.24
618.526	2650.54
618.975	2646.14
619.424	2616.14
619.873	2655.24
620.322	2651.64
620.771	2662.24
621.22	2650.84
621.669	2636.84
622.118	2645.84
622.567	2651.64
623.015	2624.84
623.464	2641.24
623.913	2635.34
624.361	2648.74
624.81	2649.54
625.259	2662.54
625.707	2626.44
626.156	2631.54
626.604	2649.24
627.053	2629.54
627.501	2616.84
627.95	2619.04
628.398	2659.04
628.847	2604.74
629.295	2624.14
629.744	2616.64
630.192	2590.64
630.64	2621.34
631.089	2611.74
631.537	2610.14
631.985	2571.04
632.433	2600.64
632.881	2572.14
633.33	2600.14
633.778	2590.44
634.226	2571.64
634.674	2572.74
635.122	2578.84
635.57	2566.34
636.018	2564.24
636.466	2546.14
636.914	2545.14
637.362	2561.94
637.81	2560.14
638.258	2555.74
638.705	2527.54
639.153	2565.24
639.601	2522.14
640.049	2527.04
640.497	2546.44
640.944	2516.24
641.392	2524.74
641.84	2545.54
642.287	2522.54
642.735	2518.24
643.182	2505.04
643.63	2519.14
644.078	2514.54
644.525	2495.44
644.973	2512.04
645.42	2515.94
645.867	2535.84
646.315	2493.04
646.762	2508.04
647.21	2474.14
647.657	2518.54
648.104	2519.64
648.551	2477.84
648.999	2496.74
649.446	2498.44
649.893	2473.14
650.34	2477.34
650.787	2501.74
651.234	2483.54
651.682	2501.24
652.129	2468.44
652.576	2459.74
653.023	2491.14
653.47	2470.14
653.917	2485.04
654.363	2485.74
654.81	2488.44
655.257	2476.84
655.704	2460.54
656.151	2454.04
656.598	2460.94
657.044	2429.74
657.491	2438.34
657.938	2436.44
658.385	2425.74
658.831	2446.34
659.278	2425.24
659.724	2423.54
660.171	2431.64
660.618	2389.84
661.064	2415.54
661.511	2426.14
661.957	2414.24
662.404	2407.14
662.85	2410.74
663.296	2399.24
663.743	2380.34
664.189	2398.64
664.635	2401.54
665.082	2383.64
665.528	2385.94
665.974	2373.34
666.42	2379.04
666.867	2360.94
667.313	2364.24
667.759	2361.34
668.205	2340.44
668.651	2346.94
669.097	2343.54
669.543	2338.84
669.989	2340.64
670.435	2326.14
670.881	2306.54
671.327	2299.44
671.773	2316.14
672.219	2294.54
672.665	2306.34
673.11	2302.14
673.556	2289.54
674.002	2280.54
674.448	2292.74
674.893	2277.84
675.339	2272.84
675.785	2257.44
676.23	2246.14
676.676	2230.24
677.122	2251.64
677.567	2221.14
678.013	2200.74
678.458	2218.74
678.904	2203.64
679.349	2187.64
679.794	2187.64
680.24	2180.74
680.685	2161.64
681.131	2157.34
681.576	2146.94
682.021	2135.64
682.466	2120.94
682.912	2108.34
683.357	2125.24
683.802	2107.24
684.247	2089.44
684.692	2075.24
685.137	2072.14
685.583	2063.14
686.028	2059.74
686.473	2051.24
686.918	2047.64
687.363	2041.24
687.807	2037.84
688.252	2004.64
688.697	2004.64
689.142	2000.84
689.587	1991.54
690.032	1985.54
690.477	1987.54
690.921	1969.54
691.366	1984.74
691.811	1964.34
692.255	1970.24
692.7	1936.24
693.145	1960.24
693.589	1949.94
694.034	1938.94
694.478	1950.94
694.923	1935.64
695.367	1914.24
695.812	1904.54
696.256	1909.64
696.701	1915.34
697.145	1903.74
697.59	1902.24
698.034	1861.14
698.478	1881.84
698.922	1890.54
699.367	1879.24
699.811	1872.14
700.255	1864.94
700.699	1849.54
701.143	1839.24
701.588	1864.34
702.032	1831.14
702.476	1842.24
702.92	1828.64
703.364	1823.24
703.808	1827.34
704.252	1833.34
704.696	1802.84
705.14	1813.04
705.584	1804.94
706.027	1789.14
706.471	1799.24
706.915	1790.54
707.359	1780.94
707.803	1767.84
708.246	1774.44
708.69	1757.74
709.134	1757.44
709.577	1749.24
710.021	1761.14
710.465	1742.64
710.908	1738.34
711.352	1719.44
711.795	1736.54
712.239	1736.84
712.682	1740.34
713.126	1729.24
713.569	1716.04
714.012	1706.34
714.456	1714.34
714.899	1707.34
715.342	1718.84
715.786	1698.34
716.229	1694.84
716.672	1693.24
717.115	1682.94
717.558	1686.04
718.002	1682.94
718.445	1669.34
718.888	1671.34
719.331	1652.74
719.774	1659.74
720.217	1659.64
720.66	1651.74
721.103	1639.34
721.546	1634.74
721.989	1641.64
722.432	1620.54
722.874	1632.44
723.317	1626.44
723.76	1623.04
724.203	1605.04
724.645	1618.54
725.088	1607.04
725.531	1607.84
725.974	1586.34
726.416	1601.94
726.859	1587.94
727.301	1584.84
727.744	1583.14
728.187	1586.94
728.629	1573.44
729.071	1582.14
729.514	1557.94
729.956	1556.34
730.399	1548.94
730.841	1557.54
731.283	1553.14
731.726	1540.74
732.168	1522.64
732.61	1531.34
733.053	1529.64
733.495	1524.44
733.937	1502.24
734.379	1513.54
734.821	1503.44
735.263	1496.04
735.705	1478.64
736.148	1485.54
736.59	1488.04
