Data from DH-3PlusCalLight-Deuterium_HRD10391_13-35-09-454.txt Node
Date: Thu Feb 15 13:35:09 EST 2018
User: Ender
Spectrometer: HR+D1039
Trigger mode: 0
Integration Time (sec): 2.730000E-2
Scans to average: 10
Electric dark correction enabled: true
Nonlinearity correction enabled: false
Boxcar width: 0
XAxis mode: Wavelengths
Number of Pixels in Spectrum: 2048
>>>>>Begin Spectral Data<<<<<
187.836	2.66
188.309	2.66
188.782	2.66
189.255	-0.14
189.728	-7.44
190.201	-4.94
190.674	-4.84
191.147	-9.14
191.619	-7.24
192.092	-8.74
192.565	-5.64
193.038	-4.54
193.511	-0.34
193.984	4.36
194.456	4.36
194.929	11.86
195.402	12.96
195.874	16.76
196.347	21.76
196.82	23.26
197.292	25.46
197.765	34.36
198.237	37.76
198.71	42.16
199.182	41.86
199.655	45.06
200.127	49.96
200.6	51.76
201.072	56.46
201.544	64.46
202.017	65.56
202.489	66.96
202.961	69.86
203.433	67.66
203.906	68.86
204.378	80.96
204.85	78.36
205.322	78.26
205.794	84.56
206.266	79.66
206.739	80.96
207.211	86.96
207.683	80.66
208.155	85.86
208.627	88.96
209.099	86.26
209.57	85.36
210.042	83.96
210.514	88.36
210.986	84.76
211.458	86.36
211.93	87.06
212.402	82.86
212.873	77.46
213.345	83.46
213.817	83.56
214.288	82.66
214.76	84.36
215.232	85.86
215.703	86.36
216.175	83.56
216.646	82.76
217.118	80.86
217.589	75.76
218.061	83.16
218.532	82.46
219.004	75.76
219.475	79.06
219.946	78.06
220.418	81.86
220.889	83.76
221.36	82.06
221.832	80.96
222.303	83.86
222.774	89.86
223.245	90.56
223.717	88.06
224.188	86.46
224.659	84.96
225.13	82.16
225.601	84.36
226.072	89.66
226.543	88.66
227.014	89.16
227.485	95.36
227.956	99.46
228.427	94.96
228.898	92.76
229.369	99.66
229.839	98.06
230.31	103.96
230.781	103.06
231.252	96.96
231.722	102.96
232.193	105.66
232.664	103.06
233.135	100.46
233.605	100.46
234.076	102.36
234.546	100.16
235.017	98.76
235.487	98.56
235.958	97.36
236.428	87.26
236.899	89.36
237.369	91.96
237.84	91.96
238.31	84.76
238.78	89.56
239.251	86.86
239.721	82.06
240.191	81.26
240.662	85.46
241.132	87.56
241.602	83.76
242.072	85.66
242.542	86.36
243.013	84.46
243.483	87.26
243.953	85.66
244.423	87.76
244.893	82.46
245.363	82.96
245.833	81.06
246.303	85.66
246.773	77.66
247.243	84.06
247.712	86.96
248.182	82.56
248.652	81.06
249.122	85.46
249.592	84.86
250.061	89.26
250.531	87.16
251.001	85.06
251.471	82.56
251.94	88.46
252.41	84.86
252.879	83.76
253.349	84.06
253.818	92.36
254.288	89.16
254.757	90.96
255.227	99.06
255.696	96.16
256.166	100.46
256.635	103.26
257.105	106.06
257.574	102.56
258.043	109.16
258.513	113.76
258.982	115.56
259.451	118.76
259.92	129.96
260.389	136.26
260.859	140.96
261.328	143.66
261.797	156.36
262.266	159.46
262.735	164.96
263.204	170.66
263.673	183.26
264.142	184.76
264.611	190.66
265.08	191.76
265.549	196.26
266.018	207.86
266.487	216.66
266.955	215.36
267.424	225.96
267.893	223.86
268.362	228.06
268.83	229.26
269.299	234.96
269.768	240.46
270.236	242.66
270.705	247.56
271.174	255.06
271.642	246.36
272.111	249.86
272.579	260.76
273.048	251.36
273.516	259.96
273.985	256.26
274.453	253.36
274.922	257.36
275.39	260.06
275.858	253.66
276.327	259.26
276.795	256.26
277.263	260.86
277.731	258.26
278.2	257.26
278.668	259.56
279.136	251.96
279.604	250.06
280.072	246.76
280.54	251.46
281.008	252.36
281.477	251.96
281.945	250.16
282.413	252.26
282.881	249.86
283.348	244.46
283.816	243.76
284.284	237.16
284.752	237.56
285.22	238.96
285.688	238.46
286.156	235.26
286.623	236.96
287.091	241.86
287.559	236.26
288.026	237.46
288.494	241.96
288.962	242.86
289.429	238.86
289.897	243.96
290.364	246.46
290.832	247.86
291.3	255.06
291.767	249.96
292.234	255.96
292.702	255.16
293.169	261.16
293.637	262.16
294.104	270.46
294.571	276.26
295.039	274.76
295.506	266.36
295.973	275.06
296.44	268.96
296.908	277.96
297.375	274.96
297.842	277.66
298.309	280.66
298.776	283.26
299.243	284.26
299.71	282.66
300.177	286.06
300.644	290.76
301.111	285.66
301.578	287.76
302.045	280.66
302.512	284.86
302.979	282.16
303.446	282.56
303.913	280.36
304.379	283.86
304.846	276.76
305.313	280.66
305.78	272.26
306.246	274.16
306.713	275.56
307.18	274.56
307.646	269.16
308.113	274.16
308.579	274.56
309.046	269.16
309.512	261.16
309.979	271.46
310.445	261.96
310.912	264.36
311.378	267.86
311.845	262.16
312.311	267.56
312.777	261.16
313.244	267.16
313.71	268.66
314.176	264.66
314.642	260.76
315.109	263.06
315.575	267.36
316.041	268.66
316.507	272.96
316.973	274.36
317.439	267.96
317.905	275.76
318.371	277.16
318.837	282.66
319.303	282.76
319.769	293.46
320.235	287.56
320.701	281.36
321.167	287.36
321.633	288.86
322.099	290.66
322.564	287.26
323.03	291.76
323.496	284.86
323.962	293.86
324.427	284.56
324.893	293.46
325.359	286.06
325.824	297.96
326.29	281.96
326.755	291.46
327.221	292.26
327.686	278.96
328.152	285.26
328.617	290.26
329.083	280.16
329.548	287.56
330.014	286.16
330.479	278.36
330.944	272.56
331.41	277.66
331.875	268.36
332.34	272.06
332.805	270.16
333.271	266.46
333.736	265.16
334.201	269.16
334.666	268.66
335.131	260.46
335.596	265.16
336.061	266.96
336.526	263.06
336.991	262.16
337.456	255.56
337.921	256.46
338.386	255.26
338.851	263.76
339.316	257.16
339.781	264.16
340.246	266.86
340.711	266.66
341.175	271.06
341.64	274.16
342.105	276.06
342.569	283.66
343.034	283.66
343.499	283.16
343.963	284.46
344.428	287.36
344.893	287.66
345.357	290.76
345.822	297.46
346.286	292.66
346.751	305.96
347.215	299.66
347.679	304.26
348.144	303.16
348.608	304.56
349.073	306.96
349.537	312.96
350.001	311.96
350.465	307.26
350.93	307.86
351.394	303.96
351.858	306.36
352.322	312.66
352.786	304.86
353.25	313.76
353.715	297.86
354.179	301.06
354.643	304.96
355.107	310.06
355.571	319.26
356.035	311.66
356.498	306.16
356.962	312.86
357.426	307.86
357.89	311.26
358.354	305.16
358.818	313.96
359.281	309.56
359.745	306.76
360.209	307.96
360.673	308.36
361.136	310.46
361.6	305.26
362.064	311.66
362.527	315.76
362.991	318.56
363.454	310.26
363.918	317.56
364.381	312.46
364.845	308.46
365.308	312.76
365.772	317.06
366.235	315.76
366.698	318.76
367.162	322.26
367.625	318.16
368.088	316.06
368.552	313.76
369.015	317.26
369.478	312.96
369.941	305.76
370.404	314.46
370.867	312.86
371.331	310.06
371.794	310.46
372.257	320.06
372.72	315.36
373.183	319.46
373.646	304.96
374.109	317.96
374.572	322.76
375.035	320.06
375.497	327.16
375.96	319.86
376.423	322.66
376.886	328.26
377.349	327.26
377.811	331.76
378.274	333.86
378.737	326.26
379.199	333.26
379.662	333.36
380.125	336.46
380.587	332.96
381.05	329.66
381.512	337.56
381.975	335.06
382.437	334.96
382.9	328.66
383.362	332.36
383.825	339.96
384.287	337.96
384.75	332.06
385.212	340.46
385.674	340.26
386.136	349.36
386.599	345.66
387.061	344.86
387.523	347.76
387.985	342.76
388.447	340.46
388.91	341.46
389.372	341.36
389.834	338.36
390.296	344.26
390.758	350.16
391.22	355.96
391.682	354.16
392.144	357.66
392.606	345.06
393.068	343.26
393.529	339.16
393.991	343.16
394.453	344.16
394.915	345.66
395.377	341.26
395.838	352.86
396.3	350.46
396.762	361.46
397.224	356.86
397.685	361.46
398.147	355.66
398.608	356.86
399.07	346.56
399.531	345.86
399.993	355.66
400.454	343.86
400.916	352.86
401.377	354.26
401.839	338.56
402.3	345.16
402.762	345.76
403.223	346.96
403.684	349.36
404.145	352.76
404.607	345.16
405.068	343.86
405.529	340.16
405.99	333.56
406.451	332.66
406.913	330.16
407.374	332.86
407.835	334.86
408.296	328.96
408.757	323.06
409.218	329.76
409.679	314.46
410.14	307.86
410.601	312.66
411.062	316.66
411.522	317.06
411.983	317.16
412.444	310.26
412.905	306.46
413.366	299.06
413.826	298.66
414.287	297.36
414.748	293.86
415.208	294.66
415.669	300.66
416.13	294.26
416.59	293.86
417.051	299.36
417.511	297.56
417.972	298.06
418.432	302.56
418.893	306.56
419.353	306.66
419.814	305.96
420.274	319.46
420.734	308.76
421.195	318.16
421.655	296.76
422.115	290.86
422.576	299.46
423.036	285.76
423.496	293.36
423.956	289.56
424.416	281.86
424.876	289.66
425.336	273.36
425.797	274.76
426.257	279.56
426.717	283.26
427.177	265.16
427.637	268.06
428.097	275.16
428.556	272.56
429.016	269.56
429.476	271.76
429.936	262.46
430.396	251.96
430.856	240.86
431.315	230.46
431.775	240.86
432.235	240.26
432.694	247.26
433.154	238.66
433.614	223.66
434.073	224.36
434.533	211.66
434.993	216.16
435.452	205.96
435.912	206.86
436.371	200.46
436.83	190.56
437.29	193.26
437.749	189.16
438.209	185.56
438.668	186.16
439.127	182.96
439.587	180.06
440.046	177.96
440.505	174.06
440.964	171.76
441.424	164.16
441.883	168.96
442.342	160.16
442.801	158.06
443.26	155.86
443.719	149.26
444.178	148.46
444.637	142.96
445.096	146.16
445.555	140.36
446.014	138.46
446.473	134.26
446.932	127.66
447.391	125.36
447.849	121.66
448.308	120.66
448.767	115.76
449.226	117.16
449.685	113.06
450.143	108.26
450.602	105.06
451.061	107.36
451.519	106.06
451.978	99.36
452.436	104.16
452.895	97.56
453.353	104.76
453.812	100.66
454.27	103.96
454.729	88.46
455.187	95.66
455.646	95.36
456.104	94.06
456.562	94.46
457.021	95.26
457.479	93.56
457.937	89.26
458.395	92.96
458.854	91.46
459.312	95.66
459.77	89.86
460.228	93.86
460.686	92.76
461.144	87.76
461.602	90.96
462.06	90.16
462.518	90.16
462.976	87.66
463.434	87.96
463.892	91.36
464.35	89.36
464.808	86.26
465.266	87.06
465.724	86.96
466.181	88.36
466.639	83.96
467.097	91.26
467.555	86.66
468.012	85.66
468.47	85.66
468.928	87.36
469.385	88.46
469.843	85.76
470.3	84.86
470.758	87.36
471.215	86.06
471.673	87.76
472.13	86.76
472.588	85.76
473.045	87.96
473.503	84.96
473.96	82.46
474.417	89.86
474.875	90.46
475.332	88.16
475.789	86.96
476.246	85.96
476.704	83.26
477.161	85.26
477.618	89.56
478.075	87.56
478.532	89.46
478.989	86.26
479.446	84.46
479.903	85.56
480.36	92.96
480.817	85.16
481.274	85.66
481.731	90.36
482.188	92.66
482.645	89.16
483.102	85.86
483.558	87.26
484.015	87.46
484.472	87.86
484.929	83.96
485.385	88.76
485.842	88.56
486.299	89.36
486.755	93.96
487.212	88.06
487.668	89.46
488.125	87.06
488.582	87.36
489.038	87.26
489.494	89.26
489.951	91.56
490.407	86.26
490.864	91.56
491.32	84.66
491.776	87.96
492.233	82.76
492.689	85.16
493.145	87.56
493.602	88.26
494.058	86.86
494.514	85.66
494.97	90.16
495.426	84.36
495.882	85.36
496.338	91.36
496.794	82.66
497.251	86.46
497.707	86.66
498.163	88.36
498.618	84.16
499.074	81.16
499.53	84.46
499.986	84.66
500.442	86.46
500.898	86.96
501.354	86.56
501.809	87.16
502.265	82.76
502.721	93.46
503.177	87.56
503.632	88.36
504.088	91.36
504.543	86.96
504.999	94.46
505.455	89.06
505.91	89.36
506.366	87.16
506.821	85.66
507.277	92.36
507.732	90.36
508.187	90.26
508.643	80.76
509.098	80.86
509.553	89.66
510.009	91.86
510.464	89.56
510.919	88.16
511.375	86.36
511.83	85.46
512.285	84.26
512.74	87.66
513.195	86.16
513.65	85.86
514.105	85.46
514.56	91.26
515.015	87.26
515.47	86.96
515.925	87.06
516.38	81.06
516.835	88.06
517.29	81.06
517.745	90.66
518.2	89.66
518.655	89.56
519.109	86.96
519.564	89.16
520.019	85.56
520.474	86.86
520.928	92.76
521.383	89.86
521.838	86.76
522.292	85.16
522.747	81.66
523.201	80.46
523.656	84.76
524.11	84.76
524.565	87.76
525.019	90.16
525.474	85.16
525.928	83.66
526.382	88.06
526.837	83.96
527.291	88.26
527.745	90.06
528.2	82.36
528.654	80.26
529.108	84.76
529.562	84.96
530.016	89.36
530.47	85.56
530.925	83.96
531.379	90.56
531.833	85.16
532.287	84.26
532.741	86.06
533.195	90.66
533.649	85.36
534.103	88.36
534.556	85.26
535.01	89.76
535.464	88.66
535.918	84.16
536.372	89.36
536.826	86.56
537.279	89.46
537.733	90.56
538.187	85.26
538.64	85.86
539.094	88.46
539.548	83.66
540.001	86.26
540.455	84.56
540.908	87.96
541.362	85.66
541.815	87.96
542.269	86.26
542.722	84.56
543.175	85.96
543.629	86.16
544.082	83.66
544.536	87.66
544.989	83.26
545.442	84.46
545.895	83.66
546.349	82.76
546.802	84.86
547.255	84.46
547.708	83.26
548.161	87.56
548.614	84.16
549.067	89.56
549.52	82.26
549.973	85.86
550.426	85.36
550.879	89.16
551.332	82.36
551.785	83.46
552.238	83.96
552.691	90.46
553.144	85.46
553.596	86.86
554.049	86.16
554.502	90.56
554.955	84.26
555.407	86.06
555.86	83.96
556.313	89.16
556.765	85.66
557.218	87.36
557.67	89.46
558.123	82.76
558.576	82.16
559.028	82.06
559.48	86.76
559.933	85.56
560.385	87.86
560.838	90.36
561.29	86.26
561.742	84.56
562.195	83.46
562.647	80.96
563.099	85.66
563.551	83.76
564.004	91.76
564.456	92.36
564.908	87.66
565.36	84.96
565.812	89.46
566.264	85.86
566.716	84.06
567.168	86.46
567.62	83.46
568.072	91.36
568.524	87.46
568.976	86.76
569.428	85.16
569.88	88.56
570.332	85.66
570.784	89.86
571.235	85.76
571.687	85.06
572.139	87.96
572.59	83.36
573.042	88.86
573.494	86.16
573.945	87.26
574.397	88.26
574.849	91.16
575.3	87.76
575.752	87.76
576.203	90.56
576.655	90.96
577.106	89.36
577.557	87.86
578.009	86.06
578.46	87.26
578.912	90.56
579.363	93.46
579.814	85.36
580.265	87.06
580.717	92.16
581.168	88.96
581.619	90.26
582.07	87.76
582.521	86.66
582.972	85.36
583.423	88.96
583.875	85.26
584.326	85.66
584.777	88.96
585.227	86.16
585.678	83.76
586.129	90.06
586.58	87.26
587.031	89.86
587.482	84.06
587.933	86.66
588.384	86.56
588.834	86.56
589.285	91.16
589.736	86.86
590.186	84.96
590.637	84.66
591.088	89.26
591.538	81.76
591.989	89.36
592.439	86.86
592.89	86.56
593.34	80.56
593.791	89.46
594.241	89.16
594.692	89.36
595.142	88.06
595.593	85.26
596.043	85.16
596.493	86.66
596.943	89.26
597.394	86.16
597.844	85.06
598.294	86.56
598.744	84.16
599.195	77.56
599.645	86.06
600.095	87.16
600.545	83.66
600.995	85.06
601.445	85.96
601.895	84.36
602.345	86.96
602.795	89.86
603.245	84.56
603.695	87.66
604.145	88.26
604.594	90.86
605.044	90.36
605.494	84.06
605.944	90.06
606.393	89.46
606.843	91.96
607.293	88.66
607.743	91.26
608.192	87.06
608.642	83.26
609.091	87.86
609.541	89.26
609.99	91.06
610.44	87.26
610.889	85.66
611.339	89.66
611.788	87.06
612.238	85.16
612.687	87.86
613.136	85.76
613.586	78.66
614.035	86.96
614.484	83.46
614.933	88.66
615.383	91.16
615.832	84.86
616.281	86.26
616.73	88.46
617.179	85.56
617.628	84.56
618.077	86.16
618.526	84.56
618.975	86.76
619.424	85.76
619.873	83.76
620.322	88.96
620.771	87.26
621.22	89.06
621.669	86.76
622.118	87.06
622.567	88.36
623.015	89.56
623.464	83.56
623.913	85.86
624.361	88.56
624.81	86.56
625.259	87.66
625.707	84.26
626.156	89.76
626.604	79.86
627.053	83.46
627.501	86.56
627.95	85.06
628.398	88.16
628.847	85.26
629.295	85.16
629.744	91.96
630.192	84.96
630.64	86.06
631.089	88.76
631.537	87.66
631.985	85.76
632.433	82.06
632.881	86.76
633.33	86.86
633.778	87.36
634.226	86.56
634.674	86.36
635.122	94.66
635.57	82.46
636.018	85.36
636.466	80.96
636.914	84.46
637.362	82.56
637.81	83.86
638.258	87.76
638.705	85.26
639.153	84.66
639.601	81.96
640.049	84.56
640.497	82.96
640.944	88.46
641.392	84.96
641.84	88.56
642.287	85.16
642.735	88.76
643.182	84.26
643.63	89.56
644.078	90.76
644.525	84.56
644.973	85.76
645.42	83.76
645.867	84.56
646.315	79.06
646.762	83.66
647.21	90.06
647.657	84.26
648.104	84.46
648.551	86.36
648.999	84.46
649.446	84.46
649.893	81.76
650.34	78.76
650.787	86.16
651.234	91.76
651.682	83.36
652.129	84.66
652.576	87.06
653.023	86.86
653.47	94.26
653.917	94.06
654.363	99.96
654.81	106.76
655.257	100.66
655.704	88.46
656.151	85.96
656.598	84.96
657.044	85.06
657.491	87.46
657.938	90.06
658.385	87.86
658.831	86.56
659.278	89.56
659.724	85.16
660.171	86.46
660.618	88.16
661.064	85.06
661.511	83.66
661.957	89.06
662.404	86.26
662.85	88.36
663.296	85.36
663.743	85.56
664.189	83.36
664.635	85.16
665.082	83.56
665.528	88.46
665.974	84.26
666.42	86.36
666.867	81.66
667.313	89.16
667.759	87.96
668.205	83.86
668.651	83.56
669.097	82.16
669.543	84.26
669.989	90.26
670.435	87.86
670.881	87.26
671.327	82.76
671.773	85.56
672.219	89.86
672.665	88.46
673.11	87.76
673.556	81.66
674.002	84.16
674.448	83.76
674.893	83.06
675.339	83.76
675.785	86.06
676.23	84.06
676.676	84.86
677.122	86.16
677.567	82.56
678.013	88.66
678.458	87.16
678.904	85.16
679.349	85.16
679.794	87.76
680.24	86.86
680.685	82.76
681.131	85.36
681.576	87.76
682.021	87.76
682.466	89.66
682.912	88.26
683.357	86.16
683.802	82.76
684.247	81.86
684.692	87.76
685.137	86.36
685.583	88.46
686.028	82.56
686.473	84.36
686.918	83.76
687.363	89.36
687.807	88.66
688.252	86.76
688.697	79.16
689.142	83.86
689.587	87.86
690.032	85.56
690.477	89.16
690.921	89.46
691.366	84.96
691.811	86.86
692.255	87.26
692.7	86.16
693.145	82.06
693.589	85.26
694.034	88.16
694.478	91.16
694.923	81.56
695.367	87.46
695.812	88.26
696.256	87.56
696.701	84.46
697.145	85.86
697.59	83.36
698.034	89.66
698.478	88.66
698.922	83.66
699.367	84.26
699.811	85.76
700.255	84.36
700.699	85.86
701.143	88.16
701.588	79.26
702.032	86.46
702.476	84.86
702.92	88.96
703.364	83.46
703.808	84.26
704.252	87.26
704.696	87.36
705.14	86.76
705.584	87.56
706.027	83.56
706.471	90.76
706.915	90.56
707.359	84.16
707.803	83.46
708.246	89.16
708.69	88.86
709.134	82.36
709.577	88.06
710.021	85.26
710.465	83.56
710.908	84.96
711.352	84.96
711.795	87.36
712.239	87.56
712.682	96.56
713.126	90.36
713.569	90.16
714.012	86.16
714.456	85.86
714.899	88.16
715.342	88.56
715.786	85.96
716.229	84.06
716.672	81.86
717.115	84.16
717.558	87.86
718.002	89.46
718.445	83.16
718.888	88.96
719.331	84.56
719.774	86.26
720.217	89.56
720.66	86.26
721.103	86.26
721.546	91.06
721.989	90.06
722.432	86.26
722.874	86.46
723.317	83.06
723.76	86.66
724.203	84.46
724.645	80.16
725.088	84.76
725.531	83.66
725.974	91.96
726.416	85.16
726.859	83.16
727.301	84.16
727.744	84.96
728.187	85.06
728.629	83.36
729.071	89.36
729.514	87.06
729.956	85.56
730.399	87.86
730.841	85.36
731.283	82.66
731.726	82.86
732.168	87.96
732.61	83.56
733.053	78.36
733.495	86.46
733.937	87.76
734.379	83.56
734.821	89.36
735.263	86.06
735.705	88.26
736.148	90.26
736.59	89.06
737.032	85.66
737.474	85.26
737.916	87.56
738.357	84.36
738.799	85.96
739.241	82.56
739.683	87.86
740.125	86.96
740.567	84.06
741.008	88.86
741.45	79.36
741.892	84.76
742.334	85.36
742.775	84.86
743.217	89.46
743.658	88.16
744.1	87.96
744.542	87.86
744.983	84.46
745.425	84.96
745.866	91.26
746.307	89.66
746.749	87.26
747.19	86.26
747.632	89.66
748.073	82.26
748.514	91.56
748.956	86.56
749.397	86.16
749.838	79.76
750.279	85.86
750.72	84.76
751.162	87.16
751.603	83.56
752.044	88.06
752.485	89.26
752.926	91.36
753.367	88.66
753.808	84.36
754.249	82.36
754.69	86.46
755.131	82.76
755.572	87.86
756.013	82.16
756.453	87.76
756.894	90.46
757.335	82.96
757.776	90.96
758.216	89.26
758.657	90.56
759.098	89.46
759.538	87.26
759.979	84.36
760.42	87.96
760.86	87.56
761.301	86.26
761.741	83.46
762.182	85.06
762.622	88.26
763.063	92.46
763.503	87.66
763.943	86.96
764.384	92.86
764.824	86.56
765.264	85.46
765.705	83.16
766.145	89.76
766.585	89.36
767.025	87.36
767.465	84.36
767.906	86.76
768.346	88.86
768.786	88.86
769.226	89.26
769.666	88.16
770.106	89.46
770.546	87.46
770.986	85.46
771.426	88.96
771.866	86.06
772.306	86.36
772.745	92.16
773.185	91.96
773.625	85.26
774.065	84.96
774.505	88.76
774.944	85.46
