Data from DH-3PlusCalLight-Background_HRD10391_13-34-14-039.txt Node
Date: Thu Feb 15 13:34:14 EST 2018
User: Ender
Spectrometer: HR+D1039
Trigger mode: 0
Integration Time (sec): 2.730000E-2
Scans to average: 10
Electric dark correction enabled: true
Nonlinearity correction enabled: false
Boxcar width: 0
XAxis mode: Wavelengths
Number of Pixels in Spectrum: 2048
>>>>>Begin Spectral Data<<<<<
187.836	-0.66
188.309	-0.66
188.782	-0.66
189.255	-1.96
189.728	-4.96
190.201	-6.56
190.674	-9.86
191.147	-13.76
191.619	-9.26
192.092	-7.66
192.565	1.34
193.038	1.44
193.511	-2.26
193.984	2.94
194.456	2.64
194.929	13.24
195.402	17.84
195.874	17.54
196.347	17.04
196.82	23.64
197.292	26.54
197.765	31.94
198.237	36.84
198.71	42.14
199.182	48.14
199.655	45.04
200.127	54.74
200.6	58.54
201.072	54.14
201.544	62.64
202.017	62.64
202.489	65.34
202.961	71.54
203.433	68.84
203.906	72.64
204.378	75.64
204.85	79.54
205.322	83.14
205.794	77.14
206.266	82.84
206.739	82.64
207.211	85.74
207.683	87.44
208.155	85.44
208.627	88.34
209.099	88.74
209.57	86.44
210.042	80.94
210.514	87.14
210.986	86.54
211.458	86.34
211.93	82.54
212.402	84.14
212.873	86.24
213.345	84.24
213.817	80.74
214.288	90.94
214.76	85.64
215.232	82.74
215.703	85.64
216.175	80.14
216.646	84.94
217.118	82.54
217.589	74.04
218.061	85.24
218.532	79.14
219.004	76.74
219.475	78.34
219.946	79.34
220.418	75.04
220.889	80.94
221.36	80.24
221.832	77.44
222.303	75.14
222.774	77.34
223.245	73.04
223.717	82.64
224.188	80.34
224.659	77.74
225.13	80.54
225.601	80.44
226.072	73.34
226.543	79.24
227.014	74.44
227.485	82.64
227.956	78.14
228.427	80.14
228.898	77.64
229.369	75.44
229.839	75.84
230.31	78.64
230.781	79.84
231.252	80.54
231.722	79.54
232.193	84.24
232.664	82.44
233.135	81.84
233.605	81.04
234.076	82.34
234.546	83.54
235.017	77.54
235.487	79.14
235.958	75.94
236.428	82.34
236.899	77.64
237.369	77.54
237.84	84.04
238.31	77.04
238.78	78.44
239.251	77.24
239.721	75.14
240.191	80.74
240.662	76.34
241.132	77.04
241.602	85.24
242.072	80.14
242.542	82.84
243.013	78.34
243.483	80.74
243.953	77.54
244.423	77.94
244.893	79.24
245.363	85.84
245.833	79.24
246.303	80.44
246.773	81.84
247.243	80.94
247.712	80.44
248.182	73.74
248.652	83.34
249.122	86.34
249.592	79.14
250.061	81.14
250.531	83.64
251.001	80.84
251.471	82.14
251.94	80.94
252.41	84.64
252.879	82.84
253.349	77.74
253.818	80.84
254.288	80.74
254.757	79.24
255.227	85.84
255.696	82.74
256.166	84.44
256.635	79.24
257.105	80.64
257.574	82.94
258.043	80.94
258.513	85.14
258.982	83.64
259.451	84.04
259.92	83.34
260.389	82.54
260.859	83.34
261.328	80.84
261.797	84.04
262.266	78.74
262.735	83.54
263.204	79.64
263.673	85.54
264.142	85.84
264.611	79.24
265.08	81.54
265.549	80.14
266.018	80.94
266.487	82.14
266.955	84.04
267.424	80.24
267.893	82.54
268.362	81.94
268.83	79.14
269.299	77.94
269.768	85.24
270.236	87.04
270.705	79.34
271.174	81.64
271.642	83.74
272.111	78.84
272.579	84.74
273.048	86.54
273.516	81.14
273.985	82.14
274.453	83.64
274.922	77.44
275.39	84.14
275.858	85.74
276.327	85.34
276.795	81.94
277.263	87.34
277.731	88.44
278.2	84.94
278.668	84.24
279.136	82.64
279.604	83.54
280.072	80.24
280.54	80.24
281.008	80.54
281.477	81.74
281.945	79.34
282.413	83.14
282.881	86.64
283.348	91.54
283.816	87.44
284.284	81.64
284.752	87.24
285.22	81.64
285.688	81.54
286.156	82.04
286.623	79.24
287.091	87.04
287.559	87.44
288.026	85.84
288.494	83.24
288.962	83.24
289.429	78.64
289.897	84.14
290.364	81.24
290.832	86.54
291.3	87.94
291.767	86.44
292.234	86.24
292.702	83.64
293.169	80.24
293.637	79.24
294.104	82.44
294.571	83.74
295.039	85.84
295.506	84.04
295.973	80.04
296.44	84.14
296.908	87.04
297.375	80.74
297.842	80.34
298.309	89.14
298.776	84.84
299.243	84.84
299.71	87.14
300.177	88.94
300.644	85.84
301.111	83.34
301.578	86.24
302.045	87.74
302.512	85.74
302.979	84.94
303.446	80.14
303.913	85.34
304.379	85.54
304.846	87.14
305.313	86.94
305.78	85.24
306.246	89.14
306.713	85.24
307.18	91.34
307.646	84.24
308.113	83.44
308.579	84.64
309.046	84.54
309.512	86.14
309.979	90.04
310.445	87.44
310.912	84.74
311.378	84.94
311.845	86.74
312.311	78.74
312.777	84.74
313.244	85.24
313.71	84.24
314.176	80.54
314.642	85.84
315.109	84.94
315.575	86.94
316.041	84.24
316.507	86.94
316.973	84.74
317.439	78.74
317.905	80.64
318.371	85.54
318.837	85.64
319.303	80.94
319.769	91.04
320.235	82.64
320.701	84.74
321.167	85.34
321.633	80.24
322.099	87.34
322.564	78.94
323.03	84.54
323.496	85.44
323.962	86.84
324.427	84.54
324.893	86.54
325.359	85.44
325.824	84.74
326.29	82.84
326.755	88.84
327.221	86.04
327.686	83.54
328.152	84.14
328.617	87.04
329.083	90.14
329.548	84.64
330.014	89.34
330.479	85.74
330.944	88.64
331.41	85.94
331.875	83.74
332.34	86.74
332.805	87.24
333.271	85.14
333.736	89.44
334.201	80.84
334.666	84.74
335.131	82.64
335.596	87.74
336.061	87.64
336.526	85.84
336.991	84.24
337.456	89.84
337.921	83.14
338.386	88.04
338.851	85.14
339.316	85.84
339.781	91.54
340.246	86.94
340.711	89.44
341.175	81.94
341.64	88.84
342.105	85.44
342.569	88.74
343.034	85.84
343.499	81.54
343.963	79.94
344.428	83.64
344.893	93.44
345.357	87.34
345.822	86.74
346.286	93.64
346.751	84.34
347.215	85.84
347.679	85.14
348.144	90.44
348.608	84.84
349.073	84.34
349.537	85.94
350.001	83.64
350.465	86.04
350.93	87.04
351.394	81.54
351.858	85.14
352.322	85.54
352.786	85.14
353.25	80.84
353.715	89.74
354.179	78.34
354.643	82.54
355.107	86.94
355.571	87.34
356.035	85.14
356.498	86.04
356.962	86.84
357.426	86.94
357.89	88.74
358.354	86.24
358.818	88.84
359.281	81.84
359.745	84.44
360.209	81.64
360.673	85.84
361.136	87.04
361.6	85.44
362.064	85.24
362.527	84.64
362.991	90.64
363.454	80.14
363.918	90.84
364.381	85.44
364.845	85.54
365.308	87.04
365.772	81.34
366.235	87.74
366.698	92.24
367.162	88.84
367.625	86.94
368.088	86.34
368.552	87.14
369.015	85.14
369.478	84.64
369.941	84.14
370.404	87.44
370.867	84.94
371.331	85.74
371.794	86.14
372.257	87.44
372.72	85.94
373.183	86.14
373.646	89.04
374.109	88.14
374.572	90.54
375.035	89.94
375.497	87.24
375.96	88.94
376.423	88.74
376.886	86.64
377.349	82.94
377.811	86.94
378.274	85.24
378.737	90.64
379.199	88.14
379.662	89.34
380.125	87.54
380.587	88.14
381.05	87.34
381.512	84.94
381.975	87.64
382.437	85.64
382.9	82.34
383.362	84.24
383.825	84.44
384.287	86.84
384.75	86.94
385.212	85.84
385.674	80.74
386.136	86.64
386.599	85.24
387.061	84.94
387.523	85.34
387.985	87.54
388.447	83.34
388.91	89.04
389.372	83.94
389.834	89.44
390.296	83.64
390.758	83.24
391.22	85.24
391.682	84.94
392.144	86.04
392.606	80.84
393.068	86.94
393.529	82.54
393.991	84.14
394.453	86.54
394.915	87.74
395.377	86.84
395.838	87.94
396.3	89.14
396.762	86.04
397.224	82.94
397.685	80.64
398.147	88.14
398.608	83.84
399.07	85.14
399.531	85.04
399.993	81.64
400.454	85.14
400.916	82.94
401.377	87.84
401.839	90.74
402.3	86.64
402.762	84.44
403.223	79.34
403.684	89.04
404.145	84.14
404.607	85.84
405.068	80.64
405.529	84.64
405.99	89.64
406.451	86.74
406.913	88.14
407.374	86.74
407.835	90.94
408.296	87.64
408.757	84.94
409.218	87.74
409.679	82.94
410.14	85.34
410.601	83.74
411.062	84.04
411.522	82.24
411.983	83.44
412.444	78.94
412.905	85.64
413.366	81.84
413.826	87.04
414.287	89.24
414.748	84.24
415.208	87.54
415.669	84.04
416.13	88.04
416.59	85.44
417.051	84.04
417.511	92.24
417.972	82.64
418.432	86.44
418.893	80.14
419.353	84.64
419.814	86.64
420.274	86.64
420.734	89.04
421.195	85.84
421.655	83.64
422.115	86.64
422.576	89.74
423.036	88.24
423.496	88.64
423.956	82.44
424.416	85.04
424.876	82.74
425.336	83.44
425.797	85.84
426.257	85.14
426.717	83.24
427.177	83.14
427.637	90.04
428.097	84.04
428.556	87.04
429.016	84.74
429.476	81.74
429.936	85.54
430.396	87.34
430.856	84.84
431.315	88.94
431.775	83.94
432.235	79.14
432.694	85.64
433.154	81.64
433.614	82.54
434.073	86.74
434.533	83.74
434.993	87.94
435.452	86.24
435.912	86.74
436.371	86.84
436.83	82.74
437.29	86.14
437.749	86.44
438.209	89.64
438.668	88.74
439.127	84.04
439.587	81.74
440.046	83.54
440.505	84.74
440.964	83.54
441.424	79.84
441.883	87.94
442.342	82.64
442.801	83.24
443.26	80.54
443.719	85.54
444.178	87.24
444.637	88.54
445.096	87.74
445.555	82.24
446.014	83.54
446.473	85.44
446.932	86.04
447.391	84.74
447.849	87.64
448.308	88.64
448.767	83.74
449.226	86.94
449.685	88.54
450.143	84.94
450.602	83.84
451.061	87.94
451.519	86.24
451.978	83.94
452.436	85.04
452.895	82.54
453.353	85.34
453.812	86.04
454.27	86.74
454.729	85.84
455.187	83.24
455.646	83.14
456.104	88.94
456.562	80.54
457.021	86.54
457.479	86.64
457.937	80.44
458.395	85.54
458.854	82.94
459.312	81.14
459.77	82.04
460.228	81.54
460.686	82.44
461.144	80.44
461.602	82.94
462.06	83.64
462.518	86.84
462.976	89.94
463.434	90.34
463.892	85.44
464.35	86.14
464.808	80.14
465.266	82.74
465.724	86.94
466.181	80.54
466.639	83.24
467.097	82.04
467.555	85.64
468.012	85.34
468.47	89.34
468.928	81.84
469.385	84.44
469.843	86.14
470.3	88.24
470.758	83.74
471.215	85.34
471.673	81.44
472.13	80.64
472.588	84.64
473.045	80.34
473.503	86.54
473.96	84.94
474.417	88.14
474.875	82.14
475.332	85.44
475.789	83.14
476.246	81.24
476.704	79.54
477.161	86.44
477.618	86.14
478.075	86.44
478.532	79.94
478.989	86.64
479.446	88.84
479.903	86.94
480.36	83.94
480.817	79.44
481.274	82.94
481.731	87.04
482.188	86.94
482.645	81.04
483.102	84.64
483.558	80.34
484.015	84.54
484.472	85.64
484.929	86.34
485.385	85.64
485.842	80.94
486.299	77.74
486.755	85.14
487.212	83.94
487.668	84.24
488.125	79.94
488.582	85.44
489.038	87.44
489.494	86.54
489.951	82.14
490.407	85.94
490.864	86.54
491.32	84.64
491.776	79.04
492.233	84.44
492.689	86.64
493.145	83.74
493.602	84.04
494.058	79.74
494.514	84.04
494.97	84.24
495.426	81.94
495.882	85.34
496.338	82.74
496.794	86.14
497.251	84.34
497.707	85.74
498.163	84.44
498.618	86.54
499.074	88.44
499.53	88.94
499.986	85.14
500.442	87.24
500.898	88.24
501.354	87.54
501.809	88.94
502.265	79.74
502.721	81.94
503.177	83.14
503.632	84.04
504.088	86.24
504.543	83.84
504.999	82.44
505.455	83.04
505.91	82.34
506.366	83.84
506.821	79.94
507.277	82.94
507.732	84.24
508.187	86.04
508.643	86.74
509.098	83.24
509.553	87.94
510.009	83.14
510.464	86.64
510.919	81.34
511.375	80.24
511.83	79.94
512.285	84.24
512.74	86.04
513.195	83.44
513.65	80.24
514.105	81.34
514.56	78.94
515.015	85.14
515.47	81.04
515.925	87.94
516.38	81.74
516.835	85.24
517.29	81.64
517.745	82.64
518.2	82.54
518.655	87.44
519.109	81.64
519.564	89.44
520.019	84.84
520.474	90.04
520.928	84.44
521.383	86.84
521.838	81.84
522.292	86.44
522.747	83.74
523.201	79.64
523.656	83.84
524.11	85.24
524.565	79.84
525.019	77.14
525.474	84.34
525.928	89.24
526.382	79.84
526.837	81.34
527.291	82.34
527.745	82.04
528.2	82.94
528.654	79.54
529.108	83.54
529.562	85.04
530.016	88.54
530.47	89.74
530.925	85.44
531.379	83.74
531.833	89.54
532.287	87.44
532.741	87.64
533.195	79.94
533.649	82.24
534.103	80.44
534.556	84.74
535.01	83.34
535.464	82.04
535.918	86.04
536.372	88.74
536.826	87.54
537.279	86.04
537.733	80.24
538.187	82.34
538.64	84.54
539.094	87.84
539.548	84.14
540.001	89.14
540.455	83.64
540.908	84.64
541.362	79.04
541.815	85.34
542.269	82.74
542.722	83.84
543.175	83.44
543.629	80.14
544.082	81.54
544.536	85.24
544.989	81.84
545.442	86.54
545.895	79.84
546.349	84.84
546.802	85.34
547.255	85.34
547.708	80.94
548.161	86.14
548.614	81.34
549.067	83.54
549.52	81.64
549.973	85.54
550.426	83.74
550.879	80.04
551.332	83.24
551.785	86.04
552.238	87.34
552.691	85.24
553.144	83.64
553.596	82.24
554.049	85.24
554.502	81.54
554.955	78.24
555.407	82.04
555.86	81.74
556.313	81.04
556.765	83.74
557.218	88.94
557.67	87.74
558.123	80.84
558.576	85.94
559.028	79.94
559.48	83.54
559.933	82.74
560.385	87.44
560.838	80.84
561.29	79.74
561.742	84.94
562.195	79.64
562.647	80.44
563.099	84.24
563.551	76.14
564.004	82.14
564.456	85.74
564.908	82.04
565.36	84.14
565.812	84.44
566.264	83.74
566.716	83.54
567.168	81.54
567.62	84.74
568.072	86.24
568.524	84.64
568.976	87.84
569.428	82.44
569.88	88.24
570.332	82.04
570.784	84.84
571.235	83.64
571.687	85.34
572.139	89.24
572.59	86.34
573.042	84.64
573.494	85.14
573.945	84.54
574.397	83.34
574.849	87.94
575.3	82.04
575.752	85.44
576.203	86.94
576.655	81.44
577.106	78.94
577.557	80.04
578.009	82.94
578.46	77.14
578.912	79.54
579.363	83.04
579.814	86.64
580.265	78.14
580.717	83.04
581.168	87.24
581.619	79.44
582.07	83.14
582.521	81.04
582.972	80.64
583.423	81.14
583.875	81.54
584.326	85.84
584.777	84.54
585.227	82.84
585.678	80.14
586.129	83.54
586.58	86.34
587.031	84.64
587.482	81.74
587.933	80.94
588.384	85.94
588.834	80.64
589.285	83.74
589.736	79.54
590.186	81.04
590.637	89.14
591.088	86.14
591.538	79.44
591.989	84.14
592.439	80.54
592.89	83.54
593.34	85.44
593.791	82.74
594.241	82.14
594.692	80.44
595.142	86.04
595.593	80.64
596.043	84.64
596.493	82.04
596.943	87.64
597.394	83.04
597.844	82.24
598.294	78.24
598.744	82.74
599.195	85.04
599.645	83.74
600.095	84.64
600.545	82.54
600.995	83.64
601.445	79.94
601.895	79.74
602.345	87.54
602.795	84.84
603.245	88.34
603.695	86.84
604.145	82.74
604.594	76.44
605.044	78.54
605.494	83.34
605.944	83.04
606.393	78.84
606.843	84.84
607.293	83.24
607.743	82.54
608.192	82.44
608.642	82.14
609.091	82.84
609.541	84.14
609.99	84.34
610.44	81.34
610.889	87.54
611.339	84.24
611.788	84.24
612.238	87.74
612.687	83.04
613.136	82.54
613.586	89.24
614.035	79.94
614.484	90.04
614.933	86.04
615.383	78.84
615.832	83.14
616.281	88.24
616.73	85.54
617.179	81.64
617.628	85.24
618.077	82.64
618.526	84.94
618.975	82.54
619.424	82.14
619.873	80.84
620.322	80.24
620.771	84.34
621.22	81.04
621.669	80.84
622.118	79.94
622.567	85.24
623.015	82.84
623.464	84.84
623.913	84.94
624.361	85.44
624.81	81.94
625.259	81.74
625.707	81.34
626.156	81.34
626.604	81.04
627.053	86.44
627.501	82.34
627.95	82.64
628.398	80.84
628.847	84.24
629.295	79.44
629.744	85.04
630.192	85.94
630.64	83.64
631.089	84.34
631.537	83.54
631.985	85.34
632.433	79.84
632.881	85.84
633.33	83.74
633.778	86.54
634.226	81.94
634.674	78.94
635.122	83.14
635.57	90.44
636.018	86.74
636.466	85.44
636.914	87.24
637.362	84.14
637.81	80.14
638.258	85.24
638.705	84.74
639.153	81.04
639.601	85.94
640.049	84.54
640.497	85.64
640.944	85.14
641.392	86.34
641.84	84.64
642.287	84.44
642.735	88.14
643.182	80.94
643.63	84.44
644.078	83.74
644.525	76.24
644.973	87.54
645.42	79.84
645.867	79.24
646.315	85.04
646.762	88.24
647.21	87.74
647.657	85.34
648.104	85.54
648.551	79.24
648.999	82.24
649.446	80.54
649.893	86.24
650.34	85.84
650.787	86.64
651.234	82.54
651.682	84.64
652.129	83.24
652.576	84.24
653.023	81.34
653.47	83.24
653.917	84.44
654.363	91.04
654.81	85.54
655.257	83.94
655.704	87.74
656.151	84.84
656.598	84.94
657.044	76.44
657.491	82.74
657.938	84.54
658.385	81.14
658.831	80.84
659.278	81.64
659.724	81.84
660.171	85.94
660.618	82.04
661.064	84.84
661.511	86.74
661.957	85.74
662.404	80.34
662.85	81.94
663.296	82.44
663.743	84.54
664.189	85.74
664.635	81.94
665.082	87.74
665.528	82.04
665.974	85.24
666.42	81.34
666.867	83.04
667.313	85.64
667.759	86.44
668.205	86.94
668.651	84.64
669.097	85.64
669.543	87.54
669.989	83.94
670.435	84.34
670.881	81.14
671.327	79.74
671.773	78.94
672.219	83.24
672.665	86.44
673.11	81.74
673.556	82.24
674.002	83.34
674.448	86.14
674.893	85.94
675.339	84.14
675.785	80.34
676.23	84.04
676.676	84.04
677.122	86.44
677.567	86.34
678.013	80.84
678.458	87.34
678.904	84.74
679.349	86.74
679.794	88.14
680.24	82.64
680.685	85.94
681.131	82.94
681.576	81.74
682.021	85.74
682.466	88.24
682.912	83.54
683.357	85.44
683.802	83.34
684.247	85.64
684.692	80.84
685.137	79.64
685.583	83.94
686.028	85.64
686.473	78.44
686.918	90.04
687.363	79.54
687.807	85.64
688.252	85.34
688.697	84.24
689.142	81.94
689.587	79.44
690.032	85.64
690.477	88.44
690.921	88.44
691.366	87.84
691.811	81.94
692.255	88.54
692.7	81.84
693.145	83.34
693.589	80.94
694.034	85.74
694.478	86.64
694.923	82.94
695.367	84.44
695.812	85.34
696.256	79.14
696.701	90.04
697.145	85.14
697.59	86.24
698.034	86.04
698.478	84.44
698.922	83.34
699.367	77.14
699.811	85.14
700.255	86.74
700.699	87.14
701.143	86.44
701.588	83.14
702.032	84.84
702.476	85.24
702.92	85.04
703.364	83.84
703.808	85.74
704.252	82.64
704.696	84.64
705.14	85.94
705.584	87.84
706.027	85.14
706.471	83.54
706.915	86.24
707.359	85.44
707.803	83.74
708.246	86.74
708.69	85.54
709.134	85.84
709.577	88.14
710.021	81.34
710.465	85.94
710.908	83.64
711.352	84.04
711.795	85.54
712.239	86.64
712.682	85.34
713.126	84.54
713.569	83.74
714.012	86.14
714.456	84.64
714.899	81.54
715.342	88.54
715.786	89.04
716.229	88.64
716.672	82.64
717.115	86.44
717.558	89.14
718.002	81.84
718.445	89.74
718.888	83.74
719.331	87.04
719.774	81.74
720.217	86.14
720.66	85.34
721.103	83.64
721.546	83.54
721.989	84.14
722.432	88.04
722.874	80.84
723.317	82.14
723.76	87.54
724.203	87.04
724.645	85.54
725.088	82.94
725.531	81.64
725.974	82.24
726.416	86.54
726.859	87.44
727.301	87.44
727.744	84.54
728.187	86.54
728.629	85.94
729.071	85.44
729.514	83.14
729.956	85.54
730.399	86.94
730.841	82.14
731.283	83.04
731.726	82.84
732.168	81.84
732.61	86.74
733.053	81.84
733.495	83.74
733.937	85.64
734.379	82.94
734.821	87.64
735.263	89.24
735.705	87.84
736.148	80.74
736.59	83.54
737.032	88.54
737.474	86.34
737.916	85.24
738.357	89.34
738.799	84.54
739.241	86.64
739.683	85.24
740.125	87.24
740.567	83.94
741.008	86.64
741.45	82.64
741.892	84.74
742.334	83.94
742.775	88.04
743.217	84.04
743.658	81.74
744.1	87.64
744.542	85.44
744.983	85.34
745.425	85.64
745.866	84.04
746.307	89.34
746.749	84.14
747.19	86.44
747.632	85.04
748.073	85.14
748.514	86.74
748.956	86.04
749.397	85.04
749.838	83.04
750.279	89.24
750.72	82.94
751.162	84.04
751.603	88.44
752.044	83.94
752.485	88.34
752.926	83.34
753.367	82.54
753.808	88.44
754.249	86.74
754.69	86.04
755.131	88.54
755.572	88.94
756.013	87.34
756.453	88.64
756.894	88.04
757.335	86.44
757.776	86.44
758.216	83.54
758.657	86.34
759.098	85.24
759.538	89.24
759.979	82.84
760.42	91.64
760.86	89.34
761.301	84.24
761.741	84.74
762.182	86.04
762.622	83.94
763.063	80.84
763.503	85.14
763.943	84.64
764.384	87.54
764.824	87.14
765.264	87.14
765.705	86.94
766.145	83.04
766.585	83.54
767.025	87.74
767.465	85.34
767.906	87.24
768.346	85.74
768.786	83.94
769.226	84.94
769.666	82.04
770.106	89.44
770.546	90.94
770.986	84.54
771.426	78.94
771.866	85.64
772.306	86.64
772.745	86.14
773.185	93.54
773.625	83.74
774.065	84.44
774.505	89.14
774.944	87.54
775.384	87.14
775.824	86.04
776.263	81.74
776.703	86.24
777.142	88.14
777.582	90.54
778.021	88.24
778.461	87.24
778.9	84.54
779.34	83.54
779.779	78.44
780.219	83.64
780.658	90.24
781.097	85.94
781.537	90.84
781.976	82.34
782.415	87.34
782.855	84.54
783.294	83.54
783.733	82.94
784.172	83.64
784.611	87.64
785.05	87.94
785.489	86.74
785.928	85.14
786.367	83.44
786.806	87.04
787.245	86.14
787.684	83.64
788.123	84.54
