Data from DH-3PlusCalLight-Background_HRD10391_13-34-16-223.txt Node
Date: Thu Feb 15 13:34:16 EST 2018
User: Ender
Spectrometer: HR+D1039
Trigger mode: 0
Integration Time (sec): 2.730000E-2
Scans to average: 10
Electric dark correction enabled: true
Nonlinearity correction enabled: false
Boxcar width: 0
XAxis mode: Wavelengths
Number of Pixels in Spectrum: 2048
>>>>>Begin Spectral Data<<<<<
187.836	3.23
188.309	3.23
188.782	3.23
189.255	-3.17
189.728	-5.17
190.201	-4.77
190.674	-10.47
191.147	-9.17
191.619	-6.17
192.092	-4.57
192.565	0.03
193.038	-3.77
193.511	1.13
193.984	0.23
194.456	4.63
194.929	7.53
195.402	12.63
195.874	17.83
196.347	20.13
196.82	24.23
197.292	27.73
197.765	33.53
198.237	37.83
198.71	35.43
199.182	43.33
199.655	47.93
200.127	54.13
200.6	52.83
201.072	54.93
201.544	56.13
202.017	62.43
202.489	59.53
202.961	71.33
203.433	71.83
203.906	70.73
204.378	77.43
204.85	79.33
205.322	81.13
205.794	80.93
206.266	79.33
206.739	84.73
207.211	88.73
207.683	84.93
208.155	79.13
208.627	84.53
209.099	90.83
209.57	88.43
210.042	86.53
210.514	87.83
210.986	88.43
211.458	88.23
211.93	89.83
212.402	87.73
212.873	88.33
213.345	86.43
213.817	81.53
214.288	82.13
214.76	81.53
215.232	80.23
215.703	86.23
216.175	80.93
216.646	81.33
217.118	81.13
217.589	80.13
218.061	78.23
218.532	83.93
219.004	77.93
219.475	82.43
219.946	78.43
220.418	77.53
220.889	77.43
221.36	82.33
221.832	80.03
222.303	76.73
222.774	73.13
223.245	78.33
223.717	80.23
224.188	75.93
224.659	77.83
225.13	74.23
225.601	77.43
226.072	77.83
226.543	74.43
227.014	76.53
227.485	80.73
227.956	78.53
228.427	74.03
228.898	76.93
229.369	81.13
229.839	82.33
230.31	78.83
230.781	78.93
231.252	81.83
231.722	77.93
232.193	79.13
232.664	73.43
233.135	75.93
233.605	79.13
234.076	82.03
234.546	80.53
235.017	81.33
235.487	77.93
235.958	78.13
236.428	79.63
236.899	79.03
237.369	81.53
237.84	80.03
238.31	78.73
238.78	74.53
239.251	82.23
239.721	79.73
240.191	75.83
240.662	83.43
241.132	81.83
241.602	75.93
242.072	80.83
242.542	78.03
243.013	80.43
243.483	74.73
243.953	77.23
244.423	81.33
244.893	87.33
245.363	81.73
245.833	76.43
246.303	84.43
246.773	82.03
247.243	79.43
247.712	80.33
248.182	80.93
248.652	79.73
249.122	76.23
249.592	81.43
250.061	80.63
250.531	79.43
251.001	79.83
251.471	80.43
251.94	81.33
252.41	78.83
252.879	77.83
253.349	77.23
253.818	77.33
254.288	80.53
254.757	83.93
255.227	78.03
255.696	82.43
256.166	82.23
256.635	79.33
257.105	78.33
257.574	80.63
258.043	76.73
258.513	77.83
258.982	82.13
259.451	81.63
259.92	83.53
260.389	85.23
260.859	81.43
261.328	85.33
261.797	80.13
262.266	80.53
262.735	82.03
263.204	80.43
263.673	80.03
264.142	79.23
264.611	86.13
265.08	79.93
265.549	84.43
266.018	88.23
266.487	82.53
266.955	85.83
267.424	84.03
267.893	78.73
268.362	79.43
268.83	78.93
269.299	84.23
269.768	82.23
270.236	85.73
270.705	82.93
271.174	79.63
271.642	80.73
272.111	83.73
272.579	83.33
273.048	79.73
273.516	81.53
273.985	80.33
274.453	75.43
274.922	86.33
275.39	82.83
275.858	82.03
276.327	82.23
276.795	82.23
277.263	84.13
277.731	80.53
278.2	82.73
278.668	85.03
279.136	80.93
279.604	82.13
280.072	83.33
280.54	83.73
281.008	80.03
281.477	81.53
281.945	85.13
282.413	78.23
282.881	83.53
283.348	88.03
283.816	80.23
284.284	84.13
284.752	78.53
285.22	82.23
285.688	86.23
286.156	82.73
286.623	80.13
287.091	86.23
287.559	87.03
288.026	82.33
288.494	78.13
288.962	85.43
289.429	83.03
289.897	83.33
290.364	82.73
290.832	86.33
291.3	81.73
291.767	85.03
292.234	80.93
292.702	80.33
293.169	90.03
293.637	89.03
294.104	79.23
294.571	79.53
295.039	79.83
295.506	82.73
295.973	80.23
296.44	81.13
296.908	83.83
297.375	84.03
297.842	85.03
298.309	83.33
298.776	85.23
299.243	83.83
299.71	81.93
300.177	86.33
300.644	81.03
301.111	92.03
301.578	83.23
302.045	80.63
302.512	82.43
302.979	85.73
303.446	84.63
303.913	79.33
304.379	86.53
304.846	85.53
305.313	82.83
305.78	83.63
306.246	84.63
306.713	82.33
307.18	85.03
307.646	82.13
308.113	82.63
308.579	83.83
309.046	81.63
309.512	85.03
309.979	81.63
310.445	83.83
310.912	84.93
311.378	85.43
311.845	80.93
312.311	83.63
312.777	85.13
313.244	83.33
313.71	83.93
314.176	81.33
314.642	87.03
315.109	84.33
315.575	86.83
316.041	87.23
316.507	85.73
316.973	80.63
317.439	83.33
317.905	87.03
318.371	82.83
318.837	84.43
319.303	82.33
319.769	89.33
320.235	81.13
320.701	83.23
321.167	83.03
321.633	85.53
322.099	93.33
322.564	84.53
323.03	84.53
323.496	83.63
323.962	78.93
324.427	82.63
324.893	84.23
325.359	86.33
325.824	85.73
326.29	82.93
326.755	90.53
327.221	86.63
327.686	87.93
328.152	79.13
328.617	79.93
329.083	87.83
329.548	85.33
330.014	88.33
330.479	87.53
330.944	86.13
331.41	82.43
331.875	88.43
332.34	82.83
332.805	88.03
333.271	86.83
333.736	88.03
334.201	85.03
334.666	87.23
335.131	82.73
335.596	85.73
336.061	80.53
336.526	83.73
336.991	88.13
337.456	82.23
337.921	88.63
338.386	81.93
338.851	89.63
339.316	83.53
339.781	88.73
340.246	87.43
340.711	87.63
341.175	85.23
341.64	79.73
342.105	85.83
342.569	83.03
343.034	85.63
343.499	85.83
343.963	86.33
344.428	86.03
344.893	86.73
345.357	85.93
345.822	83.53
346.286	87.03
346.751	83.13
347.215	92.03
347.679	83.83
348.144	86.93
348.608	83.73
349.073	80.03
349.537	87.13
350.001	85.33
350.465	86.13
350.93	80.03
351.394	85.43
351.858	84.83
352.322	84.03
352.786	81.13
353.25	86.03
353.715	88.13
354.179	84.93
354.643	86.63
355.107	85.83
355.571	88.03
356.035	84.43
356.498	82.03
356.962	89.63
357.426	85.83
357.89	84.73
358.354	87.43
358.818	87.63
359.281	83.93
359.745	85.93
360.209	85.43
360.673	80.53
361.136	84.93
361.6	85.23
362.064	92.83
362.527	86.03
362.991	84.13
363.454	84.83
363.918	89.33
364.381	82.93
364.845	84.83
365.308	83.73
365.772	85.53
366.235	86.53
366.698	83.43
367.162	85.13
367.625	88.53
368.088	83.43
368.552	83.93
369.015	86.73
369.478	84.93
369.941	89.63
370.404	85.43
370.867	85.53
371.331	87.03
371.794	84.93
372.257	84.13
372.72	86.93
373.183	87.03
373.646	87.93
374.109	88.03
374.572	84.93
375.035	85.23
375.497	86.83
375.96	85.53
376.423	83.73
376.886	83.83
377.349	87.03
377.811	91.43
378.274	87.73
378.737	88.43
379.199	85.53
379.662	84.43
380.125	87.73
380.587	86.13
381.05	91.53
381.512	84.23
381.975	85.93
382.437	85.33
382.9	87.63
383.362	87.03
383.825	88.43
384.287	85.13
384.75	82.73
385.212	91.73
385.674	87.63
386.136	85.43
386.599	85.53
387.061	85.93
387.523	86.13
387.985	91.43
388.447	88.43
388.91	84.13
389.372	79.63
389.834	81.03
390.296	85.23
390.758	89.43
391.22	87.13
391.682	81.53
392.144	84.63
392.606	81.63
393.068	83.73
393.529	91.93
393.991	79.83
394.453	85.03
394.915	87.23
395.377	82.53
395.838	86.83
396.3	85.53
396.762	85.43
397.224	85.53
397.685	84.43
398.147	88.53
398.608	90.13
399.07	84.23
399.531	85.73
399.993	82.53
400.454	85.23
400.916	83.33
401.377	86.73
401.839	81.63
402.3	84.33
402.762	82.83
403.223	84.73
403.684	85.43
404.145	81.23
404.607	84.73
405.068	84.93
405.529	88.03
405.99	83.13
406.451	83.03
406.913	83.63
407.374	84.13
407.835	86.63
408.296	82.63
408.757	83.23
409.218	86.93
409.679	85.03
410.14	89.03
410.601	84.93
411.062	88.53
411.522	82.63
411.983	85.13
412.444	87.73
412.905	85.93
413.366	82.43
413.826	84.63
414.287	84.33
414.748	87.63
415.208	82.13
415.669	83.93
416.13	86.43
416.59	87.13
417.051	85.73
417.511	88.83
417.972	84.33
418.432	83.03
418.893	81.03
419.353	86.33
419.814	83.23
420.274	83.83
420.734	86.93
421.195	87.93
421.655	87.63
422.115	82.83
422.576	89.53
423.036	80.53
423.496	84.43
423.956	87.43
424.416	79.33
424.876	89.93
425.336	86.63
425.797	85.23
426.257	85.73
426.717	86.73
427.177	83.23
427.637	84.33
428.097	82.13
428.556	82.33
429.016	83.03
429.476	83.13
429.936	80.33
430.396	86.83
430.856	90.03
431.315	90.23
431.775	84.33
432.235	87.33
432.694	83.43
433.154	84.93
433.614	85.03
434.073	86.63
434.533	85.13
434.993	82.03
435.452	87.23
435.912	85.43
436.371	88.83
436.83	82.73
437.29	78.13
437.749	85.53
438.209	90.13
438.668	82.93
439.127	82.13
439.587	83.23
440.046	81.83
440.505	85.83
440.964	82.43
441.424	86.63
441.883	84.73
442.342	87.13
442.801	90.73
443.26	79.93
443.719	85.33
444.178	83.23
444.637	81.23
445.096	77.23
445.555	78.43
446.014	82.83
446.473	86.43
446.932	82.23
447.391	83.53
447.849	85.13
448.308	82.63
448.767	81.63
449.226	84.63
449.685	79.23
450.143	83.03
450.602	84.03
451.061	82.03
451.519	86.83
451.978	82.83
452.436	84.83
452.895	82.83
453.353	86.83
453.812	83.83
454.27	79.13
454.729	84.83
455.187	81.23
455.646	84.33
456.104	85.03
456.562	82.43
457.021	84.63
457.479	84.83
457.937	84.93
458.395	86.13
458.854	84.83
459.312	87.13
459.77	85.73
460.228	84.63
460.686	81.93
461.144	88.43
461.602	84.63
462.06	83.43
462.518	84.33
462.976	80.73
463.434	82.03
463.892	85.63
464.35	87.33
464.808	81.13
465.266	85.83
465.724	86.63
466.181	81.13
466.639	83.43
467.097	84.13
467.555	84.53
468.012	86.23
468.47	85.93
468.928	83.63
469.385	83.13
469.843	79.63
470.3	88.23
470.758	83.43
471.215	86.53
471.673	80.83
472.13	84.33
472.588	82.23
473.045	84.93
473.503	82.83
473.96	82.53
474.417	81.43
474.875	80.83
475.332	82.33
475.789	85.43
476.246	84.03
476.704	80.53
477.161	84.33
477.618	86.73
478.075	93.23
478.532	82.73
478.989	78.73
479.446	84.33
479.903	83.23
480.36	87.23
480.817	85.93
481.274	83.93
481.731	82.83
482.188	85.93
482.645	83.73
483.102	79.13
483.558	80.43
484.015	81.63
484.472	84.73
484.929	86.23
485.385	86.43
485.842	87.63
486.299	79.43
486.755	79.73
487.212	78.63
487.668	87.83
488.125	84.03
488.582	87.63
489.038	88.63
489.494	85.83
489.951	81.03
490.407	84.93
490.864	89.43
491.32	84.03
491.776	81.13
492.233	84.73
492.689	85.53
493.145	81.13
493.602	82.43
494.058	83.93
494.514	84.43
494.97	86.23
495.426	84.03
495.882	75.03
496.338	84.13
496.794	78.43
497.251	84.03
497.707	78.93
498.163	87.63
498.618	80.63
499.074	81.93
499.53	81.13
499.986	82.63
500.442	86.63
500.898	83.13
501.354	86.33
501.809	84.03
502.265	82.23
502.721	81.63
503.177	86.33
503.632	81.93
504.088	85.33
504.543	83.53
504.999	84.73
505.455	84.03
505.91	85.43
506.366	88.93
506.821	86.23
507.277	85.63
507.732	79.83
508.187	84.23
508.643	88.53
509.098	87.23
509.553	85.33
510.009	81.13
510.464	79.53
510.919	83.43
511.375	86.73
511.83	79.73
512.285	85.03
512.74	85.63
513.195	81.33
513.65	87.63
514.105	81.63
514.56	83.63
515.015	82.23
515.47	85.83
515.925	77.93
516.38	82.63
516.835	87.23
517.29	84.73
517.745	85.03
518.2	83.43
518.655	79.93
519.109	82.93
519.564	81.13
520.019	86.43
520.474	81.83
520.928	81.03
521.383	85.33
521.838	79.03
522.292	81.03
522.747	79.33
523.201	78.73
523.656	83.63
524.11	84.43
524.565	85.83
525.019	91.13
525.474	81.83
525.928	84.13
526.382	77.83
526.837	83.33
527.291	80.93
527.745	85.73
528.2	84.33
528.654	87.83
529.108	85.93
529.562	81.13
530.016	82.73
530.47	82.43
530.925	87.33
531.379	78.73
531.833	84.33
532.287	83.73
532.741	80.83
533.195	82.93
533.649	78.53
534.103	83.93
534.556	82.43
535.01	82.53
535.464	87.03
535.918	85.33
536.372	87.33
536.826	87.23
537.279	85.63
537.733	85.53
538.187	82.33
538.64	78.93
539.094	82.03
539.548	79.83
540.001	85.33
540.455	82.13
540.908	83.13
541.362	81.63
541.815	83.63
542.269	84.43
542.722	83.23
543.175	87.83
543.629	84.63
544.082	82.63
544.536	81.63
544.989	84.43
545.442	84.13
545.895	81.43
546.349	84.43
546.802	78.93
547.255	84.83
547.708	83.33
548.161	86.03
548.614	80.83
549.067	82.93
549.52	81.23
549.973	82.83
550.426	79.43
550.879	79.33
551.332	81.83
551.785	83.73
552.238	82.93
552.691	78.13
553.144	82.83
553.596	84.63
554.049	81.53
554.502	86.93
554.955	84.63
555.407	75.33
555.86	83.13
556.313	82.43
556.765	86.13
557.218	80.73
557.67	84.93
558.123	86.73
558.576	80.73
559.028	80.43
559.48	81.73
559.933	82.83
560.385	84.13
560.838	83.13
561.29	81.53
561.742	80.73
562.195	83.33
562.647	84.03
563.099	82.33
563.551	84.33
564.004	79.83
564.456	81.23
564.908	81.73
565.36	86.43
565.812	84.13
566.264	80.73
566.716	84.13
567.168	84.63
567.62	80.83
568.072	82.23
568.524	85.83
568.976	87.73
569.428	79.13
569.88	88.83
570.332	81.73
570.784	83.33
571.235	79.63
571.687	80.03
572.139	85.53
572.59	79.23
573.042	81.13
573.494	87.13
573.945	84.43
574.397	80.83
574.849	87.43
575.3	85.63
575.752	82.03
576.203	81.03
576.655	78.23
577.106	82.73
577.557	82.83
578.009	83.73
578.46	82.13
578.912	79.43
579.363	85.03
579.814	82.33
580.265	83.73
580.717	85.13
581.168	84.53
581.619	83.93
582.07	86.83
582.521	81.83
582.972	78.93
583.423	83.33
583.875	88.13
584.326	84.83
584.777	80.73
585.227	84.43
585.678	80.43
586.129	83.43
586.58	84.53
587.031	83.53
587.482	84.13
587.933	85.73
588.384	82.03
588.834	86.03
589.285	83.23
589.736	79.23
590.186	83.13
590.637	81.83
591.088	79.33
591.538	88.33
591.989	86.33
592.439	81.03
592.89	82.93
593.34	86.63
593.791	84.93
594.241	87.13
594.692	81.83
595.142	84.03
595.593	85.83
596.043	80.93
596.493	84.13
596.943	85.33
597.394	89.03
597.844	83.93
598.294	86.13
598.744	80.83
599.195	75.33
599.645	85.23
600.095	80.93
600.545	83.33
600.995	82.03
601.445	82.73
601.895	82.23
602.345	83.13
602.795	80.33
603.245	82.83
603.695	87.33
604.145	79.53
604.594	81.93
605.044	84.43
605.494	82.53
605.944	86.73
606.393	78.93
606.843	82.73
607.293	84.13
607.743	85.33
608.192	85.13
608.642	86.13
609.091	80.53
609.541	84.53
609.99	85.53
610.44	84.83
610.889	90.23
611.339	85.93
611.788	86.23
612.238	83.43
612.687	85.43
613.136	79.03
613.586	78.93
614.035	84.23
614.484	84.13
614.933	81.83
615.383	83.53
615.832	86.03
616.281	83.03
616.73	85.03
617.179	85.63
617.628	81.33
618.077	81.23
618.526	83.63
618.975	79.63
619.424	83.13
619.873	81.33
620.322	83.23
620.771	88.33
621.22	82.23
621.669	88.43
622.118	82.63
622.567	86.43
623.015	87.43
623.464	90.53
623.913	88.63
624.361	82.03
624.81	83.03
625.259	80.63
625.707	86.33
626.156	79.93
626.604	87.43
627.053	83.13
627.501	86.53
627.95	83.23
628.398	89.33
628.847	85.93
629.295	84.63
629.744	83.03
630.192	85.93
630.64	85.93
631.089	85.23
631.537	84.43
631.985	88.83
632.433	85.03
632.881	85.83
633.33	80.33
633.778	83.23
634.226	79.33
634.674	84.13
635.122	87.63
635.57	81.53
636.018	85.03
636.466	79.03
636.914	83.83
637.362	83.73
637.81	84.23
638.258	82.93
638.705	80.63
639.153	85.83
639.601	78.63
640.049	82.83
640.497	84.83
640.944	82.43
641.392	80.53
641.84	84.73
642.287	81.83
642.735	82.73
643.182	85.13
643.63	81.73
644.078	81.33
644.525	84.43
644.973	83.93
645.42	84.13
645.867	86.33
646.315	83.63
646.762	86.23
647.21	88.13
647.657	84.93
648.104	88.03
648.551	88.73
648.999	78.63
649.446	81.23
649.893	84.73
650.34	81.03
650.787	83.43
651.234	83.43
651.682	83.53
652.129	84.43
652.576	88.33
653.023	84.63
653.47	78.73
653.917	76.03
654.363	83.13
654.81	82.53
655.257	83.83
655.704	86.13
656.151	86.73
656.598	82.43
657.044	85.63
657.491	81.83
657.938	85.03
658.385	87.73
658.831	83.03
659.278	82.13
659.724	81.53
660.171	83.63
660.618	85.13
661.064	85.93
661.511	86.23
661.957	82.13
662.404	83.33
662.85	82.53
663.296	83.53
663.743	83.33
664.189	83.93
664.635	81.43
665.082	85.13
665.528	85.33
665.974	81.93
666.42	86.53
666.867	85.23
667.313	88.13
667.759	82.23
668.205	88.33
668.651	84.73
669.097	85.33
669.543	84.83
669.989	83.23
670.435	87.73
670.881	79.33
671.327	78.53
671.773	79.83
672.219	81.63
672.665	89.33
673.11	82.83
673.556	83.03
674.002	86.83
674.448	82.43
674.893	83.13
675.339	89.43
675.785	86.03
676.23	83.03
676.676	81.63
677.122	83.53
677.567	83.43
678.013	83.93
678.458	83.83
678.904	83.83
679.349	85.63
679.794	85.43
680.24	83.73
680.685	88.03
681.131	85.83
681.576	83.33
682.021	82.03
682.466	85.13
682.912	83.33
683.357	84.33
683.802	86.23
684.247	86.73
684.692	88.53
685.137	83.33
685.583	90.43
686.028	84.53
686.473	86.93
686.918	87.93
687.363	87.03
687.807	87.63
688.252	83.13
688.697	78.83
689.142	80.23
689.587	83.13
690.032	80.03
690.477	86.53
690.921	79.03
691.366	86.23
691.811	90.23
692.255	89.43
692.7	83.43
693.145	85.33
693.589	85.13
694.034	88.43
694.478	86.73
694.923	85.13
695.367	86.13
695.812	88.93
696.256	83.83
696.701	82.43
697.145	87.93
697.59	84.83
698.034	83.73
698.478	88.63
698.922	81.43
699.367	78.13
699.811	86.93
700.255	87.63
700.699	86.63
701.143	85.43
701.588	84.23
702.032	82.23
702.476	86.03
702.92	88.13
703.364	84.13
703.808	83.53
704.252	81.33
704.696	88.33
705.14	85.73
705.584	91.13
706.027	86.13
706.471	83.73
706.915	85.93
707.359	86.03
707.803	85.33
708.246	85.23
708.69	81.63
709.134	81.43
709.577	86.83
710.021	84.23
710.465	84.93
710.908	87.33
711.352	85.13
711.795	88.73
712.239	89.73
712.682	87.73
713.126	87.43
713.569	88.23
714.012	82.53
714.456	88.73
714.899	85.73
715.342	84.13
715.786	82.43
716.229	85.63
716.672	82.93
717.115	81.83
717.558	85.53
718.002	84.33
718.445	83.03
718.888	81.63
719.331	87.13
719.774	85.73
720.217	86.73
720.66	83.23
721.103	85.63
721.546	83.03
721.989	91.53
722.432	87.83
722.874	80.53
723.317	85.23
723.76	84.63
724.203	88.53
724.645	86.33
725.088	83.33
725.531	84.93
725.974	83.73
726.416	85.73
726.859	84.83
727.301	82.13
727.744	84.43
728.187	83.83
728.629	82.03
729.071	84.73
729.514	84.13
729.956	84.33
730.399	87.23
730.841	85.43
731.283	88.43
731.726	86.93
732.168	90.13
732.61	84.13
733.053	83.73
733.495	87.13
733.937	86.43
734.379	86.23
734.821	79.43
735.263	86.33
735.705	86.33
736.148	87.03
736.59	81.03
737.032	88.13
737.474	83.13
737.916	91.53
738.357	87.13
738.799	87.13
739.241	87.43
739.683	79.13
740.125	83.43
740.567	84.43
741.008	86.83
741.45	83.83
741.892	89.73
742.334	85.93
742.775	86.63
743.217	89.03
743.658	81.23
744.1	81.93
744.542	85.33
744.983	81.73
745.425	85.43
745.866	85.23
746.307	86.23
746.749	83.53
747.19	80.93
747.632	82.33
748.073	85.23
748.514	89.73
748.956	89.43
749.397	86.03
749.838	86.13
750.279	89.83
750.72	83.33
751.162	88.23
751.603	88.23
752.044	82.73
752.485	79.33
752.926	86.13
753.367	84.93
753.808	87.23
754.249	83.03
754.69	84.63
755.131	82.73
755.572	89.83
756.013	88.83
756.453	84.13
756.894	81.13
757.335	84.63
757.776	86.13
758.216	88.93
758.657	88.83
759.098	88.73
759.538	84.63
759.979	89.73
760.42	83.63
760.86	84.93
761.301	85.93
761.741	88.13
762.182	88.63
762.622	84.93
763.063	82.33
763.503	87.73
763.943	84.53
764.384	82.33
764.824	83.13
765.264	85.73
765.705	81.93
766.145	88.03
766.585	88.03
767.025	92.73
767.465	92.03
767.906	85.93
768.346	85.63
768.786	86.63
769.226	86.13
769.666	86.63
770.106	85.53
770.546	89.23
770.986	86.63
771.426	83.63
771.866	83.63
772.306	83.33
772.745	81.23
773.185	86.03
773.625	91.13
774.065	86.83
774.505	83.93
774.944	89.93
775.384	87.63
775.824	86.23
776.263	87.53
776.703	86.33
777.142	80.53
777.582	82.43
778.021	81.73
778.461	82.63
778.9	88.33
779.34	90.73
779.779	90.23
780.219	82.13
780.658	82.63
781.097	84.13
781.537	84.83
781.976	86.13
782.415	90.23
782.855	89.53
783.294	84.33
783.733	86.13
784.172	86.83
784.611	81.93
785.05	80.13
785.489	87.13
785.928	89.73
786.367	87.53
786.806	80.33
787.245	81.23
787.684	87.23
788.123	87.73
