Data from DH-3PlusCalLight-Deuterium_HRD10391_13-35-14-095.txt Node
Date: Thu Feb 15 13:35:14 EST 2018
User: Ender
Spectrometer: HR+D1039
Trigger mode: 0
Integration Time (sec): 2.730000E-2
Scans to average: 10
Electric dark correction enabled: true
Nonlinearity correction enabled: false
Boxcar width: 0
XAxis mode: Wavelengths
Number of Pixels in Spectrum: 2048
>>>>>Begin Spectral Data<<<<<
187.836	4.84
188.309	4.84
188.782	4.84
189.255	-0.86
189.728	-4.46
190.201	-6.26
190.674	-10.16
191.147	-11.56
191.619	-13.16
192.092	-2.06
192.565	-6.16
193.038	-4.36
193.511	3.94
193.984	2.74
194.456	5.54
194.929	7.94
195.402	13.64
195.874	20.44
196.347	23.84
196.82	26.64
197.292	24.34
197.765	28.44
198.237	41.04
198.71	36.94
199.182	42.04
199.655	48.24
200.127	51.54
200.6	61.54
201.072	58.84
201.544	62.54
202.017	65.34
202.489	65.94
202.961	70.34
203.433	73.04
203.906	77.64
204.378	77.04
204.85	74.14
205.322	79.24
205.794	74.54
206.266	78.74
206.739	81.94
207.211	82.64
207.683	86.04
208.155	84.14
208.627	88.54
209.099	80.44
209.57	82.74
210.042	88.04
210.514	83.54
210.986	84.74
211.458	86.14
211.93	84.94
212.402	79.54
212.873	83.14
213.345	82.84
213.817	84.54
214.288	82.34
214.76	83.74
215.232	84.84
215.703	86.24
216.175	83.84
216.646	80.24
217.118	79.74
217.589	76.44
218.061	78.54
218.532	81.94
219.004	82.94
219.475	83.04
219.946	82.04
220.418	80.14
220.889	82.64
221.36	78.54
221.832	84.64
222.303	81.24
222.774	76.34
223.245	79.14
223.717	82.54
224.188	88.34
224.659	85.34
225.13	85.44
225.601	89.64
226.072	88.94
226.543	87.24
227.014	88.54
227.485	88.34
227.956	96.34
228.427	93.44
228.898	98.44
229.369	93.74
229.839	92.84
230.31	104.14
230.781	100.64
231.252	102.04
231.722	100.54
232.193	97.54
232.664	101.94
233.135	93.04
233.605	97.04
234.076	103.14
234.546	99.24
235.017	99.24
235.487	97.24
235.958	91.94
236.428	95.24
236.899	93.04
237.369	90.94
237.84	91.64
238.31	87.54
238.78	88.04
239.251	82.94
239.721	78.44
240.191	83.84
240.662	80.64
241.132	80.54
241.602	86.54
242.072	79.94
242.542	83.44
243.013	79.04
243.483	84.84
243.953	84.14
244.423	78.94
244.893	82.24
245.363	79.94
245.833	83.84
246.303	79.14
246.773	81.54
247.243	79.34
247.712	83.24
248.182	82.64
248.652	82.04
249.122	81.14
249.592	83.44
250.061	82.54
250.531	82.44
251.001	81.94
251.471	81.34
251.94	82.64
252.41	85.34
252.879	85.84
253.349	87.34
253.818	89.24
254.288	84.54
254.757	89.34
255.227	91.24
255.696	96.34
256.166	96.24
256.635	98.14
257.105	101.84
257.574	102.24
258.043	109.34
258.513	107.74
258.982	116.54
259.451	125.04
259.92	125.94
260.389	133.34
260.859	138.74
261.328	141.24
261.797	151.24
262.266	159.24
262.735	159.14
263.204	162.44
263.673	165.94
264.142	183.54
264.611	181.74
265.08	194.74
265.549	193.94
266.018	201.74
266.487	198.74
266.955	206.14
267.424	213.24
267.893	215.54
268.362	220.44
268.83	226.54
269.299	223.94
269.768	226.94
270.236	234.34
270.705	234.64
271.174	235.44
271.642	231.24
272.111	245.74
272.579	244.94
273.048	245.94
273.516	240.04
273.985	239.74
274.453	250.04
274.922	244.54
275.39	241.04
275.858	246.84
276.327	252.24
276.795	247.84
277.263	246.44
277.731	243.74
278.2	237.54
278.668	239.24
279.136	239.54
279.604	241.34
280.072	240.24
280.54	238.34
281.008	241.14
281.477	239.64
281.945	234.84
282.413	237.64
282.881	238.64
283.348	233.44
283.816	233.14
284.284	231.74
284.752	231.84
285.22	230.74
285.688	231.84
286.156	231.64
286.623	225.24
287.091	226.24
287.559	228.64
288.026	234.14
288.494	226.94
288.962	230.94
289.429	235.54
289.897	233.44
290.364	234.34
290.832	242.64
291.3	236.34
291.767	245.74
292.234	246.74
292.702	243.34
293.169	248.94
293.637	254.54
294.104	254.84
294.571	255.64
295.039	258.74
295.506	262.54
295.973	261.74
296.44	263.74
296.908	263.04
297.375	260.14
297.842	262.04
298.309	267.54
298.776	269.24
299.243	276.14
299.71	268.04
300.177	269.44
300.644	266.94
301.111	264.54
301.578	267.34
302.045	269.24
302.512	269.64
302.979	257.84
303.446	266.64
303.913	269.74
304.379	273.14
304.846	255.64
305.313	261.74
305.78	266.34
306.246	263.34
306.713	261.74
307.18	257.44
307.646	256.94
308.113	259.34
308.579	249.54
309.046	254.24
309.512	259.64
309.979	254.64
310.445	256.74
310.912	254.54
311.378	254.74
311.845	253.14
312.311	255.04
312.777	251.84
313.244	257.04
313.71	250.74
314.176	251.54
314.642	257.54
315.109	257.24
315.575	251.54
316.041	252.04
316.507	255.54
316.973	262.94
317.439	259.54
317.905	256.94
318.371	265.34
318.837	260.84
319.303	269.44
319.769	271.14
320.235	269.04
320.701	274.74
321.167	274.44
321.633	274.94
322.099	270.64
322.564	271.44
323.03	276.44
323.496	276.74
323.962	275.04
324.427	275.24
324.893	276.04
325.359	277.34
325.824	276.44
326.29	278.44
326.755	274.04
327.221	270.44
327.686	282.34
328.152	278.14
328.617	263.54
329.083	266.84
329.548	270.34
330.014	265.94
330.479	264.84
330.944	263.74
331.41	269.34
331.875	262.34
332.34	259.34
332.805	259.44
333.271	254.64
333.736	255.04
334.201	251.94
334.666	254.34
335.131	252.84
335.596	250.34
336.061	251.54
336.526	249.24
336.991	248.04
337.456	251.74
337.921	244.94
338.386	242.34
338.851	246.54
339.316	252.74
339.781	248.54
340.246	256.04
340.711	256.64
341.175	266.14
341.64	261.04
342.105	261.04
342.569	265.24
343.034	273.74
343.499	274.74
343.963	272.04
344.428	270.14
344.893	275.84
345.357	279.94
345.822	277.54
346.286	286.84
346.751	292.54
347.215	291.84
347.679	285.84
348.144	297.34
348.608	298.24
349.073	291.84
349.537	299.24
350.001	297.44
350.465	299.34
350.93	294.24
351.394	299.14
351.858	296.14
352.322	297.64
352.786	300.44
353.25	293.54
353.715	296.64
354.179	295.84
354.643	292.24
355.107	294.04
355.571	301.04
356.035	294.04
356.498	298.84
356.962	293.94
357.426	299.64
357.89	298.24
358.354	292.74
358.818	294.14
359.281	296.84
359.745	300.24
360.209	296.54
360.673	295.24
361.136	295.14
361.6	295.14
362.064	294.14
362.527	301.94
362.991	298.54
363.454	293.14
363.918	300.14
364.381	298.14
364.845	297.34
365.308	296.24
365.772	297.24
366.235	293.64
366.698	300.84
367.162	297.74
367.625	299.24
368.088	306.34
368.552	308.64
369.015	289.04
369.478	293.64
369.941	300.14
370.404	301.64
370.867	295.44
371.331	305.14
371.794	305.34
372.257	298.94
372.72	301.34
373.183	298.24
373.646	304.64
374.109	314.44
374.572	310.74
375.035	305.54
375.497	306.94
375.96	308.04
376.423	307.44
376.886	313.24
377.349	319.44
377.811	325.34
378.274	317.74
378.737	311.74
379.199	323.14
379.662	311.54
380.125	317.54
380.587	316.24
381.05	320.04
381.512	321.44
381.975	321.14
382.437	322.94
382.9	317.14
383.362	325.34
383.825	324.64
384.287	326.64
384.75	321.84
385.212	325.34
385.674	322.44
386.136	334.04
386.599	326.14
387.061	328.14
387.523	329.14
387.985	324.04
388.447	329.14
388.91	322.84
389.372	325.94
389.834	326.84
390.296	330.64
390.758	331.24
391.22	326.64
391.682	334.84
392.144	335.74
392.606	329.14
393.068	327.44
393.529	332.84
393.991	325.44
394.453	324.84
394.915	327.84
395.377	326.84
395.838	331.24
396.3	337.74
396.762	346.34
397.224	338.84
397.685	344.64
398.147	333.94
398.608	338.64
399.07	333.14
399.531	330.74
399.993	333.34
400.454	334.44
400.916	340.04
401.377	331.24
401.839	330.64
402.3	333.14
402.762	329.34
403.223	327.04
403.684	326.24
404.145	340.14
404.607	337.74
405.068	321.84
405.529	321.64
405.99	320.94
406.451	320.74
406.913	310.74
407.374	319.14
407.835	311.24
408.296	313.54
408.757	305.04
409.218	310.84
409.679	297.24
410.14	298.34
410.601	305.24
411.062	301.54
411.522	296.84
411.983	295.64
412.444	309.44
412.905	293.14
413.366	287.04
413.826	284.64
414.287	280.14
414.748	285.34
415.208	282.14
415.669	283.74
416.13	281.44
416.59	279.64
417.051	274.14
417.511	277.44
417.972	282.54
418.432	291.34
418.893	290.34
419.353	285.94
419.814	300.34
420.274	296.64
420.734	294.64
421.195	297.14
421.655	284.14
422.115	283.04
422.576	286.04
423.036	274.74
423.496	266.54
423.956	273.54
424.416	262.34
424.876	271.84
425.336	268.04
425.797	268.84
426.257	272.04
426.717	271.74
427.177	263.54
427.637	263.74
428.097	261.14
428.556	259.44
429.016	263.14
429.476	254.34
429.936	248.94
430.396	234.24
430.856	227.94
431.315	224.14
431.775	222.44
432.235	221.44
432.694	228.64
433.154	226.84
433.614	212.44
434.073	209.54
434.533	204.54
434.993	199.24
435.452	201.24
435.912	190.74
436.371	188.14
436.83	189.24
437.29	187.04
437.749	185.54
438.209	178.64
438.668	173.84
439.127	176.44
439.587	172.14
440.046	169.04
440.505	169.64
440.964	160.54
441.424	156.34
441.883	156.74
442.342	159.64
442.801	159.24
443.26	155.64
443.719	142.14
444.178	140.74
444.637	138.94
445.096	131.44
445.555	136.54
446.014	133.64
446.473	125.94
446.932	124.94
447.391	118.94
447.849	119.54
448.308	114.04
448.767	114.54
449.226	111.54
449.685	110.54
450.143	113.24
450.602	109.54
451.061	110.04
451.519	103.84
451.978	101.84
452.436	101.84
452.895	102.54
453.353	98.04
453.812	104.64
454.27	99.54
454.729	98.44
455.187	95.34
455.646	93.34
456.104	94.44
456.562	95.74
457.021	89.34
457.479	96.04
457.937	93.04
458.395	91.44
458.854	93.24
459.312	90.54
459.77	92.74
460.228	96.94
460.686	86.14
461.144	86.74
461.602	87.94
462.06	84.94
462.518	85.24
462.976	89.94
463.434	89.14
463.892	89.24
464.35	87.74
464.808	84.74
465.266	86.84
465.724	82.34
466.181	87.44
466.639	92.64
467.097	87.54
467.555	89.84
468.012	84.64
468.47	88.14
468.928	87.64
469.385	83.44
469.843	81.24
470.3	87.64
470.758	86.34
471.215	79.44
471.673	89.14
472.13	84.64
472.588	85.14
473.045	86.24
473.503	86.84
473.96	89.94
474.417	87.44
474.875	87.34
475.332	83.54
475.789	85.64
476.246	86.84
476.704	88.54
477.161	84.44
477.618	83.54
478.075	86.64
478.532	89.84
478.989	88.04
479.446	83.54
479.903	86.94
480.36	88.84
480.817	85.94
481.274	86.34
481.731	87.14
482.188	86.24
482.645	92.84
483.102	90.44
483.558	90.04
484.015	84.54
484.472	82.04
484.929	92.34
485.385	89.24
485.842	90.44
486.299	86.54
486.755	88.94
487.212	91.14
487.668	84.24
488.125	86.14
488.582	84.44
489.038	81.34
489.494	87.84
489.951	88.54
490.407	86.94
490.864	84.24
491.32	82.44
491.776	83.14
492.233	82.04
492.689	85.04
493.145	92.04
493.602	88.74
494.058	87.84
494.514	86.54
494.97	87.44
495.426	88.64
495.882	88.84
496.338	87.14
496.794	88.04
497.251	85.34
497.707	84.14
498.163	83.74
498.618	83.94
499.074	85.94
499.53	82.64
499.986	80.74
500.442	86.04
500.898	82.84
501.354	83.54
501.809	86.34
502.265	84.84
502.721	85.24
503.177	82.14
503.632	83.24
504.088	87.84
504.543	90.74
504.999	87.94
505.455	87.44
505.91	85.14
506.366	83.14
506.821	86.04
507.277	84.64
507.732	88.24
508.187	88.14
508.643	89.84
509.098	86.04
509.553	86.14
510.009	88.14
510.464	86.24
510.919	87.44
511.375	83.94
511.83	88.64
512.285	87.54
512.74	85.04
513.195	81.24
513.65	84.14
514.105	89.54
514.56	82.24
515.015	94.24
515.47	84.24
515.925	85.94
516.38	86.24
516.835	85.44
517.29	88.24
517.745	85.34
518.2	81.64
518.655	80.54
519.109	85.14
519.564	86.54
520.019	87.44
520.474	85.74
520.928	92.74
521.383	87.54
521.838	87.54
522.292	87.34
522.747	83.84
523.201	87.14
523.656	85.14
524.11	87.74
524.565	86.04
525.019	81.14
525.474	82.34
525.928	84.64
526.382	87.14
526.837	84.04
527.291	86.24
527.745	86.94
528.2	86.24
528.654	86.44
529.108	90.14
529.562	87.14
530.016	89.14
530.47	89.44
530.925	86.44
531.379	86.44
531.833	90.64
532.287	87.64
532.741	85.24
533.195	85.14
533.649	90.74
534.103	82.94
534.556	85.64
535.01	87.14
535.464	83.44
535.918	90.44
536.372	84.64
536.826	87.24
537.279	88.84
537.733	87.84
538.187	82.44
538.64	88.44
539.094	86.94
539.548	88.54
540.001	84.34
540.455	83.24
540.908	89.54
541.362	86.04
541.815	87.74
542.269	82.44
542.722	90.44
543.175	88.44
543.629	86.74
544.082	82.34
544.536	88.34
544.989	86.14
545.442	82.04
545.895	88.84
546.349	85.04
546.802	86.44
547.255	82.34
547.708	86.74
548.161	85.74
548.614	80.44
549.067	84.94
549.52	83.34
549.973	82.34
550.426	79.14
550.879	83.54
551.332	90.64
551.785	86.94
552.238	87.64
552.691	87.54
553.144	87.44
553.596	85.74
554.049	87.24
554.502	84.74
554.955	86.74
555.407	88.44
555.86	81.24
556.313	82.94
556.765	84.54
557.218	82.84
557.67	80.44
558.123	87.04
558.576	82.14
559.028	81.64
559.48	88.64
559.933	80.94
560.385	84.84
560.838	87.14
561.29	86.44
561.742	86.54
562.195	82.44
562.647	87.94
563.099	87.84
563.551	86.14
564.004	84.64
564.456	88.54
564.908	84.94
565.36	85.54
565.812	85.54
566.264	84.54
566.716	85.64
567.168	85.34
567.62	82.44
568.072	83.74
568.524	80.94
568.976	85.24
569.428	89.34
569.88	84.54
570.332	87.94
570.784	85.64
571.235	86.44
571.687	84.84
572.139	86.94
572.59	83.04
573.042	89.54
573.494	88.34
573.945	84.14
574.397	90.44
574.849	85.64
575.3	87.24
575.752	93.64
576.203	86.64
576.655	85.54
577.106	88.94
577.557	88.34
578.009	83.54
578.46	89.04
578.912	91.54
579.363	89.54
579.814	88.54
580.265	86.34
580.717	88.74
581.168	83.14
581.619	85.94
582.07	90.54
582.521	88.04
582.972	86.84
583.423	89.74
583.875	89.94
584.326	82.84
584.777	81.04
585.227	86.24
585.678	90.44
586.129	87.64
586.58	84.94
587.031	85.64
587.482	80.54
587.933	86.54
588.384	86.54
588.834	86.04
589.285	81.44
589.736	87.74
590.186	83.24
590.637	90.94
591.088	82.64
591.538	87.74
591.989	82.14
592.439	85.04
592.89	83.44
593.34	86.14
593.791	85.74
594.241	88.34
594.692	86.84
595.142	83.64
595.593	85.64
596.043	86.34
596.493	86.84
596.943	87.54
597.394	89.64
597.844	88.24
598.294	88.44
598.744	90.54
599.195	86.64
599.645	79.34
600.095	85.44
600.545	81.14
600.995	91.24
601.445	86.14
601.895	84.84
602.345	90.84
602.795	83.14
603.245	88.94
603.695	88.34
604.145	86.84
604.594	82.74
605.044	83.54
605.494	87.84
605.944	88.24
606.393	90.94
606.843	83.14
607.293	88.54
607.743	84.14
608.192	84.54
608.642	89.54
609.091	85.34
609.541	88.24
609.99	81.74
610.44	82.64
610.889	87.84
611.339	86.94
611.788	82.94
612.238	82.84
612.687	83.54
613.136	88.04
613.586	89.94
614.035	84.34
614.484	87.74
614.933	85.04
615.383	89.24
615.832	83.64
616.281	88.74
616.73	88.44
617.179	83.84
617.628	80.34
618.077	85.64
618.526	81.84
618.975	83.64
619.424	82.04
619.873	84.04
620.322	82.14
620.771	83.74
621.22	90.44
621.669	83.14
622.118	84.94
622.567	80.24
623.015	78.64
623.464	86.94
623.913	79.64
624.361	84.64
624.81	81.64
625.259	83.24
625.707	85.24
626.156	89.34
626.604	84.24
627.053	81.24
627.501	87.34
627.95	84.04
628.398	87.84
628.847	87.84
629.295	85.04
629.744	87.64
630.192	85.24
630.64	84.74
631.089	83.04
631.537	90.04
631.985	83.74
632.433	86.44
632.881	82.54
633.33	82.14
633.778	88.54
634.226	88.34
634.674	80.74
635.122	77.34
635.57	83.14
636.018	83.74
636.466	88.54
636.914	86.34
637.362	80.14
637.81	80.14
638.258	88.44
638.705	88.14
639.153	86.94
639.601	79.54
640.049	82.04
640.497	83.84
640.944	87.24
641.392	81.64
641.84	84.24
642.287	82.84
642.735	85.54
643.182	85.14
643.63	84.44
644.078	83.14
644.525	86.24
644.973	85.14
645.42	86.04
645.867	92.74
646.315	83.14
646.762	85.24
647.21	85.74
647.657	84.84
648.104	79.84
648.551	83.44
648.999	87.14
649.446	86.44
649.893	88.24
650.34	82.84
650.787	88.34
651.234	84.64
651.682	82.74
652.129	88.84
652.576	89.14
653.023	92.54
653.47	92.74
653.917	99.04
654.363	98.04
654.81	110.14
655.257	104.84
655.704	87.24
656.151	83.24
656.598	85.84
657.044	83.04
657.491	88.34
657.938	85.84
658.385	85.34
658.831	88.14
659.278	87.94
659.724	85.74
660.171	84.34
660.618	82.34
661.064	82.34
661.511	86.04
661.957	85.74
662.404	82.94
662.85	89.44
663.296	85.94
663.743	87.14
664.189	81.34
664.635	87.14
665.082	87.64
665.528	81.24
665.974	87.44
666.42	84.44
666.867	87.44
667.313	87.14
667.759	89.74
668.205	88.44
668.651	78.54
669.097	83.04
669.543	85.54
669.989	85.74
670.435	91.44
670.881	85.04
671.327	86.94
671.773	84.44
672.219	86.84
672.665	82.34
673.11	81.24
673.556	81.94
674.002	84.64
674.448	85.64
674.893	84.04
675.339	82.74
675.785	86.94
676.23	83.24
676.676	84.24
677.122	85.14
677.567	85.74
678.013	87.04
678.458	84.24
678.904	83.84
679.349	82.94
679.794	84.74
680.24	88.94
680.685	85.64
681.131	81.84
681.576	85.74
682.021	82.84
682.466	82.44
682.912	85.44
683.357	85.84
683.802	82.64
684.247	87.04
684.692	84.34
685.137	87.54
685.583	86.44
686.028	90.14
686.473	87.34
686.918	81.14
687.363	85.74
687.807	87.04
688.252	82.94
688.697	84.54
689.142	92.74
689.587	78.34
690.032	88.34
690.477	88.14
690.921	88.74
691.366	86.84
691.811	92.84
692.255	88.84
692.7	80.64
693.145	85.64
693.589	81.94
694.034	82.14
694.478	89.04
694.923	86.84
695.367	90.64
695.812	85.04
696.256	87.94
696.701	80.24
697.145	91.24
697.59	87.64
698.034	88.14
698.478	87.34
698.922	88.94
699.367	81.04
699.811	83.94
700.255	84.24
700.699	85.14
701.143	86.64
701.588	79.54
702.032	83.04
702.476	82.84
702.92	87.24
703.364	79.34
703.808	84.84
704.252	83.74
704.696	84.44
705.14	80.84
705.584	86.14
706.027	83.04
706.471	85.64
706.915	81.94
707.359	89.74
707.803	79.34
708.246	89.64
708.69	83.74
709.134	84.84
709.577	87.24
710.021	75.34
710.465	82.14
710.908	81.64
711.352	87.34
711.795	89.34
712.239	90.44
712.682	86.24
713.126	83.04
713.569	85.74
714.012	88.54
714.456	87.04
714.899	85.74
715.342	87.54
715.786	88.34
716.229	87.04
716.672	80.94
717.115	79.44
717.558	88.84
718.002	82.34
718.445	87.84
718.888	80.34
719.331	85.64
719.774	83.04
720.217	88.54
720.66	83.54
721.103	85.34
721.546	84.14
721.989	76.34
722.432	84.44
722.874	83.14
723.317	86.04
723.76	88.84
724.203	85.74
724.645	84.14
725.088	89.54
725.531	84.44
725.974	84.14
726.416	88.14
726.859	82.74
727.301	90.24
727.744	88.04
728.187	84.24
728.629	84.04
729.071	83.74
729.514	86.34
729.956	90.54
730.399	87.24
730.841	85.44
731.283	87.44
731.726	83.14
732.168	85.54
732.61	86.24
733.053	86.04
733.495	82.54
733.937	87.04
734.379	84.54
734.821	85.74
735.263	87.54
735.705	92.84
736.148	86.64
736.59	82.44
737.032	85.54
737.474	87.44
737.916	83.14
738.357	87.04
738.799	76.74
739.241	85.04
739.683	86.64
740.125	91.24
740.567	81.84
741.008	85.84
741.45	84.74
741.892	89.14
742.334	85.74
742.775	87.54
743.217	84.54
743.658	83.74
744.1	85.04
744.542	87.34
744.983	85.04
745.425	83.24
745.866	82.64
746.307	87.44
746.749	87.74
747.19	83.54
747.632	81.84
748.073	85.84
748.514	85.64
748.956	88.14
749.397	87.24
749.838	83.44
750.279	83.34
750.72	94.14
751.162	87.74
751.603	88.74
752.044	92.64
752.485	84.24
752.926	81.04
753.367	87.34
753.808	86.54
754.249	81.04
754.69	90.54
755.131	82.74
755.572	82.74
756.013	87.24
756.453	85.94
756.894	79.84
757.335	83.94
757.776	87.94
758.216	87.74
758.657	85.54
759.098	83.84
759.538	84.54
759.979	92.74
760.42	87.04
760.86	87.04
761.301	81.64
761.741	85.54
762.182	86.84
762.622	89.84
763.063	85.14
763.503	84.44
763.943	87.94
764.384	87.04
764.824	80.54
765.264	90.34
765.705	85.64
766.145	86.94
766.585	88.54
767.025	87.84
767.465	81.74
767.906	89.44
768.346	91.64
768.786	87.04
769.226	86.84
769.666	83.14
770.106	83.04
770.546	84.84
770.986	86.14
771.426	81.04
771.866	81.64
772.306	86.44
772.745	84.74
773.185	84.64
773.625	83.64
774.065	86.44
774.505	78.44
774.944	83.44
775.384	78.64
