Data from DH-3PlusCalLight-Deuterium_HRD10391_13-35-08-908.txt Node
Date: Thu Feb 15 13:35:08 EST 2018
User: Ender
Spectrometer: HR+D1039
Trigger mode: 0
Integration Time (sec): 2.730000E-2
Scans to average: 10
Electric dark correction enabled: true
Nonlinearity correction enabled: false
Boxcar width: 0
XAxis mode: Wavelengths
Number of Pixels in Spectrum: 2048
>>>>>Begin Spectral Data<<<<<
187.836	-0.19
188.309	-0.19
188.782	-0.19
189.255	-3.29
189.728	-6.69
190.201	-5.19
190.674	-9.99
191.147	-7.49
191.619	-9.59
192.092	-8.19
192.565	-3.09
193.038	-4.69
193.511	-2.29
193.984	3.91
194.456	7.91
194.929	13.01
195.402	14.91
195.874	21.01
196.347	20.31
196.82	30.51
197.292	30.21
197.765	33.81
198.237	36.31
198.71	35.21
199.182	39.71
199.655	45.61
200.127	52.81
200.6	56.61
201.072	54.01
201.544	61.21
202.017	65.41
202.489	66.21
202.961	71.41
203.433	71.91
203.906	76.81
204.378	71.71
204.85	72.21
205.322	82.11
205.794	79.91
206.266	80.41
206.739	81.61
207.211	86.51
207.683	82.41
208.155	81.91
208.627	86.71
209.099	85.51
209.57	84.71
210.042	88.51
210.514	80.71
210.986	85.31
211.458	84.51
211.93	89.01
212.402	83.81
212.873	84.81
213.345	80.21
213.817	86.71
214.288	81.31
214.76	86.61
215.232	84.91
215.703	82.51
216.175	80.91
216.646	83.11
217.118	82.91
217.589	84.11
218.061	79.41
218.532	75.51
219.004	77.01
219.475	80.91
219.946	78.21
220.418	80.01
220.889	82.11
221.36	80.31
221.832	81.11
222.303	86.71
222.774	85.41
223.245	84.61
223.717	89.11
224.188	87.41
224.659	86.51
225.13	85.31
225.601	90.51
226.072	89.51
226.543	93.41
227.014	90.41
227.485	90.81
227.956	98.61
228.427	94.91
228.898	97.61
229.369	93.31
229.839	98.21
230.31	102.31
230.781	102.81
231.252	96.01
231.722	102.21
232.193	106.21
232.664	101.11
233.135	106.01
233.605	103.91
234.076	101.61
234.546	97.51
235.017	95.51
235.487	93.01
235.958	93.81
236.428	90.31
236.899	84.71
237.369	88.41
237.84	86.51
238.31	88.11
238.78	80.21
239.251	86.01
239.721	83.31
240.191	79.91
240.662	84.71
241.132	84.41
241.602	87.01
242.072	82.61
242.542	79.91
243.013	86.31
243.483	87.11
243.953	81.81
244.423	82.11
244.893	84.21
245.363	84.41
245.833	84.71
246.303	83.01
246.773	84.31
247.243	82.21
247.712	86.51
248.182	85.71
248.652	78.81
249.122	78.71
249.592	84.01
250.061	85.31
250.531	80.01
251.001	80.21
251.471	86.01
251.94	85.71
252.41	85.41
252.879	88.11
253.349	85.31
253.818	85.61
254.288	85.81
254.757	91.41
255.227	93.21
255.696	93.21
256.166	98.11
256.635	96.31
257.105	100.31
257.574	104.01
258.043	113.11
258.513	113.61
258.982	111.61
259.451	122.21
259.92	126.21
260.389	132.41
260.859	145.91
261.328	150.61
261.797	155.91
262.266	161.71
262.735	166.81
263.204	175.61
263.673	183.81
264.142	189.01
264.611	192.61
265.08	202.01
265.549	204.51
266.018	209.21
266.487	213.41
266.955	227.71
267.424	216.11
267.893	235.61
268.362	229.11
268.83	238.31
269.299	238.91
269.768	241.21
270.236	241.91
270.705	245.31
271.174	249.31
271.642	247.01
272.111	246.51
272.579	253.31
273.048	258.11
273.516	257.41
273.985	258.21
274.453	257.91
274.922	260.11
275.39	256.11
275.858	263.11
276.327	264.11
276.795	256.91
277.263	267.11
277.731	259.71
278.2	262.71
278.668	268.01
279.136	261.91
279.604	263.91
280.072	260.81
280.54	260.91
281.008	261.31
281.477	254.61
281.945	246.91
282.413	249.01
282.881	249.71
283.348	250.71
283.816	242.01
284.284	234.81
284.752	240.41
285.22	239.11
285.688	245.71
286.156	241.31
286.623	234.31
287.091	240.41
287.559	243.81
288.026	243.51
288.494	239.71
288.962	243.81
289.429	247.11
289.897	253.11
290.364	252.11
290.832	256.61
291.3	262.11
291.767	254.21
292.234	264.31
292.702	261.21
293.169	265.51
293.637	259.01
294.104	267.71
294.571	272.11
295.039	272.71
295.506	276.41
295.973	274.41
296.44	280.01
296.908	279.51
297.375	274.91
297.842	285.51
298.309	277.51
298.776	283.41
299.243	289.71
299.71	286.91
300.177	284.41
300.644	286.61
301.111	294.21
301.578	286.41
302.045	288.81
302.512	289.01
302.979	288.81
303.446	284.81
303.913	289.91
304.379	284.21
304.846	280.71
305.313	278.91
305.78	272.51
306.246	276.71
306.713	271.91
307.18	275.31
307.646	283.91
308.113	276.61
308.579	273.51
309.046	274.61
309.512	269.61
309.979	266.51
310.445	270.41
310.912	272.51
311.378	273.31
311.845	268.31
312.311	266.01
312.777	269.91
313.244	269.11
313.71	267.11
314.176	268.91
314.642	270.11
315.109	267.91
315.575	271.91
316.041	269.51
316.507	274.31
316.973	275.01
317.439	281.31
317.905	271.11
318.371	285.21
318.837	283.31
319.303	291.31
319.769	285.81
320.235	285.61
320.701	288.51
321.167	293.91
321.633	295.51
322.099	295.21
322.564	292.11
323.03	290.01
323.496	297.51
323.962	296.91
324.427	293.91
324.893	290.31
325.359	295.71
325.824	292.31
326.29	292.91
326.755	294.51
327.221	293.51
327.686	287.91
328.152	291.51
328.617	286.11
329.083	293.91
329.548	287.81
330.014	281.91
330.479	282.91
330.944	277.61
331.41	275.31
331.875	274.91
332.34	272.31
332.805	275.61
333.271	266.21
333.736	273.91
334.201	271.61
334.666	265.01
335.131	263.01
335.596	267.61
336.061	265.41
336.526	262.11
336.991	268.81
337.456	264.11
337.921	269.21
338.386	257.61
338.851	266.81
339.316	258.81
339.781	272.61
340.246	277.81
340.711	279.61
341.175	276.41
341.64	285.21
342.105	284.81
342.569	286.01
343.034	293.81
343.499	290.31
343.963	290.71
344.428	290.81
344.893	293.11
345.357	296.61
345.822	291.11
346.286	309.11
346.751	297.81
347.215	315.01
347.679	309.11
348.144	312.21
348.608	317.01
349.073	316.31
349.537	315.81
350.001	314.71
350.465	309.21
350.93	311.31
351.394	312.51
351.858	305.71
352.322	313.61
352.786	311.01
353.25	308.91
353.715	317.51
354.179	321.81
354.643	322.81
355.107	315.71
355.571	312.51
356.035	317.91
356.498	317.61
356.962	308.51
357.426	319.61
357.89	330.51
358.354	316.01
358.818	314.11
359.281	321.11
359.745	316.51
360.209	318.61
360.673	321.51
361.136	319.71
361.6	313.51
362.064	315.11
362.527	322.11
362.991	307.41
363.454	313.71
363.918	317.21
364.381	312.41
364.845	316.61
365.308	315.71
365.772	323.01
366.235	320.91
366.698	318.71
367.162	324.21
367.625	319.31
368.088	318.91
368.552	321.01
369.015	316.91
369.478	328.61
369.941	327.71
370.404	315.41
370.867	311.61
371.331	315.51
371.794	320.41
372.257	321.01
372.72	319.21
373.183	316.11
373.646	326.91
374.109	328.91
374.572	331.81
375.035	326.31
375.497	339.61
375.96	328.91
376.423	329.01
376.886	329.41
377.349	332.41
377.811	336.01
378.274	342.81
378.737	343.21
379.199	339.41
379.662	336.11
380.125	335.81
380.587	338.81
381.05	347.61
381.512	347.81
381.975	344.21
382.437	338.11
382.9	340.81
383.362	345.71
383.825	349.01
384.287	350.01
384.75	348.91
385.212	351.01
385.674	350.71
386.136	353.71
386.599	354.61
387.061	349.01
387.523	356.01
387.985	348.71
388.447	353.31
388.91	344.61
389.372	344.21
389.834	348.41
390.296	350.11
390.758	352.31
391.22	357.41
391.682	355.31
392.144	360.11
392.606	349.21
393.068	355.81
393.529	360.61
393.991	350.51
394.453	349.21
394.915	351.81
395.377	351.11
395.838	356.41
396.3	359.51
396.762	369.41
397.224	367.21
397.685	371.51
398.147	355.21
398.608	357.91
399.07	352.01
399.531	347.21
399.993	351.81
400.454	359.11
400.916	349.01
401.377	356.31
401.839	351.21
402.3	351.11
402.762	357.91
403.223	354.31
403.684	356.31
404.145	352.21
404.607	355.91
405.068	352.71
405.529	344.71
405.99	344.41
406.451	339.81
406.913	333.51
407.374	330.61
407.835	337.31
408.296	331.81
408.757	340.91
409.218	330.51
409.679	316.21
410.14	319.81
410.601	326.81
411.062	317.31
411.522	323.01
411.983	322.41
412.444	319.11
412.905	304.21
413.366	307.81
413.826	303.51
414.287	300.91
414.748	303.31
415.208	304.61
415.669	296.61
416.13	305.41
416.59	302.01
417.051	299.01
417.511	306.61
417.972	315.01
418.432	311.21
418.893	301.61
419.353	308.01
419.814	311.71
420.274	316.61
420.734	313.71
421.195	322.21
421.655	307.81
422.115	310.31
422.576	300.91
423.036	297.61
423.496	303.21
423.956	285.71
424.416	288.91
424.876	280.31
425.336	278.91
425.797	282.71
426.257	285.81
426.717	292.81
427.177	272.01
427.637	278.61
428.097	277.91
428.556	278.31
429.016	275.61
429.476	274.31
429.936	268.11
430.396	257.51
430.856	244.71
431.315	241.11
431.775	246.41
432.235	232.91
432.694	246.81
433.154	237.91
433.614	225.41
434.073	225.11
434.533	217.81
434.993	214.41
435.452	213.61
435.912	210.61
436.371	203.81
436.83	203.11
437.29	203.31
437.749	194.71
438.209	192.81
438.668	185.61
439.127	186.91
439.587	178.11
440.046	176.61
440.505	187.31
440.964	175.01
441.424	169.71
441.883	167.51
442.342	165.01
442.801	161.01
443.26	160.61
443.719	149.61
444.178	151.01
444.637	142.41
445.096	148.71
445.555	139.11
446.014	139.41
446.473	132.21
446.932	124.21
447.391	129.51
447.849	129.31
448.308	124.61
448.767	122.11
449.226	116.21
449.685	112.61
450.143	110.21
450.602	111.01
451.061	111.71
451.519	104.41
451.978	106.01
452.436	107.11
452.895	103.91
453.353	101.51
453.812	96.41
454.27	100.61
454.729	104.21
455.187	97.91
455.646	96.91
456.104	94.11
456.562	96.91
457.021	92.11
457.479	96.31
457.937	94.21
458.395	91.81
458.854	94.41
459.312	87.01
459.77	87.91
460.228	86.01
460.686	89.51
461.144	86.11
461.602	88.11
462.06	91.71
462.518	86.81
462.976	87.71
463.434	91.01
463.892	85.71
464.35	90.01
464.808	86.11
465.266	86.31
465.724	82.31
466.181	85.81
466.639	86.31
467.097	90.21
467.555	91.01
468.012	83.01
468.47	90.71
468.928	88.11
469.385	86.51
469.843	82.31
470.3	81.01
470.758	83.11
471.215	93.11
471.673	86.41
472.13	86.81
472.588	88.71
473.045	86.31
473.503	89.21
473.96	82.71
474.417	92.41
474.875	90.81
475.332	89.11
475.789	87.71
476.246	84.71
476.704	91.71
477.161	85.31
477.618	82.61
478.075	87.71
478.532	91.41
478.989	86.81
479.446	87.71
479.903	90.01
480.36	86.31
480.817	86.41
481.274	85.41
481.731	84.41
482.188	85.81
482.645	88.21
483.102	85.21
483.558	93.21
484.015	92.31
484.472	87.11
484.929	84.31
485.385	85.61
485.842	85.01
486.299	84.51
486.755	85.11
487.212	87.31
487.668	87.51
488.125	87.11
488.582	88.51
489.038	86.41
489.494	84.01
489.951	89.41
490.407	86.91
490.864	85.21
491.32	87.61
491.776	86.21
492.233	85.41
492.689	87.41
493.145	88.11
493.602	83.61
494.058	89.71
494.514	88.01
494.97	84.91
495.426	88.21
495.882	87.51
496.338	84.01
496.794	87.51
497.251	94.31
497.707	89.91
498.163	89.31
498.618	87.11
499.074	85.61
499.53	89.11
499.986	85.71
500.442	91.21
500.898	86.31
501.354	86.71
501.809	86.81
502.265	90.41
502.721	88.41
503.177	84.81
503.632	90.81
504.088	83.81
504.543	86.41
504.999	83.81
505.455	85.41
505.91	83.31
506.366	86.71
506.821	84.41
507.277	88.61
507.732	89.51
508.187	83.81
508.643	88.51
509.098	82.31
509.553	83.31
510.009	86.11
510.464	86.21
510.919	83.71
511.375	91.01
511.83	86.61
512.285	86.61
512.74	84.91
513.195	87.41
513.65	88.11
514.105	89.61
514.56	88.81
515.015	87.91
515.47	89.21
515.925	89.41
516.38	81.91
516.835	83.11
517.29	86.21
517.745	84.81
518.2	85.21
518.655	91.91
519.109	89.41
519.564	89.91
520.019	87.81
520.474	89.71
520.928	87.21
521.383	83.01
521.838	85.71
522.292	82.91
522.747	91.11
523.201	83.01
523.656	87.51
524.11	90.21
524.565	90.01
525.019	86.31
525.474	84.31
525.928	85.61
526.382	77.81
526.837	90.21
527.291	88.41
527.745	86.21
528.2	89.71
528.654	87.51
529.108	90.21
529.562	87.91
530.016	86.11
530.47	83.61
530.925	85.91
531.379	90.31
531.833	84.31
532.287	81.91
532.741	83.61
533.195	91.31
533.649	84.31
534.103	87.91
534.556	83.51
535.01	83.91
535.464	86.21
535.918	85.31
536.372	85.31
536.826	83.81
537.279	86.71
537.733	78.21
538.187	83.21
538.64	85.81
539.094	85.61
539.548	87.41
540.001	86.61
540.455	88.61
540.908	82.31
541.362	87.31
541.815	87.31
542.269	84.31
542.722	80.81
543.175	80.31
543.629	85.01
544.082	81.31
544.536	85.91
544.989	85.61
545.442	90.01
545.895	84.81
546.349	87.61
546.802	89.31
547.255	85.21
547.708	84.91
548.161	86.41
548.614	84.61
549.067	81.61
549.52	87.61
549.973	85.71
550.426	85.81
550.879	88.51
551.332	85.51
551.785	86.31
552.238	86.61
552.691	93.11
553.144	87.61
553.596	85.11
554.049	84.61
554.502	86.51
554.955	90.51
555.407	84.91
555.86	87.21
556.313	80.61
556.765	83.31
557.218	84.51
557.67	78.61
558.123	84.11
558.576	83.21
559.028	85.71
559.48	87.31
559.933	85.21
560.385	83.61
560.838	89.81
561.29	82.01
561.742	88.71
562.195	89.71
562.647	86.01
563.099	85.61
563.551	87.81
564.004	90.31
564.456	81.81
564.908	86.21
565.36	85.61
565.812	89.61
566.264	87.01
566.716	87.91
567.168	86.51
567.62	85.41
568.072	84.71
568.524	84.81
568.976	83.51
569.428	82.61
569.88	91.61
570.332	86.91
570.784	85.81
571.235	84.51
571.687	87.31
572.139	90.41
572.59	85.31
573.042	88.21
573.494	88.41
573.945	88.81
574.397	83.81
574.849	85.61
575.3	89.31
575.752	85.01
576.203	87.71
576.655	84.71
577.106	86.71
577.557	79.71
578.009	84.41
578.46	80.01
578.912	86.61
579.363	81.51
579.814	91.61
580.265	91.31
580.717	87.21
581.168	82.51
581.619	86.91
582.07	89.41
582.521	87.41
582.972	86.21
583.423	88.71
583.875	87.21
584.326	86.11
584.777	88.11
585.227	90.51
585.678	90.91
586.129	89.11
586.58	84.91
587.031	79.11
587.482	87.01
587.933	87.91
588.384	89.01
588.834	83.81
589.285	90.41
589.736	93.41
590.186	90.91
590.637	91.51
591.088	86.41
591.538	90.71
591.989	84.51
592.439	86.91
592.89	84.31
593.34	92.21
593.791	82.31
594.241	86.31
594.692	85.21
595.142	89.21
595.593	88.21
596.043	84.31
596.493	89.81
596.943	85.81
597.394	87.91
597.844	86.31
598.294	85.41
598.744	84.71
599.195	90.91
599.645	89.11
600.095	87.31
600.545	87.61
600.995	86.11
601.445	88.41
601.895	85.11
602.345	89.21
602.795	86.81
603.245	85.21
603.695	84.11
604.145	87.01
604.594	86.01
605.044	89.31
605.494	85.11
605.944	86.81
606.393	85.21
606.843	84.01
607.293	85.11
607.743	88.11
608.192	87.21
608.642	83.41
609.091	83.11
609.541	86.61
609.99	88.41
610.44	85.41
610.889	87.61
611.339	82.01
611.788	86.41
612.238	83.81
612.687	90.11
613.136	88.51
613.586	88.51
614.035	86.41
614.484	84.71
614.933	87.41
615.383	84.81
615.832	88.01
616.281	82.31
616.73	86.81
617.179	91.11
617.628	86.51
618.077	84.11
618.526	83.01
618.975	83.31
619.424	88.81
619.873	82.51
620.322	87.41
620.771	85.51
621.22	87.61
621.669	84.41
622.118	89.21
622.567	87.81
623.015	83.91
623.464	88.81
623.913	88.01
624.361	88.71
624.81	85.31
625.259	88.21
625.707	84.81
626.156	84.81
626.604	86.31
627.053	84.21
627.501	83.21
627.95	83.41
628.398	85.31
628.847	84.61
629.295	92.11
629.744	82.11
630.192	85.91
630.64	79.21
631.089	84.41
631.537	85.41
631.985	88.51
632.433	86.61
632.881	89.21
633.33	85.31
633.778	85.81
634.226	86.41
634.674	84.61
635.122	92.31
635.57	82.51
636.018	82.71
636.466	81.11
636.914	88.91
637.362	83.51
637.81	84.01
638.258	86.21
638.705	87.21
639.153	84.21
639.601	87.31
640.049	82.81
640.497	82.91
640.944	84.91
641.392	87.51
641.84	79.81
642.287	87.61
642.735	83.31
643.182	83.11
643.63	85.71
644.078	85.21
644.525	91.01
644.973	82.11
645.42	82.81
645.867	84.51
646.315	83.11
646.762	83.11
647.21	83.61
647.657	85.51
648.104	85.91
648.551	84.61
648.999	89.51
649.446	86.71
649.893	84.71
650.34	87.61
650.787	86.21
651.234	89.21
651.682	84.71
652.129	85.51
652.576	86.11
653.023	84.41
653.47	91.81
653.917	95.61
654.363	100.41
654.81	105.11
655.257	108.21
655.704	89.21
656.151	87.21
656.598	88.81
657.044	84.81
657.491	81.41
657.938	83.51
658.385	82.91
658.831	83.11
659.278	86.61
659.724	81.61
660.171	87.01
660.618	85.51
661.064	85.31
661.511	86.81
661.957	86.71
662.404	81.01
662.85	83.21
663.296	86.81
663.743	81.61
664.189	87.21
664.635	85.31
665.082	83.51
665.528	80.81
665.974	80.51
666.42	82.71
666.867	86.91
667.313	89.81
667.759	87.41
668.205	84.61
668.651	87.21
669.097	83.11
669.543	86.61
669.989	86.61
670.435	85.41
670.881	88.91
671.327	84.91
671.773	84.11
672.219	81.41
672.665	84.61
673.11	85.21
673.556	86.21
674.002	90.11
674.448	85.21
674.893	83.81
675.339	83.71
675.785	86.61
676.23	84.71
676.676	83.31
677.122	82.31
677.567	86.31
678.013	86.81
678.458	89.01
678.904	85.71
679.349	83.81
679.794	80.31
680.24	77.11
680.685	85.81
681.131	84.41
681.576	87.71
682.021	83.81
682.466	87.61
682.912	85.21
683.357	86.81
683.802	87.91
684.247	80.31
684.692	86.31
685.137	86.41
685.583	85.91
686.028	84.11
686.473	89.61
686.918	85.11
687.363	81.21
687.807	91.61
688.252	84.41
688.697	84.91
689.142	82.11
689.587	83.91
690.032	89.51
690.477	89.51
690.921	87.01
691.366	81.81
691.811	87.91
692.255	87.41
692.7	87.41
693.145	85.81
693.589	86.31
694.034	87.31
694.478	85.61
694.923	94.91
695.367	86.11
695.812	88.71
696.256	85.61
696.701	87.41
697.145	84.01
697.59	84.41
698.034	85.01
698.478	82.21
698.922	86.21
699.367	80.81
699.811	85.81
700.255	87.11
700.699	86.91
701.143	87.11
701.588	91.61
702.032	88.31
702.476	83.21
702.92	85.11
703.364	90.31
703.808	88.91
704.252	81.01
704.696	88.91
705.14	87.21
705.584	87.31
706.027	89.71
706.471	77.51
706.915	84.11
707.359	87.71
707.803	88.51
708.246	83.81
708.69	84.21
709.134	84.51
709.577	86.31
710.021	90.61
710.465	85.11
710.908	88.01
711.352	81.01
711.795	79.51
712.239	84.61
712.682	80.31
713.126	83.31
713.569	83.51
714.012	87.71
714.456	87.01
714.899	87.51
715.342	82.41
715.786	91.11
716.229	83.51
716.672	83.81
717.115	87.01
717.558	83.61
718.002	89.31
718.445	83.71
718.888	84.21
719.331	83.11
719.774	85.91
720.217	83.31
720.66	82.51
721.103	79.41
721.546	83.81
721.989	81.31
722.432	82.71
722.874	88.41
723.317	82.51
723.76	82.81
724.203	89.31
724.645	84.11
725.088	87.51
725.531	84.61
725.974	89.41
726.416	81.01
726.859	80.41
727.301	86.21
727.744	87.81
728.187	81.91
728.629	83.31
729.071	86.21
729.514	86.01
729.956	86.11
730.399	82.81
730.841	87.61
731.283	84.91
731.726	85.61
732.168	86.01
732.61	84.31
733.053	88.51
733.495	87.11
733.937	85.11
734.379	88.31
734.821	85.91
735.263	82.91
735.705	85.21
736.148	80.61
736.59	84.01
737.032	88.81
737.474	83.81
737.916	85.91
738.357	86.11
738.799	87.41
739.241	86.51
739.683	88.81
740.125	90.51
740.567	85.11
741.008	90.31
741.45	89.41
741.892	87.91
742.334	86.21
742.775	88.01
743.217	83.41
743.658	85.71
744.1	87.11
744.542	84.31
744.983	86.81
745.425	79.91
745.866	82.11
746.307	81.11
746.749	84.71
747.19	83.31
747.632	87.51
748.073	85.31
748.514	76.01
748.956	85.81
749.397	82.61
749.838	83.81
750.279	80.51
750.72	89.71
751.162	90.21
751.603	85.11
752.044	85.11
752.485	82.81
752.926	85.81
753.367	84.61
753.808	86.61
754.249	86.21
754.69	85.01
755.131	85.81
755.572	88.61
756.013	85.21
756.453	84.81
756.894	88.01
757.335	86.81
757.776	86.81
758.216	85.21
758.657	84.21
759.098	88.31
759.538	84.81
759.979	87.51
760.42	85.21
760.86	90.91
761.301	85.61
761.741	80.51
762.182	82.01
762.622	80.61
763.063	87.41
763.503	80.71
763.943	84.41
764.384	87.01
764.824	87.91
765.264	81.41
765.705	86.81
766.145	85.31
766.585	83.91
767.025	87.71
767.465	83.01
767.906	82.21
768.346	86.61
768.786	86.91
769.226	84.81
769.666	82.81
770.106	87.71
770.546	86.31
770.986	84.91
771.426	88.31
771.866	88.31
772.306	82.21
772.745	86.81
773.185	84.91
773.625	84.51
774.065	84.41
774.505	87.21
774.944	87.71
