Data from DH-3PlusCalLight-Background_HRD10391_13-34-17-042.txt Node
Date: Thu Feb 15 13:34:17 EST 2018
User: Ender
Spectrometer: HR+D1039
Trigger mode: 0
Integration Time (sec): 2.730000E-2
Scans to average: 10
Electric dark correction enabled: true
Nonlinearity correction enabled: false
Boxcar width: 0
XAxis mode: Wavelengths
Number of Pixels in Spectrum: 2048
>>>>>Begin Spectral Data<<<<<
187.836	1.49
188.309	1.49
188.782	1.49
189.255	1.09
189.728	-2.91
190.201	-5.71
190.674	-6.21
191.147	-11.41
191.619	-11.41
192.092	-6.81
192.565	-3.61
193.038	-2.11
193.511	2.89
193.984	-2.91
194.456	0.59
194.929	14.99
195.402	13.29
195.874	18.79
196.347	19.29
196.82	21.99
197.292	27.49
197.765	33.89
198.237	38.49
198.71	47.49
199.182	47.69
199.655	43.69
200.127	53.19
200.6	57.49
201.072	54.69
201.544	59.79
202.017	65.99
202.489	65.69
202.961	67.69
203.433	67.59
203.906	71.79
204.378	73.39
204.85	74.29
205.322	81.59
205.794	80.19
206.266	88.69
206.739	83.39
207.211	81.09
207.683	85.39
208.155	87.69
208.627	85.69
209.099	86.09
209.57	81.49
210.042	83.19
210.514	87.09
210.986	85.89
211.458	87.39
211.93	82.49
212.402	83.89
212.873	85.39
213.345	85.89
213.817	83.79
214.288	84.19
214.76	88.19
215.232	86.09
215.703	83.29
216.175	79.89
216.646	84.39
217.118	81.49
217.589	81.99
218.061	82.29
218.532	81.19
219.004	81.39
219.475	75.89
219.946	80.59
220.418	82.29
220.889	81.99
221.36	78.49
221.832	75.19
222.303	76.79
222.774	79.09
223.245	80.99
223.717	73.09
224.188	80.69
224.659	76.59
225.13	76.09
225.601	78.89
226.072	79.69
226.543	81.69
227.014	77.39
227.485	71.29
227.956	82.29
228.427	83.79
228.898	79.19
229.369	73.79
229.839	84.69
230.31	76.99
230.781	79.39
231.252	73.99
231.722	75.89
232.193	83.79
232.664	80.49
233.135	79.39
233.605	78.99
234.076	82.49
234.546	79.79
235.017	79.59
235.487	77.89
235.958	81.29
236.428	80.19
236.899	82.39
237.369	83.99
237.84	80.89
238.31	77.99
238.78	82.29
239.251	79.79
239.721	80.49
240.191	83.89
240.662	81.49
241.132	82.19
241.602	83.59
242.072	81.69
242.542	77.79
243.013	75.09
243.483	84.49
243.953	83.29
244.423	80.29
244.893	84.09
245.363	79.39
245.833	82.99
246.303	81.39
246.773	82.69
247.243	85.49
247.712	83.29
248.182	79.09
248.652	81.49
249.122	83.39
249.592	82.69
250.061	76.59
250.531	78.89
251.001	85.39
251.471	82.99
251.94	81.29
252.41	83.79
252.879	83.59
253.349	78.59
253.818	83.09
254.288	82.79
254.757	81.59
255.227	84.09
255.696	82.69
256.166	77.79
256.635	81.19
257.105	82.79
257.574	81.09
258.043	83.39
258.513	84.69
258.982	83.39
259.451	78.99
259.92	83.69
260.389	80.99
260.859	81.89
261.328	87.09
261.797	83.89
262.266	83.09
262.735	87.29
263.204	83.79
263.673	77.49
264.142	86.29
264.611	79.09
265.08	80.99
265.549	77.69
266.018	85.39
266.487	82.49
266.955	84.79
267.424	78.49
267.893	81.29
268.362	80.49
268.83	86.19
269.299	84.19
269.768	84.69
270.236	80.19
270.705	84.09
271.174	79.29
271.642	87.89
272.111	88.99
272.579	85.39
273.048	80.69
273.516	82.99
273.985	77.49
274.453	82.39
274.922	83.09
275.39	87.69
275.858	83.09
276.327	88.89
276.795	83.49
277.263	80.09
277.731	86.69
278.2	83.79
278.668	84.69
279.136	87.69
279.604	87.39
280.072	84.39
280.54	83.59
281.008	85.59
281.477	85.39
281.945	85.09
282.413	81.29
282.881	85.39
283.348	83.49
283.816	85.99
284.284	81.69
284.752	87.29
285.22	86.49
285.688	81.69
286.156	79.39
286.623	81.49
287.091	79.59
287.559	82.19
288.026	84.19
288.494	84.19
288.962	90.59
289.429	84.19
289.897	88.09
290.364	83.49
290.832	84.49
291.3	88.19
291.767	86.39
292.234	83.59
292.702	84.59
293.169	88.29
293.637	86.19
294.104	84.49
294.571	84.59
295.039	81.99
295.506	84.89
295.973	83.99
296.44	82.99
296.908	85.89
297.375	82.59
297.842	83.89
298.309	87.99
298.776	82.89
299.243	83.89
299.71	86.69
300.177	85.49
300.644	85.29
301.111	87.59
301.578	90.29
302.045	83.39
302.512	85.99
302.979	82.99
303.446	86.29
303.913	84.99
304.379	87.49
304.846	85.49
305.313	88.49
305.78	85.39
306.246	86.09
306.713	89.19
307.18	84.89
307.646	83.79
308.113	86.39
308.579	84.49
309.046	85.39
309.512	86.89
309.979	84.99
310.445	82.49
310.912	80.09
311.378	80.19
311.845	83.69
312.311	86.19
312.777	81.89
313.244	78.89
313.71	86.99
314.176	87.79
314.642	85.89
315.109	84.09
315.575	82.09
316.041	90.99
316.507	85.89
316.973	87.29
317.439	81.89
317.905	85.49
318.371	85.09
318.837	77.89
319.303	85.59
319.769	86.79
320.235	84.79
320.701	89.39
321.167	91.69
321.633	85.99
322.099	88.59
322.564	88.29
323.03	85.69
323.496	85.39
323.962	87.19
324.427	86.89
324.893	84.89
325.359	86.99
325.824	86.09
326.29	82.59
326.755	84.99
327.221	87.79
327.686	80.79
328.152	85.99
328.617	84.09
329.083	84.59
329.548	83.59
330.014	87.39
330.479	88.59
330.944	83.79
331.41	88.79
331.875	86.19
332.34	87.19
332.805	85.79
333.271	86.79
333.736	85.29
334.201	83.29
334.666	85.29
335.131	86.89
335.596	84.89
336.061	82.29
336.526	84.09
336.991	81.79
337.456	84.79
337.921	85.59
338.386	90.19
338.851	86.49
339.316	83.29
339.781	84.39
340.246	83.19
340.711	84.69
341.175	83.59
341.64	86.99
342.105	88.19
342.569	85.69
343.034	86.79
343.499	81.99
343.963	88.59
344.428	91.19
344.893	86.19
345.357	88.49
345.822	87.09
346.286	89.49
346.751	85.39
347.215	87.09
347.679	85.19
348.144	86.29
348.608	82.49
349.073	82.39
349.537	84.89
350.001	85.49
350.465	89.29
350.93	88.09
351.394	83.69
351.858	84.49
352.322	84.39
352.786	88.49
353.25	91.79
353.715	90.39
354.179	85.49
354.643	84.09
355.107	80.89
355.571	84.99
356.035	83.19
356.498	83.29
356.962	83.69
357.426	81.39
357.89	84.29
358.354	86.29
358.818	94.19
359.281	86.09
359.745	82.69
360.209	81.89
360.673	84.69
361.136	84.79
361.6	85.39
362.064	86.59
362.527	89.29
362.991	90.09
363.454	82.29
363.918	87.09
364.381	84.49
364.845	87.29
365.308	85.89
365.772	89.69
366.235	84.79
366.698	85.99
367.162	87.09
367.625	88.59
368.088	84.39
368.552	81.49
369.015	86.39
369.478	85.09
369.941	84.19
370.404	87.09
370.867	80.09
371.331	82.49
371.794	86.99
372.257	90.39
372.72	87.29
373.183	83.39
373.646	86.09
374.109	86.79
374.572	85.39
375.035	91.19
375.497	86.69
375.96	81.49
376.423	87.19
376.886	89.39
377.349	86.29
377.811	89.59
378.274	84.09
378.737	82.09
379.199	87.29
379.662	89.59
380.125	89.19
380.587	86.39
381.05	87.19
381.512	83.09
381.975	84.79
382.437	84.89
382.9	90.69
383.362	79.29
383.825	89.09
384.287	83.59
384.75	88.09
385.212	81.09
385.674	86.19
386.136	87.99
386.599	90.29
387.061	89.59
387.523	86.99
387.985	90.09
388.447	78.89
388.91	84.19
389.372	90.19
389.834	87.89
390.296	87.49
390.758	85.19
391.22	82.89
391.682	83.69
392.144	83.49
392.606	85.09
393.068	84.99
393.529	88.99
393.991	81.69
394.453	83.39
394.915	89.19
395.377	90.19
395.838	87.79
396.3	87.19
396.762	80.09
397.224	86.09
397.685	87.79
398.147	87.59
398.608	87.19
399.07	83.19
399.531	87.29
399.993	85.49
400.454	86.29
400.916	90.89
401.377	87.89
401.839	83.29
402.3	84.99
402.762	89.39
403.223	82.69
403.684	82.29
404.145	85.29
404.607	88.39
405.068	83.59
405.529	80.09
405.99	87.09
406.451	88.19
406.913	85.29
407.374	85.69
407.835	86.99
408.296	80.39
408.757	83.09
409.218	80.69
409.679	86.79
410.14	87.79
410.601	84.59
411.062	82.99
411.522	90.29
411.983	87.99
412.444	82.09
412.905	90.69
413.366	87.39
413.826	85.19
414.287	85.59
414.748	87.59
415.208	85.59
415.669	83.99
416.13	83.79
416.59	93.49
417.051	82.49
417.511	89.79
417.972	88.79
418.432	88.69
418.893	82.69
419.353	86.79
419.814	90.89
420.274	85.89
420.734	86.79
421.195	85.49
421.655	86.39
422.115	87.09
422.576	82.09
423.036	90.79
423.496	86.19
423.956	84.49
424.416	88.69
424.876	84.99
425.336	82.29
425.797	87.89
426.257	85.69
426.717	82.79
427.177	84.79
427.637	84.49
428.097	82.29
428.556	83.39
429.016	83.09
429.476	83.89
429.936	90.29
430.396	85.79
430.856	89.69
431.315	81.99
431.775	85.29
432.235	83.79
432.694	85.59
433.154	84.29
433.614	89.19
434.073	79.89
434.533	86.79
434.993	84.99
435.452	90.29
435.912	91.39
436.371	86.69
436.83	84.09
437.29	81.99
437.749	85.69
438.209	86.39
438.668	88.89
439.127	82.99
439.587	85.59
440.046	83.39
440.505	85.99
440.964	84.49
441.424	89.09
441.883	86.99
442.342	87.69
442.801	85.19
443.26	80.79
443.719	86.19
444.178	87.29
444.637	81.79
445.096	85.29
445.555	88.69
446.014	88.39
446.473	84.89
446.932	84.99
447.391	89.79
447.849	86.29
448.308	87.39
448.767	83.79
449.226	85.49
449.685	84.09
450.143	85.39
450.602	78.59
451.061	84.89
451.519	82.09
451.978	85.19
452.436	82.59
452.895	92.29
453.353	85.59
453.812	89.09
454.27	87.29
454.729	84.39
455.187	86.59
455.646	83.89
456.104	88.59
456.562	82.29
457.021	84.29
457.479	89.79
457.937	86.99
458.395	85.79
458.854	82.89
459.312	81.09
459.77	84.99
460.228	81.99
460.686	83.29
461.144	79.09
461.602	86.49
462.06	89.89
462.518	89.09
462.976	86.89
463.434	83.19
463.892	78.99
464.35	83.99
464.808	82.89
465.266	87.19
465.724	84.49
466.181	82.09
466.639	81.59
467.097	80.89
467.555	82.19
468.012	86.99
468.47	88.39
468.928	83.69
469.385	87.89
469.843	80.19
470.3	83.59
470.758	83.49
471.215	85.39
471.673	87.09
472.13	88.09
472.588	87.49
473.045	88.39
473.503	87.89
473.96	83.99
474.417	89.39
474.875	86.39
475.332	84.99
475.789	82.49
476.246	86.09
476.704	81.39
477.161	81.79
477.618	83.59
478.075	83.39
478.532	84.49
478.989	82.49
479.446	90.59
479.903	81.99
480.36	82.99
480.817	83.89
481.274	87.79
481.731	85.69
482.188	82.89
482.645	88.59
483.102	88.59
483.558	85.49
484.015	80.39
484.472	80.79
484.929	84.39
485.385	82.49
485.842	82.99
486.299	82.79
486.755	88.89
487.212	81.89
487.668	81.49
488.125	86.99
488.582	86.29
489.038	81.99
489.494	82.79
489.951	83.39
490.407	82.19
490.864	85.59
491.32	81.49
491.776	84.49
492.233	82.09
492.689	87.69
493.145	86.59
493.602	81.99
494.058	85.09
494.514	82.59
494.97	81.39
495.426	80.59
495.882	86.49
496.338	84.39
496.794	82.79
497.251	86.59
497.707	77.89
498.163	83.09
498.618	85.59
499.074	84.49
499.53	82.79
499.986	85.19
500.442	81.99
500.898	85.29
501.354	90.09
501.809	85.39
502.265	86.49
502.721	82.69
503.177	79.59
503.632	83.09
504.088	84.39
504.543	84.99
504.999	83.19
505.455	85.39
505.91	83.29
506.366	83.89
506.821	85.39
507.277	89.79
507.732	78.89
508.187	82.39
508.643	83.39
509.098	86.69
509.553	86.99
510.009	83.39
510.464	84.49
510.919	90.09
511.375	86.59
511.83	79.89
512.285	86.59
512.74	83.79
513.195	81.79
513.65	82.99
514.105	83.49
514.56	84.99
515.015	85.99
515.47	88.59
515.925	82.39
516.38	79.99
516.835	85.79
517.29	88.09
517.745	83.69
518.2	80.69
518.655	83.29
519.109	80.19
519.564	84.29
520.019	78.19
520.474	84.29
520.928	84.29
521.383	78.79
521.838	81.49
522.292	84.29
522.747	87.59
523.201	84.09
523.656	83.79
524.11	81.39
524.565	85.19
525.019	84.79
525.474	84.59
525.928	82.19
526.382	87.69
526.837	79.59
527.291	82.79
527.745	84.29
528.2	79.29
528.654	81.79
529.108	84.69
529.562	84.89
530.016	79.89
530.47	81.99
530.925	85.39
531.379	81.19
531.833	80.09
532.287	81.69
532.741	83.39
533.195	82.49
533.649	82.99
534.103	85.59
534.556	83.29
535.01	78.99
535.464	80.39
535.918	83.49
536.372	83.29
536.826	85.39
537.279	87.49
537.733	78.99
538.187	79.99
538.64	82.09
539.094	85.69
539.548	78.99
540.001	82.19
540.455	85.99
540.908	83.19
541.362	83.69
541.815	83.89
542.269	83.89
542.722	85.19
543.175	88.09
543.629	84.79
544.082	83.59
544.536	86.59
544.989	82.19
545.442	82.59
545.895	83.09
546.349	84.99
546.802	84.09
547.255	83.79
547.708	82.79
548.161	83.29
548.614	82.89
549.067	78.89
549.52	81.69
549.973	82.89
550.426	83.99
550.879	84.89
551.332	87.19
551.785	79.49
552.238	83.09
552.691	83.79
553.144	83.29
553.596	85.09
554.049	83.49
554.502	84.19
554.955	86.69
555.407	83.99
555.86	77.99
556.313	88.59
556.765	85.59
557.218	80.89
557.67	82.79
558.123	79.29
558.576	78.79
559.028	80.69
559.48	86.89
559.933	79.99
560.385	84.79
560.838	87.29
561.29	84.59
561.742	83.89
562.195	83.09
562.647	86.79
563.099	84.69
563.551	81.59
564.004	79.59
564.456	80.69
564.908	82.59
565.36	87.49
565.812	85.49
566.264	84.89
566.716	83.29
567.168	84.59
567.62	91.19
568.072	81.99
568.524	81.19
568.976	84.99
569.428	82.89
569.88	84.79
570.332	83.09
570.784	84.69
571.235	85.19
571.687	81.29
572.139	88.49
572.59	85.19
573.042	80.29
573.494	80.39
573.945	88.29
574.397	77.49
574.849	85.79
575.3	84.59
575.752	86.89
576.203	86.59
576.655	87.69
577.106	88.69
577.557	82.79
578.009	87.49
578.46	83.19
578.912	84.09
579.363	84.09
579.814	79.69
580.265	81.69
580.717	81.09
581.168	83.19
581.619	88.19
582.07	79.19
582.521	80.99
582.972	84.49
583.423	80.69
583.875	83.19
584.326	84.69
584.777	84.59
585.227	81.69
585.678	84.39
586.129	81.99
586.58	84.39
587.031	88.19
587.482	82.99
587.933	84.69
588.384	86.19
588.834	85.79
589.285	83.89
589.736	84.79
590.186	89.19
590.637	83.59
591.088	85.69
591.538	86.79
591.989	85.79
592.439	85.59
592.89	87.99
593.34	83.49
593.791	83.29
594.241	84.69
594.692	85.09
595.142	84.89
595.593	85.99
596.043	81.49
596.493	83.19
596.943	85.49
597.394	86.99
597.844	84.59
598.294	83.89
598.744	84.79
599.195	82.39
599.645	90.79
600.095	87.59
600.545	82.99
600.995	83.89
601.445	86.49
601.895	86.29
602.345	84.39
602.795	79.39
603.245	86.89
603.695	83.19
604.145	82.49
604.594	81.69
605.044	87.69
605.494	84.99
605.944	87.89
606.393	83.39
606.843	84.59
607.293	85.79
607.743	83.09
608.192	79.69
608.642	82.59
609.091	88.19
609.541	93.19
609.99	84.49
610.44	85.49
610.889	82.89
611.339	80.59
611.788	85.99
612.238	84.29
612.687	86.59
613.136	84.39
613.586	83.49
614.035	86.19
614.484	83.59
614.933	84.49
615.383	85.59
615.832	86.99
616.281	87.49
616.73	79.39
617.179	85.59
617.628	87.59
618.077	88.09
618.526	82.19
618.975	80.69
619.424	85.49
619.873	86.89
620.322	82.59
620.771	79.89
621.22	83.19
621.669	84.39
622.118	86.19
622.567	82.09
623.015	81.69
623.464	81.19
623.913	87.99
624.361	85.29
624.81	86.39
625.259	86.59
625.707	84.09
626.156	87.09
626.604	81.69
627.053	84.09
627.501	82.29
627.95	84.69
628.398	84.19
628.847	83.19
629.295	80.79
629.744	83.39
630.192	85.29
630.64	83.19
631.089	82.59
631.537	83.89
631.985	86.09
632.433	83.69
632.881	81.69
633.33	86.39
633.778	85.29
634.226	84.69
634.674	82.99
635.122	90.09
635.57	82.49
636.018	81.09
636.466	84.09
636.914	84.19
637.362	86.39
637.81	87.79
638.258	83.09
638.705	88.29
639.153	86.19
639.601	88.59
640.049	78.99
640.497	85.79
640.944	84.39
641.392	82.99
641.84	86.39
642.287	86.59
642.735	78.79
643.182	79.79
643.63	81.99
644.078	91.29
644.525	86.19
644.973	88.59
645.42	84.49
645.867	84.89
646.315	84.19
646.762	90.39
647.21	85.89
647.657	83.99
648.104	82.29
648.551	83.29
648.999	81.09
649.446	81.19
649.893	86.19
650.34	85.09
650.787	84.99
651.234	85.09
651.682	84.59
652.129	85.79
652.576	88.19
653.023	88.49
653.47	79.89
653.917	88.89
654.363	85.49
654.81	84.69
655.257	83.69
655.704	84.09
656.151	80.59
656.598	87.39
657.044	86.09
657.491	89.99
657.938	87.59
658.385	82.19
658.831	81.39
659.278	85.79
659.724	85.49
660.171	79.19
660.618	84.29
661.064	78.79
661.511	79.29
661.957	86.59
662.404	86.99
662.85	85.59
663.296	82.39
663.743	84.59
664.189	81.29
664.635	85.49
665.082	88.59
665.528	85.89
665.974	81.29
666.42	87.79
666.867	88.79
667.313	84.89
667.759	82.69
668.205	86.59
668.651	81.49
669.097	86.09
669.543	84.19
669.989	83.29
670.435	80.89
670.881	85.09
671.327	83.29
671.773	83.29
672.219	85.49
672.665	90.99
673.11	83.39
673.556	88.39
674.002	87.29
674.448	89.49
674.893	81.19
675.339	87.09
675.785	85.09
676.23	87.39
676.676	84.59
677.122	84.79
677.567	83.39
678.013	90.09
678.458	88.09
678.904	84.09
679.349	84.89
679.794	86.39
680.24	82.49
680.685	86.89
681.131	86.89
681.576	81.59
682.021	85.49
682.466	81.79
682.912	89.29
683.357	86.29
683.802	88.29
684.247	86.69
684.692	83.09
685.137	89.59
685.583	91.99
686.028	84.69
686.473	81.49
686.918	83.29
687.363	88.69
687.807	90.69
688.252	84.49
688.697	87.79
689.142	87.39
689.587	83.39
690.032	82.09
690.477	80.39
690.921	85.99
691.366	89.59
691.811	82.59
692.255	86.79
692.7	85.09
693.145	82.79
693.589	82.19
694.034	88.49
694.478	86.39
694.923	83.79
695.367	83.99
695.812	87.19
696.256	87.79
696.701	83.99
697.145	78.29
697.59	83.29
698.034	85.29
698.478	87.19
698.922	81.09
699.367	82.39
699.811	87.49
700.255	88.29
700.699	86.19
701.143	88.59
701.588	84.29
702.032	87.99
702.476	80.89
702.92	86.19
703.364	87.69
703.808	83.19
704.252	85.29
704.696	88.29
705.14	87.39
705.584	84.69
706.027	86.29
706.471	86.79
706.915	87.99
707.359	84.59
707.803	86.19
708.246	88.29
708.69	84.89
709.134	84.09
709.577	84.19
710.021	85.09
710.465	87.39
710.908	91.19
711.352	85.49
711.795	84.59
712.239	83.19
712.682	89.39
713.126	87.09
713.569	85.59
714.012	85.99
714.456	90.49
714.899	89.09
715.342	86.59
715.786	83.99
716.229	87.69
716.672	88.59
717.115	84.69
717.558	87.29
718.002	92.09
718.445	90.89
718.888	84.19
719.331	83.39
719.774	89.09
720.217	91.49
720.66	85.99
721.103	88.89
721.546	86.79
721.989	84.89
722.432	84.29
722.874	83.89
723.317	88.39
723.76	86.49
724.203	88.29
724.645	90.29
725.088	85.09
725.531	85.39
725.974	85.59
726.416	88.19
726.859	83.19
727.301	82.79
727.744	84.89
728.187	83.79
728.629	84.49
729.071	86.29
729.514	83.59
729.956	90.59
730.399	84.79
730.841	86.19
731.283	85.59
731.726	85.39
732.168	82.09
732.61	84.49
733.053	83.69
733.495	87.69
733.937	83.19
734.379	87.19
734.821	85.09
735.263	86.39
735.705	90.19
736.148	86.19
736.59	89.59
737.032	86.19
737.474	86.99
737.916	79.09
738.357	86.59
738.799	83.19
739.241	87.69
739.683	88.39
740.125	85.59
740.567	87.79
741.008	88.89
741.45	80.99
741.892	82.29
742.334	81.89
742.775	82.59
743.217	88.89
743.658	88.59
744.1	87.59
744.542	88.89
744.983	85.49
745.425	88.69
745.866	85.39
746.307	85.79
746.749	87.79
747.19	83.99
747.632	87.19
748.073	87.09
748.514	85.59
748.956	84.99
749.397	85.99
749.838	81.19
750.279	89.39
750.72	90.99
751.162	92.69
751.603	88.59
752.044	85.19
752.485	89.79
752.926	87.29
753.367	82.69
753.808	86.39
754.249	86.89
754.69	87.59
755.131	84.79
755.572	85.99
756.013	86.09
756.453	84.49
756.894	84.79
757.335	85.19
757.776	82.79
758.216	82.79
758.657	86.49
759.098	89.79
759.538	89.89
759.979	86.19
760.42	85.89
760.86	87.89
761.301	89.59
761.741	88.89
762.182	85.99
762.622	80.99
763.063	84.59
763.503	84.09
763.943	85.49
764.384	84.79
764.824	88.39
765.264	86.79
765.705	83.79
766.145	85.59
766.585	87.29
767.025	84.79
767.465	82.59
767.906	86.89
768.346	87.99
768.786	86.39
769.226	89.09
769.666	81.29
770.106	84.59
770.546	88.29
770.986	87.09
771.426	84.29
771.866	84.29
772.306	86.19
772.745	86.39
773.185	82.59
773.625	84.79
774.065	84.09
774.505	86.19
774.944	81.59
775.384	88.99
775.824	86.49
776.263	83.29
776.703	84.39
777.142	84.59
777.582	83.89
778.021	89.89
778.461	86.59
778.9	84.89
779.34	89.99
779.779	87.59
780.219	88.89
780.658	83.89
781.097	84.69
781.537	85.69
781.976	87.79
782.415	90.69
782.855	89.29
783.294	83.39
783.733	84.89
784.172	83.89
784.611	87.79
785.05	83.89
785.489	84.79
785.928	89.49
786.367	83.29
786.806	81.99
787.245	87.99
787.684	82.59
788.123	82.59
