Data from DH-3PlusCalLight-Background_HRD10391_13-34-16-496.txt Node
Date: Thu Feb 15 13:34:16 EST 2018
User: Ender
Spectrometer: HR+D1039
Trigger mode: 0
Integration Time (sec): 2.730000E-2
Scans to average: 10
Electric dark correction enabled: true
Nonlinearity correction enabled: false
Boxcar width: 0
XAxis mode: Wavelengths
Number of Pixels in Spectrum: 2048
>>>>>Begin Spectral Data<<<<<
187.836	3.69
188.309	3.69
188.782	3.69
189.255	-3.21
189.728	-7.11
190.201	-7.91
190.674	-11.11
191.147	-8.31
191.619	-9.21
192.092	-6.31
192.565	-5.11
193.038	-0.81
193.511	2.09
193.984	4.69
194.456	8.29
194.929	7.09
195.402	15.89
195.874	17.39
196.347	23.39
196.82	22.09
197.292	26.79
197.765	30.19
198.237	33.29
198.71	39.29
199.182	42.79
199.655	43.39
200.127	44.79
200.6	54.79
201.072	52.49
201.544	56.69
202.017	61.79
202.489	63.89
202.961	69.19
203.433	68.09
203.906	72.29
204.378	74.09
204.85	75.69
205.322	76.29
205.794	78.09
206.266	83.89
206.739	78.39
207.211	78.09
207.683	82.09
208.155	77.79
208.627	79.39
209.099	83.49
209.57	88.79
210.042	86.89
210.514	83.99
210.986	85.39
211.458	84.49
211.93	85.29
212.402	88.29
212.873	79.09
213.345	79.19
213.817	84.39
214.288	83.89
214.76	82.99
215.232	80.99
215.703	83.29
216.175	84.29
216.646	81.39
217.118	80.39
217.589	82.59
218.061	83.59
218.532	79.79
219.004	77.79
219.475	80.19
219.946	75.29
220.418	76.59
220.889	77.09
221.36	74.49
221.832	75.19
222.303	72.49
222.774	78.69
223.245	79.69
223.717	77.09
224.188	78.99
224.659	75.79
225.13	78.09
225.601	78.69
226.072	74.99
226.543	79.49
227.014	76.39
227.485	74.89
227.956	66.29
228.427	78.09
228.898	77.69
229.369	78.49
229.839	73.49
230.31	75.59
230.781	78.69
231.252	73.99
231.722	79.99
232.193	78.89
232.664	78.39
233.135	73.79
233.605	77.89
234.076	79.59
234.546	74.19
235.017	74.79
235.487	78.09
235.958	76.79
236.428	76.79
236.899	78.39
237.369	75.49
237.84	79.19
238.31	78.29
238.78	80.29
239.251	87.09
239.721	78.79
240.191	75.29
240.662	76.29
241.132	79.89
241.602	79.29
242.072	76.09
242.542	81.29
243.013	75.49
243.483	78.79
243.953	78.89
244.423	76.59
244.893	74.49
245.363	80.99
245.833	77.89
246.303	78.29
246.773	84.89
247.243	82.19
247.712	78.69
248.182	80.29
248.652	83.09
249.122	72.99
249.592	80.19
250.061	78.19
250.531	75.69
251.001	82.69
251.471	83.09
251.94	82.99
252.41	78.69
252.879	76.29
253.349	76.29
253.818	83.19
254.288	79.09
254.757	76.99
255.227	80.69
255.696	78.59
256.166	80.09
256.635	79.89
257.105	81.29
257.574	79.29
258.043	80.69
258.513	80.09
258.982	79.09
259.451	76.59
259.92	83.69
260.389	85.09
260.859	80.19
261.328	78.59
261.797	77.99
262.266	82.19
262.735	79.29
263.204	74.09
263.673	78.69
264.142	78.99
264.611	81.89
265.08	78.99
265.549	81.29
266.018	75.19
266.487	80.19
266.955	76.69
267.424	78.49
267.893	78.09
268.362	76.79
268.83	81.19
269.299	76.49
269.768	81.39
270.236	78.79
270.705	78.19
271.174	76.79
271.642	77.49
272.111	80.49
272.579	84.79
273.048	80.79
273.516	76.69
273.985	82.79
274.453	81.69
274.922	82.09
275.39	81.29
275.858	74.09
276.327	78.89
276.795	79.69
277.263	79.59
277.731	78.19
278.2	81.09
278.668	81.29
279.136	82.39
279.604	81.09
280.072	83.99
280.54	84.69
281.008	82.29
281.477	82.19
281.945	80.19
282.413	86.19
282.881	83.99
283.348	82.39
283.816	87.59
284.284	81.59
284.752	87.59
285.22	78.29
285.688	80.69
286.156	79.19
286.623	80.79
287.091	84.39
287.559	82.49
288.026	84.89
288.494	81.39
288.962	86.29
289.429	82.19
289.897	83.39
290.364	75.39
290.832	78.19
291.3	79.79
291.767	81.29
292.234	81.99
292.702	78.59
293.169	83.99
293.637	78.99
294.104	86.39
294.571	81.29
295.039	84.39
295.506	79.59
295.973	83.69
296.44	83.59
296.908	81.19
297.375	79.99
297.842	84.59
298.309	80.69
298.776	83.09
299.243	82.99
299.71	81.59
300.177	78.99
300.644	82.99
301.111	80.99
301.578	86.09
302.045	81.79
302.512	80.19
302.979	82.29
303.446	83.39
303.913	83.69
304.379	82.29
304.846	81.39
305.313	81.29
305.78	88.19
306.246	77.49
306.713	87.29
307.18	85.09
307.646	83.79
308.113	76.19
308.579	74.19
309.046	81.79
309.512	78.99
309.979	89.79
310.445	88.29
310.912	80.59
311.378	87.39
311.845	82.89
312.311	83.19
312.777	82.09
313.244	87.29
313.71	83.99
314.176	85.89
314.642	81.19
315.109	80.39
315.575	83.29
316.041	77.89
316.507	80.39
316.973	80.19
317.439	83.99
317.905	77.89
318.371	85.79
318.837	80.19
319.303	81.09
319.769	83.29
320.235	87.79
320.701	87.69
321.167	82.69
321.633	88.19
322.099	77.89
322.564	87.29
323.03	86.99
323.496	85.29
323.962	84.59
324.427	84.59
324.893	85.59
325.359	82.09
325.824	77.59
326.29	76.39
326.755	87.39
327.221	78.59
327.686	85.69
328.152	84.39
328.617	81.59
329.083	83.79
329.548	84.99
330.014	82.29
330.479	84.99
330.944	84.79
331.41	83.09
331.875	83.69
332.34	85.99
332.805	86.69
333.271	86.09
333.736	86.79
334.201	86.99
334.666	83.59
335.131	84.99
335.596	83.69
336.061	82.39
336.526	83.39
336.991	78.89
337.456	85.09
337.921	84.99
338.386	80.29
338.851	82.69
339.316	82.79
339.781	80.79
340.246	84.69
340.711	77.09
341.175	78.39
341.64	87.49
342.105	82.49
342.569	86.99
343.034	79.19
343.499	80.19
343.963	82.49
344.428	81.09
344.893	89.79
345.357	82.49
345.822	83.09
346.286	80.29
346.751	83.39
347.215	84.39
347.679	87.89
348.144	79.29
348.608	81.99
349.073	87.49
349.537	79.79
350.001	83.99
350.465	78.39
350.93	86.49
351.394	86.39
351.858	82.79
352.322	87.79
352.786	85.79
353.25	82.09
353.715	84.69
354.179	87.99
354.643	86.89
355.107	84.59
355.571	89.59
356.035	80.29
356.498	83.69
356.962	86.29
357.426	82.09
357.89	79.59
358.354	79.99
358.818	83.49
359.281	83.49
359.745	90.29
360.209	81.29
360.673	85.99
361.136	82.99
361.6	87.99
362.064	80.39
362.527	87.79
362.991	80.39
363.454	80.59
363.918	85.69
364.381	84.89
364.845	82.59
365.308	82.79
365.772	88.69
366.235	85.89
366.698	84.49
367.162	83.39
367.625	76.09
368.088	81.19
368.552	82.09
369.015	81.49
369.478	82.89
369.941	82.99
370.404	81.39
370.867	78.09
371.331	81.19
371.794	88.49
372.257	83.19
372.72	79.59
373.183	87.79
373.646	79.69
374.109	85.99
374.572	81.59
375.035	83.09
375.497	86.69
375.96	85.89
376.423	82.69
376.886	88.19
377.349	88.19
377.811	83.79
378.274	89.19
378.737	77.89
379.199	80.09
379.662	84.69
380.125	84.69
380.587	82.09
381.05	82.19
381.512	84.89
381.975	81.99
382.437	86.19
382.9	78.49
383.362	85.19
383.825	84.19
384.287	86.19
384.75	90.89
385.212	87.99
385.674	85.89
386.136	76.99
386.599	83.79
387.061	84.89
387.523	81.99
387.985	83.29
388.447	82.99
388.91	87.09
389.372	76.79
389.834	85.99
390.296	79.19
390.758	81.89
391.22	80.99
391.682	87.39
392.144	83.39
392.606	84.79
393.068	85.69
393.529	83.69
393.991	85.39
394.453	84.79
394.915	88.09
395.377	81.59
395.838	83.89
396.3	83.39
396.762	75.89
397.224	81.39
397.685	83.89
398.147	91.79
398.608	79.89
399.07	82.79
399.531	84.49
399.993	87.39
400.454	87.29
400.916	81.39
401.377	78.19
401.839	81.79
402.3	82.79
402.762	81.39
403.223	86.19
403.684	85.79
404.145	86.19
404.607	80.79
405.068	82.89
405.529	87.29
405.99	84.89
406.451	85.89
406.913	84.19
407.374	84.99
407.835	86.79
408.296	82.09
408.757	83.09
409.218	85.19
409.679	82.89
410.14	85.19
410.601	81.59
411.062	81.09
411.522	84.49
411.983	86.19
412.444	85.99
412.905	85.69
413.366	82.69
413.826	87.29
414.287	84.09
414.748	85.79
415.208	81.19
415.669	86.39
416.13	85.59
416.59	83.09
417.051	82.59
417.511	83.69
417.972	84.09
418.432	80.99
418.893	86.39
419.353	86.49
419.814	87.19
420.274	83.19
420.734	81.49
421.195	85.29
421.655	81.39
422.115	81.49
422.576	82.39
423.036	90.29
423.496	81.19
423.956	87.99
424.416	82.09
424.876	82.99
425.336	85.49
425.797	85.99
426.257	83.69
426.717	91.09
427.177	87.29
427.637	89.49
428.097	82.39
428.556	89.29
429.016	80.69
429.476	87.29
429.936	85.49
430.396	81.59
430.856	83.29
431.315	86.79
431.775	79.79
432.235	84.89
432.694	86.39
433.154	83.19
433.614	84.39
434.073	82.59
434.533	83.69
434.993	81.29
435.452	88.09
435.912	80.09
436.371	81.89
436.83	84.49
437.29	81.89
437.749	81.99
438.209	82.49
438.668	89.79
439.127	80.69
439.587	80.89
440.046	81.39
440.505	84.69
440.964	86.79
441.424	82.59
441.883	80.89
442.342	80.99
442.801	86.99
443.26	79.89
443.719	80.29
444.178	82.29
444.637	79.69
445.096	85.69
445.555	84.39
446.014	84.09
446.473	76.49
446.932	86.79
447.391	78.69
447.849	84.89
448.308	85.09
448.767	79.49
449.226	75.19
449.685	77.09
450.143	87.39
450.602	76.69
451.061	80.69
451.519	83.09
451.978	80.09
452.436	85.69
452.895	76.09
453.353	82.69
453.812	78.99
454.27	86.49
454.729	78.39
455.187	83.19
455.646	78.79
456.104	81.59
456.562	86.59
457.021	80.99
457.479	82.59
457.937	80.59
458.395	81.79
458.854	78.99
459.312	80.19
459.77	82.99
460.228	80.19
460.686	81.69
461.144	74.49
461.602	84.99
462.06	77.09
462.518	84.79
462.976	85.19
463.434	80.79
463.892	83.99
464.35	86.99
464.808	84.99
465.266	84.59
465.724	83.19
466.181	80.19
466.639	83.79
467.097	80.19
467.555	81.19
468.012	82.99
468.47	80.79
468.928	81.69
469.385	85.09
469.843	86.99
470.3	76.69
470.758	78.89
471.215	79.49
471.673	79.29
472.13	79.89
472.588	80.39
473.045	78.89
473.503	83.79
473.96	86.49
474.417	79.89
474.875	84.89
475.332	81.59
475.789	82.49
476.246	84.79
476.704	83.89
477.161	86.49
477.618	82.59
478.075	80.39
478.532	81.09
478.989	78.29
479.446	82.69
479.903	83.69
480.36	81.19
480.817	81.29
481.274	82.89
481.731	83.09
482.188	82.99
482.645	81.19
483.102	79.09
483.558	79.29
484.015	81.59
484.472	85.89
484.929	75.99
485.385	81.49
485.842	79.29
486.299	83.29
486.755	83.79
487.212	79.59
487.668	83.99
488.125	85.99
488.582	81.99
489.038	87.09
489.494	84.79
489.951	81.79
490.407	80.89
490.864	84.99
491.32	84.19
491.776	82.09
492.233	80.29
492.689	80.79
493.145	77.39
493.602	85.09
494.058	78.69
494.514	84.39
494.97	86.19
495.426	84.59
495.882	82.79
496.338	82.59
496.794	84.39
497.251	82.69
497.707	86.39
498.163	79.49
498.618	81.39
499.074	83.39
499.53	83.99
499.986	82.49
500.442	79.09
500.898	80.29
501.354	78.79
501.809	87.19
502.265	83.39
502.721	79.59
503.177	79.49
503.632	82.79
504.088	81.59
504.543	81.59
504.999	81.39
505.455	79.19
505.91	79.99
506.366	81.79
506.821	81.49
507.277	82.99
507.732	83.79
508.187	83.39
508.643	76.99
509.098	79.89
509.553	78.79
510.009	82.39
510.464	83.19
510.919	83.79
511.375	85.79
511.83	80.09
512.285	87.39
512.74	81.99
513.195	84.79
513.65	85.39
514.105	82.49
514.56	82.59
515.015	80.09
515.47	79.19
515.925	87.39
516.38	82.69
516.835	83.49
517.29	87.99
517.745	77.29
518.2	80.49
518.655	76.79
519.109	84.49
519.564	88.79
520.019	75.59
520.474	82.79
520.928	80.99
521.383	82.69
521.838	82.99
522.292	80.79
522.747	80.49
523.201	81.79
523.656	81.79
524.11	76.49
524.565	77.19
525.019	77.99
525.474	78.19
525.928	78.09
526.382	80.19
526.837	79.19
527.291	84.79
527.745	80.79
528.2	83.39
528.654	78.89
529.108	85.29
529.562	83.39
530.016	81.69
530.47	78.79
530.925	80.49
531.379	84.69
531.833	80.79
532.287	81.99
532.741	83.49
533.195	84.69
533.649	81.09
534.103	79.79
534.556	82.49
535.01	80.69
535.464	78.19
535.918	83.99
536.372	84.19
536.826	81.89
537.279	82.99
537.733	84.49
538.187	81.69
538.64	84.39
539.094	79.59
539.548	82.69
540.001	83.99
540.455	81.29
540.908	85.69
541.362	80.99
541.815	81.99
542.269	86.49
542.722	85.59
543.175	86.59
543.629	82.39
544.082	83.49
544.536	80.79
544.989	86.39
545.442	84.39
545.895	78.59
546.349	77.59
546.802	81.29
547.255	78.49
547.708	76.89
548.161	85.69
548.614	83.39
549.067	83.19
549.52	79.79
549.973	88.59
550.426	83.19
550.879	79.89
551.332	85.69
551.785	77.49
552.238	84.79
552.691	78.39
553.144	82.29
553.596	81.39
554.049	82.59
554.502	79.69
554.955	84.79
555.407	82.09
555.86	77.89
556.313	78.99
556.765	80.19
557.218	83.79
557.67	76.79
558.123	78.59
558.576	82.49
559.028	82.29
559.48	83.79
559.933	85.79
560.385	79.09
560.838	77.69
561.29	79.99
561.742	85.09
562.195	85.99
562.647	75.29
563.099	79.29
563.551	86.99
564.004	80.89
564.456	86.29
564.908	80.69
565.36	83.29
565.812	81.59
566.264	79.19
566.716	84.79
567.168	82.59
567.62	83.39
568.072	85.99
568.524	85.39
568.976	80.99
569.428	84.09
569.88	80.69
570.332	80.89
570.784	84.59
571.235	82.09
571.687	86.19
572.139	80.09
572.59	85.79
573.042	81.79
573.494	82.79
573.945	77.29
574.397	81.89
574.849	79.49
575.3	80.09
575.752	81.79
576.203	79.29
576.655	82.89
577.106	80.79
577.557	82.29
578.009	86.49
578.46	82.29
578.912	81.89
579.363	83.49
579.814	83.49
580.265	80.69
580.717	81.89
581.168	78.29
581.619	82.59
582.07	80.59
582.521	79.59
582.972	84.99
583.423	80.49
583.875	82.49
584.326	77.09
584.777	83.09
585.227	85.49
585.678	83.29
586.129	82.29
586.58	82.99
587.031	82.39
587.482	83.79
587.933	83.99
588.384	84.49
588.834	82.69
589.285	83.09
589.736	83.89
590.186	86.19
590.637	81.79
591.088	85.79
591.538	80.69
591.989	79.99
592.439	81.19
592.89	83.29
593.34	81.49
593.791	84.19
594.241	83.09
594.692	80.79
595.142	79.39
595.593	78.69
596.043	86.59
596.493	80.49
596.943	83.59
597.394	82.99
597.844	84.19
598.294	81.39
598.744	82.89
599.195	83.59
599.645	83.89
600.095	81.19
600.545	81.19
600.995	83.79
601.445	80.89
601.895	80.89
602.345	87.09
602.795	79.89
603.245	83.89
603.695	79.19
604.145	81.59
604.594	79.29
605.044	85.49
605.494	80.79
605.944	85.99
606.393	87.89
606.843	79.79
607.293	82.29
607.743	82.69
608.192	80.29
608.642	77.89
609.091	80.39
609.541	81.29
609.99	85.29
610.44	81.39
610.889	82.79
611.339	81.29
611.788	79.89
612.238	83.59
612.687	80.19
613.136	85.49
613.586	84.09
614.035	77.49
614.484	80.09
614.933	77.59
615.383	83.49
615.832	81.09
616.281	83.59
616.73	82.99
617.179	81.99
617.628	85.59
618.077	81.59
618.526	80.39
618.975	79.59
619.424	74.19
619.873	81.49
620.322	79.69
620.771	81.79
621.22	83.39
621.669	87.59
622.118	78.59
622.567	82.59
623.015	82.79
623.464	81.09
623.913	79.69
624.361	83.29
624.81	79.89
625.259	78.09
625.707	83.49
626.156	82.99
626.604	84.09
627.053	83.09
627.501	80.59
627.95	77.69
628.398	83.39
628.847	85.69
629.295	89.49
629.744	80.29
630.192	79.99
630.64	84.69
631.089	78.39
631.537	85.99
631.985	81.99
632.433	75.99
632.881	83.39
633.33	84.39
633.778	81.09
634.226	75.79
634.674	84.69
635.122	81.39
635.57	79.69
636.018	82.69
636.466	88.09
636.914	82.09
637.362	85.89
637.81	83.39
638.258	81.79
638.705	81.99
639.153	81.59
639.601	85.29
640.049	82.29
640.497	87.29
640.944	86.29
641.392	83.79
641.84	87.49
642.287	81.79
642.735	87.49
643.182	82.39
643.63	89.49
644.078	80.39
644.525	82.59
644.973	82.69
645.42	86.69
645.867	79.59
646.315	77.59
646.762	84.69
647.21	79.39
647.657	84.99
648.104	76.09
648.551	83.49
648.999	77.29
649.446	78.39
649.893	82.09
650.34	76.79
650.787	86.29
651.234	82.09
651.682	87.79
652.129	78.59
652.576	78.99
653.023	81.49
653.47	82.09
653.917	84.09
654.363	84.39
654.81	84.59
655.257	79.39
655.704	85.29
656.151	85.59
656.598	78.19
657.044	82.09
657.491	82.29
657.938	84.09
658.385	82.99
658.831	83.69
659.278	83.49
659.724	86.19
660.171	85.19
660.618	79.89
661.064	86.49
661.511	83.99
661.957	84.59
662.404	80.79
662.85	84.39
663.296	84.09
663.743	81.49
664.189	84.59
664.635	85.69
665.082	86.79
665.528	78.89
665.974	83.49
666.42	79.49
666.867	87.49
667.313	83.69
667.759	81.39
668.205	79.39
668.651	88.49
669.097	85.29
669.543	84.69
669.989	85.49
670.435	83.99
670.881	81.59
671.327	85.69
671.773	86.99
672.219	83.99
672.665	81.39
673.11	83.99
673.556	79.99
674.002	79.99
674.448	80.79
674.893	84.39
675.339	81.69
675.785	83.39
676.23	82.89
676.676	79.89
677.122	84.49
677.567	82.29
678.013	87.79
678.458	81.19
678.904	85.29
679.349	80.79
679.794	83.99
680.24	79.59
680.685	78.49
681.131	85.29
681.576	80.09
682.021	85.49
682.466	81.99
682.912	83.99
683.357	79.79
683.802	81.79
684.247	82.49
684.692	80.19
685.137	81.99
685.583	80.49
686.028	84.49
686.473	82.89
686.918	81.69
687.363	80.49
687.807	78.79
688.252	84.09
688.697	80.79
689.142	86.29
689.587	83.69
690.032	84.19
690.477	84.29
690.921	80.19
691.366	82.29
691.811	82.39
692.255	84.99
692.7	82.49
693.145	87.09
693.589	84.79
694.034	78.89
694.478	79.99
694.923	84.39
695.367	81.59
695.812	81.09
696.256	83.99
696.701	85.79
697.145	82.59
697.59	81.49
698.034	86.29
698.478	85.59
698.922	79.49
699.367	83.29
699.811	82.79
700.255	82.89
700.699	83.59
701.143	84.59
701.588	85.19
702.032	85.09
702.476	83.89
702.92	83.79
703.364	84.49
703.808	83.89
704.252	83.29
704.696	79.19
705.14	85.79
705.584	82.39
706.027	82.89
706.471	81.99
706.915	89.39
707.359	85.79
707.803	84.49
708.246	89.79
708.69	86.19
709.134	82.09
709.577	84.99
710.021	82.39
710.465	86.79
710.908	79.09
711.352	82.49
711.795	81.19
712.239	88.09
712.682	84.19
713.126	81.89
713.569	76.99
714.012	83.69
714.456	84.19
714.899	83.19
715.342	86.59
715.786	82.59
716.229	84.69
716.672	87.59
717.115	90.49
717.558	85.09
718.002	79.99
718.445	83.39
718.888	78.49
719.331	82.39
719.774	83.59
720.217	86.49
720.66	78.29
721.103	86.19
721.546	84.19
721.989	82.39
722.432	82.99
722.874	80.99
723.317	87.29
723.76	85.69
724.203	85.79
724.645	80.59
725.088	85.19
725.531	85.99
725.974	85.29
726.416	81.39
726.859	80.19
727.301	82.09
727.744	82.59
728.187	79.99
728.629	83.69
729.071	81.29
729.514	80.39
729.956	84.79
730.399	84.09
730.841	77.89
731.283	90.09
731.726	81.49
732.168	88.69
732.61	81.59
733.053	86.29
733.495	82.19
733.937	81.99
734.379	85.59
734.821	82.79
735.263	81.29
735.705	79.09
736.148	83.99
736.59	81.29
737.032	81.09
737.474	83.69
737.916	84.39
738.357	89.79
738.799	82.59
739.241	82.79
739.683	87.29
740.125	85.49
740.567	80.39
741.008	85.09
741.45	87.49
741.892	82.19
742.334	84.99
742.775	80.09
743.217	87.09
743.658	81.59
744.1	84.59
744.542	83.29
744.983	85.89
745.425	82.79
745.866	84.79
746.307	87.99
746.749	82.99
747.19	86.29
747.632	83.89
748.073	88.99
748.514	86.99
748.956	81.89
749.397	83.39
749.838	79.39
750.279	85.29
750.72	83.69
751.162	86.39
751.603	82.39
752.044	87.29
752.485	84.39
752.926	88.09
753.367	84.99
753.808	84.09
754.249	81.99
754.69	84.49
755.131	86.39
755.572	84.79
756.013	82.59
756.453	83.59
756.894	85.19
757.335	78.59
757.776	79.99
758.216	78.19
758.657	81.59
759.098	84.19
759.538	80.19
759.979	83.09
760.42	82.49
760.86	86.19
761.301	85.89
761.741	86.59
762.182	89.29
762.622	80.99
763.063	83.39
763.503	83.99
763.943	84.69
764.384	83.09
764.824	81.09
765.264	87.69
765.705	75.49
766.145	82.89
766.585	80.79
767.025	89.19
767.465	83.09
767.906	83.99
768.346	87.29
768.786	82.69
769.226	84.39
769.666	77.99
770.106	83.99
770.546	82.49
770.986	84.09
771.426	85.59
771.866	83.59
772.306	83.39
772.745	81.69
773.185	86.99
773.625	86.29
774.065	85.49
774.505	85.99
774.944	83.79
775.384	83.89
775.824	88.59
776.263	79.29
776.703	84.19
777.142	81.79
777.582	81.39
778.021	86.29
778.461	85.29
778.9	90.19
779.34	82.79
779.779	84.89
780.219	84.99
780.658	82.99
781.097	79.79
781.537	82.29
781.976	84.39
782.415	83.99
782.855	84.59
783.294	81.09
783.733	82.09
784.172	80.99
784.611	81.99
785.05	84.89
785.489	80.39
785.928	83.59
786.367	78.29
786.806	78.19
787.245	85.39
787.684	77.69
788.123	86.89
