Data from DH-3PlusCalLight-Deuterium_HRD10391_13-35-08-362.txt Node
Date: Thu Feb 15 13:35:08 EST 2018
User: Ender
Spectrometer: HR+D1039
Trigger mode: 0
Integration Time (sec): 2.730000E-2
Scans to average: 10
Electric dark correction enabled: true
Nonlinearity correction enabled: false
Boxcar width: 0
XAxis mode: Wavelengths
Number of Pixels in Spectrum: 2048
>>>>>Begin Spectral Data<<<<<
187.836	3.57
188.309	3.57
188.782	3.57
189.255	-1.03
189.728	-4.33
190.201	-6.83
190.674	-9.03
191.147	-7.73
191.619	-3.43
192.092	-10.53
192.565	-6.73
193.038	-0.33
193.511	0.57
193.984	5.97
194.456	6.17
194.929	7.27
195.402	12.07
195.874	14.37
196.347	17.07
196.82	23.37
197.292	26.27
197.765	31.67
198.237	38.07
198.71	37.67
199.182	43.27
199.655	49.67
200.127	51.87
200.6	54.17
201.072	58.77
201.544	66.17
202.017	65.27
202.489	74.47
202.961	68.57
203.433	73.47
203.906	75.97
204.378	79.37
204.85	82.67
205.322	77.17
205.794	81.07
206.266	85.67
206.739	86.57
207.211	84.67
207.683	83.27
208.155	88.37
208.627	83.57
209.099	82.37
209.57	84.37
210.042	86.77
210.514	88.77
210.986	88.67
211.458	87.97
211.93	79.67
212.402	81.37
212.873	84.07
213.345	89.47
213.817	96.37
214.288	80.97
214.76	87.97
215.232	89.17
215.703	90.37
216.175	88.67
216.646	84.57
217.118	83.67
217.589	80.17
218.061	82.37
218.532	81.27
219.004	80.47
219.475	84.17
219.946	85.87
220.418	85.77
220.889	85.57
221.36	85.07
221.832	82.57
222.303	84.67
222.774	86.27
223.245	82.47
223.717	87.17
224.188	87.47
224.659	77.97
225.13	84.87
225.601	88.77
226.072	89.87
226.543	91.37
227.014	96.57
227.485	96.37
227.956	99.47
228.427	96.07
228.898	95.27
229.369	108.47
229.839	100.87
230.31	103.87
230.781	101.07
231.252	106.47
231.722	104.57
232.193	105.87
232.664	109.27
233.135	101.07
233.605	100.67
234.076	102.17
234.546	95.17
235.017	94.37
235.487	97.87
235.958	93.67
236.428	97.17
236.899	91.67
237.369	92.67
237.84	94.37
238.31	86.77
238.78	89.17
239.251	85.17
239.721	84.07
240.191	84.57
240.662	89.77
241.132	82.07
241.602	80.47
242.072	79.57
242.542	79.77
243.013	87.77
243.483	85.97
243.953	85.57
244.423	83.37
244.893	88.37
245.363	81.27
245.833	82.77
246.303	82.27
246.773	82.07
247.243	83.07
247.712	84.07
248.182	86.97
248.652	81.27
249.122	85.97
249.592	85.27
250.061	80.37
250.531	87.27
251.001	89.77
251.471	90.87
251.94	83.77
252.41	87.87
252.879	85.57
253.349	90.07
253.818	93.67
254.288	89.27
254.757	92.87
255.227	94.17
255.696	97.47
256.166	96.47
256.635	108.07
257.105	102.27
257.574	107.97
258.043	115.77
258.513	113.97
258.982	117.37
259.451	122.77
259.92	131.27
260.389	136.47
260.859	141.87
261.328	152.77
261.797	159.57
262.266	161.97
262.735	172.37
263.204	171.87
263.673	183.47
264.142	190.77
264.611	191.77
265.08	191.77
265.549	202.07
266.018	212.97
266.487	217.57
266.955	217.77
267.424	222.47
267.893	231.07
268.362	240.67
268.83	238.07
269.299	240.77
269.768	244.27
270.236	243.97
270.705	254.07
271.174	252.37
271.642	250.27
272.111	257.87
272.579	263.87
273.048	258.47
273.516	260.17
273.985	260.97
274.453	259.67
274.922	261.67
275.39	266.67
275.858	257.47
276.327	262.97
276.795	260.07
277.263	262.97
277.731	261.47
278.2	259.97
278.668	257.17
279.136	256.27
279.604	257.87
280.072	261.67
280.54	255.17
281.008	261.37
281.477	256.27
281.945	251.77
282.413	256.27
282.881	251.87
283.348	248.47
283.816	251.77
284.284	243.57
284.752	239.37
285.22	247.07
285.688	242.47
286.156	234.17
286.623	240.17
287.091	241.17
287.559	242.87
288.026	240.27
288.494	245.57
288.962	243.67
289.429	249.87
289.897	248.67
290.364	248.17
290.832	252.57
291.3	260.57
291.767	264.17
292.234	259.07
292.702	268.27
293.169	269.97
293.637	271.77
294.104	277.97
294.571	266.87
295.039	275.77
295.506	277.27
295.973	283.07
296.44	279.07
296.908	281.57
297.375	288.37
297.842	285.17
298.309	283.27
298.776	291.07
299.243	287.57
299.71	283.77
300.177	290.07
300.644	291.17
301.111	291.37
301.578	288.57
302.045	287.67
302.512	285.97
302.979	291.67
303.446	290.47
303.913	280.67
304.379	289.27
304.846	281.67
305.313	285.77
305.78	278.07
306.246	282.27
306.713	278.57
307.18	275.97
307.646	279.07
308.113	280.57
308.579	277.37
309.046	282.87
309.512	275.67
309.979	269.47
310.445	275.37
310.912	272.47
311.378	268.57
311.845	272.17
312.311	272.67
312.777	260.07
313.244	263.87
313.71	276.17
314.176	261.57
314.642	271.67
315.109	263.07
315.575	267.07
316.041	270.37
316.507	282.57
316.973	280.77
317.439	277.97
317.905	276.57
318.371	281.47
318.837	281.97
319.303	286.77
319.769	290.67
320.235	286.07
320.701	290.07
321.167	294.87
321.633	293.67
322.099	293.67
322.564	298.87
323.03	293.27
323.496	294.57
323.962	293.87
324.427	296.17
324.893	301.07
325.359	302.17
325.824	292.07
326.29	292.47
326.755	294.97
327.221	298.57
327.686	293.87
328.152	296.07
328.617	287.37
329.083	286.87
329.548	285.57
330.014	280.37
330.479	288.27
330.944	288.57
331.41	287.77
331.875	292.07
332.34	273.27
332.805	282.17
333.271	271.77
333.736	272.47
334.201	273.37
334.666	274.47
335.131	267.37
335.596	264.57
336.061	270.97
336.526	267.27
336.991	264.27
337.456	260.47
337.921	263.97
338.386	263.97
338.851	261.87
339.316	261.37
339.781	268.07
340.246	267.47
340.711	278.77
341.175	282.57
341.64	289.07
342.105	281.57
342.569	285.77
343.034	291.47
343.499	282.37
343.963	293.67
344.428	297.07
344.893	295.97
345.357	300.27
345.822	295.17
346.286	304.67
346.751	307.07
347.215	313.27
347.679	314.37
348.144	314.37
348.608	318.47
349.073	321.67
349.537	321.97
350.001	327.27
350.465	307.37
350.93	313.77
351.394	320.47
351.858	316.67
352.322	312.27
352.786	316.67
353.25	320.07
353.715	313.87
354.179	314.47
354.643	320.37
355.107	319.37
355.571	321.77
356.035	323.07
356.498	319.17
356.962	312.97
357.426	324.47
357.89	317.37
358.354	319.77
358.818	317.57
359.281	320.97
359.745	328.27
360.209	323.27
360.673	312.07
361.136	320.57
361.6	320.67
362.064	324.37
362.527	320.27
362.991	321.77
363.454	317.17
363.918	311.37
364.381	319.77
364.845	321.17
365.308	329.07
365.772	319.47
366.235	317.57
366.698	321.47
367.162	324.27
367.625	329.47
368.088	319.57
368.552	328.57
369.015	322.37
369.478	319.77
369.941	320.27
370.404	325.77
370.867	320.87
371.331	321.87
371.794	320.57
372.257	312.57
372.72	326.87
373.183	323.17
373.646	315.67
374.109	332.17
374.572	336.87
375.035	333.27
375.497	335.17
375.96	333.67
376.423	333.57
376.886	334.27
377.349	339.67
377.811	334.67
378.274	351.87
378.737	346.27
379.199	344.87
379.662	351.67
380.125	343.37
380.587	339.77
381.05	344.27
381.512	342.27
381.975	347.47
382.437	342.47
382.9	342.47
383.362	348.37
383.825	354.07
384.287	350.57
384.75	348.97
385.212	354.47
385.674	354.47
386.136	352.17
386.599	355.57
387.061	357.17
387.523	361.67
387.985	355.27
388.447	348.37
388.91	349.77
389.372	348.97
389.834	348.17
390.296	346.87
390.758	353.67
391.22	360.37
391.682	362.17
392.144	359.77
392.606	354.17
393.068	351.47
393.529	357.37
393.991	351.87
394.453	354.77
394.915	356.97
395.377	357.97
395.838	361.27
396.3	361.17
396.762	364.37
397.224	374.77
397.685	374.47
398.147	360.27
398.608	361.47
399.07	355.27
399.531	350.97
399.993	359.57
400.454	358.87
400.916	359.07
401.377	358.17
401.839	350.77
402.3	362.37
402.762	359.07
403.223	361.07
403.684	361.87
404.145	362.17
404.607	361.77
405.068	359.27
405.529	346.07
405.99	346.17
406.451	342.57
406.913	344.27
407.374	341.67
407.835	344.87
408.296	334.47
408.757	331.97
409.218	336.47
409.679	328.57
410.14	321.67
410.601	320.67
411.062	318.77
411.522	328.97
411.983	309.87
412.444	327.57
412.905	310.37
413.366	316.37
413.826	307.87
414.287	306.47
414.748	306.17
415.208	311.57
415.669	304.17
416.13	300.97
416.59	310.57
417.051	293.67
417.511	302.47
417.972	306.67
418.432	316.17
418.893	318.27
419.353	312.57
419.814	315.47
420.274	312.17
420.734	315.57
421.195	320.47
421.655	310.77
422.115	309.57
422.576	308.87
423.036	299.97
423.496	297.77
423.956	297.07
424.416	289.87
424.876	285.87
425.336	283.67
425.797	289.57
426.257	292.57
426.717	288.87
427.177	272.47
427.637	280.37
428.097	280.77
428.556	283.27
429.016	286.07
429.476	272.37
429.936	267.37
430.396	262.67
430.856	251.37
431.315	249.47
431.775	237.57
432.235	238.17
432.694	249.27
433.154	239.47
433.614	223.77
434.073	228.77
434.533	227.17
434.993	213.47
435.452	222.57
435.912	212.67
436.371	208.57
436.83	195.77
437.29	202.47
437.749	193.57
438.209	190.17
438.668	188.77
439.127	187.97
439.587	182.97
440.046	178.07
440.505	181.87
440.964	173.47
441.424	168.77
441.883	169.97
442.342	166.57
442.801	165.17
443.26	159.37
443.719	152.97
444.178	145.07
444.637	151.87
445.096	146.97
445.555	147.17
446.014	135.57
446.473	134.37
446.932	135.97
447.391	128.97
447.849	130.57
448.308	123.27
448.767	121.57
449.226	114.57
449.685	109.67
450.143	109.37
450.602	109.37
451.061	112.47
451.519	113.07
451.978	107.87
452.436	102.67
452.895	109.77
453.353	107.47
453.812	100.97
454.27	99.47
454.729	98.57
455.187	100.97
455.646	98.97
456.104	108.27
456.562	97.97
457.021	92.77
457.479	95.57
457.937	91.97
458.395	91.97
458.854	93.37
459.312	93.17
459.77	93.07
460.228	92.37
460.686	91.07
461.144	87.07
461.602	85.67
462.06	88.57
462.518	91.27
462.976	83.77
463.434	91.87
463.892	89.77
464.35	92.87
464.808	86.87
465.266	91.77
465.724	85.37
466.181	95.17
466.639	90.37
467.097	91.77
467.555	92.87
468.012	88.67
468.47	86.87
468.928	92.87
469.385	95.97
469.843	85.67
470.3	89.17
470.758	86.47
471.215	92.87
471.673	88.97
472.13	88.97
472.588	88.27
473.045	85.67
473.503	90.47
473.96	84.97
474.417	86.57
474.875	92.47
475.332	84.57
475.789	90.17
476.246	87.37
476.704	85.67
477.161	85.37
477.618	88.77
478.075	90.47
478.532	89.17
478.989	88.27
479.446	90.47
479.903	89.67
480.36	89.87
480.817	88.77
481.274	92.67
481.731	91.17
482.188	86.27
482.645	93.97
483.102	89.07
483.558	86.97
484.015	93.17
484.472	97.87
484.929	91.77
485.385	87.27
485.842	83.97
486.299	85.87
486.755	89.87
487.212	90.07
487.668	88.27
488.125	90.77
488.582	90.37
489.038	89.37
489.494	86.27
489.951	90.17
490.407	86.97
490.864	90.57
491.32	87.97
491.776	82.37
492.233	90.37
492.689	91.07
493.145	86.27
493.602	87.17
494.058	86.77
494.514	91.57
494.97	86.87
495.426	92.37
495.882	88.17
496.338	88.37
496.794	93.67
497.251	92.77
497.707	89.27
498.163	90.07
498.618	93.37
499.074	90.77
499.53	87.47
499.986	85.57
500.442	87.87
500.898	85.97
501.354	88.47
501.809	84.07
502.265	87.27
502.721	91.67
503.177	85.27
503.632	90.37
504.088	92.37
504.543	87.97
504.999	88.67
505.455	84.67
505.91	91.67
506.366	90.77
506.821	86.37
507.277	94.07
507.732	94.17
508.187	85.97
508.643	86.67
509.098	91.77
509.553	85.67
510.009	89.67
510.464	84.97
510.919	88.47
511.375	89.57
511.83	91.77
512.285	85.27
512.74	90.07
513.195	86.77
513.65	87.57
514.105	88.57
514.56	93.27
515.015	87.97
515.47	89.27
515.925	86.77
516.38	90.37
516.835	89.07
517.29	89.57
517.745	89.97
518.2	88.67
518.655	84.47
519.109	85.97
519.564	87.07
520.019	90.27
520.474	90.47
520.928	87.77
521.383	85.47
521.838	89.57
522.292	88.97
522.747	79.87
523.201	86.97
523.656	89.97
524.11	88.27
524.565	87.77
525.019	93.57
525.474	91.27
525.928	87.87
526.382	89.17
526.837	86.87
527.291	91.27
527.745	89.87
528.2	83.77
528.654	91.97
529.108	87.57
529.562	86.07
530.016	90.17
530.47	90.27
530.925	84.17
531.379	89.97
531.833	92.97
532.287	84.57
532.741	85.67
533.195	86.97
533.649	83.87
534.103	88.37
534.556	86.97
535.01	87.67
535.464	87.57
535.918	86.67
536.372	85.57
536.826	88.27
537.279	88.87
537.733	88.07
538.187	87.37
538.64	87.57
539.094	85.57
539.548	85.37
540.001	88.37
540.455	90.37
540.908	90.27
541.362	85.37
541.815	89.77
542.269	89.97
542.722	87.17
543.175	86.87
543.629	85.77
544.082	85.57
544.536	84.37
544.989	83.77
545.442	84.77
545.895	87.57
546.349	81.77
546.802	87.97
547.255	89.57
547.708	85.37
548.161	84.27
548.614	90.47
549.067	86.97
549.52	86.27
549.973	87.27
550.426	91.87
550.879	93.77
551.332	88.07
551.785	88.87
552.238	93.97
552.691	95.07
553.144	89.07
553.596	88.07
554.049	86.27
554.502	91.47
554.955	91.77
555.407	88.77
555.86	93.57
556.313	89.57
556.765	89.37
557.218	84.37
557.67	90.17
558.123	85.77
558.576	85.17
559.028	88.87
559.48	86.27
559.933	88.37
560.385	92.27
560.838	89.57
561.29	90.47
561.742	84.07
562.195	94.37
562.647	93.57
563.099	85.97
563.551	90.87
564.004	88.47
564.456	90.47
564.908	89.47
565.36	87.47
565.812	86.07
566.264	87.37
566.716	85.97
567.168	87.67
567.62	84.07
568.072	89.27
568.524	88.67
568.976	90.67
569.428	93.77
569.88	89.47
570.332	87.77
570.784	87.47
571.235	85.57
571.687	88.67
572.139	92.97
572.59	89.67
573.042	85.27
573.494	86.37
573.945	89.37
574.397	93.97
574.849	87.87
575.3	83.97
575.752	93.27
576.203	89.37
576.655	92.17
577.106	87.97
577.557	84.07
578.009	87.97
578.46	86.97
578.912	90.17
579.363	87.17
579.814	86.37
580.265	88.07
580.717	91.17
581.168	85.57
581.619	89.17
582.07	91.07
582.521	86.47
582.972	87.87
583.423	82.77
583.875	86.47
584.326	86.77
584.777	94.87
585.227	86.37
585.678	85.97
586.129	91.47
586.58	87.27
587.031	87.27
587.482	88.97
587.933	86.87
588.384	88.47
588.834	85.87
589.285	88.27
589.736	89.87
590.186	86.07
590.637	90.97
591.088	89.87
591.538	88.57
591.989	92.07
592.439	86.67
592.89	86.47
593.34	90.57
593.791	86.87
594.241	88.67
594.692	92.77
595.142	88.47
595.593	85.17
596.043	90.87
596.493	88.57
596.943	87.87
597.394	90.47
597.844	86.37
598.294	86.77
598.744	87.07
599.195	92.27
599.645	92.87
600.095	91.07
600.545	85.37
600.995	91.97
601.445	92.17
601.895	83.07
602.345	87.17
602.795	83.47
603.245	91.07
603.695	86.97
604.145	87.97
604.594	83.67
605.044	88.87
605.494	86.47
605.944	88.97
606.393	86.07
606.843	93.37
607.293	92.77
607.743	92.07
608.192	86.37
608.642	85.17
609.091	88.97
609.541	89.17
609.99	88.07
610.44	89.07
610.889	87.17
611.339	86.07
611.788	85.97
612.238	91.17
612.687	86.27
613.136	85.27
613.586	83.67
614.035	86.97
614.484	90.17
614.933	90.27
615.383	89.57
615.832	86.17
616.281	87.07
616.73	83.97
617.179	88.17
617.628	94.57
618.077	88.87
618.526	84.97
618.975	84.97
619.424	85.97
619.873	88.37
620.322	93.27
620.771	88.47
621.22	83.67
621.669	82.87
622.118	88.87
622.567	87.87
623.015	88.37
623.464	87.27
623.913	85.47
624.361	89.57
624.81	88.97
625.259	82.37
625.707	85.87
626.156	91.47
626.604	88.07
627.053	84.87
627.501	87.57
627.95	89.27
628.398	88.37
628.847	90.27
629.295	87.87
629.744	89.27
630.192	86.27
630.64	88.67
631.089	84.17
631.537	89.47
631.985	90.87
632.433	86.67
632.881	90.87
633.33	84.27
633.778	83.37
634.226	84.27
634.674	87.57
635.122	86.77
635.57	89.87
636.018	87.87
636.466	82.87
636.914	84.17
637.362	88.47
637.81	88.17
638.258	86.47
638.705	89.27
639.153	86.27
639.601	90.97
640.049	88.07
640.497	84.07
640.944	89.47
641.392	86.27
641.84	87.67
642.287	87.37
642.735	85.37
643.182	85.87
643.63	81.47
644.078	82.57
644.525	87.57
644.973	81.97
645.42	88.67
645.867	87.77
646.315	84.67
646.762	88.07
647.21	82.47
647.657	86.77
648.104	86.57
648.551	82.57
648.999	83.87
649.446	84.47
649.893	88.07
650.34	89.07
650.787	88.37
651.234	86.87
651.682	89.47
652.129	90.87
652.576	89.07
653.023	91.17
653.47	100.37
653.917	89.17
654.363	98.07
654.81	110.87
655.257	109.47
655.704	89.17
656.151	91.57
656.598	87.47
657.044	91.27
657.491	87.07
657.938	87.87
658.385	82.77
658.831	81.37
659.278	83.37
659.724	88.67
660.171	87.17
660.618	84.37
661.064	85.57
661.511	83.77
661.957	86.17
662.404	86.87
662.85	86.37
663.296	86.77
663.743	83.97
664.189	85.87
664.635	86.97
665.082	89.07
665.528	85.27
665.974	89.37
666.42	88.87
666.867	90.17
667.313	84.97
667.759	90.27
668.205	93.67
668.651	87.67
669.097	85.67
669.543	80.27
669.989	89.27
670.435	87.87
670.881	86.07
671.327	86.17
671.773	86.97
672.219	84.37
672.665	81.17
673.11	90.07
673.556	86.77
674.002	89.07
674.448	85.37
674.893	88.87
675.339	85.57
675.785	88.27
676.23	85.57
676.676	88.67
677.122	90.07
677.567	86.27
678.013	86.87
678.458	89.07
678.904	85.17
679.349	87.07
679.794	84.07
680.24	84.27
680.685	83.37
681.131	87.37
681.576	85.77
682.021	91.07
682.466	82.17
682.912	82.87
683.357	90.87
683.802	85.37
684.247	91.57
684.692	88.57
685.137	84.17
685.583	89.57
686.028	84.07
686.473	89.57
686.918	89.47
687.363	87.27
687.807	85.87
688.252	84.77
688.697	83.97
689.142	84.87
689.587	84.17
690.032	86.37
690.477	83.37
690.921	86.47
691.366	91.77
691.811	87.47
692.255	85.17
692.7	87.07
693.145	91.67
693.589	87.97
694.034	88.67
694.478	89.17
694.923	84.57
695.367	82.07
695.812	85.87
696.256	91.27
696.701	85.47
697.145	84.97
697.59	88.67
698.034	89.87
698.478	83.87
698.922	85.57
699.367	85.57
699.811	83.27
700.255	85.37
700.699	86.27
701.143	89.77
701.588	92.07
702.032	85.97
702.476	87.87
702.92	84.87
703.364	86.07
703.808	91.17
704.252	89.37
704.696	88.77
705.14	84.87
705.584	89.27
706.027	86.07
706.471	88.07
706.915	86.07
707.359	86.77
707.803	85.77
708.246	91.67
708.69	87.87
709.134	84.07
709.577	86.27
710.021	82.67
710.465	82.07
710.908	85.57
711.352	85.57
711.795	92.47
712.239	84.77
712.682	87.67
713.126	89.27
713.569	91.77
714.012	89.37
714.456	89.87
714.899	86.07
715.342	87.27
715.786	85.87
716.229	85.77
716.672	84.17
717.115	85.27
717.558	91.17
718.002	87.07
718.445	91.17
718.888	85.47
719.331	82.17
719.774	86.97
720.217	83.47
720.66	85.37
721.103	86.87
721.546	85.67
721.989	88.67
722.432	90.77
722.874	84.87
723.317	83.87
723.76	85.07
724.203	92.87
724.645	93.87
725.088	84.47
725.531	84.97
725.974	87.07
726.416	89.07
726.859	90.57
727.301	91.27
727.744	88.67
728.187	86.47
728.629	85.67
729.071	81.57
729.514	87.47
729.956	84.47
730.399	85.67
730.841	84.77
731.283	88.17
731.726	83.47
732.168	87.67
732.61	90.37
733.053	81.77
733.495	90.47
733.937	85.07
734.379	91.27
734.821	86.77
735.263	87.07
735.705	88.57
736.148	87.87
736.59	90.77
737.032	88.47
737.474	87.27
737.916	86.97
738.357	88.47
738.799	91.57
739.241	87.17
739.683	90.37
740.125	86.27
740.567	87.57
741.008	88.97
741.45	86.97
741.892	83.87
742.334	87.97
742.775	86.97
743.217	89.07
743.658	88.47
744.1	90.47
744.542	91.07
744.983	85.47
745.425	84.17
745.866	89.67
746.307	91.87
746.749	88.77
747.19	83.37
747.632	84.77
748.073	87.67
748.514	87.77
748.956	91.27
749.397	85.27
749.838	91.17
750.279	88.27
750.72	86.67
751.162	88.87
751.603	88.27
752.044	90.47
752.485	88.17
752.926	87.87
753.367	86.17
753.808	88.97
754.249	89.37
754.69	93.37
755.131	88.47
755.572	81.17
756.013	87.57
756.453	87.97
756.894	82.17
757.335	90.37
757.776	88.87
758.216	87.27
758.657	86.87
759.098	83.37
759.538	94.07
759.979	92.07
760.42	88.37
760.86	86.27
761.301	89.17
761.741	89.37
762.182	85.67
762.622	88.67
763.063	84.77
763.503	85.47
763.943	87.07
764.384	89.97
764.824	93.67
765.264	91.77
765.705	78.07
766.145	89.77
766.585	87.17
767.025	90.57
767.465	87.17
767.906	92.77
768.346	83.17
768.786	85.07
769.226	88.77
769.666	88.77
770.106	84.17
770.546	85.87
770.986	86.37
771.426	81.57
771.866	84.67
772.306	92.47
772.745	82.17
773.185	88.97
773.625	84.77
774.065	86.67
774.505	85.07
774.944	82.87
