Data from DH-3PlusCalLight-Deuterium_HRD10391_13-35-09-727.txt Node
Date: Thu Feb 15 13:35:09 EST 2018
User: Ender
Spectrometer: HR+D1039
Trigger mode: 0
Integration Time (sec): 2.730000E-2
Scans to average: 10
Electric dark correction enabled: true
Nonlinearity correction enabled: false
Boxcar width: 0
XAxis mode: Wavelengths
Number of Pixels in Spectrum: 2048
>>>>>Begin Spectral Data<<<<<
187.836	4.37
188.309	4.37
188.782	4.37
189.255	-2.53
189.728	-3.43
190.201	-4.93
190.674	-5.53
191.147	-4.53
191.619	-8.93
192.092	-8.93
192.565	-6.33
193.038	-0.23
193.511	-4.43
193.984	2.87
194.456	4.07
194.929	6.17
195.402	10.67
195.874	21.67
196.347	22.77
196.82	21.97
197.292	27.07
197.765	36.07
198.237	40.77
198.71	40.07
199.182	40.67
199.655	43.27
200.127	54.77
200.6	52.87
201.072	58.07
201.544	58.27
202.017	65.17
202.489	65.37
202.961	68.37
203.433	72.17
203.906	71.17
204.378	80.67
204.85	78.87
205.322	79.17
205.794	77.87
206.266	83.87
206.739	81.97
207.211	82.87
207.683	87.07
208.155	77.37
208.627	86.67
209.099	88.77
209.57	82.37
210.042	84.17
210.514	83.97
210.986	85.27
211.458	85.27
211.93	83.27
212.402	87.97
212.873	88.07
213.345	83.97
213.817	81.37
214.288	80.77
214.76	81.07
215.232	87.17
215.703	82.97
216.175	83.37
216.646	82.67
217.118	80.87
217.589	81.47
218.061	76.97
218.532	77.57
219.004	81.37
219.475	84.07
219.946	81.17
220.418	83.47
220.889	81.17
221.36	82.97
221.832	83.27
222.303	80.97
222.774	83.87
223.245	79.67
223.717	88.77
224.188	85.27
224.659	88.17
225.13	87.07
225.601	85.17
226.072	93.57
226.543	84.17
227.014	90.97
227.485	89.37
227.956	92.87
228.427	97.27
228.898	97.27
229.369	98.87
229.839	99.97
230.31	97.77
230.781	103.37
231.252	102.37
231.722	98.97
232.193	99.07
232.664	98.67
233.135	100.97
233.605	101.37
234.076	97.87
234.546	98.87
235.017	97.87
235.487	95.87
235.958	87.17
236.428	92.67
236.899	85.47
237.369	83.87
237.84	87.87
238.31	81.07
238.78	82.47
239.251	88.97
239.721	83.07
240.191	88.17
240.662	83.47
241.132	80.07
241.602	80.87
242.072	84.77
242.542	80.27
243.013	82.77
243.483	80.97
243.953	84.87
244.423	76.17
244.893	80.17
245.363	85.97
245.833	81.57
246.303	84.47
246.773	80.07
247.243	83.07
247.712	81.07
248.182	88.67
248.652	79.17
249.122	83.57
249.592	82.27
250.061	79.07
250.531	78.97
251.001	81.17
251.471	86.07
251.94	84.47
252.41	83.37
252.879	87.37
253.349	88.57
253.818	89.27
254.288	90.67
254.757	93.47
255.227	85.37
255.696	96.57
256.166	94.17
256.635	96.87
257.105	98.77
257.574	104.97
258.043	103.77
258.513	106.07
258.982	117.27
259.451	121.27
259.92	130.27
260.389	128.77
260.859	141.37
261.328	144.77
261.797	149.07
262.266	159.37
262.735	160.97
263.204	176.67
263.673	178.87
264.142	184.07
264.611	188.17
265.08	194.97
265.549	194.97
266.018	205.77
266.487	211.57
266.955	218.57
267.424	221.47
267.893	223.87
268.362	228.47
268.83	229.77
269.299	240.67
269.768	239.87
270.236	239.97
270.705	249.37
271.174	248.37
271.642	247.17
272.111	244.77
272.579	248.87
273.048	249.67
273.516	255.47
273.985	256.57
274.453	259.87
274.922	257.77
275.39	256.67
275.858	253.97
276.327	253.07
276.795	260.87
277.263	254.07
277.731	249.37
278.2	251.17
278.668	257.17
279.136	249.27
279.604	248.77
280.072	253.77
280.54	247.17
281.008	251.97
281.477	241.97
281.945	249.57
282.413	241.37
282.881	241.87
283.348	239.17
283.816	236.57
284.284	238.97
284.752	237.27
285.22	240.37
285.688	236.77
286.156	233.47
286.623	240.07
287.091	236.87
287.559	238.77
288.026	240.07
288.494	242.87
288.962	234.67
289.429	238.07
289.897	245.77
290.364	249.67
290.832	239.47
291.3	246.77
291.767	250.87
292.234	253.87
292.702	247.47
293.169	257.67
293.637	262.47
294.104	262.77
294.571	261.77
295.039	274.67
295.506	281.97
295.973	270.97
296.44	271.17
296.908	276.17
297.375	274.67
297.842	268.87
298.309	273.47
298.776	278.97
299.243	283.57
299.71	282.77
300.177	283.67
300.644	274.47
301.111	281.97
301.578	278.67
302.045	275.57
302.512	281.27
302.979	274.57
303.446	272.47
303.913	284.67
304.379	279.87
304.846	276.57
305.313	269.37
305.78	267.67
306.246	272.37
306.713	274.47
307.18	274.17
307.646	271.17
308.113	268.37
308.579	274.57
309.046	266.57
309.512	268.17
309.979	264.37
310.445	266.77
310.912	264.77
311.378	255.97
311.845	270.57
312.311	265.77
312.777	262.67
313.244	261.97
313.71	263.37
314.176	260.87
314.642	269.57
315.109	267.57
315.575	264.47
316.041	270.37
316.507	271.27
316.973	269.47
317.439	265.47
317.905	270.27
318.371	278.17
318.837	274.27
319.303	283.87
319.769	276.27
320.235	283.97
320.701	286.47
321.167	284.17
321.633	285.37
322.099	277.37
322.564	282.87
323.03	287.87
323.496	291.57
323.962	285.07
324.427	290.87
324.893	287.97
325.359	287.47
325.824	291.27
326.29	285.87
326.755	282.37
327.221	272.27
327.686	286.87
328.152	279.77
328.617	282.67
329.083	280.77
329.548	283.17
330.014	278.97
330.479	272.27
330.944	273.47
331.41	273.07
331.875	267.37
332.34	266.17
332.805	265.47
333.271	266.07
333.736	267.77
334.201	258.17
334.666	258.07
335.131	266.87
335.596	260.17
336.061	257.47
336.526	261.77
336.991	264.67
337.456	263.87
337.921	260.67
338.386	251.77
338.851	254.37
339.316	257.87
339.781	253.67
340.246	269.57
340.711	264.27
341.175	269.17
341.64	277.27
342.105	277.77
342.569	279.37
343.034	275.37
343.499	281.27
343.963	293.77
344.428	286.87
344.893	288.97
345.357	290.27
345.822	286.97
346.286	292.67
346.751	298.07
347.215	304.07
347.679	298.67
348.144	302.17
348.608	307.77
349.073	312.07
349.537	308.77
350.001	309.37
350.465	302.77
350.93	305.17
351.394	302.27
351.858	302.17
352.322	302.57
352.786	306.57
353.25	305.57
353.715	309.87
354.179	309.87
354.643	309.87
355.107	308.47
355.571	305.07
356.035	308.47
356.498	307.07
356.962	303.37
357.426	309.17
357.89	307.77
358.354	308.07
358.818	304.07
359.281	312.57
359.745	311.07
360.209	307.87
360.673	307.17
361.136	305.27
361.6	309.17
362.064	314.47
362.527	303.27
362.991	313.77
363.454	307.37
363.918	306.77
364.381	311.17
364.845	311.27
365.308	312.27
365.772	320.97
366.235	309.07
366.698	317.97
367.162	305.27
367.625	314.37
368.088	312.57
368.552	311.27
369.015	308.27
369.478	308.77
369.941	314.57
370.404	308.87
370.867	312.57
371.331	308.57
371.794	316.87
372.257	316.47
372.72	318.87
373.183	310.97
373.646	316.37
374.109	314.07
374.572	317.77
375.035	318.27
375.497	318.67
375.96	318.77
376.423	323.57
376.886	329.47
377.349	320.57
377.811	327.57
378.274	335.37
378.737	330.47
379.199	327.57
379.662	334.17
380.125	327.07
380.587	327.37
381.05	328.57
381.512	339.67
381.975	333.87
382.437	332.57
382.9	335.87
383.362	338.17
383.825	340.17
384.287	331.57
384.75	331.97
385.212	334.07
385.674	338.57
386.136	347.87
386.599	342.97
387.061	343.77
387.523	345.07
387.985	338.57
388.447	341.87
388.91	333.37
389.372	339.07
389.834	337.47
390.296	342.97
390.758	346.17
391.22	343.47
391.682	353.97
392.144	354.27
392.606	346.97
393.068	332.57
393.529	341.17
393.991	343.37
394.453	342.97
394.915	339.37
395.377	344.57
395.838	351.07
396.3	348.97
396.762	363.07
397.224	354.07
397.685	353.97
398.147	346.57
398.608	341.37
399.07	344.57
399.531	348.27
399.993	350.17
400.454	346.87
400.916	343.97
401.377	353.97
401.839	342.47
402.3	342.57
402.762	343.87
403.223	348.37
403.684	347.67
404.145	350.67
404.607	349.47
405.068	344.57
405.529	337.87
405.99	332.87
406.451	323.57
406.913	324.37
407.374	334.47
407.835	325.47
408.296	326.67
408.757	322.57
409.218	326.77
409.679	313.77
410.14	318.47
410.601	307.47
411.062	308.07
411.522	321.27
411.983	309.67
412.444	315.37
412.905	302.97
413.366	302.97
413.826	293.57
414.287	300.47
414.748	293.67
415.208	292.07
415.669	287.57
416.13	287.87
416.59	284.57
417.051	286.07
417.511	286.97
417.972	298.57
418.432	302.77
418.893	296.47
419.353	304.77
419.814	302.57
420.274	303.77
420.734	311.57
421.195	311.37
421.655	294.17
422.115	293.87
422.576	292.37
423.036	284.77
423.496	291.57
423.956	287.27
424.416	279.77
424.876	277.87
425.336	268.87
425.797	269.07
426.257	278.27
426.717	287.77
427.177	276.67
427.637	272.27
428.097	271.27
428.556	271.87
429.016	272.17
429.476	271.47
429.936	257.37
430.396	250.87
430.856	237.77
431.315	240.57
431.775	234.17
432.235	234.97
432.694	243.57
433.154	235.87
433.614	216.77
434.073	217.87
434.533	211.87
434.993	206.87
435.452	206.57
435.912	201.27
436.371	196.67
436.83	188.87
437.29	190.67
437.749	193.77
438.209	186.87
438.668	178.27
439.127	179.47
439.587	183.57
440.046	181.97
440.505	180.97
440.964	169.67
441.424	163.87
441.883	164.47
442.342	159.97
442.801	160.77
443.26	155.27
443.719	144.77
444.178	145.97
444.637	142.27
445.096	139.57
445.555	135.47
446.014	132.27
446.473	125.37
446.932	126.17
447.391	118.07
447.849	121.17
448.308	118.77
448.767	119.77
449.226	114.37
449.685	111.87
450.143	109.47
450.602	111.87
451.061	103.37
451.519	104.67
451.978	103.47
452.436	98.97
452.895	103.47
453.353	97.57
453.812	94.87
454.27	98.57
454.729	96.87
455.187	92.07
455.646	93.17
456.104	94.37
456.562	89.27
457.021	93.47
457.479	93.07
457.937	90.17
458.395	91.27
458.854	89.97
459.312	90.27
459.77	90.97
460.228	89.57
460.686	85.87
461.144	90.27
461.602	88.47
462.06	87.57
462.518	83.97
462.976	91.57
463.434	87.87
463.892	86.47
464.35	87.57
464.808	89.27
465.266	85.77
465.724	82.97
466.181	90.07
466.639	88.27
467.097	86.77
467.555	88.57
468.012	86.27
468.47	86.07
468.928	86.47
469.385	90.17
469.843	86.37
470.3	84.47
470.758	82.37
471.215	82.17
471.673	88.57
472.13	84.47
472.588	86.37
473.045	86.47
473.503	88.17
473.96	86.27
474.417	80.47
474.875	85.87
475.332	91.97
475.789	87.47
476.246	88.87
476.704	83.57
477.161	87.27
477.618	87.87
478.075	85.27
478.532	84.87
478.989	84.37
479.446	81.97
479.903	84.07
480.36	84.77
480.817	81.67
481.274	85.57
481.731	84.57
482.188	83.87
482.645	82.97
483.102	89.17
483.558	80.07
484.015	90.47
484.472	89.67
484.929	83.97
485.385	87.67
485.842	87.67
486.299	86.67
486.755	86.77
487.212	84.47
487.668	85.37
488.125	88.27
488.582	83.77
489.038	86.87
489.494	86.87
489.951	81.87
490.407	86.37
490.864	86.87
491.32	84.67
491.776	87.97
492.233	81.57
492.689	82.07
493.145	89.57
493.602	87.27
494.058	84.27
494.514	81.97
494.97	85.17
495.426	85.47
495.882	87.57
496.338	83.37
496.794	81.97
497.251	86.67
497.707	88.47
498.163	83.97
498.618	84.97
499.074	88.67
499.53	85.47
499.986	85.87
500.442	83.67
500.898	89.37
501.354	84.37
501.809	84.07
502.265	86.27
502.721	84.37
503.177	89.57
503.632	85.07
504.088	84.67
504.543	90.67
504.999	88.27
505.455	84.97
505.91	86.67
506.366	85.37
506.821	83.57
507.277	88.17
507.732	86.87
508.187	90.07
508.643	88.27
509.098	84.67
509.553	81.77
510.009	85.77
510.464	83.07
510.919	79.77
511.375	85.37
511.83	83.67
512.285	85.97
512.74	87.57
513.195	85.37
513.65	82.07
514.105	84.97
514.56	85.07
515.015	86.07
515.47	81.57
515.925	84.57
516.38	83.37
516.835	87.87
517.29	85.67
517.745	86.17
518.2	85.97
518.655	86.87
519.109	81.47
519.564	82.77
520.019	84.17
520.474	83.97
520.928	83.67
521.383	85.27
521.838	84.47
522.292	86.97
522.747	81.37
523.201	82.77
523.656	87.07
524.11	85.27
524.565	89.57
525.019	80.87
525.474	86.67
525.928	82.17
526.382	85.17
526.837	82.37
527.291	88.27
527.745	92.77
528.2	88.97
528.654	86.47
529.108	82.17
529.562	89.77
530.016	80.97
530.47	83.67
530.925	85.07
531.379	83.37
531.833	84.07
532.287	84.77
532.741	86.27
533.195	81.47
533.649	83.47
534.103	87.77
534.556	87.87
535.01	79.57
535.464	86.67
535.918	83.47
536.372	87.17
536.826	82.47
537.279	83.37
537.733	87.67
538.187	89.17
538.64	89.97
539.094	82.67
539.548	84.17
540.001	83.47
540.455	81.87
540.908	79.97
541.362	80.67
541.815	85.47
542.269	81.87
542.722	86.17
543.175	83.87
543.629	82.87
544.082	81.57
544.536	82.77
544.989	77.87
545.442	78.67
545.895	86.97
546.349	84.97
546.802	82.17
547.255	84.47
547.708	87.47
548.161	87.87
548.614	77.87
549.067	87.67
549.52	78.47
549.973	88.17
550.426	89.47
550.879	82.37
551.332	81.17
551.785	83.57
552.238	84.67
552.691	84.87
553.144	86.87
553.596	82.77
554.049	84.37
554.502	81.47
554.955	85.37
555.407	87.57
555.86	89.97
556.313	85.27
556.765	88.67
557.218	87.57
557.67	86.77
558.123	89.27
558.576	82.77
559.028	85.47
559.48	88.87
559.933	80.37
560.385	88.97
560.838	86.27
561.29	86.57
561.742	83.37
562.195	84.07
562.647	89.87
563.099	85.47
563.551	85.67
564.004	85.07
564.456	83.97
564.908	84.77
565.36	84.77
565.812	84.37
566.264	86.37
566.716	85.17
567.168	85.77
567.62	88.07
568.072	86.87
568.524	84.67
568.976	87.77
569.428	84.57
569.88	81.37
570.332	90.47
570.784	85.17
571.235	84.47
571.687	83.47
572.139	82.67
572.59	87.47
573.042	82.17
573.494	80.97
573.945	84.27
574.397	87.07
574.849	88.77
575.3	85.07
575.752	84.07
576.203	88.27
576.655	83.07
577.106	88.77
577.557	84.77
578.009	86.17
578.46	86.47
578.912	82.97
579.363	86.27
579.814	84.97
580.265	88.27
580.717	88.77
581.168	81.97
581.619	88.17
582.07	87.97
582.521	86.17
582.972	86.27
583.423	89.47
583.875	84.97
584.326	87.87
584.777	86.27
585.227	80.27
585.678	84.47
586.129	89.27
586.58	88.27
587.031	84.77
587.482	84.37
587.933	88.97
588.384	85.47
588.834	89.67
589.285	89.27
589.736	83.87
590.186	87.67
590.637	84.17
591.088	87.37
591.538	83.57
591.989	85.07
592.439	83.37
592.89	86.97
593.34	79.77
593.791	81.87
594.241	89.27
594.692	85.47
595.142	87.97
595.593	87.67
596.043	80.27
596.493	85.27
596.943	84.57
597.394	85.97
597.844	82.17
598.294	84.57
598.744	87.17
599.195	89.37
599.645	88.47
600.095	82.87
600.545	82.97
600.995	88.87
601.445	87.37
601.895	88.07
602.345	89.67
602.795	82.67
603.245	88.17
603.695	85.87
604.145	90.57
604.594	87.67
605.044	83.77
605.494	83.57
605.944	85.47
606.393	89.27
606.843	84.47
607.293	88.77
607.743	80.37
608.192	88.07
608.642	86.27
609.091	83.67
609.541	80.47
609.99	80.57
610.44	87.07
610.889	88.27
611.339	86.07
611.788	86.37
612.238	89.97
612.687	86.27
613.136	81.37
613.586	85.17
614.035	87.47
614.484	83.27
614.933	85.47
615.383	88.47
615.832	92.07
616.281	83.57
616.73	86.17
617.179	89.77
617.628	85.07
618.077	83.37
618.526	85.17
618.975	85.57
619.424	81.37
619.873	80.17
620.322	79.97
620.771	78.87
621.22	85.37
621.669	80.87
622.118	80.57
622.567	90.37
623.015	83.47
623.464	86.37
623.913	82.77
624.361	87.87
624.81	88.97
625.259	85.27
625.707	81.57
626.156	85.57
626.604	85.97
627.053	82.47
627.501	91.37
627.95	89.37
628.398	84.67
628.847	85.07
629.295	87.77
629.744	89.57
630.192	82.07
630.64	86.27
631.089	82.37
631.537	84.67
631.985	82.07
632.433	88.47
632.881	81.97
633.33	83.47
633.778	83.27
634.226	85.57
634.674	86.37
635.122	85.97
635.57	83.57
636.018	79.47
636.466	84.67
636.914	83.67
637.362	87.07
637.81	84.47
638.258	83.17
638.705	82.77
639.153	90.17
639.601	82.07
640.049	82.37
640.497	81.97
640.944	85.97
641.392	78.17
641.84	80.27
642.287	83.67
642.735	83.77
643.182	86.57
643.63	83.07
644.078	82.87
644.525	84.27
644.973	80.37
645.42	83.27
645.867	82.77
646.315	86.57
646.762	82.27
647.21	80.87
647.657	80.17
648.104	84.77
648.551	87.77
648.999	86.77
649.446	83.77
649.893	85.77
650.34	88.17
650.787	83.77
651.234	84.27
651.682	85.27
652.129	82.37
652.576	82.67
653.023	88.17
653.47	91.17
653.917	92.77
654.363	97.37
654.81	100.87
655.257	105.67
655.704	86.77
656.151	83.97
656.598	83.37
657.044	83.07
657.491	80.27
657.938	82.97
658.385	88.17
658.831	83.27
659.278	83.27
659.724	82.87
660.171	87.07
660.618	81.47
661.064	80.77
661.511	84.67
661.957	83.87
662.404	81.77
662.85	83.57
663.296	84.07
663.743	86.17
664.189	84.37
664.635	81.27
665.082	81.87
665.528	82.47
665.974	88.87
666.42	84.37
666.867	82.07
667.313	79.47
667.759	82.17
668.205	87.17
668.651	84.37
669.097	85.17
669.543	82.77
669.989	85.47
670.435	81.37
670.881	83.47
671.327	83.27
671.773	83.07
672.219	79.07
672.665	84.27
673.11	80.97
673.556	84.67
674.002	80.47
674.448	83.27
674.893	87.67
675.339	83.97
675.785	84.27
676.23	88.67
676.676	87.27
677.122	87.57
677.567	85.97
678.013	87.67
678.458	88.87
678.904	93.57
679.349	84.17
679.794	84.67
680.24	80.17
680.685	82.77
681.131	84.57
681.576	81.17
682.021	79.87
682.466	84.87
682.912	86.67
683.357	82.37
683.802	85.97
684.247	85.77
684.692	82.17
685.137	84.57
685.583	84.67
686.028	80.37
686.473	85.77
686.918	87.67
687.363	84.57
687.807	83.47
688.252	86.87
688.697	87.47
689.142	84.67
689.587	81.87
690.032	85.47
690.477	81.37
690.921	80.97
691.366	85.67
691.811	85.17
692.255	81.87
692.7	85.87
693.145	86.67
693.589	87.37
694.034	86.57
694.478	84.47
694.923	83.17
695.367	80.97
695.812	76.67
696.256	82.57
696.701	84.67
697.145	80.97
697.59	82.17
698.034	84.17
698.478	82.87
698.922	84.67
699.367	79.17
699.811	85.87
700.255	87.27
700.699	89.57
701.143	86.77
701.588	86.17
702.032	84.87
702.476	86.87
702.92	86.07
703.364	89.47
703.808	82.57
704.252	82.77
704.696	83.07
705.14	87.47
705.584	82.97
706.027	79.67
706.471	87.17
706.915	84.57
707.359	81.07
707.803	84.77
708.246	83.07
708.69	84.57
709.134	90.27
709.577	82.07
710.021	82.37
710.465	85.17
710.908	81.57
711.352	85.97
711.795	86.07
712.239	84.97
712.682	87.67
713.126	82.57
713.569	81.77
714.012	81.47
714.456	84.87
714.899	79.17
715.342	88.07
715.786	86.47
716.229	90.87
716.672	80.87
717.115	82.27
717.558	85.27
718.002	82.07
718.445	82.47
718.888	79.97
719.331	86.77
719.774	81.57
720.217	87.27
720.66	87.47
721.103	83.87
721.546	88.07
721.989	84.07
722.432	80.47
722.874	80.07
723.317	89.37
723.76	88.77
724.203	85.77
724.645	88.17
725.088	88.67
725.531	83.97
725.974	83.57
726.416	89.67
726.859	87.47
727.301	86.97
727.744	84.17
728.187	86.97
728.629	81.47
729.071	82.17
729.514	88.37
729.956	80.87
730.399	87.87
730.841	84.77
731.283	81.87
731.726	84.87
732.168	84.47
732.61	84.27
733.053	82.27
733.495	88.97
733.937	82.77
734.379	79.67
734.821	80.57
735.263	85.07
735.705	82.67
736.148	81.37
736.59	88.37
737.032	81.17
737.474	85.57
737.916	83.97
738.357	88.47
738.799	84.67
739.241	86.57
739.683	81.57
740.125	78.97
740.567	77.97
741.008	76.67
741.45	86.47
741.892	84.57
742.334	87.97
742.775	82.77
743.217	84.07
743.658	85.57
744.1	88.37
744.542	80.17
744.983	88.87
745.425	89.57
745.866	87.27
746.307	86.67
746.749	81.17
747.19	89.17
747.632	83.27
748.073	84.97
748.514	95.27
748.956	87.67
749.397	86.07
749.838	83.17
750.279	81.47
750.72	86.37
751.162	86.27
751.603	81.97
752.044	81.07
752.485	79.77
752.926	85.57
753.367	82.97
753.808	87.27
754.249	87.77
754.69	86.77
755.131	84.67
755.572	80.07
756.013	79.17
756.453	82.37
756.894	83.17
757.335	90.37
757.776	87.87
758.216	88.57
758.657	87.67
759.098	84.17
759.538	86.87
759.979	88.27
760.42	89.07
760.86	85.97
761.301	84.97
761.741	81.87
762.182	77.57
762.622	85.07
763.063	79.17
763.503	87.77
763.943	83.37
764.384	85.07
764.824	88.47
765.264	84.47
765.705	81.87
766.145	84.27
766.585	91.37
767.025	87.07
767.465	82.17
767.906	84.37
768.346	84.17
768.786	88.17
769.226	86.47
769.666	88.77
770.106	87.07
770.546	81.37
770.986	85.67
771.426	81.87
771.866	87.87
772.306	88.57
772.745	82.47
773.185	86.67
773.625	86.97
774.065	83.57
774.505	87.97
774.944	85.27
775.384	83.97
