Data from DH-3PlusCalLight-Background_HRD10391_13-34-14-858.txt Node
Date: Thu Feb 15 13:34:14 EST 2018
User: Ender
Spectrometer: HR+D1039
Trigger mode: 0
Integration Time (sec): 2.730000E-2
Scans to average: 10
Electric dark correction enabled: true
Nonlinearity correction enabled: false
Boxcar width: 0
XAxis mode: Wavelengths
Number of Pixels in Spectrum: 2048
>>>>>Begin Spectral Data<<<<<
187.836	3.42
188.309	3.42
188.782	3.42
189.255	-4.38
189.728	-3.28
190.201	-4.18
190.674	-8.98
191.147	-3.98
191.619	-8.18
192.092	-8.98
192.565	-6.18
193.038	-1.58
193.511	3.32
193.984	-1.08
194.456	1.32
194.929	13.52
195.402	13.42
195.874	15.72
196.347	20.72
196.82	26.72
197.292	32.12
197.765	35.12
198.237	35.82
198.71	39.12
199.182	40.22
199.655	45.72
200.127	54.12
200.6	51.02
201.072	65.12
201.544	62.22
202.017	64.42
202.489	61.02
202.961	68.62
203.433	68.82
203.906	71.92
204.378	73.12
204.85	79.02
205.322	82.92
205.794	74.12
206.266	80.62
206.739	78.02
207.211	76.42
207.683	86.02
208.155	81.42
208.627	85.42
209.099	86.72
209.57	84.02
210.042	85.82
210.514	88.12
210.986	81.32
211.458	84.12
211.93	78.82
212.402	81.22
212.873	86.52
213.345	86.32
213.817	83.82
214.288	81.92
214.76	85.82
215.232	78.82
215.703	81.92
216.175	81.22
216.646	86.52
217.118	81.62
217.589	80.62
218.061	79.42
218.532	81.52
219.004	81.42
219.475	75.62
219.946	80.32
220.418	82.32
220.889	77.12
221.36	77.32
221.832	78.02
222.303	81.22
222.774	80.02
223.245	78.52
223.717	77.32
224.188	78.12
224.659	77.42
225.13	77.72
225.601	78.82
226.072	78.52
226.543	83.22
227.014	79.02
227.485	72.02
227.956	76.42
228.427	77.82
228.898	79.02
229.369	76.02
229.839	79.42
230.31	77.22
230.781	76.72
231.252	78.62
231.722	82.02
232.193	76.52
232.664	79.22
233.135	76.42
233.605	72.32
234.076	78.92
234.546	77.02
235.017	78.12
235.487	80.62
235.958	78.82
236.428	82.82
236.899	82.02
237.369	81.02
237.84	78.02
238.31	76.92
238.78	75.52
239.251	84.52
239.721	82.62
240.191	77.52
240.662	80.42
241.132	73.52
241.602	83.42
242.072	77.92
242.542	81.12
243.013	77.22
243.483	81.42
243.953	82.82
244.423	81.82
244.893	80.42
245.363	82.52
245.833	79.22
246.303	78.62
246.773	82.32
247.243	82.22
247.712	78.32
248.182	78.52
248.652	79.32
249.122	82.82
249.592	83.12
250.061	82.92
250.531	80.32
251.001	82.92
251.471	78.52
251.94	80.82
252.41	81.72
252.879	82.32
253.349	81.52
253.818	81.72
254.288	81.02
254.757	80.02
255.227	82.92
255.696	82.22
256.166	76.22
256.635	85.12
257.105	85.32
257.574	84.92
258.043	81.92
258.513	80.92
258.982	80.52
259.451	78.32
259.92	84.52
260.389	83.52
260.859	82.52
261.328	77.22
261.797	83.22
262.266	83.02
262.735	82.12
263.204	83.62
263.673	84.32
264.142	82.62
264.611	83.92
265.08	86.72
265.549	81.92
266.018	83.62
266.487	82.22
266.955	80.02
267.424	81.12
267.893	85.32
268.362	84.02
268.83	80.52
269.299	81.22
269.768	85.02
270.236	84.52
270.705	81.82
271.174	83.82
271.642	80.52
272.111	85.42
272.579	77.02
273.048	82.92
273.516	84.62
273.985	83.32
274.453	81.62
274.922	85.82
275.39	84.32
275.858	81.32
276.327	84.42
276.795	85.42
277.263	85.82
277.731	78.42
278.2	80.12
278.668	82.32
279.136	81.62
279.604	83.42
280.072	83.22
280.54	80.02
281.008	88.42
281.477	84.12
281.945	82.32
282.413	84.62
282.881	85.52
283.348	79.42
283.816	83.72
284.284	87.22
284.752	85.12
285.22	82.02
285.688	89.52
286.156	83.32
286.623	77.12
287.091	80.52
287.559	84.42
288.026	84.82
288.494	84.32
288.962	84.32
289.429	88.72
289.897	83.82
290.364	82.02
290.832	80.92
291.3	85.52
291.767	84.32
292.234	82.92
292.702	81.42
293.169	83.62
293.637	85.82
294.104	81.22
294.571	82.02
295.039	83.52
295.506	88.62
295.973	89.82
296.44	90.92
296.908	82.42
297.375	82.72
297.842	84.82
298.309	85.22
298.776	88.22
299.243	83.02
299.71	87.92
300.177	80.72
300.644	83.02
301.111	82.72
301.578	86.72
302.045	90.12
302.512	82.82
302.979	89.22
303.446	84.02
303.913	88.12
304.379	83.42
304.846	86.12
305.313	89.62
305.78	81.82
306.246	79.02
306.713	82.02
307.18	82.62
307.646	83.62
308.113	79.92
308.579	85.02
309.046	75.82
309.512	83.42
309.979	84.82
310.445	82.92
310.912	80.82
311.378	81.02
311.845	88.32
312.311	86.92
312.777	86.22
313.244	85.92
313.71	85.62
314.176	83.72
314.642	84.62
315.109	83.92
315.575	85.82
316.041	83.22
316.507	86.02
316.973	81.32
317.439	85.62
317.905	87.82
318.371	83.42
318.837	84.12
319.303	82.12
319.769	83.62
320.235	83.12
320.701	82.72
321.167	83.22
321.633	84.72
322.099	86.82
322.564	80.92
323.03	86.22
323.496	83.62
323.962	83.62
324.427	87.62
324.893	90.42
325.359	84.32
325.824	86.72
326.29	87.22
326.755	85.52
327.221	86.32
327.686	83.42
328.152	86.62
328.617	78.42
329.083	93.02
329.548	84.52
330.014	88.12
330.479	85.02
330.944	80.92
331.41	80.42
331.875	81.92
332.34	84.22
332.805	88.12
333.271	86.82
333.736	84.92
334.201	84.82
334.666	87.12
335.131	90.92
335.596	81.42
336.061	81.02
336.526	84.72
336.991	87.12
337.456	80.12
337.921	86.52
338.386	84.62
338.851	85.22
339.316	87.92
339.781	83.32
340.246	80.92
340.711	89.22
341.175	85.12
341.64	85.22
342.105	89.32
342.569	88.92
343.034	88.92
343.499	84.02
343.963	81.92
344.428	81.62
344.893	85.52
345.357	81.02
345.822	85.72
346.286	86.52
346.751	85.42
347.215	82.42
347.679	82.42
348.144	84.62
348.608	82.72
349.073	86.92
349.537	84.02
350.001	84.62
350.465	86.72
350.93	89.22
351.394	84.42
351.858	80.12
352.322	82.92
352.786	83.52
353.25	81.42
353.715	86.32
354.179	81.32
354.643	81.12
355.107	84.92
355.571	85.62
356.035	83.52
356.498	88.52
356.962	88.72
357.426	88.42
357.89	87.22
358.354	83.52
358.818	82.32
359.281	83.52
359.745	87.12
360.209	85.52
360.673	83.72
361.136	86.22
361.6	84.32
362.064	84.62
362.527	86.32
362.991	85.22
363.454	81.42
363.918	81.92
364.381	87.92
364.845	80.42
365.308	87.42
365.772	84.22
366.235	85.52
366.698	77.12
367.162	85.92
367.625	87.82
368.088	85.32
368.552	80.92
369.015	88.22
369.478	82.92
369.941	81.52
370.404	83.92
370.867	84.02
371.331	86.32
371.794	86.42
372.257	85.52
372.72	83.42
373.183	90.82
373.646	86.02
374.109	85.52
374.572	82.12
375.035	84.12
375.497	89.52
375.96	90.72
376.423	87.02
376.886	86.52
377.349	84.92
377.811	87.32
378.274	81.82
378.737	80.42
379.199	88.42
379.662	88.32
380.125	87.12
380.587	88.32
381.05	87.02
381.512	85.02
381.975	90.92
382.437	87.62
382.9	85.52
383.362	79.92
383.825	85.42
384.287	80.92
384.75	83.82
385.212	84.82
385.674	85.42
386.136	85.12
386.599	80.22
387.061	89.42
387.523	83.82
387.985	82.62
388.447	84.42
388.91	85.52
389.372	86.02
389.834	86.92
390.296	86.12
390.758	87.02
391.22	79.62
391.682	88.22
392.144	86.42
392.606	84.92
393.068	80.72
393.529	84.42
393.991	85.02
394.453	85.02
394.915	84.12
395.377	81.12
395.838	88.72
396.3	83.62
396.762	86.72
397.224	85.32
397.685	82.72
398.147	86.22
398.608	83.82
399.07	81.12
399.531	83.02
399.993	84.42
400.454	82.92
400.916	81.62
401.377	91.52
401.839	86.32
402.3	87.12
402.762	82.42
403.223	85.72
403.684	86.22
404.145	85.62
404.607	89.22
405.068	90.22
405.529	81.12
405.99	83.52
406.451	89.42
406.913	82.02
407.374	83.22
407.835	81.72
408.296	80.02
408.757	85.52
409.218	89.72
409.679	85.62
410.14	88.22
410.601	84.82
411.062	80.62
411.522	84.72
411.983	83.42
412.444	78.12
412.905	86.92
413.366	73.62
413.826	84.32
414.287	82.42
414.748	84.62
415.208	79.62
415.669	87.12
416.13	85.02
416.59	81.42
417.051	84.62
417.511	85.92
417.972	84.82
418.432	80.22
418.893	84.42
419.353	86.12
419.814	84.92
420.274	89.02
420.734	84.82
421.195	85.72
421.655	77.42
422.115	82.52
422.576	89.12
423.036	85.12
423.496	86.62
423.956	83.92
424.416	89.92
424.876	87.32
425.336	86.42
425.797	85.92
426.257	87.22
426.717	81.42
427.177	84.12
427.637	81.52
428.097	84.62
428.556	83.22
429.016	83.22
429.476	88.72
429.936	86.62
430.396	86.62
430.856	83.22
431.315	90.42
431.775	83.82
432.235	80.32
432.694	81.02
433.154	84.92
433.614	79.82
434.073	89.02
434.533	84.82
434.993	84.62
435.452	80.52
435.912	81.42
436.371	83.92
436.83	81.82
437.29	87.22
437.749	92.72
438.209	85.32
438.668	85.82
439.127	81.22
439.587	81.72
440.046	84.62
440.505	83.62
440.964	84.02
441.424	84.32
441.883	85.82
442.342	81.42
442.801	84.72
443.26	81.72
443.719	84.62
444.178	87.22
444.637	79.92
445.096	83.22
445.555	89.22
446.014	82.42
446.473	86.62
446.932	82.22
447.391	83.02
447.849	83.52
448.308	85.62
448.767	82.62
449.226	82.82
449.685	79.42
450.143	86.52
450.602	82.22
451.061	79.12
451.519	84.42
451.978	85.92
452.436	83.02
452.895	80.62
453.353	82.82
453.812	87.52
454.27	87.22
454.729	82.52
455.187	85.92
455.646	84.22
456.104	83.72
456.562	84.72
457.021	84.42
457.479	88.12
457.937	83.02
458.395	85.02
458.854	84.82
459.312	80.02
459.77	85.42
460.228	82.32
460.686	85.52
461.144	84.12
461.602	77.72
462.06	85.42
462.518	80.02
462.976	79.82
463.434	85.12
463.892	83.52
464.35	88.12
464.808	80.52
465.266	83.32
465.724	87.52
466.181	77.42
466.639	82.02
467.097	80.72
467.555	86.82
468.012	85.12
468.47	83.52
468.928	77.82
469.385	82.22
469.843	85.02
470.3	82.62
470.758	81.22
471.215	81.92
471.673	83.12
472.13	86.12
472.588	83.62
473.045	86.32
473.503	82.72
473.96	83.42
474.417	86.02
474.875	84.12
475.332	79.02
475.789	84.42
476.246	78.32
476.704	79.12
477.161	83.32
477.618	83.12
478.075	86.02
478.532	84.72
478.989	75.32
479.446	82.52
479.903	89.42
480.36	85.42
480.817	84.02
481.274	84.32
481.731	84.82
482.188	82.02
482.645	83.82
483.102	85.32
483.558	78.12
484.015	84.02
484.472	80.92
484.929	84.72
485.385	84.42
485.842	83.62
486.299	83.52
486.755	81.32
487.212	87.12
487.668	79.32
488.125	79.62
488.582	84.22
489.038	79.32
489.494	77.72
489.951	84.42
490.407	85.82
490.864	85.72
491.32	79.52
491.776	80.12
492.233	81.02
492.689	83.32
493.145	78.92
493.602	87.32
494.058	80.92
494.514	85.32
494.97	84.52
495.426	77.62
495.882	83.02
496.338	80.52
496.794	85.52
497.251	81.32
497.707	83.22
498.163	80.22
498.618	81.92
499.074	82.12
499.53	82.52
499.986	80.92
500.442	82.92
500.898	77.12
501.354	81.22
501.809	84.02
502.265	84.52
502.721	82.52
503.177	79.52
503.632	79.72
504.088	85.42
504.543	81.72
504.999	87.52
505.455	85.42
505.91	81.62
506.366	84.72
506.821	84.42
507.277	85.32
507.732	86.52
508.187	83.82
508.643	77.72
509.098	84.82
509.553	84.02
510.009	84.92
510.464	81.02
510.919	84.22
511.375	79.82
511.83	79.52
512.285	80.42
512.74	83.32
513.195	79.62
513.65	80.42
514.105	85.72
514.56	81.92
515.015	81.42
515.47	84.02
515.925	84.42
516.38	86.42
516.835	80.92
517.29	83.02
517.745	80.32
518.2	79.72
518.655	79.82
519.109	85.02
519.564	78.02
520.019	78.42
520.474	81.72
520.928	84.22
521.383	85.02
521.838	80.52
522.292	78.62
522.747	81.92
523.201	82.02
523.656	79.82
524.11	83.82
524.565	82.62
525.019	83.32
525.474	83.72
525.928	82.72
526.382	83.52
526.837	80.32
527.291	83.32
527.745	86.72
528.2	84.62
528.654	80.02
529.108	78.92
529.562	82.12
530.016	86.02
530.47	87.02
530.925	84.62
531.379	84.92
531.833	79.82
532.287	79.42
532.741	80.52
533.195	82.52
533.649	86.02
534.103	86.32
534.556	78.82
535.01	78.22
535.464	84.12
535.918	80.92
536.372	83.92
536.826	86.42
537.279	78.02
537.733	80.42
538.187	80.72
538.64	79.92
539.094	81.42
539.548	85.32
540.001	85.02
540.455	83.12
540.908	85.72
541.362	83.32
541.815	84.62
542.269	85.02
542.722	83.42
543.175	77.92
543.629	80.72
544.082	79.32
544.536	84.92
544.989	82.72
545.442	80.92
545.895	86.02
546.349	81.32
546.802	80.52
547.255	86.02
547.708	79.52
548.161	84.92
548.614	81.62
549.067	80.72
549.52	79.72
549.973	84.32
550.426	84.82
550.879	80.82
551.332	84.62
551.785	81.22
552.238	86.12
552.691	83.02
553.144	80.62
553.596	77.92
554.049	81.52
554.502	78.72
554.955	79.62
555.407	83.92
555.86	83.62
556.313	83.62
556.765	81.52
557.218	83.62
557.67	78.82
558.123	81.02
558.576	84.02
559.028	76.12
559.48	83.22
559.933	83.12
560.385	83.82
560.838	84.62
561.29	84.72
561.742	84.02
562.195	83.92
562.647	81.92
563.099	82.32
563.551	78.92
564.004	82.42
564.456	80.42
564.908	81.72
565.36	86.52
565.812	84.22
566.264	80.82
566.716	84.12
567.168	81.12
567.62	85.22
568.072	85.92
568.524	86.62
568.976	84.22
569.428	88.72
569.88	80.62
570.332	83.42
570.784	85.32
571.235	80.22
571.687	80.22
572.139	86.22
572.59	84.72
573.042	81.12
573.494	81.72
573.945	85.42
574.397	85.52
574.849	83.12
575.3	84.42
575.752	86.32
576.203	86.32
576.655	80.02
577.106	81.42
577.557	81.32
578.009	80.32
578.46	80.92
578.912	81.72
579.363	84.12
579.814	84.22
580.265	82.62
580.717	82.42
581.168	83.92
581.619	82.52
582.07	81.22
582.521	80.02
582.972	82.32
583.423	80.62
583.875	87.82
584.326	83.32
584.777	82.62
585.227	81.02
585.678	81.82
586.129	84.42
586.58	80.82
587.031	84.22
587.482	83.72
587.933	85.52
588.384	80.92
588.834	85.52
589.285	83.62
589.736	84.02
590.186	84.82
590.637	85.12
591.088	82.62
591.538	82.72
591.989	85.22
592.439	84.02
592.89	82.72
593.34	81.72
593.791	86.12
594.241	83.32
594.692	81.02
595.142	80.82
595.593	80.32
596.043	82.62
596.493	84.72
596.943	83.92
597.394	82.62
597.844	84.52
598.294	87.22
598.744	83.62
599.195	83.82
599.645	80.92
600.095	84.22
600.545	83.32
600.995	84.72
601.445	79.12
601.895	83.22
602.345	81.42
602.795	81.32
603.245	87.42
603.695	83.62
604.145	85.12
604.594	81.62
605.044	85.72
605.494	85.32
605.944	81.82
606.393	81.62
606.843	80.82
607.293	79.02
607.743	84.32
608.192	83.12
608.642	82.42
609.091	83.82
609.541	75.32
609.99	75.52
610.44	75.12
610.889	82.42
611.339	83.02
611.788	79.12
612.238	77.62
612.687	86.82
613.136	82.52
613.586	82.52
614.035	83.02
614.484	83.82
614.933	82.02
615.383	81.42
615.832	85.72
616.281	84.02
616.73	83.72
617.179	83.62
617.628	84.12
618.077	84.32
618.526	82.22
618.975	83.02
619.424	89.12
619.873	86.92
620.322	84.02
620.771	86.12
621.22	83.42
621.669	88.72
622.118	82.52
622.567	82.02
623.015	82.12
623.464	84.82
623.913	82.52
624.361	83.12
624.81	84.72
625.259	79.02
625.707	89.52
626.156	83.32
626.604	84.52
627.053	82.42
627.501	87.22
627.95	79.92
628.398	81.32
628.847	85.62
629.295	81.92
629.744	90.72
630.192	85.12
630.64	89.52
631.089	78.92
631.537	81.22
631.985	80.82
632.433	84.02
632.881	83.02
633.33	88.32
633.778	83.82
634.226	85.32
634.674	83.02
635.122	89.12
635.57	85.12
636.018	82.92
636.466	78.42
636.914	85.22
637.362	82.42
637.81	89.22
638.258	82.22
638.705	81.22
639.153	87.52
639.601	84.12
640.049	84.22
640.497	81.42
640.944	85.12
641.392	84.92
641.84	82.52
642.287	81.92
642.735	83.02
643.182	84.42
643.63	87.02
644.078	87.72
644.525	81.22
644.973	82.52
645.42	85.22
645.867	84.12
646.315	84.62
646.762	89.22
647.21	82.12
647.657	81.82
648.104	77.72
648.551	81.42
648.999	83.32
649.446	83.12
649.893	76.02
650.34	86.62
650.787	81.82
651.234	83.02
651.682	86.72
652.129	82.12
652.576	82.92
653.023	79.72
653.47	79.22
653.917	83.12
654.363	86.82
654.81	88.82
655.257	88.12
655.704	82.62
656.151	86.52
656.598	78.82
657.044	79.72
657.491	83.62
657.938	83.32
658.385	84.72
658.831	86.42
659.278	84.02
659.724	83.72
660.171	80.52
660.618	85.12
661.064	86.62
661.511	86.62
661.957	84.92
662.404	85.82
662.85	85.32
663.296	81.12
663.743	85.52
664.189	80.92
664.635	84.02
665.082	86.52
665.528	87.52
665.974	90.42
666.42	83.02
666.867	86.72
667.313	87.92
667.759	84.82
668.205	80.22
668.651	79.32
669.097	86.42
669.543	81.82
669.989	87.52
670.435	86.32
670.881	88.72
671.327	85.52
671.773	83.82
672.219	89.62
672.665	85.82
673.11	82.22
673.556	83.82
674.002	87.22
674.448	82.82
674.893	86.22
675.339	82.42
675.785	82.92
676.23	87.02
676.676	82.62
677.122	82.92
677.567	86.92
678.013	84.62
678.458	83.92
678.904	83.72
679.349	86.82
679.794	89.82
680.24	84.32
680.685	84.32
681.131	85.32
681.576	84.02
682.021	87.32
682.466	84.72
682.912	86.52
683.357	88.62
683.802	80.32
684.247	86.42
684.692	81.92
685.137	82.72
685.583	85.92
686.028	88.52
686.473	79.52
686.918	87.62
687.363	86.22
687.807	82.52
688.252	86.42
688.697	85.92
689.142	83.62
689.587	86.62
690.032	89.62
690.477	85.82
690.921	85.92
691.366	86.22
691.811	80.52
692.255	82.02
692.7	82.52
693.145	86.52
693.589	81.32
694.034	84.12
694.478	81.52
694.923	83.12
695.367	87.62
695.812	89.72
696.256	83.72
696.701	82.12
697.145	85.12
697.59	82.72
698.034	80.02
698.478	83.12
698.922	84.42
699.367	84.12
699.811	84.22
700.255	84.72
700.699	82.52
701.143	80.72
701.588	82.72
702.032	81.12
702.476	78.72
702.92	81.72
703.364	88.22
703.808	81.72
704.252	82.72
704.696	84.42
705.14	83.12
705.584	86.32
706.027	82.42
706.471	87.82
706.915	83.82
707.359	83.02
707.803	82.52
708.246	87.52
708.69	82.62
709.134	84.72
709.577	83.32
710.021	83.32
710.465	84.02
710.908	79.22
711.352	87.32
711.795	80.42
712.239	85.72
712.682	84.82
713.126	85.62
713.569	86.72
714.012	87.52
714.456	84.22
714.899	87.02
715.342	83.32
715.786	80.62
716.229	80.62
716.672	83.42
717.115	89.52
717.558	85.62
718.002	76.92
718.445	82.52
718.888	86.52
719.331	83.62
719.774	85.02
720.217	89.02
720.66	83.92
721.103	83.92
721.546	85.32
721.989	86.22
722.432	85.82
722.874	82.62
723.317	85.72
723.76	88.12
724.203	83.52
724.645	83.72
725.088	88.42
725.531	83.22
725.974	78.82
726.416	84.32
726.859	86.82
727.301	87.02
727.744	82.92
728.187	86.12
728.629	83.62
729.071	86.92
729.514	80.12
729.956	80.02
730.399	81.52
730.841	82.22
731.283	81.92
731.726	81.92
732.168	84.52
732.61	83.52
733.053	82.92
733.495	87.22
733.937	85.02
734.379	84.32
734.821	80.92
735.263	81.42
735.705	84.22
736.148	85.92
736.59	82.42
737.032	81.22
737.474	84.82
737.916	87.12
738.357	80.12
738.799	81.82
739.241	85.32
739.683	84.22
740.125	88.82
740.567	82.32
741.008	77.72
741.45	87.82
741.892	88.12
742.334	88.32
742.775	87.92
743.217	85.12
743.658	86.72
744.1	91.82
744.542	82.72
744.983	83.12
745.425	80.32
745.866	81.02
746.307	84.22
746.749	91.72
747.19	85.12
747.632	81.92
748.073	82.92
748.514	85.12
748.956	87.12
749.397	81.52
749.838	85.22
750.279	83.92
750.72	86.42
751.162	91.42
751.603	87.22
752.044	85.62
752.485	84.22
752.926	88.82
753.367	88.72
753.808	83.82
754.249	91.92
754.69	84.22
755.131	84.02
755.572	90.02
756.013	79.02
756.453	83.82
756.894	79.62
757.335	91.12
757.776	87.22
758.216	87.92
758.657	86.52
759.098	80.42
759.538	84.72
759.979	85.32
760.42	85.82
760.86	78.92
761.301	87.42
761.741	83.62
762.182	82.72
762.622	86.62
763.063	84.82
763.503	88.62
763.943	81.82
764.384	83.52
764.824	87.62
765.264	84.82
765.705	81.72
766.145	85.52
766.585	85.82
767.025	81.72
767.465	88.12
767.906	88.42
768.346	88.52
768.786	80.02
769.226	79.92
769.666	87.62
770.106	85.92
770.546	82.72
770.986	85.52
771.426	83.62
771.866	81.82
772.306	89.72
772.745	84.32
773.185	85.72
773.625	87.02
774.065	86.62
774.505	85.82
774.944	84.92
775.384	80.62
775.824	81.62
776.263	82.92
776.703	84.82
777.142	81.72
777.582	85.22
778.021	82.02
778.461	85.72
778.9	85.82
779.34	85.22
779.779	79.32
780.219	78.72
780.658	83.82
781.097	84.52
781.537	82.32
781.976	87.62
782.415	87.02
782.855	85.22
783.294	89.32
783.733	86.52
784.172	84.52
784.611	83.02
785.05	85.72
785.489	85.22
785.928	85.32
786.367	83.72
786.806	85.92
787.245	82.32
787.684	84.82
788.123	86.32
