Data from DH-3PlusCalLight-Halogen_HRD10391_13-39-48-978.txt Node
Date: Thu Feb 15 13:39:48 EST 2018
User: Ender
Spectrometer: HR+D1039
Trigger mode: 0
Integration Time (sec): 2.730000E-2
Scans to average: 10
Electric dark correction enabled: true
Nonlinearity correction enabled: false
Boxcar width: 0
XAxis mode: Wavelengths
Number of Pixels in Spectrum: 2048
>>>>>Begin Spectral Data<<<<<
187.836	1.91
188.309	1.91
188.782	1.91
189.255	-1.99
189.728	-3.79
190.201	-9.49
190.674	-13.79
191.147	-11.29
191.619	-11.09
192.092	-10.79
192.565	-7.29
193.038	-0.29
193.511	7.31
193.984	5.71
194.456	3.31
194.929	11.31
195.402	20.91
195.874	19.31
196.347	21.91
196.82	20.11
197.292	28.91
197.765	32.81
198.237	36.41
198.71	36.61
199.182	40.41
199.655	50.41
200.127	54.31
200.6	54.91
201.072	57.91
201.544	62.81
202.017	60.31
202.489	71.61
202.961	62.61
203.433	71.81
203.906	71.61
204.378	75.61
204.85	74.41
205.322	76.11
205.794	82.71
206.266	86.91
206.739	79.41
207.211	79.91
207.683	84.11
208.155	83.61
208.627	84.21
209.099	87.71
209.57	79.51
210.042	86.41
210.514	88.11
210.986	86.41
211.458	84.31
211.93	80.41
212.402	87.71
212.873	79.11
213.345	79.71
213.817	79.01
214.288	79.21
214.76	81.01
215.232	84.31
215.703	86.01
216.175	87.01
216.646	79.51
217.118	78.51
217.589	76.51
218.061	83.41
218.532	81.71
219.004	77.11
219.475	80.51
219.946	78.91
220.418	79.81
220.889	76.51
221.36	85.11
221.832	76.81
222.303	78.51
222.774	80.41
223.245	75.11
223.717	80.71
224.188	77.91
224.659	76.11
225.13	75.31
225.601	78.01
226.072	77.21
226.543	75.51
227.014	75.61
227.485	75.11
227.956	72.41
228.427	76.91
228.898	81.41
229.369	77.01
229.839	72.11
230.31	77.11
230.781	75.01
231.252	83.31
231.722	83.41
232.193	81.81
232.664	76.21
233.135	76.71
233.605	79.71
234.076	77.11
234.546	72.41
235.017	76.71
235.487	81.61
235.958	80.01
236.428	80.21
236.899	75.91
237.369	76.31
237.84	84.11
238.31	80.21
238.78	80.81
239.251	78.61
239.721	81.61
240.191	77.41
240.662	79.61
241.132	75.61
241.602	84.81
242.072	76.21
242.542	81.81
243.013	78.01
243.483	77.51
243.953	84.71
244.423	78.61
244.893	79.41
245.363	79.91
245.833	81.91
246.303	73.91
246.773	80.31
247.243	83.61
247.712	79.91
248.182	81.51
248.652	85.71
249.122	86.71
249.592	78.11
250.061	81.51
250.531	75.51
251.001	79.91
251.471	81.01
251.94	86.51
252.41	80.01
252.879	79.61
253.349	80.81
253.818	81.61
254.288	80.41
254.757	78.01
255.227	81.21
255.696	85.91
256.166	81.51
256.635	81.51
257.105	85.01
257.574	79.51
258.043	82.91
258.513	85.61
258.982	81.91
259.451	82.11
259.92	83.21
260.389	79.81
260.859	82.91
261.328	80.31
261.797	82.81
262.266	83.71
262.735	77.21
263.204	84.71
263.673	84.21
264.142	85.41
264.611	83.41
265.08	86.01
265.549	85.11
266.018	83.81
266.487	83.21
266.955	83.61
267.424	81.51
267.893	79.41
268.362	82.11
268.83	81.51
269.299	80.61
269.768	85.11
270.236	83.61
270.705	86.61
271.174	85.61
271.642	86.41
272.111	83.21
272.579	79.71
273.048	81.21
273.516	79.91
273.985	83.21
274.453	81.91
274.922	85.41
275.39	77.11
275.858	81.71
276.327	77.61
276.795	83.51
277.263	80.61
277.731	80.01
278.2	86.51
278.668	86.71
279.136	82.91
279.604	83.31
280.072	86.71
280.54	89.01
281.008	78.01
281.477	81.51
281.945	81.11
282.413	84.01
282.881	82.31
283.348	82.91
283.816	84.21
284.284	87.91
284.752	84.81
285.22	85.71
285.688	83.01
286.156	85.81
286.623	81.21
287.091	87.11
287.559	83.51
288.026	84.11
288.494	86.51
288.962	82.51
289.429	86.61
289.897	84.31
290.364	86.01
290.832	83.61
291.3	86.51
291.767	84.41
292.234	86.01
292.702	83.91
293.169	84.41
293.637	84.01
294.104	85.51
294.571	83.21
295.039	83.91
295.506	83.11
295.973	80.11
296.44	84.61
296.908	84.21
297.375	80.01
297.842	82.71
298.309	85.51
298.776	80.11
299.243	78.51
299.71	84.61
300.177	85.61
300.644	85.01
301.111	86.61
301.578	87.41
302.045	85.21
302.512	89.01
302.979	86.11
303.446	85.91
303.913	81.81
304.379	88.81
304.846	79.81
305.313	87.21
305.78	86.31
306.246	88.91
306.713	80.51
307.18	85.71
307.646	84.31
308.113	81.91
308.579	86.31
309.046	84.11
309.512	81.31
309.979	82.61
310.445	82.41
310.912	84.61
311.378	83.11
311.845	87.81
312.311	85.21
312.777	85.71
313.244	87.11
313.71	83.71
314.176	88.21
314.642	80.81
315.109	84.91
315.575	84.71
316.041	87.01
316.507	87.71
316.973	89.01
317.439	81.41
317.905	87.91
318.371	86.91
318.837	86.01
319.303	88.51
319.769	89.11
320.235	88.81
320.701	86.31
321.167	86.51
321.633	88.21
322.099	83.51
322.564	87.31
323.03	90.61
323.496	90.71
323.962	87.61
324.427	86.31
324.893	84.21
325.359	86.41
325.824	88.61
326.29	88.21
326.755	84.41
327.221	84.21
327.686	86.11
328.152	87.51
328.617	85.71
329.083	87.01
329.548	86.41
330.014	84.21
330.479	86.51
330.944	88.21
331.41	85.71
331.875	84.31
332.34	90.11
332.805	85.41
333.271	90.61
333.736	87.01
334.201	88.21
334.666	87.81
335.131	88.51
335.596	82.11
336.061	86.71
336.526	88.91
336.991	90.31
337.456	91.71
337.921	90.51
338.386	86.81
338.851	83.71
339.316	86.31
339.781	84.61
340.246	86.71
340.711	87.71
341.175	87.61
341.64	83.41
342.105	87.61
342.569	89.21
343.034	86.81
343.499	88.01
343.963	83.21
344.428	91.11
344.893	88.21
345.357	86.91
345.822	87.11
346.286	85.71
346.751	85.41
347.215	89.51
347.679	82.81
348.144	90.31
348.608	84.91
349.073	86.61
349.537	85.01
350.001	92.11
350.465	84.61
350.93	82.51
351.394	88.11
351.858	89.01
352.322	91.11
352.786	92.01
353.25	92.61
353.715	86.51
354.179	89.21
354.643	86.61
355.107	85.71
355.571	87.11
356.035	87.61
356.498	88.11
356.962	90.01
357.426	87.61
357.89	90.71
358.354	88.91
358.818	88.91
359.281	87.11
359.745	89.11
360.209	89.21
360.673	88.81
361.136	88.41
361.6	85.51
362.064	86.21
362.527	88.71
362.991	87.51
363.454	87.11
363.918	87.01
364.381	88.91
364.845	93.01
365.308	89.91
365.772	89.41
366.235	87.01
366.698	83.41
367.162	89.91
367.625	89.81
368.088	92.71
368.552	94.21
369.015	90.71
369.478	89.91
369.941	92.31
370.404	94.21
370.867	85.81
371.331	88.11
371.794	98.01
372.257	89.51
372.72	86.41
373.183	92.11
373.646	92.01
374.109	90.91
374.572	93.71
375.035	96.91
375.497	95.11
375.96	95.51
376.423	98.31
376.886	97.01
377.349	93.61
377.811	91.61
378.274	93.41
378.737	100.01
379.199	99.01
379.662	95.41
380.125	101.51
380.587	104.41
381.05	100.91
381.512	98.31
381.975	107.91
382.437	95.71
382.9	102.61
383.362	99.41
383.825	105.91
384.287	100.41
384.75	103.41
385.212	104.51
385.674	105.01
386.136	96.81
386.599	104.51
387.061	105.41
387.523	99.61
387.985	106.71
388.447	100.61
388.91	105.01
389.372	100.81
389.834	101.51
390.296	107.71
390.758	115.81
391.22	108.11
391.682	110.71
392.144	107.11
392.606	110.61
393.068	108.01
393.529	109.31
393.991	110.61
394.453	113.21
394.915	119.41
395.377	111.81
395.838	116.11
396.3	115.91
396.762	119.51
397.224	119.51
397.685	120.11
398.147	117.61
398.608	126.51
399.07	123.21
399.531	125.41
399.993	128.81
400.454	125.91
400.916	125.41
401.377	125.21
401.839	130.71
402.3	132.61
402.762	137.61
403.223	125.41
403.684	139.21
404.145	137.01
404.607	137.41
405.068	142.21
405.529	143.71
405.99	147.51
406.451	152.71
406.913	151.31
407.374	156.81
407.835	155.41
408.296	158.61
408.757	163.71
409.218	160.51
409.679	173.81
410.14	174.81
410.601	171.81
411.062	181.21
411.522	181.51
411.983	176.51
412.444	182.21
412.905	197.61
413.366	194.11
413.826	205.41
414.287	202.11
414.748	209.51
415.208	210.21
415.669	216.61
416.13	217.31
416.59	223.81
417.051	228.41
417.511	242.21
417.972	252.21
418.432	251.21
418.893	257.21
419.353	257.71
419.814	265.61
420.274	280.61
420.734	269.81
421.195	285.11
421.655	288.31
422.115	295.41
422.576	304.21
423.036	319.61
423.496	329.21
423.956	330.41
424.416	338.01
424.876	357.01
425.336	368.71
425.797	376.71
426.257	385.31
426.717	405.31
427.177	415.81
427.637	424.61
428.097	433.11
428.556	442.31
429.016	456.01
429.476	470.41
429.936	489.31
430.396	494.11
430.856	511.71
431.315	525.51
431.775	544.21
432.235	559.11
432.694	577.91
433.154	598.41
433.614	602.51
434.073	633.01
434.533	628.41
434.993	632.61
435.452	673.01
435.912	678.61
436.371	685.11
436.83	710.71
437.29	715.41
437.749	732.51
438.209	741.91
438.668	775.71
439.127	792.91
439.587	811.01
440.046	812.31
440.505	846.91
440.964	854.31
441.424	877.81
441.883	894.61
442.342	901.41
442.801	914.31
443.26	958.61
443.719	967.21
444.178	984.41
444.637	995.51
445.096	1016.51
445.555	1044.01
446.014	1036.61
446.473	1045.61
446.932	1066.61
447.391	1090.61
447.849	1124.91
448.308	1120.71
448.767	1133.21
449.226	1165.11
449.685	1170.11
450.143	1190.21
450.602	1228.31
451.061	1216.61
451.519	1250.21
451.978	1261.31
452.436	1269.51
452.895	1285.81
453.353	1293.71
453.812	1286.31
454.27	1332.61
454.729	1350.41
455.187	1365.01
455.646	1362.21
456.104	1369.41
456.562	1391.41
457.021	1413.01
457.479	1376.81
457.937	1405.71
458.395	1455.11
458.854	1457.11
459.312	1431.61
459.77	1444.61
460.228	1442.71
460.686	1492.41
461.144	1479.51
461.602	1471.41
462.06	1462.51
462.518	1473.41
462.976	1471.51
463.434	1458.61
463.892	1454.01
464.35	1460.91
464.808	1466.11
465.266	1480.81
465.724	1479.41
466.181	1483.51
466.639	1465.91
467.097	1506.21
467.555	1558.01
468.012	1507.41
468.47	1512.11
468.928	1521.71
469.385	1529.81
469.843	1563.51
470.3	1548.71
470.758	1582.21
471.215	1574.01
471.673	1612.81
472.13	1622.11
472.588	1669.71
473.045	1665.81
473.503	1700.31
473.96	1767.31
474.417	1749.91
474.875	1805.41
475.332	1821.31
475.789	1829.01
476.246	1868.31
476.704	1912.71
477.161	1914.81
477.618	1954.81
478.075	1975.31
478.532	2062.61
478.989	2090.11
479.446	2122.21
479.903	2122.81
480.36	2231.61
480.817	2238.31
481.274	2294.71
481.731	2320.01
482.188	2339.31
482.645	2414.31
483.102	2434.61
483.558	2459.21
484.015	2524.31
484.472	2552.91
484.929	2606.71
485.385	2638.01
485.842	2670.41
486.299	2709.51
486.755	2717.31
487.212	2724.81
487.668	2754.81
488.125	2804.81
488.582	2766.41
489.038	2806.11
489.494	2827.11
489.951	2842.21
490.407	2862.81
490.864	2869.91
491.32	2889.01
491.776	2877.71
492.233	2900.71
492.689	2890.11
493.145	2907.51
493.602	2893.51
494.058	2917.91
494.514	2908.61
494.97	2911.71
495.426	2899.71
495.882	2917.61
496.338	2901.51
496.794	2921.71
497.251	2919.71
497.707	2926.41
498.163	2956.71
498.618	2940.61
499.074	2920.81
499.53	2943.11
499.986	2948.21
500.442	2946.21
500.898	2919.91
501.354	2966.51
501.809	2958.51
502.265	2928.61
502.721	2972.01
503.177	2956.11
503.632	2953.51
504.088	2944.61
504.543	2953.71
504.999	2951.91
505.455	2949.41
505.91	2942.11
506.366	2963.51
506.821	2974.21
507.277	2964.91
507.732	2963.01
508.187	2937.51
508.643	2948.61
509.098	2923.41
509.553	2923.01
510.009	2916.41
510.464	2926.91
510.919	2921.71
511.375	2929.71
511.83	2887.91
512.285	2893.01
512.74	2894.91
513.195	2875.71
513.65	2835.11
514.105	2849.81
514.56	2821.71
515.015	2843.11
515.47	2824.21
515.925	2798.81
516.38	2797.91
516.835	2806.21
517.29	2783.51
517.745	2776.31
518.2	2773.01
518.655	2756.11
519.109	2738.81
519.564	2742.21
520.019	2728.21
520.474	2721.61
520.928	2726.11
521.383	2687.71
521.838	2687.71
522.292	2670.71
522.747	2682.11
523.201	2686.11
523.656	2659.61
524.11	2642.91
524.565	2669.91
525.019	2680.21
525.474	2666.21
525.928	2648.71
526.382	2652.91
526.837	2646.71
527.291	2666.11
527.745	2647.21
528.2	2638.41
528.654	2622.31
529.108	2631.11
529.562	2631.91
530.016	2629.81
530.47	2658.01
530.925	2635.41
531.379	2662.81
531.833	2665.11
532.287	2657.21
532.741	2639.91
533.195	2654.71
533.649	2665.11
534.103	2663.61
534.556	2641.71
535.01	2643.91
535.464	2658.91
535.918	2674.91
536.372	2696.61
536.826	2662.31
537.279	2632.61
537.733	2657.11
538.187	2669.41
538.64	2660.21
539.094	2647.51
539.548	2675.41
540.001	2655.61
540.455	2647.11
540.908	2634.51
541.362	2623.81
541.815	2614.41
542.269	2629.81
542.722	2607.71
543.175	2612.71
543.629	2594.61
544.082	2597.01
544.536	2595.11
544.989	2573.71
545.442	2578.61
545.895	2567.11
546.349	2554.21
546.802	2560.51
547.255	2562.41
547.708	2546.31
548.161	2563.31
548.614	2541.81
549.067	2537.11
549.52	2534.51
549.973	2523.81
550.426	2523.51
550.879	2533.71
551.332	2535.61
551.785	2522.01
552.238	2538.61
552.691	2525.71
553.144	2513.31
553.596	2540.91
554.049	2541.51
554.502	2549.01
554.955	2542.71
555.407	2544.21
555.86	2553.61
556.313	2564.41
556.765	2546.51
557.218	2570.61
557.67	2569.41
558.123	2580.01
558.576	2570.11
559.028	2572.31
559.48	2590.61
559.933	2596.71
560.385	2607.01
560.838	2584.91
561.29	2604.21
561.742	2616.31
562.195	2611.61
562.647	2613.11
563.099	2636.01
563.551	2603.61
564.004	2638.41
564.456	2644.81
564.908	2640.01
565.36	2648.71
565.812	2652.11
566.264	2654.61
566.716	2645.61
567.168	2637.41
567.62	2652.91
568.072	2666.01
568.524	2644.91
568.976	2645.41
569.428	2629.51
569.88	2631.51
570.332	2652.81
570.784	2635.21
571.235	2624.71
571.687	2626.21
572.139	2613.21
572.59	2612.91
573.042	2602.41
573.494	2611.91
573.945	2592.61
574.397	2562.91
574.849	2590.11
575.3	2578.61
575.752	2546.61
576.203	2554.11
576.655	2590.81
577.106	2567.61
577.557	2548.71
578.009	2532.71
578.46	2548.71
578.912	2551.41
579.363	2550.11
579.814	2525.91
580.265	2518.21
580.717	2519.91
581.168	2533.61
581.619	2535.91
582.07	2531.71
582.521	2524.41
582.972	2500.01
583.423	2523.61
583.875	2519.91
584.326	2506.41
584.777	2534.01
585.227	2516.81
585.678	2533.91
586.129	2536.31
586.58	2517.41
587.031	2550.81
587.482	2515.91
587.933	2493.61
588.384	2533.61
588.834	2519.81
589.285	2540.81
589.736	2552.71
590.186	2527.61
590.637	2546.31
591.088	2549.61
591.538	2543.01
591.989	2555.01
592.439	2532.21
592.89	2551.61
593.34	2556.01
593.791	2582.51
594.241	2554.61
594.692	2559.71
595.142	2575.01
595.593	2576.91
596.043	2584.21
596.493	2574.71
596.943	2559.91
597.394	2588.81
597.844	2574.11
598.294	2572.31
598.744	2575.11
599.195	2579.31
599.645	2599.01
600.095	2583.41
600.545	2586.41
600.995	2611.21
601.445	2587.91
601.895	2587.11
602.345	2599.41
602.795	2603.41
603.245	2623.81
603.695	2585.31
604.145	2584.41
604.594	2601.01
605.044	2599.41
605.494	2595.91
605.944	2619.41
606.393	2619.21
606.843	2602.11
607.293	2609.91
607.743	2619.01
608.192	2611.71
608.642	2614.11
609.091	2596.91
609.541	2602.21
609.99	2644.51
610.44	2618.41
610.889	2624.51
611.339	2623.51
611.788	2610.61
612.238	2618.51
612.687	2629.51
613.136	2607.31
613.586	2622.11
614.035	2584.21
614.484	2616.01
614.933	2600.41
615.383	2594.81
615.832	2584.71
616.281	2609.01
616.73	2610.81
617.179	2598.21
617.628	2581.71
618.077	2596.01
618.526	2602.41
618.975	2596.91
619.424	2575.41
619.873	2599.81
620.322	2595.61
620.771	2591.41
621.22	2610.31
621.669	2573.91
622.118	2607.01
622.567	2590.91
623.015	2573.01
623.464	2582.01
623.913	2569.41
624.361	2594.41
624.81	2573.01
625.259	2597.41
625.707	2575.31
626.156	2570.81
626.604	2586.71
627.053	2566.91
627.501	2567.71
627.95	2565.61
628.398	2601.71
628.847	2561.51
629.295	2567.31
629.744	2559.21
630.192	2546.11
630.64	2547.11
631.089	2544.91
631.537	2556.61
631.985	2532.61
632.433	2534.21
632.881	2523.31
633.33	2544.91
633.778	2523.01
634.226	2503.11
634.674	2514.91
635.122	2515.11
635.57	2511.11
636.018	2528.31
636.466	2495.11
636.914	2508.61
637.362	2501.71
637.81	2499.21
638.258	2503.11
638.705	2483.01
639.153	2510.01
639.601	2471.11
640.049	2483.61
640.497	2485.91
640.944	2469.31
641.392	2482.21
641.84	2471.01
642.287	2481.51
642.735	2476.41
643.182	2455.81
643.63	2453.21
644.078	2463.31
644.525	2445.01
644.973	2454.61
645.42	2446.61
645.867	2469.81
646.315	2429.91
646.762	2459.31
647.21	2425.81
647.657	2441.01
648.104	2445.21
648.551	2412.11
648.999	2442.41
649.446	2433.71
649.893	2425.91
650.34	2417.01
650.787	2436.61
651.234	2421.31
651.682	2421.81
652.129	2421.31
652.576	2406.71
653.023	2423.91
653.47	2407.51
653.917	2395.81
654.363	2407.51
654.81	2416.91
655.257	2402.31
655.704	2399.11
656.151	2405.81
656.598	2397.81
657.044	2362.01
657.491	2397.01
657.938	2387.41
658.385	2371.71
658.831	2379.71
659.278	2359.21
659.724	2369.81
660.171	2380.81
660.618	2362.01
661.064	2338.41
661.511	2362.51
661.957	2351.81
662.404	2333.51
662.85	2338.61
663.296	2336.01
663.743	2335.91
664.189	2351.31
664.635	2359.81
665.082	2334.51
665.528	2313.11
665.974	2326.91
666.42	2331.01
666.867	2321.01
667.313	2314.71
667.759	2309.81
668.205	2299.11
668.651	2301.61
669.097	2283.41
669.543	2313.11
669.989	2292.51
670.435	2272.01
670.881	2269.31
671.327	2264.91
671.773	2274.21
672.219	2244.61
672.665	2267.51
673.11	2265.91
673.556	2250.61
674.002	2249.21
674.448	2228.41
674.893	2225.71
675.339	2219.01
675.785	2197.51
676.23	2209.51
676.676	2195.31
677.122	2197.81
677.567	2193.21
678.013	2146.71
678.458	2164.01
678.904	2174.91
679.349	2152.01
679.794	2134.71
680.24	2126.11
680.685	2121.11
681.131	2104.41
681.576	2098.31
682.021	2105.21
682.466	2088.21
682.912	2060.71
683.357	2052.51
683.802	2068.91
684.247	2059.31
684.692	2025.61
685.137	2037.81
685.583	2020.41
686.028	2001.61
686.473	2020.51
686.918	2010.11
687.363	1994.81
687.807	1977.81
688.252	1978.21
688.697	1967.31
689.142	1943.01
689.587	1968.71
690.032	1945.21
690.477	1957.41
690.921	1931.21
691.366	1929.01
691.811	1925.01
692.255	1930.91
692.7	1914.91
693.145	1925.01
693.589	1911.61
694.034	1892.21
694.478	1881.71
694.923	1894.71
695.367	1872.21
695.812	1866.81
696.256	1862.01
696.701	1874.31
697.145	1866.81
697.59	1852.51
698.034	1831.11
698.478	1841.51
698.922	1831.81
699.367	1840.01
699.811	1827.71
700.255	1818.41
700.699	1814.81
701.143	1807.71
701.588	1812.71
702.032	1792.31
702.476	1792.11
702.92	1802.41
703.364	1788.91
703.808	1774.81
704.252	1784.41
704.696	1771.21
705.14	1771.11
705.584	1763.51
706.027	1754.31
706.471	1753.31
706.915	1758.31
707.359	1752.01
707.803	1731.71
708.246	1729.91
708.69	1727.71
709.134	1729.31
709.577	1724.31
710.021	1722.81
710.465	1715.01
710.908	1696.31
711.352	1691.41
711.795	1692.71
712.239	1695.21
712.682	1685.01
713.126	1679.61
713.569	1683.01
714.012	1679.41
714.456	1668.91
714.899	1675.91
715.342	1667.41
715.786	1653.61
716.229	1650.21
716.672	1644.11
717.115	1656.21
717.558	1642.41
718.002	1652.81
718.445	1649.91
718.888	1634.11
719.331	1626.21
719.774	1614.91
720.217	1624.51
720.66	1604.71
721.103	1605.11
721.546	1597.71
721.989	1602.71
722.432	1588.01
722.874	1598.81
723.317	1585.01
723.76	1584.91
724.203	1582.81
724.645	1577.21
725.088	1574.21
725.531	1568.01
725.974	1557.91
726.416	1559.71
726.859	1551.81
727.301	1556.91
727.744	1554.61
728.187	1547.11
728.629	1531.21
729.071	1524.61
729.514	1522.91
729.956	1525.21
730.399	1510.21
730.841	1516.61
731.283	1511.71
731.726	1506.41
732.168	1501.01
732.61	1491.41
733.053	1496.21
733.495	1480.21
733.937	1482.81
734.379	1484.41
734.821	1462.31
735.263	1464.61
735.705	1450.61
736.148	1444.01
736.59	1443.61
737.032	1450.31
737.474	1442.81
737.916	1421.81
738.357	1443.81
738.799	1426.91
739.241	1426.21
739.683	1420.31
740.125	1426.81
740.567	1412.51
741.008	1417.81
741.45	1405.31
741.892	1402.31
742.334	1395.11
742.775	1399.91
743.217	1375.41
743.658	1385.61
744.1	1386.51
744.542	1366.91
