Data from DH-3PlusCalLight-DeuteriumHalogen_HRD10391_13-38-33-625.txt Node
Date: Thu Feb 15 13:38:33 EST 2018
User: Ender
Spectrometer: HR+D1039
Trigger mode: 0
Integration Time (sec): 2.730000E-2
Scans to average: 10
Electric dark correction enabled: true
Nonlinearity correction enabled: false
Boxcar width: 0
XAxis mode: Wavelengths
Number of Pixels in Spectrum: 2048
>>>>>Begin Spectral Data<<<<<
187.836	3.02
188.309	3.02
188.782	3.02
189.255	-3.68
189.728	-6.68
190.201	-5.78
190.674	-10.38
191.147	-10.88
191.619	-9.18
192.092	-5.88
192.565	-5.58
193.038	3.82
193.511	-0.18
193.984	3.12
194.456	8.42
194.929	8.42
195.402	14.22
195.874	17.12
196.347	14.32
196.82	23.52
197.292	23.92
197.765	25.12
198.237	32.52
198.71	36.82
199.182	43.92
199.655	46.02
200.127	52.02
200.6	53.92
201.072	54.72
201.544	63.32
202.017	64.82
202.489	70.32
202.961	71.42
203.433	71.92
203.906	70.82
204.378	76.82
204.85	80.02
205.322	77.72
205.794	81.72
206.266	80.22
206.739	80.72
207.211	82.12
207.683	83.52
208.155	85.32
208.627	82.52
209.099	88.72
209.57	81.82
210.042	82.22
210.514	85.22
210.986	89.72
211.458	86.72
211.93	89.32
212.402	84.72
212.873	82.72
213.345	82.32
213.817	84.52
214.288	86.22
214.76	85.12
215.232	81.02
215.703	79.92
216.175	83.52
216.646	85.12
217.118	80.82
217.589	83.22
218.061	81.22
218.532	84.52
219.004	82.52
219.475	78.62
219.946	79.52
220.418	81.22
220.889	77.12
221.36	84.02
221.832	85.42
222.303	86.12
222.774	81.42
223.245	89.52
223.717	88.72
224.188	89.62
224.659	96.12
225.13	89.82
225.601	91.82
226.072	96.22
226.543	91.12
227.014	100.32
227.485	100.52
227.956	104.22
228.427	105.62
228.898	105.52
229.369	107.72
229.839	115.12
230.31	113.02
230.781	112.02
231.252	115.52
231.722	118.52
232.193	116.32
232.664	122.42
233.135	124.12
233.605	115.42
234.076	118.92
234.546	109.52
235.017	107.72
235.487	107.42
235.958	109.62
236.428	99.82
236.899	99.52
237.369	99.52
237.84	98.52
238.31	91.52
238.78	90.92
239.251	91.32
239.721	80.72
240.191	87.52
240.662	89.82
241.132	91.62
241.602	86.72
242.072	86.82
242.542	84.92
243.013	82.62
243.483	78.72
243.953	82.92
244.423	85.92
244.893	86.12
245.363	88.12
245.833	84.42
246.303	88.42
246.773	82.62
247.243	84.92
247.712	85.12
248.182	83.42
248.652	85.32
249.122	84.72
249.592	82.62
250.061	86.52
250.531	86.92
251.001	91.12
251.471	85.12
251.94	89.12
252.41	93.52
252.879	98.42
253.349	95.22
253.818	101.02
254.288	95.52
254.757	97.42
255.227	101.22
255.696	108.32
256.166	113.42
256.635	115.12
257.105	122.32
257.574	127.82
258.043	140.12
258.513	138.62
258.982	145.32
259.451	150.02
259.92	159.52
260.389	171.22
260.859	176.62
261.328	190.92
261.797	195.22
262.266	204.32
262.735	224.02
263.204	229.42
263.673	241.22
264.142	246.02
264.611	250.12
265.08	257.62
265.549	273.02
266.018	273.92
266.487	280.22
266.955	296.02
267.424	295.12
267.893	304.82
268.362	310.02
268.83	318.32
269.299	313.62
269.768	326.62
270.236	336.42
270.705	335.12
271.174	337.02
271.642	352.12
272.111	342.12
272.579	356.42
273.048	349.92
273.516	347.42
273.985	348.12
274.453	353.32
274.922	357.72
275.39	353.42
275.858	359.22
276.327	363.12
276.795	356.72
277.263	361.92
277.731	357.32
278.2	363.42
278.668	362.42
279.136	357.92
279.604	356.22
280.072	359.22
280.54	346.52
281.008	350.12
281.477	353.32
281.945	345.52
282.413	339.02
282.881	341.02
283.348	342.22
283.816	336.62
284.284	333.52
284.752	334.52
285.22	330.42
285.688	324.92
286.156	328.02
286.623	331.42
287.091	328.02
287.559	321.42
288.026	319.92
288.494	316.12
288.962	317.42
289.429	318.62
289.897	323.42
290.364	323.72
290.832	329.32
291.3	335.32
291.767	334.82
292.234	344.12
292.702	344.22
293.169	344.62
293.637	354.12
294.104	357.42
294.571	362.82
295.039	369.82
295.506	373.52
295.973	372.62
296.44	373.82
296.908	381.32
297.375	385.02
297.842	380.42
298.309	383.02
298.776	393.12
299.243	401.22
299.71	393.62
300.177	393.12
300.644	395.12
301.111	392.02
301.578	396.22
302.045	400.22
302.512	393.32
302.979	394.52
303.446	393.52
303.913	394.82
304.379	398.32
304.846	395.82
305.313	397.12
305.78	390.12
306.246	384.72
306.713	377.22
307.18	389.62
307.646	377.62
308.113	381.72
308.579	382.92
309.046	378.22
309.512	379.12
309.979	377.72
310.445	375.62
310.912	382.22
311.378	376.42
311.845	372.52
312.311	375.82
312.777	361.32
313.244	368.92
313.71	370.42
314.176	366.02
314.642	369.82
315.109	370.72
315.575	375.22
316.041	374.22
316.507	373.42
316.973	372.52
317.439	371.22
317.905	373.32
318.371	380.22
318.837	379.42
319.303	385.82
319.769	394.12
320.235	383.52
320.701	390.82
321.167	399.02
321.633	400.42
322.099	402.02
322.564	397.52
323.03	398.42
323.496	404.92
323.962	410.22
324.427	408.52
324.893	405.92
325.359	405.72
325.824	416.72
326.29	408.52
326.755	409.02
327.221	409.72
327.686	408.02
328.152	402.22
328.617	410.62
329.083	406.02
329.548	399.12
330.014	404.92
330.479	395.42
330.944	399.82
331.41	397.42
331.875	390.72
332.34	378.12
332.805	381.42
333.271	375.62
333.736	374.92
334.201	375.42
334.666	377.12
335.131	364.52
335.596	371.92
336.061	359.12
336.526	367.12
336.991	367.72
337.456	359.52
337.921	358.32
338.386	345.02
338.851	360.02
339.316	360.82
339.781	362.02
340.246	374.32
340.711	376.92
341.175	382.92
341.64	376.62
342.105	384.62
342.569	395.62
343.034	387.72
343.499	397.12
343.963	396.32
344.428	399.02
344.893	405.92
345.357	403.02
345.822	409.72
346.286	417.72
346.751	427.12
347.215	428.62
347.679	434.12
348.144	440.72
348.608	441.92
349.073	444.62
349.537	452.22
350.001	447.02
350.465	442.72
350.93	450.42
351.394	445.42
351.858	446.52
352.322	436.52
352.786	444.52
353.25	450.02
353.715	445.42
354.179	449.62
354.643	440.82
355.107	446.12
355.571	447.32
356.035	445.82
356.498	443.62
356.962	454.12
357.426	449.62
357.89	450.52
358.354	452.02
358.818	446.82
359.281	449.62
359.745	453.22
360.209	449.62
360.673	449.72
361.136	445.42
361.6	444.52
362.064	451.82
362.527	447.82
362.991	456.72
363.454	451.02
363.918	449.62
364.381	456.92
364.845	453.92
365.308	457.12
365.772	461.52
366.235	457.62
366.698	454.42
367.162	447.52
367.625	445.32
368.088	457.32
368.552	445.52
369.015	445.82
369.478	453.52
369.941	456.52
370.404	440.22
370.867	447.32
371.331	451.82
371.794	452.62
372.257	456.82
372.72	453.42
373.183	453.32
373.646	456.92
374.109	469.02
374.572	468.02
375.035	469.32
375.497	471.72
375.96	469.32
376.423	474.52
376.886	473.42
377.349	480.52
377.811	492.72
378.274	489.52
378.737	486.02
379.199	493.72
379.662	500.52
380.125	485.82
380.587	486.02
381.05	482.22
381.512	490.82
381.975	500.32
382.437	492.82
382.9	503.42
383.362	492.02
383.825	502.92
384.287	501.52
384.75	492.72
385.212	507.42
385.674	506.42
386.136	515.72
386.599	509.02
387.061	515.32
387.523	519.02
387.985	516.02
388.447	507.82
388.91	514.82
389.372	516.92
389.834	517.92
390.296	513.22
390.758	525.62
391.22	535.92
391.682	534.52
392.144	538.62
392.606	524.72
393.068	517.32
393.529	531.02
393.991	521.32
394.453	525.62
394.915	527.42
395.377	530.72
395.838	530.92
396.3	532.92
396.762	551.52
397.224	549.42
397.685	560.92
398.147	544.22
398.608	539.82
399.07	534.12
399.531	525.42
399.993	543.32
400.454	544.32
400.916	542.42
401.377	536.02
401.839	533.12
402.3	537.62
402.762	543.12
403.223	549.02
403.684	557.42
404.145	550.92
404.607	563.52
405.068	543.22
405.529	543.02
405.99	535.52
406.451	531.62
406.913	535.02
407.374	550.82
407.835	546.12
408.296	544.82
408.757	539.62
409.218	546.42
409.679	540.42
410.14	527.72
410.601	535.22
411.062	541.52
411.522	557.42
411.983	553.42
412.444	557.52
412.905	552.02
413.366	540.62
413.826	537.82
414.287	553.02
414.748	540.52
415.208	560.22
415.669	559.62
416.13	561.22
416.59	564.42
417.051	558.72
417.511	571.92
417.972	582.52
418.432	594.42
418.893	598.42
419.353	602.32
419.814	612.32
420.274	623.02
420.734	626.32
421.195	633.42
421.655	619.42
422.115	630.52
422.576	622.42
423.036	628.72
423.496	630.42
423.956	640.82
424.416	637.02
424.876	658.12
425.336	646.92
425.797	652.22
426.257	673.72
426.717	697.62
427.177	678.92
427.637	698.62
428.097	716.62
428.556	716.32
429.016	733.12
429.476	751.52
429.936	749.82
430.396	740.42
430.856	745.42
431.315	742.72
431.775	770.62
432.235	774.22
432.694	814.72
433.154	815.92
433.614	803.22
434.073	831.22
434.533	837.72
434.993	833.42
435.452	859.72
435.912	847.32
436.371	852.72
436.83	876.22
437.29	881.22
437.749	898.82
438.209	898.62
438.668	901.62
439.127	922.72
439.587	944.62
440.046	942.32
440.505	965.62
440.964	957.72
441.424	974.42
441.883	999.12
442.342	995.62
442.801	1011.42
443.26	1034.22
443.719	1044.22
444.178	1048.92
444.637	1061.82
445.096	1099.82
445.555	1106.02
446.014	1109.72
446.473	1096.22
446.932	1129.62
447.391	1153.72
447.849	1180.32
448.308	1170.52
448.767	1169.42
449.226	1203.72
449.685	1202.82
450.143	1218.92
450.602	1253.22
451.061	1230.82
451.519	1264.32
451.978	1290.92
452.436	1291.92
452.895	1299.32
453.353	1305.62
453.812	1311.32
454.27	1355.82
454.729	1351.42
455.187	1393.02
455.646	1382.12
456.104	1397.52
456.562	1401.52
457.021	1445.62
457.479	1394.52
457.937	1433.02
458.395	1495.12
458.854	1472.22
459.312	1459.62
459.77	1471.02
460.228	1473.12
460.686	1522.52
461.144	1511.62
461.602	1519.12
462.06	1505.12
462.518	1523.83
462.976	1518.12
463.434	1507.92
463.892	1521.72
464.35	1498.62
464.808	1510.62
465.266	1533.72
465.724	1535.52
466.181	1544.83
466.639	1524.62
467.097	1564.92
467.555	1611.92
468.012	1556.62
468.47	1564.02
468.928	1588.83
469.385	1581.02
469.843	1633.62
470.3	1609.33
470.758	1649.52
471.215	1636.62
471.673	1648.83
472.13	1681.02
472.588	1724.12
473.045	1729.42
473.503	1754.92
473.96	1823.22
474.417	1826.72
474.875	1857.62
475.332	1879.83
475.789	1898.92
476.246	1940.22
476.704	1979.33
477.161	2023.92
477.618	2044.22
478.075	2070.52
478.532	2135.93
478.989	2192.82
479.446	2207.62
479.903	2224.82
480.36	2327.12
480.817	2315.62
481.274	2360.12
481.731	2419.22
482.188	2432.43
482.645	2521.93
483.102	2517.72
483.558	2544.12
484.015	2595.43
484.472	2646.43
484.929	2704.62
485.385	2741.82
485.842	2753.52
486.299	2818.82
486.755	2839.12
487.212	2841.43
487.668	2879.22
488.125	2909.12
488.582	2890.62
489.038	2922.22
489.494	2937.32
489.951	2960.72
490.407	2990.12
490.864	2991.12
491.32	2988.82
491.776	2994.72
492.233	3017.02
492.689	3009.52
493.145	3001.02
493.602	3004.32
494.058	3060.22
494.514	3024.93
494.97	3025.82
495.426	3042.32
495.882	3058.82
496.338	3025.32
496.794	3049.12
497.251	3033.02
497.707	3051.22
498.163	3065.02
498.618	3059.22
499.074	3048.12
499.53	3053.22
499.986	3071.93
500.442	3067.32
500.898	3059.02
501.354	3090.02
501.809	3058.12
502.265	3044.72
502.721	3069.12
503.177	3085.93
503.632	3077.02
504.088	3046.12
504.543	3083.22
504.999	3073.62
505.455	3051.72
505.91	3078.02
506.366	3089.93
506.821	3072.22
507.277	3057.43
507.732	3070.52
508.187	3015.02
508.643	3066.93
509.098	3025.02
509.553	3055.82
510.009	3025.32
510.464	3063.82
510.919	3046.82
511.375	3035.43
511.83	2983.82
512.285	2976.22
512.74	2982.32
513.195	2972.12
513.65	2938.62
514.105	2956.93
514.56	2931.32
515.015	2937.12
515.47	2935.43
515.925	2902.32
516.38	2908.43
516.835	2909.93
517.29	2871.32
517.745	2889.52
518.2	2869.62
518.655	2858.12
519.109	2848.32
519.564	2830.52
520.019	2830.43
520.474	2807.82
520.928	2829.52
521.383	2783.12
521.838	2771.62
522.292	2792.12
522.747	2779.52
523.201	2772.12
523.656	2782.43
524.11	2754.62
524.565	2752.43
525.019	2751.82
525.474	2743.72
525.928	2742.52
526.382	2744.82
526.837	2761.02
527.291	2758.32
527.745	2759.82
528.2	2767.12
528.654	2718.32
529.108	2723.62
529.562	2739.02
530.016	2730.62
530.47	2746.22
530.925	2737.22
531.379	2758.02
531.833	2761.52
532.287	2732.32
532.741	2737.62
533.195	2728.22
533.649	2755.22
534.103	2740.52
534.556	2729.62
535.01	2734.12
535.464	2735.12
535.918	2737.82
536.372	2763.32
536.826	2738.52
537.279	2719.02
537.733	2741.43
538.187	2749.32
538.64	2714.52
539.094	2719.52
539.548	2765.02
540.001	2739.02
540.455	2697.43
540.908	2705.02
541.362	2719.32
541.815	2718.93
542.269	2711.22
542.722	2679.62
543.175	2688.22
543.629	2687.12
544.082	2671.72
544.536	2685.93
544.989	2658.62
545.442	2658.32
545.895	2654.82
546.349	2638.52
546.802	2646.62
547.255	2626.32
547.708	2632.93
548.161	2627.62
548.614	2627.22
549.067	2635.52
549.52	2641.43
549.973	2619.02
550.426	2615.22
550.879	2630.43
551.332	2619.02
551.785	2624.93
552.238	2617.32
552.691	2591.82
553.144	2613.52
553.596	2620.22
554.049	2638.12
554.502	2652.32
554.955	2630.93
555.407	2640.62
555.86	2648.62
556.313	2628.43
556.765	2635.62
557.218	2642.22
557.67	2658.72
558.123	2653.52
558.576	2651.22
559.028	2659.72
559.48	2686.32
559.933	2671.43
560.385	2666.72
560.838	2664.93
561.29	2674.52
561.742	2713.32
562.195	2688.72
562.647	2698.72
563.099	2707.82
563.551	2676.22
564.004	2711.72
564.456	2704.22
564.908	2714.52
565.36	2713.43
565.812	2705.12
566.264	2729.43
566.716	2718.22
567.168	2709.82
567.62	2721.82
568.072	2715.82
568.524	2711.02
568.976	2707.12
569.428	2715.62
569.88	2714.82
570.332	2728.82
570.784	2710.52
571.235	2690.43
571.687	2688.12
572.139	2703.32
572.59	2691.12
573.042	2680.43
573.494	2692.43
573.945	2671.32
574.397	2646.12
574.849	2677.93
575.3	2676.02
575.752	2660.62
576.203	2628.72
576.655	2657.32
577.106	2651.72
577.557	2623.72
578.009	2630.43
578.46	2651.12
578.912	2613.22
579.363	2628.12
579.814	2621.12
580.265	2598.12
580.717	2606.12
581.168	2630.43
581.619	2595.22
582.07	2615.82
582.521	2591.52
582.972	2596.72
583.423	2614.43
583.875	2602.62
584.326	2604.52
584.777	2598.32
585.227	2592.22
585.678	2593.93
586.129	2605.02
586.58	2600.32
587.031	2599.52
587.482	2612.82
587.933	2591.52
588.384	2619.72
588.834	2600.82
589.285	2591.72
589.736	2644.02
590.186	2600.32
590.637	2611.93
591.088	2613.22
591.538	2639.02
591.989	2621.93
592.439	2612.52
592.89	2628.22
593.34	2610.12
593.791	2641.32
594.241	2626.72
594.692	2641.12
595.142	2630.52
595.593	2640.02
596.043	2639.62
596.493	2671.62
596.943	2622.02
597.394	2654.02
597.844	2626.52
598.294	2666.12
598.744	2657.43
599.195	2673.72
599.645	2671.52
600.095	2635.22
600.545	2656.02
600.995	2666.62
601.445	2654.02
601.895	2673.22
602.345	2674.43
602.795	2681.52
603.245	2662.32
603.695	2668.62
604.145	2664.93
604.594	2685.22
605.044	2672.82
605.494	2664.82
605.944	2688.52
606.393	2692.82
606.843	2679.02
607.293	2690.52
607.743	2709.72
608.192	2698.93
608.642	2676.12
609.091	2696.52
609.541	2661.32
609.99	2714.43
610.44	2674.82
610.889	2706.82
611.339	2697.82
611.788	2675.52
612.238	2695.02
612.687	2694.62
613.136	2683.32
613.586	2688.43
614.035	2674.52
614.484	2702.72
614.933	2677.93
615.383	2686.02
615.832	2667.43
616.281	2684.02
616.73	2663.82
617.179	2683.82
617.628	2675.72
618.077	2667.72
618.526	2657.02
618.975	2666.93
619.424	2645.43
619.873	2678.43
620.322	2673.32
620.771	2697.12
621.22	2659.43
621.669	2662.82
622.118	2661.62
622.567	2678.12
623.015	2669.02
623.464	2654.62
623.913	2661.43
624.361	2667.72
624.81	2664.62
625.259	2668.62
625.707	2646.52
626.156	2659.43
626.604	2667.12
627.053	2647.02
627.501	2635.12
627.95	2641.02
628.398	2666.12
628.847	2618.82
629.295	2648.82
629.744	2620.72
630.192	2612.93
630.64	2624.62
631.089	2622.22
631.537	2601.82
631.985	2604.72
632.433	2616.12
632.881	2590.02
633.33	2603.32
633.778	2585.02
634.226	2578.22
634.674	2586.72
635.122	2576.02
635.57	2569.93
636.018	2594.82
636.466	2547.82
636.914	2567.62
637.362	2570.62
637.81	2555.43
638.258	2562.72
638.705	2529.12
639.153	2568.22
639.601	2536.12
640.049	2552.93
640.497	2553.32
640.944	2546.93
641.392	2542.12
641.84	2540.12
642.287	2549.72
642.735	2560.02
643.182	2529.12
643.63	2546.93
644.078	2528.62
644.525	2537.02
644.973	2517.02
645.42	2533.32
645.867	2543.62
646.315	2497.62
646.762	2525.72
647.21	2506.62
647.657	2518.32
648.104	2521.43
648.551	2466.72
648.999	2514.82
649.446	2507.43
649.893	2489.12
650.34	2488.43
650.787	2525.32
651.234	2481.02
651.682	2497.62
652.129	2480.72
652.576	2470.43
653.023	2501.82
653.47	2496.72
653.917	2486.32
654.363	2468.52
654.81	2518.93
655.257	2498.72
655.704	2463.12
656.151	2467.12
656.598	2449.43
657.044	2449.32
657.491	2444.22
657.938	2461.12
658.385	2445.93
658.831	2453.43
659.278	2444.43
659.724	2436.22
660.171	2437.82
660.618	2423.32
661.064	2420.02
661.511	2436.32
661.957	2435.43
662.404	2416.02
662.85	2405.52
663.296	2411.43
663.743	2400.82
664.189	2412.12
664.635	2397.43
665.082	2394.02
665.528	2390.22
665.974	2389.32
666.42	2373.72
666.867	2385.72
667.313	2368.62
667.759	2372.82
668.205	2355.12
668.651	2370.12
669.097	2353.22
669.543	2361.62
669.989	2344.52
670.435	2340.93
670.881	2331.02
671.327	2319.32
671.773	2342.72
672.219	2318.43
672.665	2321.72
673.11	2331.12
673.556	2290.93
674.002	2283.32
674.448	2285.62
674.893	2271.32
675.339	2274.22
675.785	2273.22
676.23	2246.02
676.676	2226.82
677.122	2249.12
677.567	2234.02
678.013	2213.82
678.458	2227.32
678.904	2223.82
679.349	2202.22
679.794	2190.62
680.24	2186.72
680.685	2176.72
681.131	2164.02
681.576	2151.62
682.021	2149.02
682.466	2135.12
682.912	2126.52
683.357	2129.22
683.802	2135.62
684.247	2113.82
684.692	2084.82
685.137	2076.52
685.583	2079.02
686.028	2072.43
686.473	2051.32
686.918	2041.12
687.363	2045.92
687.807	2035.22
688.252	2029.72
688.697	2041.52
689.142	2011.83
689.587	2018.22
690.032	2001.42
690.477	1985.12
690.921	1977.02
691.366	1995.62
691.811	1989.12
692.255	1976.22
692.7	1965.83
693.145	1976.52
693.589	1962.92
694.034	1960.42
694.478	1941.12
694.923	1934.02
695.367	1924.92
695.812	1924.02
696.256	1912.22
696.701	1923.22
697.145	1912.72
697.59	1888.92
698.034	1890.02
698.478	1878.12
698.922	1895.52
699.367	1878.33
699.811	1866.42
700.255	1878.52
700.699	1867.83
701.143	1857.72
701.588	1858.22
702.032	1850.72
702.476	1859.22
702.92	1859.12
703.364	1831.22
703.808	1824.62
704.252	1834.72
704.696	1809.02
705.14	1808.42
705.584	1829.22
706.027	1803.72
706.471	1820.33
706.915	1797.42
707.359	1796.02
707.803	1779.22
708.246	1767.42
708.69	1785.92
709.134	1762.92
709.577	1750.22
710.021	1756.33
710.465	1751.72
710.908	1749.72
711.352	1748.12
711.795	1734.92
712.239	1742.62
712.682	1731.02
713.126	1731.02
713.569	1729.52
714.012	1719.22
714.456	1708.33
714.899	1714.52
715.342	1713.72
715.786	1706.62
716.229	1710.33
716.672	1685.52
717.115	1710.22
717.558	1689.62
718.002	1683.22
718.445	1682.12
718.888	1680.42
719.331	1663.22
719.774	1661.42
720.217	1680.12
720.66	1657.72
721.103	1645.22
721.546	1644.62
721.989	1648.42
722.432	1649.42
722.874	1629.12
723.317	1640.42
723.76	1645.62
724.203	1605.92
724.645	1615.92
725.088	1631.12
725.531	1620.92
725.974	1598.62
726.416	1609.22
726.859	1600.62
727.301	1606.12
727.744	1582.52
728.187	1585.12
728.629	1575.72
729.071	1586.02
729.514	1563.62
729.956	1563.22
730.399	1551.52
730.841	1562.22
731.283	1559.62
731.726	1547.83
732.168	1555.12
732.61	1537.52
733.053	1526.62
733.495	1526.62
733.937	1508.62
734.379	1527.72
734.821	1505.12
735.263	1502.02
735.705	1494.22
736.148	1490.72
736.59	1491.62
