Data from DH-3PlusCalLight-DeuteriumHalogen_HRD10391_13-38-37-992.txt Node
Date: Thu Feb 15 13:38:37 EST 2018
User: Ender
Spectrometer: HR+D1039
Trigger mode: 0
Integration Time (sec): 2.730000E-2
Scans to average: 10
Electric dark correction enabled: true
Nonlinearity correction enabled: false
Boxcar width: 0
XAxis mode: Wavelengths
Number of Pixels in Spectrum: 2048
>>>>>Begin Spectral Data<<<<<
187.836	0.26
188.309	0.26
188.782	0.26
189.255	-4.04
189.728	-7.44
190.201	-4.44
190.674	-7.54
191.147	-8.74
191.619	-9.14
192.092	-6.54
192.565	-5.24
193.038	-1.34
193.511	3.16
193.984	6.36
194.456	6.96
194.929	10.16
195.402	12.16
195.874	15.36
196.347	21.36
196.82	26.76
197.292	29.56
197.765	35.26
198.237	38.66
198.71	37.66
199.182	41.16
199.655	49.16
200.127	52.26
200.6	56.06
201.072	58.76
201.544	64.76
202.017	64.56
202.489	69.26
202.961	73.66
203.433	70.56
203.906	78.16
204.378	75.76
204.85	77.06
205.322	84.06
205.794	85.36
206.266	83.36
206.739	83.66
207.211	84.66
207.683	83.66
208.155	83.76
208.627	86.36
209.099	86.96
209.57	88.26
210.042	84.66
210.514	88.06
210.986	86.16
211.458	85.06
211.93	85.26
212.402	86.16
212.873	84.96
213.345	92.76
213.817	83.26
214.288	82.46
214.76	84.66
215.232	87.26
215.703	85.56
216.175	81.26
216.646	83.36
217.118	76.56
217.589	82.56
218.061	86.26
218.532	85.36
219.004	81.76
219.475	77.46
219.946	84.26
220.418	86.76
220.889	84.66
221.36	83.66
221.832	84.46
222.303	82.66
222.774	88.26
223.245	83.16
223.717	87.26
224.188	90.86
224.659	95.66
225.13	101.26
225.601	100.16
226.072	100.16
226.543	100.06
227.014	99.26
227.485	104.66
227.956	110.06
228.427	108.76
228.898	111.46
229.369	113.66
229.839	114.06
230.31	119.86
230.781	115.96
231.252	119.46
231.722	120.96
232.193	123.56
232.664	118.56
233.135	117.96
233.605	122.36
234.076	117.26
234.546	110.56
235.017	112.26
235.487	108.36
235.958	107.56
236.428	101.86
236.899	96.66
237.369	99.36
237.84	93.16
238.31	97.96
238.78	94.66
239.251	92.36
239.721	87.36
240.191	91.26
240.662	88.56
241.132	91.46
241.602	88.26
242.072	87.36
242.542	82.66
243.013	84.46
243.483	88.06
243.953	81.86
244.423	82.16
244.893	80.16
245.363	84.86
245.833	86.96
246.303	84.06
246.773	84.16
247.243	89.56
247.712	86.36
248.182	91.36
248.652	83.86
249.122	82.96
249.592	85.46
250.061	90.46
250.531	90.46
251.001	88.86
251.471	91.86
251.94	91.16
252.41	92.56
252.879	94.96
253.349	94.16
253.818	93.96
254.288	101.26
254.757	102.56
255.227	107.36
255.696	110.46
256.166	112.36
256.635	119.96
257.105	125.66
257.574	133.06
258.043	140.76
258.513	145.26
258.982	149.66
259.451	153.86
259.92	166.86
260.389	176.36
260.859	184.76
261.328	198.26
261.797	201.86
262.266	211.96
262.735	221.06
263.204	228.96
263.673	243.26
264.142	251.76
264.611	258.36
265.08	260.66
265.549	267.76
266.018	275.66
266.487	291.16
266.955	297.56
267.424	308.56
267.893	311.86
268.362	309.06
268.83	325.86
269.299	325.86
269.768	328.56
270.236	329.76
270.705	337.16
271.174	341.46
271.642	337.36
272.111	343.16
272.579	342.06
273.048	351.56
273.516	350.06
273.985	360.06
274.453	359.46
274.922	353.56
275.39	359.26
275.858	358.76
276.327	360.36
276.795	359.96
277.263	366.16
277.731	362.06
278.2	365.36
278.668	355.46
279.136	354.16
279.604	355.76
280.072	354.76
280.54	349.36
281.008	352.56
281.477	349.56
281.945	347.36
282.413	344.26
282.881	341.56
283.348	338.06
283.816	334.46
284.284	332.86
284.752	320.46
285.22	323.16
285.688	334.96
286.156	325.96
286.623	323.16
287.091	327.06
287.559	325.86
288.026	321.16
288.494	320.76
288.962	322.76
289.429	326.76
289.897	323.76
290.364	323.16
290.832	321.86
291.3	328.16
291.767	335.16
292.234	345.16
292.702	345.96
293.169	350.46
293.637	356.66
294.104	362.16
294.571	362.96
295.039	357.76
295.506	371.86
295.973	380.76
296.44	379.96
296.908	392.36
297.375	383.56
297.842	390.66
298.309	386.26
298.776	385.66
299.243	394.06
299.71	388.76
300.177	393.56
300.644	394.96
301.111	394.46
301.578	390.96
302.045	402.66
302.512	395.46
302.979	397.86
303.446	391.56
303.913	397.46
304.379	396.76
304.846	386.76
305.313	393.06
305.78	390.76
306.246	387.96
306.713	383.06
307.18	387.96
307.646	389.36
308.113	387.36
308.579	382.26
309.046	385.76
309.512	378.66
309.979	379.16
310.445	374.66
310.912	385.16
311.378	377.36
311.845	371.46
312.311	375.76
312.777	368.76
313.244	367.46
313.71	377.36
314.176	376.56
314.642	375.36
315.109	376.36
315.575	373.06
316.041	372.46
316.507	375.66
316.973	379.46
317.439	375.36
317.905	375.26
318.371	385.16
318.837	381.46
319.303	388.76
319.769	385.16
320.235	385.66
320.701	391.36
321.167	395.36
321.633	394.16
322.099	400.06
322.564	393.26
323.03	400.36
323.496	398.96
323.962	402.76
324.427	409.36
324.893	419.66
325.359	413.96
325.824	407.96
326.29	404.66
326.755	414.46
327.221	407.86
327.686	411.56
328.152	402.56
328.617	405.76
329.083	408.86
329.548	406.76
330.014	406.86
330.479	401.96
330.944	399.66
331.41	397.16
331.875	386.86
332.34	386.16
332.805	382.36
333.271	376.16
333.736	369.76
334.201	377.86
334.666	377.46
335.131	372.76
335.596	371.66
336.061	367.46
336.526	360.66
336.991	364.26
337.456	363.36
337.921	362.86
338.386	359.26
338.851	354.46
339.316	360.86
339.781	368.86
340.246	372.96
340.711	372.86
341.175	375.36
341.64	386.46
342.105	388.56
342.569	393.96
343.034	396.16
343.499	393.96
343.963	400.06
344.428	405.36
344.893	398.66
345.357	402.96
345.822	406.46
346.286	419.56
346.751	425.16
347.215	422.66
347.679	440.86
348.144	438.86
348.608	435.86
349.073	439.46
349.537	455.76
350.001	448.36
350.465	445.16
350.93	446.76
351.394	439.56
351.858	448.36
352.322	445.06
352.786	448.46
353.25	450.76
353.715	442.76
354.179	443.46
354.643	442.76
355.107	448.36
355.571	441.16
356.035	445.76
356.498	443.76
356.962	445.36
357.426	451.36
357.89	450.86
358.354	451.06
358.818	450.96
359.281	449.46
359.745	448.66
360.209	451.46
360.673	446.96
361.136	446.36
361.6	455.66
362.064	445.36
362.527	454.06
362.991	451.76
363.454	451.06
363.918	444.16
364.381	449.26
364.845	450.26
365.308	457.26
365.772	457.16
366.235	450.96
366.698	450.36
367.162	441.96
367.625	453.76
368.088	457.26
368.552	463.86
369.015	443.96
369.478	444.36
369.941	455.76
370.404	452.16
370.867	453.46
371.331	448.66
371.794	454.26
372.257	452.36
372.72	457.86
373.183	465.86
373.646	459.96
374.109	464.96
374.572	456.96
375.035	465.76
375.497	473.76
375.96	475.56
376.423	474.86
376.886	472.26
377.349	492.76
377.811	493.36
378.274	488.96
378.737	480.46
379.199	483.86
379.662	488.66
380.125	484.96
380.587	483.86
381.05	492.86
381.512	491.06
381.975	494.16
382.437	494.86
382.9	493.36
383.362	502.36
383.825	503.86
384.287	500.36
384.75	502.56
385.212	499.46
385.674	504.36
386.136	508.16
386.599	512.46
387.061	520.96
387.523	524.56
387.985	513.76
388.447	512.96
388.91	517.06
389.372	517.66
389.834	521.56
390.296	520.56
390.758	532.96
391.22	526.16
391.682	533.06
392.144	536.46
392.606	530.06
393.068	520.86
393.529	529.36
393.991	522.66
394.453	517.66
394.915	527.06
395.377	527.86
395.838	526.06
396.3	539.96
396.762	552.16
397.224	562.76
397.685	558.16
398.147	546.26
398.608	546.26
399.07	535.96
399.531	538.56
399.993	539.56
400.454	548.76
400.916	532.66
401.377	540.16
401.839	543.76
402.3	543.06
402.762	555.36
403.223	555.66
403.684	556.06
404.145	563.86
404.607	559.06
405.068	546.46
405.529	539.66
405.99	535.26
406.451	537.66
406.913	533.86
407.374	550.46
407.835	549.56
408.296	542.26
408.757	541.96
409.218	548.06
409.679	541.56
410.14	537.66
410.601	538.46
411.062	544.46
411.522	555.36
411.983	555.66
412.444	557.56
412.905	549.76
413.366	546.06
413.826	544.76
414.287	551.16
414.748	552.36
415.208	570.16
415.669	561.06
416.13	561.96
416.59	556.66
417.051	563.86
417.511	571.86
417.972	587.56
418.432	591.36
418.893	594.56
419.353	606.76
419.814	623.96
420.274	627.06
420.734	639.46
421.195	635.96
421.655	626.46
422.115	639.66
422.576	637.36
423.036	634.76
423.496	650.56
423.956	648.06
424.416	649.86
424.876	656.86
425.336	654.96
425.797	665.86
426.257	684.26
426.717	703.46
427.177	691.66
427.637	712.16
428.097	713.06
428.556	737.16
429.016	743.76
429.476	750.86
429.936	754.86
430.396	746.36
430.856	750.26
431.315	752.06
431.775	784.56
432.235	795.86
432.694	826.16
433.154	828.26
433.614	807.96
434.073	840.46
434.533	832.16
434.993	847.16
435.452	875.56
435.912	876.26
436.371	863.96
436.83	887.06
437.29	886.56
437.749	896.86
438.209	904.76
438.668	919.06
439.127	928.06
439.587	948.86
440.046	957.06
440.505	985.16
440.964	982.06
441.424	1001.96
441.883	1008.36
442.342	1013.16
442.801	1020.66
443.26	1053.46
443.719	1058.36
444.178	1065.66
444.637	1096.66
445.096	1101.76
445.555	1120.46
446.014	1114.06
446.473	1112.56
446.932	1123.36
447.391	1162.76
447.849	1194.36
448.308	1161.76
448.767	1198.46
449.226	1216.46
449.685	1209.46
450.143	1232.26
450.602	1266.06
451.061	1252.46
451.519	1284.16
451.978	1307.96
452.436	1311.66
452.895	1311.96
453.353	1318.96
453.812	1323.56
454.27	1360.96
454.729	1372.86
455.187	1399.46
455.646	1387.76
456.104	1408.26
456.562	1419.46
457.021	1463.46
457.479	1404.26
457.937	1449.26
458.395	1510.86
458.854	1475.26
459.312	1472.96
459.77	1481.16
460.228	1495.06
460.686	1540.76
461.144	1526.36
461.602	1519.76
462.06	1503.76
462.518	1520.96
462.976	1537.66
463.434	1527.06
463.892	1518.76
464.35	1526.26
464.808	1528.56
465.266	1528.36
465.724	1544.16
466.181	1542.16
466.639	1520.26
467.097	1580.06
467.555	1619.56
468.012	1566.06
468.47	1563.56
468.928	1575.76
469.385	1591.36
469.843	1637.36
470.3	1623.26
470.758	1652.46
471.215	1637.56
471.673	1664.56
472.13	1689.66
472.588	1737.76
473.045	1748.66
473.503	1777.56
473.96	1835.66
474.417	1836.06
474.875	1883.56
475.332	1883.16
475.789	1906.16
476.246	1951.16
476.704	1992.86
477.161	2021.56
477.618	2033.96
478.075	2070.46
478.532	2149.26
478.989	2189.66
479.446	2213.56
479.903	2237.36
480.36	2342.26
480.817	2341.56
481.274	2372.86
481.731	2402.46
482.188	2457.96
482.645	2511.96
483.102	2518.46
483.558	2555.46
484.015	2627.46
484.472	2669.86
484.929	2709.36
485.385	2753.76
485.842	2765.66
486.299	2838.56
486.755	2838.76
487.212	2858.96
487.668	2878.66
488.125	2925.46
488.582	2893.96
489.038	2952.06
489.494	2965.86
489.951	2986.66
490.407	2993.06
490.864	3012.86
491.32	3007.76
491.776	3009.46
492.233	3029.06
492.689	3040.86
493.145	3026.16
493.602	3014.66
494.058	3039.36
494.514	3032.46
494.97	3031.16
495.426	3046.46
495.882	3049.16
496.338	3018.16
496.794	3062.16
497.251	3038.56
497.707	3071.86
498.163	3066.96
498.618	3068.76
499.074	3050.06
499.53	3072.66
499.986	3080.36
500.442	3068.46
500.898	3063.16
501.354	3093.36
501.809	3095.36
502.265	3060.56
502.721	3075.66
503.177	3101.76
503.632	3089.36
504.088	3071.16
504.543	3090.76
504.999	3094.96
505.455	3075.06
505.91	3065.86
506.366	3081.86
506.821	3071.96
507.277	3073.56
507.732	3067.86
508.187	3060.76
508.643	3087.26
509.098	3049.66
509.553	3064.26
510.009	3057.36
510.464	3056.36
510.919	3048.06
511.375	3025.76
511.83	2980.46
512.285	2968.86
512.74	3000.36
513.195	2983.56
513.65	2970.96
514.105	2960.36
514.56	2937.06
515.015	2957.56
515.47	2942.86
515.925	2906.36
516.38	2921.76
516.835	2912.46
517.29	2863.96
517.745	2891.36
518.2	2870.76
518.655	2869.66
519.109	2842.36
519.564	2858.56
520.019	2838.36
520.474	2819.16
520.928	2838.86
521.383	2810.16
521.838	2805.26
522.292	2802.76
522.747	2782.96
523.201	2789.56
523.656	2775.46
524.11	2760.46
524.565	2788.66
525.019	2764.16
525.474	2770.56
525.928	2753.36
526.382	2776.26
526.837	2765.86
527.291	2775.86
527.745	2747.26
528.2	2765.16
528.654	2718.96
529.108	2742.06
529.562	2748.56
530.016	2749.96
530.47	2760.86
530.925	2734.06
531.379	2757.46
531.833	2772.96
532.287	2757.36
532.741	2739.76
533.195	2747.26
533.649	2760.16
534.103	2758.26
534.556	2758.66
535.01	2751.96
535.464	2749.26
535.918	2755.96
536.372	2789.06
536.826	2758.26
537.279	2727.16
537.733	2746.46
538.187	2751.36
538.64	2729.66
539.094	2750.46
539.548	2764.36
540.001	2744.16
540.455	2726.26
540.908	2733.46
541.362	2738.46
541.815	2714.96
542.269	2711.66
542.722	2684.56
543.175	2701.26
543.629	2691.66
544.082	2691.66
544.536	2690.66
544.989	2666.56
545.442	2691.36
545.895	2690.96
546.349	2679.46
546.802	2672.66
547.255	2653.56
547.708	2643.66
548.161	2637.76
548.614	2644.86
549.067	2642.46
549.52	2651.36
549.973	2640.66
550.426	2632.76
550.879	2637.26
551.332	2644.96
551.785	2639.06
552.238	2643.16
552.691	2607.36
553.144	2631.36
553.596	2633.06
554.049	2639.46
554.502	2649.56
554.955	2665.26
555.407	2652.36
555.86	2650.36
556.313	2642.36
556.765	2669.46
557.218	2649.06
557.67	2668.96
558.123	2664.16
558.576	2654.76
559.028	2650.86
559.48	2679.96
559.933	2676.66
560.385	2686.66
560.838	2694.16
561.29	2678.16
561.742	2710.86
562.195	2713.96
562.647	2707.56
563.099	2722.86
563.551	2706.86
564.004	2704.16
564.456	2717.86
564.908	2746.66
565.36	2737.26
565.812	2712.26
566.264	2741.56
566.716	2728.86
567.168	2714.66
567.62	2719.76
568.072	2738.56
568.524	2742.06
568.976	2726.96
569.428	2721.66
569.88	2716.96
570.332	2741.66
570.784	2733.76
571.235	2714.26
571.687	2732.66
572.139	2711.46
572.59	2720.06
573.042	2688.66
573.494	2699.76
573.945	2687.96
574.397	2659.76
574.849	2672.16
575.3	2683.06
575.752	2654.36
576.203	2646.96
576.655	2667.86
577.106	2655.56
577.557	2627.86
578.009	2630.66
578.46	2672.96
578.912	2609.86
579.363	2637.96
579.814	2616.96
580.265	2617.36
580.717	2640.56
581.168	2623.26
581.619	2621.96
582.07	2618.86
582.521	2620.36
582.972	2602.26
583.423	2621.66
583.875	2609.86
584.326	2611.26
584.777	2625.36
585.227	2617.36
585.678	2615.56
586.129	2627.26
586.58	2606.56
587.031	2608.26
587.482	2624.26
587.933	2595.76
588.384	2611.56
588.834	2602.36
589.285	2618.16
589.736	2639.56
590.186	2622.56
590.637	2635.66
591.088	2648.96
591.538	2656.66
591.989	2633.56
592.439	2644.06
592.89	2645.16
593.34	2638.06
593.791	2650.46
594.241	2644.66
594.692	2643.66
595.142	2668.66
595.593	2657.36
596.043	2659.96
596.493	2675.16
596.943	2629.66
597.394	2660.66
597.844	2645.26
598.294	2649.06
598.744	2660.66
599.195	2666.36
599.645	2675.76
600.095	2675.36
600.545	2667.36
600.995	2675.46
601.445	2669.86
601.895	2688.36
602.345	2675.66
602.795	2692.26
603.245	2687.56
603.695	2669.66
604.145	2688.96
604.594	2692.26
605.044	2689.56
605.494	2674.46
605.944	2698.56
606.393	2705.86
606.843	2680.56
607.293	2711.66
607.743	2696.96
608.192	2717.56
608.642	2705.96
609.091	2703.66
609.541	2682.76
609.99	2723.96
610.44	2687.36
610.889	2718.26
611.339	2723.56
611.788	2704.96
612.238	2720.66
612.687	2706.16
613.136	2696.96
613.586	2721.06
614.035	2683.06
614.484	2705.16
614.933	2704.76
615.383	2694.16
615.832	2687.46
616.281	2706.16
616.73	2702.66
617.179	2692.36
617.628	2681.86
618.077	2661.16
618.526	2671.76
618.975	2676.96
619.424	2662.96
619.873	2696.66
620.322	2679.26
620.771	2680.76
621.22	2666.86
621.669	2667.86
622.118	2679.56
622.567	2678.26
623.015	2663.56
623.464	2677.56
623.913	2661.96
624.361	2676.06
624.81	2685.86
625.259	2668.36
625.707	2654.56
626.156	2657.16
626.604	2672.36
627.053	2657.76
627.501	2640.76
627.95	2639.16
628.398	2678.96
628.847	2622.96
629.295	2640.46
629.744	2623.36
630.192	2613.86
630.64	2648.16
631.089	2630.36
631.537	2611.56
631.985	2608.26
632.433	2611.16
632.881	2601.76
633.33	2611.66
633.778	2609.06
634.226	2595.96
634.674	2605.46
635.122	2589.06
635.57	2602.46
636.018	2606.16
636.466	2574.46
636.914	2566.66
637.362	2582.36
637.81	2559.76
638.258	2593.36
638.705	2558.06
639.153	2585.76
639.601	2569.06
640.049	2552.76
640.497	2567.36
640.944	2543.86
641.392	2536.26
641.84	2572.46
642.287	2544.06
642.735	2538.56
643.182	2527.66
643.63	2556.36
644.078	2547.76
644.525	2530.36
644.973	2546.86
645.42	2526.66
645.867	2572.36
646.315	2520.46
646.762	2538.96
647.21	2509.96
647.657	2543.66
648.104	2521.16
648.551	2491.66
648.999	2524.16
649.446	2514.76
649.893	2494.96
650.34	2501.26
650.787	2525.36
651.234	2502.86
651.682	2513.06
652.129	2500.66
652.576	2490.76
653.023	2505.26
653.47	2501.56
653.917	2504.76
654.363	2490.06
654.81	2516.36
655.257	2504.66
655.704	2483.76
656.151	2476.46
656.598	2466.46
657.044	2447.66
657.491	2467.46
657.938	2466.26
658.385	2447.66
658.831	2479.66
659.278	2456.76
659.724	2449.56
660.171	2443.46
660.618	2432.46
661.064	2432.86
661.511	2443.46
661.957	2439.36
662.404	2426.36
662.85	2425.86
663.296	2424.96
663.743	2410.76
664.189	2419.86
664.635	2425.96
665.082	2410.06
665.528	2395.16
665.974	2391.66
666.42	2365.16
666.867	2391.46
667.313	2379.06
667.759	2370.06
668.205	2382.66
668.651	2381.26
669.097	2367.46
669.543	2355.96
669.989	2358.46
670.435	2347.76
670.881	2346.76
671.327	2330.26
671.773	2366.66
672.219	2326.26
672.665	2323.86
673.11	2318.06
673.556	2301.86
674.002	2325.16
674.448	2309.86
674.893	2291.46
675.339	2302.26
675.785	2280.56
676.23	2267.96
676.676	2263.16
677.122	2269.06
677.567	2245.16
678.013	2231.46
678.458	2226.16
678.904	2221.96
679.349	2203.36
679.794	2186.46
680.24	2169.96
680.685	2174.46
681.131	2172.76
681.576	2162.76
682.021	2154.76
682.466	2148.16
682.912	2142.56
683.357	2134.16
683.802	2128.46
684.247	2115.86
684.692	2095.16
685.137	2087.56
685.583	2085.76
686.028	2070.06
686.473	2072.06
686.918	2064.76
687.363	2054.56
687.807	2041.06
688.252	2046.76
688.697	2033.86
689.142	2017.96
689.587	2027.16
690.032	2016.76
690.477	2014.26
690.921	1982.16
691.366	1983.56
691.811	1968.46
692.255	1974.06
692.7	1977.16
693.145	1980.96
693.589	1961.06
694.034	1962.36
694.478	1958.16
694.923	1937.46
695.367	1927.26
695.812	1922.46
696.256	1927.46
696.701	1941.96
697.145	1929.26
697.59	1899.56
698.034	1897.66
698.478	1898.36
698.922	1906.56
699.367	1890.06
699.811	1896.36
700.255	1885.36
700.699	1860.76
701.143	1864.46
701.588	1855.16
702.032	1847.36
702.476	1849.16
702.92	1855.06
703.364	1834.36
703.808	1843.96
704.252	1827.96
704.696	1831.56
705.14	1821.06
705.584	1829.46
706.027	1815.76
706.471	1816.06
706.915	1802.16
707.359	1803.06
707.803	1798.56
708.246	1779.96
708.69	1786.16
709.134	1780.26
709.577	1775.76
710.021	1771.16
710.465	1763.56
710.908	1762.66
711.352	1747.86
711.795	1746.26
712.239	1756.46
712.682	1744.46
713.126	1737.16
713.569	1738.36
714.012	1730.36
714.456	1716.56
714.899	1728.66
715.342	1737.46
715.786	1708.96
716.229	1709.76
716.672	1704.96
717.115	1699.96
717.558	1693.66
718.002	1680.46
718.445	1688.16
718.888	1691.46
719.331	1678.56
719.774	1669.06
720.217	1663.16
720.66	1674.16
721.103	1653.46
721.546	1651.76
721.989	1657.56
722.432	1650.36
722.874	1646.46
723.317	1643.76
723.76	1648.66
724.203	1628.96
724.645	1630.86
725.088	1636.66
725.531	1626.86
725.974	1612.06
726.416	1612.06
726.859	1600.06
727.301	1604.96
727.744	1598.26
728.187	1587.76
728.629	1581.66
729.071	1577.96
729.514	1581.86
729.956	1576.56
730.399	1575.26
730.841	1558.36
731.283	1561.06
731.726	1562.86
732.168	1554.06
732.61	1550.26
733.053	1531.96
733.495	1524.06
733.937	1524.26
734.379	1528.16
734.821	1502.46
735.263	1513.46
735.705	1488.96
736.148	1503.86
736.59	1500.06
