Data from DH-3PlusCalLight-DeuteriumHalogen_HRD10391_13-38-38-265.txt Node
Date: Thu Feb 15 13:38:38 EST 2018
User: Ender
Spectrometer: HR+D1039
Trigger mode: 0
Integration Time (sec): 2.730000E-2
Scans to average: 10
Electric dark correction enabled: true
Nonlinearity correction enabled: false
Boxcar width: 0
XAxis mode: Wavelengths
Number of Pixels in Spectrum: 2048
>>>>>Begin Spectral Data<<<<<
187.836	3.29
188.309	3.29
188.782	3.29
189.255	-2.01
189.728	-6.51
190.201	-5.31
190.674	-9.51
191.147	-6.11
191.619	-9.11
192.092	-1.71
192.565	-5.51
193.038	-1.91
193.511	-3.01
193.984	0.39
194.456	8.59
194.929	10.49
195.402	12.59
195.874	15.39
196.347	19.79
196.82	21.69
197.292	28.59
197.765	32.29
198.237	33.89
198.71	43.79
199.182	37.99
199.655	46.89
200.127	47.69
200.6	56.09
201.072	56.79
201.544	62.99
202.017	66.19
202.489	69.69
202.961	74.99
203.433	70.99
203.906	71.29
204.378	73.09
204.85	79.89
205.322	77.19
205.794	81.29
206.266	84.09
206.739	84.59
207.211	82.89
207.683	87.39
208.155	84.59
208.627	87.89
209.099	86.49
209.57	85.69
210.042	83.59
210.514	91.29
210.986	85.89
211.458	83.39
211.93	85.69
212.402	90.09
212.873	90.49
213.345	82.79
213.817	86.99
214.288	84.29
214.76	87.09
215.232	86.89
215.703	86.49
216.175	83.89
216.646	85.49
217.118	87.39
217.589	83.19
218.061	80.99
218.532	82.49
219.004	81.79
219.475	85.99
219.946	80.89
220.418	82.79
220.889	79.69
221.36	81.29
221.832	84.89
222.303	86.29
222.774	86.19
223.245	88.69
223.717	87.89
224.188	91.69
224.659	91.09
225.13	89.09
225.601	96.59
226.072	95.79
226.543	97.09
227.014	97.59
227.485	103.69
227.956	112.39
228.427	109.19
228.898	116.39
229.369	111.69
229.839	110.79
230.31	116.99
230.781	117.29
231.252	114.29
231.722	118.39
232.193	117.89
232.664	118.29
233.135	115.39
233.605	115.79
234.076	111.79
234.546	112.39
235.017	110.89
235.487	107.49
235.958	105.89
236.428	105.99
236.899	107.09
237.369	98.19
237.84	102.79
238.31	90.99
238.78	91.99
239.251	95.39
239.721	90.39
240.191	89.09
240.662	92.19
241.132	91.59
241.602	86.59
242.072	86.69
242.542	88.09
243.013	86.19
243.483	81.39
243.953	88.59
244.423	89.09
244.893	79.89
245.363	87.09
245.833	83.59
246.303	86.29
246.773	84.69
247.243	88.09
247.712	89.59
248.182	85.89
248.652	84.79
249.122	87.29
249.592	86.59
250.061	89.09
250.531	85.39
251.001	86.19
251.471	89.19
251.94	92.79
252.41	91.09
252.879	100.49
253.349	95.99
253.818	98.59
254.288	100.89
254.757	102.29
255.227	104.89
255.696	109.19
256.166	115.19
256.635	114.89
257.105	122.69
257.574	130.19
258.043	136.79
258.513	144.99
258.982	149.49
259.451	158.09
259.92	169.39
260.389	172.89
260.859	182.99
261.328	193.39
261.797	198.49
262.266	208.49
262.735	218.19
263.204	231.49
263.673	243.19
264.142	246.69
264.611	254.09
265.08	271.29
265.549	268.49
266.018	275.19
266.487	285.19
266.955	288.39
267.424	301.69
267.893	307.39
268.362	312.29
268.83	310.49
269.299	327.69
269.768	330.69
270.236	331.39
270.705	339.39
271.174	335.29
271.642	339.69
272.111	340.49
272.579	347.69
273.048	356.89
273.516	351.49
273.985	350.59
274.453	365.99
274.922	358.39
275.39	367.09
275.858	360.19
276.327	353.29
276.795	365.39
277.263	356.89
277.731	359.09
278.2	353.69
278.668	356.09
279.136	350.89
279.604	357.79
280.072	356.59
280.54	345.49
281.008	350.09
281.477	351.19
281.945	344.69
282.413	333.19
282.881	347.09
283.348	342.69
283.816	332.69
284.284	335.59
284.752	325.49
285.22	338.09
285.688	325.89
286.156	319.69
286.623	320.09
287.091	321.29
287.559	323.49
288.026	318.79
288.494	317.69
288.962	321.29
289.429	317.69
289.897	319.79
290.364	323.79
290.832	322.19
291.3	327.79
291.767	343.39
292.234	339.09
292.702	338.69
293.169	343.69
293.637	356.79
294.104	362.09
294.571	365.79
295.039	366.29
295.506	371.09
295.973	371.89
296.44	378.19
296.908	378.29
297.375	382.19
297.842	391.99
298.309	386.89
298.776	385.69
299.243	399.09
299.71	391.49
300.177	384.59
300.644	389.99
301.111	388.29
301.578	399.49
302.045	385.29
302.512	400.89
302.979	399.99
303.446	394.59
303.913	393.69
304.379	396.69
304.846	397.39
305.313	387.79
305.78	390.99
306.246	384.19
306.713	389.59
307.18	383.59
307.646	384.99
308.113	377.69
308.579	378.99
309.046	375.29
309.512	375.19
309.979	374.39
310.445	374.89
310.912	377.59
311.378	375.49
311.845	366.09
312.311	371.39
312.777	363.89
313.244	360.19
313.71	368.69
314.176	366.59
314.642	364.39
315.109	366.59
315.575	368.79
316.041	370.19
316.507	379.19
316.973	376.29
317.439	373.89
317.905	371.89
318.371	384.79
318.837	381.19
319.303	386.49
319.769	389.59
320.235	385.79
320.701	395.99
321.167	389.99
321.633	396.99
322.099	404.49
322.564	394.89
323.03	390.59
323.496	404.59
323.962	406.29
324.427	403.99
324.893	418.29
325.359	403.49
325.824	414.69
326.29	398.19
326.755	416.99
327.221	404.09
327.686	408.39
328.152	404.39
328.617	402.99
329.083	403.69
329.548	399.59
330.014	396.99
330.479	399.59
330.944	396.09
331.41	399.09
331.875	384.09
332.34	378.79
332.805	376.59
333.271	370.69
333.736	379.59
334.201	378.69
334.666	372.09
335.131	373.49
335.596	362.79
336.061	365.29
336.526	366.29
336.991	364.19
337.456	360.49
337.921	360.29
338.386	351.29
338.851	360.39
339.316	355.99
339.781	359.49
340.246	369.29
340.711	371.49
341.175	380.89
341.64	388.39
342.105	379.99
342.569	399.49
343.034	394.79
343.499	394.59
343.963	407.09
344.428	395.79
344.893	406.99
345.357	408.79
345.822	405.99
346.286	416.89
346.751	424.69
347.215	427.39
347.679	429.09
348.144	437.09
348.608	436.99
349.073	435.79
349.537	446.59
350.001	449.49
350.465	438.39
350.93	443.39
351.394	437.79
351.858	441.29
352.322	444.99
352.786	443.79
353.25	433.49
353.715	439.19
354.179	448.59
354.643	450.99
355.107	447.39
355.571	438.99
356.035	435.79
356.498	446.19
356.962	443.19
357.426	447.89
357.89	442.49
358.354	448.19
358.818	442.79
359.281	450.79
359.745	450.29
360.209	452.39
360.673	445.29
361.136	451.79
361.6	454.69
362.064	458.49
362.527	449.39
362.991	450.89
363.454	442.89
363.918	445.49
364.381	446.99
364.845	446.69
365.308	457.99
365.772	450.49
366.235	446.79
366.698	446.79
367.162	447.29
367.625	451.79
368.088	455.99
368.552	455.39
369.015	442.89
369.478	449.69
369.941	452.29
370.404	451.09
370.867	452.09
371.331	441.39
371.794	450.79
372.257	446.39
372.72	454.39
373.183	449.99
373.646	458.19
374.109	467.59
374.572	466.69
375.035	477.49
375.497	464.59
375.96	471.09
376.423	474.09
376.886	468.89
377.349	483.89
377.811	476.59
378.274	481.89
378.737	486.19
379.199	488.79
379.662	489.39
380.125	488.29
380.587	487.09
381.05	487.29
381.512	482.19
381.975	496.99
382.437	494.19
382.9	488.89
383.362	503.19
383.825	500.19
384.287	494.59
384.75	501.79
385.212	496.99
385.674	497.19
386.136	509.59
386.599	511.89
387.061	507.79
387.523	515.79
387.985	511.39
388.447	508.79
388.91	508.19
389.372	508.39
389.834	509.09
390.296	514.69
390.758	524.49
391.22	524.89
391.682	535.79
392.144	548.89
392.606	530.59
393.068	528.69
393.529	524.59
393.991	533.09
394.453	518.89
394.915	525.79
395.377	529.89
395.838	527.19
396.3	534.19
396.762	542.49
397.224	556.89
397.685	553.09
398.147	540.59
398.608	546.89
399.07	536.39
399.531	532.49
399.993	542.19
400.454	543.89
400.916	533.69
401.377	541.09
401.839	541.89
402.3	536.19
402.762	543.49
403.223	549.89
403.684	547.99
404.145	553.59
404.607	556.79
405.068	541.19
405.529	531.29
405.99	533.09
406.451	537.49
406.913	533.49
407.374	543.19
407.835	545.39
408.296	539.69
408.757	541.19
409.218	547.99
409.679	546.79
410.14	532.89
410.601	541.39
411.062	548.19
411.522	554.09
411.983	558.79
412.444	552.89
412.905	549.69
413.366	544.39
413.826	540.59
414.287	543.29
414.748	542.69
415.208	548.19
415.669	556.79
416.13	556.69
416.59	554.49
417.051	556.29
417.511	572.09
417.972	586.59
418.432	589.09
418.893	595.49
419.353	606.49
419.814	611.39
420.274	627.69
420.734	630.29
421.195	641.79
421.655	621.59
422.115	630.89
422.576	631.79
423.036	632.19
423.496	626.09
423.956	639.39
424.416	640.49
424.876	660.39
425.336	655.19
425.797	665.19
426.257	683.69
426.717	703.69
427.177	683.59
427.637	708.79
428.097	715.99
428.556	720.69
429.016	741.99
429.476	758.49
429.936	755.29
430.396	759.89
430.856	757.59
431.315	758.59
431.775	771.09
432.235	783.89
432.694	821.89
433.154	827.49
433.614	802.79
434.073	835.99
434.533	841.89
434.993	841.39
435.452	864.99
435.912	855.79
436.371	874.09
436.83	879.59
437.29	886.09
437.749	902.99
438.209	915.89
438.668	916.09
439.127	922.49
439.587	937.99
440.046	952.09
440.505	979.89
440.964	971.39
441.424	984.89
441.883	1006.69
442.342	1016.19
442.801	1017.19
443.26	1050.99
443.719	1062.29
444.178	1065.79
444.637	1081.89
445.096	1092.49
445.555	1114.19
446.014	1109.29
446.473	1108.99
446.932	1128.69
447.391	1149.89
447.849	1194.19
448.308	1164.19
448.767	1187.59
449.226	1211.79
449.685	1209.29
450.143	1229.89
450.602	1277.59
451.061	1250.99
451.519	1280.19
451.978	1307.79
452.436	1309.89
452.895	1323.49
453.353	1317.69
453.812	1331.09
454.27	1364.19
454.729	1373.09
455.187	1384.49
455.646	1391.29
456.104	1413.79
456.562	1430.39
457.021	1450.59
457.479	1403.39
457.937	1447.19
458.395	1486.59
458.854	1473.19
459.312	1476.49
459.77	1479.19
460.228	1494.69
460.686	1533.09
461.144	1539.79
461.602	1512.09
462.06	1504.89
462.518	1514.49
462.976	1522.09
463.434	1519.99
463.892	1503.19
464.35	1508.59
464.808	1530.59
465.266	1536.89
465.724	1539.69
466.181	1545.99
466.639	1523.49
467.097	1571.49
467.555	1606.19
468.012	1558.49
468.47	1562.49
468.928	1581.99
469.385	1595.39
469.843	1627.79
470.3	1608.29
470.758	1643.09
471.215	1633.99
471.673	1651.89
472.13	1686.69
472.588	1730.79
473.045	1745.29
473.503	1784.29
473.96	1831.29
474.417	1823.49
474.875	1867.09
475.332	1890.39
475.789	1904.59
476.246	1954.89
476.704	1986.99
477.161	2003.89
477.618	2034.19
478.075	2046.09
478.532	2149.19
478.989	2179.99
479.446	2208.79
479.903	2236.49
480.36	2332.19
480.817	2341.59
481.274	2378.99
481.731	2419.59
482.188	2433.19
482.645	2520.39
483.102	2530.99
483.558	2561.59
484.015	2621.79
484.472	2670.39
484.929	2728.99
485.385	2737.79
485.842	2762.79
486.299	2815.49
486.755	2826.59
487.212	2833.89
487.668	2875.29
488.125	2926.29
488.582	2891.29
489.038	2923.79
489.494	2952.79
489.951	2970.19
490.407	2991.39
490.864	2983.69
491.32	3000.69
491.776	3013.19
492.233	3021.89
492.689	3028.79
493.145	3018.79
493.602	3011.29
494.058	3055.89
494.514	3028.59
494.97	3041.19
495.426	3032.79
495.882	3043.09
496.338	2996.09
496.794	3054.59
497.251	3054.99
497.707	3065.29
498.163	3065.99
498.618	3064.59
499.074	3050.09
499.53	3075.09
499.986	3080.29
500.442	3071.09
500.898	3045.09
501.354	3088.09
501.809	3081.19
502.265	3060.79
502.721	3076.49
503.177	3070.59
503.632	3093.59
504.088	3064.09
504.543	3064.49
504.999	3092.49
505.455	3088.39
505.91	3084.69
506.366	3079.59
506.821	3081.19
507.277	3063.69
507.732	3081.79
508.187	3053.69
508.643	3053.89
509.098	3046.59
509.553	3059.19
510.009	3036.09
510.464	3046.09
510.919	3036.49
511.375	3030.59
511.83	3009.89
512.285	2991.59
512.74	3009.19
513.195	2968.59
513.65	2950.39
514.105	2960.59
514.56	2924.39
515.015	2931.99
515.47	2945.79
515.925	2906.19
516.38	2924.09
516.835	2913.29
517.29	2872.69
517.745	2876.19
518.2	2871.99
518.655	2857.19
519.109	2865.69
519.564	2847.29
520.019	2833.99
520.474	2832.19
520.928	2841.39
521.383	2813.29
521.838	2799.99
522.292	2790.79
522.747	2772.69
523.201	2768.39
523.656	2792.69
524.11	2784.99
524.565	2762.29
525.019	2779.79
525.474	2770.49
525.928	2752.79
526.382	2759.79
526.837	2772.39
527.291	2774.09
527.745	2749.89
528.2	2761.19
528.654	2726.79
529.108	2742.39
529.562	2744.69
530.016	2747.39
530.47	2735.09
530.925	2739.09
531.379	2740.29
531.833	2757.29
532.287	2749.29
532.741	2728.79
533.195	2736.79
533.649	2753.19
534.103	2764.69
534.556	2721.19
535.01	2757.39
535.464	2738.29
535.918	2762.39
536.372	2755.79
536.826	2761.99
537.279	2715.29
537.733	2762.29
538.187	2752.49
538.64	2740.09
539.094	2725.39
539.548	2768.99
540.001	2732.09
540.455	2721.59
540.908	2717.89
541.362	2726.79
541.815	2719.19
542.269	2726.09
542.722	2710.19
543.175	2708.69
543.629	2694.19
544.082	2679.79
544.536	2677.49
544.989	2661.69
545.442	2685.69
545.895	2667.59
546.349	2655.49
546.802	2654.19
547.255	2649.89
547.708	2641.59
548.161	2637.49
548.614	2623.59
549.067	2633.19
549.52	2650.19
549.973	2612.99
550.426	2619.79
550.879	2628.59
551.332	2606.09
551.785	2625.69
552.238	2612.39
552.691	2629.99
553.144	2630.79
553.596	2624.59
554.049	2647.19
554.502	2644.99
554.955	2638.59
555.407	2643.79
555.86	2668.69
556.313	2637.29
556.765	2649.29
557.218	2654.99
557.67	2664.79
558.123	2661.99
558.576	2659.89
559.028	2652.69
559.48	2683.39
559.933	2692.39
560.385	2688.29
560.838	2674.39
561.29	2669.99
561.742	2712.09
562.195	2693.19
562.647	2710.19
563.099	2704.19
563.551	2698.79
564.004	2717.69
564.456	2712.99
564.908	2729.89
565.36	2716.09
565.812	2707.79
566.264	2733.39
566.716	2727.89
567.168	2712.89
567.62	2748.69
568.072	2729.19
568.524	2731.29
568.976	2753.39
569.428	2709.59
569.88	2720.19
570.332	2712.89
570.784	2733.99
571.235	2697.99
571.687	2713.69
572.139	2696.39
572.59	2698.79
573.042	2704.39
573.494	2693.49
573.945	2687.69
574.397	2627.09
574.849	2665.59
575.3	2703.29
575.752	2656.69
576.203	2641.29
576.655	2653.79
577.106	2665.09
577.557	2629.29
578.009	2627.19
578.46	2640.19
578.912	2608.09
579.363	2637.29
579.814	2625.19
580.265	2622.09
580.717	2626.19
581.168	2621.59
581.619	2613.49
582.07	2614.39
582.521	2593.99
582.972	2610.49
583.423	2628.79
583.875	2605.89
584.326	2596.19
584.777	2606.69
585.227	2586.49
585.678	2615.89
586.129	2590.39
586.58	2604.09
587.031	2616.39
587.482	2614.79
587.933	2589.59
588.384	2614.89
588.834	2599.49
589.285	2618.69
589.736	2626.99
590.186	2593.79
590.637	2619.79
591.088	2628.19
591.538	2632.99
591.989	2644.99
592.439	2623.49
592.89	2625.99
593.34	2624.49
593.791	2634.69
594.241	2644.29
594.692	2632.59
595.142	2635.29
595.593	2640.19
596.043	2653.99
596.493	2668.69
596.943	2633.69
597.394	2684.49
597.844	2641.19
598.294	2667.49
598.744	2654.29
599.195	2662.89
599.645	2665.29
600.095	2657.19
600.545	2669.39
600.995	2663.29
601.445	2665.99
601.895	2690.59
602.345	2675.29
602.795	2682.99
603.245	2688.79
603.695	2676.59
604.145	2662.59
604.594	2691.49
605.044	2697.69
605.494	2682.19
605.944	2710.39
606.393	2718.99
606.843	2702.49
607.293	2709.39
607.743	2691.39
608.192	2705.29
608.642	2698.29
609.091	2700.99
609.541	2698.39
609.99	2721.09
610.44	2673.99
610.889	2715.99
611.339	2706.39
611.788	2686.19
612.238	2712.99
612.687	2707.99
613.136	2686.99
613.586	2713.09
614.035	2654.19
614.484	2697.29
614.933	2681.69
615.383	2675.29
615.832	2677.19
616.281	2696.39
616.73	2689.29
617.179	2684.39
617.628	2679.69
618.077	2675.89
618.526	2681.39
618.975	2667.69
619.424	2653.99
619.873	2668.69
620.322	2661.59
620.771	2669.89
621.22	2655.79
621.669	2655.89
622.118	2674.39
622.567	2663.39
623.015	2655.59
623.464	2658.39
623.913	2656.49
624.361	2659.59
624.81	2651.19
625.259	2667.09
625.707	2649.69
626.156	2649.69
626.604	2666.49
627.053	2657.79
627.501	2631.99
627.95	2626.49
628.398	2661.99
628.847	2622.19
629.295	2633.29
629.744	2628.19
630.192	2625.19
630.64	2621.79
631.089	2614.19
631.537	2620.29
631.985	2604.49
632.433	2614.99
632.881	2615.39
633.33	2617.49
633.778	2593.89
634.226	2577.59
634.674	2598.29
635.122	2588.99
635.57	2563.69
636.018	2590.19
636.466	2555.19
636.914	2565.99
637.362	2574.99
637.81	2572.09
638.258	2574.19
638.705	2544.39
639.153	2570.39
639.601	2547.49
640.049	2546.09
640.497	2565.59
640.944	2540.69
641.392	2543.39
641.84	2551.99
642.287	2543.39
642.735	2535.79
643.182	2528.49
643.63	2535.09
644.078	2541.69
644.525	2538.69
644.973	2534.09
645.42	2543.69
645.867	2533.69
646.315	2513.09
646.762	2520.79
647.21	2511.69
647.657	2519.99
648.104	2516.99
648.551	2480.89
648.999	2506.29
649.446	2507.69
649.893	2497.59
650.34	2478.39
650.787	2504.89
651.234	2500.19
651.682	2504.49
652.129	2488.19
652.576	2493.89
653.023	2497.59
653.47	2481.89
653.917	2493.29
654.363	2494.39
654.81	2517.29
655.257	2492.49
655.704	2472.49
656.151	2476.39
656.598	2459.09
657.044	2448.69
657.491	2454.59
657.938	2459.19
658.385	2458.89
658.831	2461.09
659.278	2448.09
659.724	2433.09
660.171	2460.69
660.618	2439.19
661.064	2418.59
661.511	2427.09
661.957	2427.09
662.404	2406.19
662.85	2416.29
663.296	2414.69
663.743	2395.89
664.189	2404.29
664.635	2425.39
665.082	2397.49
665.528	2385.39
665.974	2382.09
666.42	2385.59
666.867	2388.19
667.313	2371.29
667.759	2367.89
668.205	2381.69
668.651	2368.69
669.097	2358.79
669.543	2341.49
669.989	2342.69
670.435	2351.59
670.881	2326.59
671.327	2319.99
671.773	2338.49
672.219	2322.09
672.665	2321.09
673.11	2305.99
673.556	2312.39
674.002	2303.39
674.448	2285.39
674.893	2279.89
675.339	2282.09
675.785	2274.19
676.23	2256.49
676.676	2246.49
677.122	2264.19
677.567	2247.89
678.013	2223.99
678.458	2220.99
678.904	2227.79
679.349	2200.99
679.794	2188.79
680.24	2192.09
680.685	2173.49
681.131	2156.79
681.576	2145.69
682.021	2157.29
682.466	2134.69
682.912	2111.19
683.357	2128.29
683.802	2122.39
684.247	2117.09
684.692	2070.89
685.137	2085.49
685.583	2092.69
686.028	2090.09
686.473	2070.09
686.918	2051.89
687.363	2037.19
687.807	2028.69
688.252	2025.09
688.697	2034.29
689.142	2013.09
689.587	2011.99
690.032	2011.59
690.477	2016.29
690.921	1998.89
691.366	1984.29
691.811	1990.89
692.255	1981.39
692.7	1957.29
693.145	1965.59
693.589	1957.99
694.034	1950.19
694.478	1961.59
694.923	1948.59
695.367	1933.09
695.812	1928.79
696.256	1918.69
696.701	1914.39
697.145	1938.69
697.59	1890.89
698.034	1888.79
698.478	1906.19
698.922	1896.19
699.367	1889.39
699.811	1895.79
700.255	1881.89
700.699	1878.39
701.143	1864.69
701.588	1861.39
702.032	1844.59
702.476	1849.49
702.92	1843.09
703.364	1828.39
703.808	1826.69
704.252	1819.19
704.696	1821.19
705.14	1818.69
705.584	1822.39
706.027	1809.79
706.471	1812.09
706.915	1798.69
707.359	1792.49
707.803	1794.79
708.246	1783.59
708.69	1782.89
709.134	1780.19
709.577	1789.49
710.021	1756.39
710.465	1752.59
710.908	1761.29
711.352	1737.69
711.795	1745.39
712.239	1740.49
712.682	1754.69
713.126	1728.79
713.569	1725.99
714.012	1722.79
714.456	1712.89
714.899	1720.69
715.342	1720.79
715.786	1707.49
716.229	1700.39
716.672	1686.69
717.115	1717.69
717.558	1680.79
718.002	1688.19
718.445	1680.69
718.888	1693.49
719.331	1673.79
719.774	1675.29
720.217	1660.49
720.66	1658.29
721.103	1654.19
721.546	1642.69
721.989	1648.69
722.432	1642.19
722.874	1654.49
723.317	1639.59
723.76	1635.39
724.203	1631.29
724.645	1632.79
725.088	1618.59
725.531	1625.59
725.974	1612.99
726.416	1607.19
726.859	1614.79
727.301	1604.79
727.744	1590.99
728.187	1594.09
728.629	1575.99
729.071	1596.09
729.514	1582.09
729.956	1580.99
730.399	1568.59
730.841	1574.79
731.283	1573.09
731.726	1555.29
732.168	1545.49
732.61	1542.39
733.053	1517.79
733.495	1522.29
733.937	1522.89
734.379	1516.39
734.821	1513.59
735.263	1505.79
735.705	1493.39
736.148	1494.19
736.59	1496.49
