Data from DH-3PlusCalLight-Background_HRD10391_13-40-44-939.txt Node
Date: Thu Feb 15 13:40:44 EST 2018
User: Ender
Spectrometer: HR+D1039
Trigger mode: 0
Integration Time (sec): 2.730000E-2
Scans to average: 10
Electric dark correction enabled: true
Nonlinearity correction enabled: false
Boxcar width: 0
XAxis mode: Wavelengths
Number of Pixels in Spectrum: 2048
>>>>>Begin Spectral Data<<<<<
187.836	2.27
188.309	2.27
188.782	2.27
189.255	-0.73
189.728	-0.52
190.201	-6.23
190.674	-8.33
191.147	-6.73
191.619	-9.23
192.092	-6.52
192.565	-1.23
193.038	1.48
193.511	-3.33
193.984	-0.42
194.456	5.27
194.929	7.38
195.402	12.17
195.874	14.67
196.347	24.98
196.82	27.77
197.292	26.48
197.765	32.17
198.237	34.38
198.71	37.67
199.182	43.77
199.655	47.48
200.127	53.58
200.6	50.77
201.072	58.48
201.544	61.08
202.017	63.98
202.489	66.27
202.961	64.77
203.433	72.08
203.906	72.08
204.378	82.38
204.85	74.27
205.322	72.67
205.794	77.98
206.266	82.48
206.739	85.48
207.211	83.08
207.683	79.67
208.155	85.17
208.627	85.88
209.099	80.58
209.57	75.98
210.042	84.27
210.514	82.58
210.986	89.98
211.458	83.58
211.93	90.48
212.402	81.77
212.873	84.17
213.345	83.98
213.817	81.38
214.288	81.88
214.76	80.77
215.232	82.38
215.703	81.77
216.175	82.08
216.646	71.77
217.118	81.77
217.589	81.98
218.061	76.48
218.532	83.48
219.004	78.38
219.475	76.08
219.946	80.67
220.418	78.08
220.889	74.77
221.36	72.88
221.832	80.48
222.303	76.67
222.774	76.17
223.245	79.08
223.717	76.88
224.188	75.58
224.659	77.67
225.13	72.58
225.601	72.17
226.072	77.17
226.543	71.88
227.014	75.88
227.485	74.58
227.956	84.08
228.427	78.88
228.898	75.38
229.369	70.58
229.839	75.77
230.31	77.27
230.781	77.48
231.252	73.38
231.722	74.98
232.193	76.27
232.664	74.67
233.135	75.58
233.605	68.77
234.076	76.48
234.546	77.38
235.017	75.27
235.487	74.48
235.958	78.48
236.428	82.67
236.899	75.08
237.369	83.08
237.84	77.17
238.31	76.17
238.78	75.38
239.251	76.88
239.721	79.77
240.191	83.27
240.662	74.98
241.132	76.88
241.602	82.17
242.072	78.58
242.542	78.08
243.013	78.77
243.483	73.77
243.953	79.98
244.423	77.67
244.893	74.08
245.363	82.08
245.833	75.98
246.303	81.08
246.773	86.58
247.243	82.17
247.712	78.98
248.182	77.58
248.652	78.98
249.122	81.27
249.592	77.38
250.061	79.38
250.531	80.58
251.001	78.98
251.471	80.58
251.94	81.48
252.41	83.38
252.879	78.27
253.349	77.77
253.818	77.67
254.288	84.27
254.757	83.48
255.227	80.17
255.696	79.48
256.166	80.17
256.635	79.17
257.105	79.27
257.574	79.08
258.043	82.48
258.513	79.67
258.982	80.77
259.451	77.98
259.92	82.17
260.389	78.38
260.859	79.77
261.328	77.17
261.797	83.38
262.266	80.17
262.735	78.48
263.204	76.88
263.673	78.58
264.142	83.08
264.611	78.58
265.08	76.27
265.549	83.98
266.018	79.67
266.487	83.98
266.955	78.48
267.424	82.27
267.893	82.27
268.362	76.88
268.83	81.48
269.299	81.38
269.768	81.88
270.236	77.98
270.705	85.48
271.174	84.67
271.642	80.98
272.111	84.38
272.579	81.58
273.048	80.48
273.516	83.27
273.985	86.08
274.453	80.58
274.922	80.27
275.39	84.98
275.858	82.08
276.327	76.58
276.795	78.38
277.263	80.77
277.731	73.77
278.2	77.48
278.668	84.27
279.136	75.48
279.604	85.58
280.072	78.08
280.54	83.27
281.008	80.77
281.477	85.88
281.945	79.38
282.413	82.98
282.881	84.17
283.348	86.48
283.816	79.88
284.284	81.58
284.752	82.88
285.22	80.48
285.688	83.27
286.156	81.67
286.623	71.77
287.091	78.38
287.559	83.98
288.026	83.48
288.494	81.88
288.962	83.58
289.429	83.88
289.897	81.98
290.364	75.88
290.832	81.27
291.3	82.17
291.767	79.98
292.234	77.67
292.702	81.48
293.169	80.08
293.637	79.67
294.104	81.17
294.571	78.08
295.039	79.38
295.506	82.48
295.973	80.17
296.44	79.67
296.908	78.08
297.375	80.98
297.842	79.67
298.309	80.17
298.776	85.67
299.243	83.27
299.71	82.88
300.177	82.17
300.644	84.98
301.111	87.58
301.578	85.58
302.045	84.77
302.512	86.38
302.979	83.38
303.446	85.27
303.913	84.27
304.379	83.38
304.846	81.58
305.313	84.98
305.78	84.48
306.246	86.88
306.713	81.27
307.18	84.38
307.646	80.77
308.113	82.77
308.579	88.88
309.046	86.48
309.512	84.17
309.979	78.88
310.445	80.48
310.912	83.58
311.378	84.67
311.845	82.48
312.311	81.77
312.777	84.48
313.244	80.38
313.71	84.17
314.176	77.27
314.642	83.08
315.109	85.77
315.575	82.67
316.041	80.17
316.507	81.27
316.973	83.48
317.439	84.38
317.905	84.67
318.371	78.67
318.837	79.27
319.303	79.48
319.769	89.58
320.235	89.17
320.701	83.17
321.167	84.58
321.633	79.17
322.099	83.88
322.564	85.17
323.03	83.38
323.496	84.38
323.962	85.38
324.427	87.98
324.893	83.27
325.359	83.88
325.824	86.88
326.29	84.48
326.755	83.27
327.221	87.77
327.686	83.48
328.152	86.38
328.617	88.48
329.083	87.17
329.548	85.67
330.014	85.88
330.479	83.88
330.944	82.08
331.41	85.38
331.875	84.88
332.34	83.08
332.805	86.27
333.271	83.88
333.736	86.67
334.201	86.38
334.666	83.98
335.131	81.88
335.596	83.08
336.061	81.48
336.526	85.67
336.991	82.27
337.456	82.27
337.921	84.88
338.386	82.67
338.851	78.88
339.316	82.08
339.781	80.98
340.246	82.17
340.711	86.38
341.175	82.27
341.64	81.67
342.105	86.17
342.569	88.08
343.034	91.77
343.499	83.17
343.963	88.77
344.428	81.58
344.893	85.77
345.357	84.08
345.822	79.27
346.286	83.38
346.751	83.38
347.215	83.48
347.679	83.77
348.144	87.38
348.608	88.67
349.073	86.08
349.537	85.98
350.001	80.58
350.465	81.17
350.93	84.67
351.394	86.77
351.858	84.27
352.322	85.38
352.786	87.48
353.25	83.38
353.715	81.67
354.179	83.48
354.643	83.27
355.107	86.77
355.571	81.98
356.035	81.67
356.498	81.27
356.962	84.88
357.426	82.27
357.89	84.27
358.354	81.38
358.818	83.67
359.281	84.88
359.745	80.88
360.209	86.38
360.673	87.77
361.136	80.98
361.6	82.88
362.064	85.08
362.527	82.77
362.991	81.77
363.454	82.88
363.918	86.67
364.381	85.67
364.845	84.08
365.308	86.77
365.772	81.38
366.235	85.08
366.698	81.08
367.162	85.98
367.625	86.38
368.088	79.27
368.552	85.17
369.015	88.67
369.478	86.58
369.941	86.58
370.404	86.77
370.867	78.88
371.331	82.48
371.794	86.08
372.257	79.08
372.72	78.38
373.183	82.17
373.646	80.38
374.109	85.38
374.572	83.17
375.035	83.27
375.497	86.27
375.96	84.77
376.423	85.67
376.886	86.08
377.349	80.98
377.811	80.17
378.274	86.98
378.737	84.08
379.199	84.17
379.662	80.58
380.125	84.17
380.587	82.88
381.05	85.48
381.512	84.17
381.975	82.27
382.437	80.58
382.9	83.17
383.362	79.27
383.825	81.58
384.287	84.27
384.75	86.98
385.212	85.48
385.674	82.77
386.136	85.27
386.599	81.58
387.061	81.98
387.523	83.38
387.985	81.88
388.447	84.88
388.91	82.98
389.372	88.17
389.834	86.48
390.296	81.98
390.758	87.27
391.22	84.77
391.682	88.48
392.144	83.17
392.606	84.67
393.068	81.88
393.529	87.27
393.991	85.08
394.453	84.88
394.915	82.48
395.377	81.27
395.838	85.17
396.3	88.48
396.762	85.88
397.224	86.38
397.685	85.88
398.147	88.58
398.608	88.27
399.07	86.67
399.531	88.77
399.993	91.17
400.454	81.48
400.916	82.27
401.377	84.48
401.839	79.98
402.3	90.08
402.762	78.58
403.223	80.48
403.684	79.88
404.145	82.17
404.607	86.67
405.068	81.58
405.529	81.98
405.99	83.67
406.451	88.38
406.913	77.77
407.374	87.27
407.835	81.38
408.296	83.88
408.757	78.58
409.218	84.98
409.679	83.27
410.14	82.67
410.601	83.38
411.062	82.98
411.522	81.67
411.983	83.98
412.444	76.48
412.905	81.38
413.366	82.67
413.826	83.77
414.287	80.77
414.748	87.08
415.208	80.17
415.669	82.98
416.13	75.58
416.59	87.27
417.051	83.67
417.511	81.27
417.972	87.77
418.432	81.98
418.893	84.27
419.353	85.48
419.814	84.27
420.274	84.88
420.734	79.98
421.195	82.88
421.655	79.98
422.115	88.17
422.576	81.77
423.036	85.67
423.496	83.58
423.956	88.27
424.416	81.48
424.876	88.17
425.336	81.38
425.797	82.88
426.257	84.48
426.717	84.08
427.177	83.58
427.637	83.38
428.097	84.98
428.556	85.98
429.016	85.58
429.476	91.38
429.936	83.38
430.396	81.67
430.856	85.38
431.315	84.08
431.775	81.17
432.235	85.77
432.694	86.58
433.154	80.48
433.614	89.58
434.073	86.98
434.533	89.38
434.993	86.08
435.452	83.38
435.912	78.27
436.371	85.17
436.83	82.58
437.29	84.17
437.749	84.17
438.209	84.58
438.668	88.67
439.127	84.77
439.587	87.48
440.046	83.08
440.505	89.17
440.964	83.38
441.424	81.98
441.883	83.88
442.342	82.77
442.801	89.67
443.26	82.98
443.719	76.88
444.178	90.77
444.637	83.77
445.096	82.98
445.555	84.98
446.014	86.77
446.473	87.08
446.932	85.27
447.391	83.58
447.849	85.27
448.308	86.17
448.767	84.77
449.226	85.08
449.685	82.88
450.143	89.38
450.602	88.48
451.061	85.48
451.519	84.77
451.978	88.17
452.436	87.77
452.895	80.58
453.353	82.27
453.812	83.58
454.27	85.48
454.729	85.88
455.187	87.67
455.646	91.27
456.104	88.77
456.562	83.17
457.021	84.08
457.479	89.67
457.937	84.27
458.395	86.98
458.854	86.58
459.312	86.48
459.77	91.58
460.228	84.77
460.686	85.27
461.144	90.67
461.602	87.58
462.06	88.48
462.518	88.77
462.976	87.08
463.434	85.08
463.892	84.88
464.35	89.17
464.808	87.48
465.266	85.98
465.724	84.58
466.181	89.27
466.639	87.88
467.097	87.17
467.555	81.98
468.012	87.67
468.47	83.67
468.928	82.67
469.385	79.77
469.843	88.38
470.3	87.08
470.758	87.77
471.215	88.67
471.673	84.88
472.13	89.38
472.588	86.67
473.045	89.58
473.503	89.48
473.96	88.17
474.417	90.98
474.875	86.27
475.332	87.58
475.789	89.67
476.246	85.08
476.704	87.48
477.161	85.27
477.618	94.08
478.075	89.88
478.532	90.48
478.989	88.58
479.446	87.67
479.903	86.58
480.36	91.17
480.817	87.98
481.274	87.98
481.731	88.48
482.188	87.88
482.645	88.08
483.102	88.98
483.558	86.38
484.015	89.58
484.472	89.08
484.929	90.17
485.385	93.17
485.842	88.77
486.299	88.27
486.755	94.17
487.212	90.38
487.668	90.67
488.125	93.38
488.582	93.08
489.038	87.88
489.494	90.48
489.951	94.77
490.407	87.48
490.864	96.27
491.32	93.48
491.776	88.17
492.233	92.48
492.689	92.38
493.145	91.98
493.602	94.48
494.058	91.38
494.514	93.08
494.97	96.27
495.426	89.38
495.882	87.08
496.338	90.08
496.794	95.27
497.251	89.38
497.707	89.17
498.163	90.98
498.618	94.38
499.074	91.17
499.53	91.77
499.986	92.88
500.442	94.67
500.898	91.08
501.354	93.88
501.809	92.08
502.265	91.98
502.721	92.58
503.177	93.17
503.632	94.77
504.088	94.98
504.543	93.67
504.999	96.58
505.455	90.27
505.91	89.27
506.366	91.38
506.821	94.27
507.277	91.48
507.732	93.98
508.187	91.88
508.643	89.98
509.098	90.38
509.553	91.98
510.009	94.17
510.464	88.08
510.919	87.98
511.375	91.98
511.83	92.58
512.285	90.08
512.74	90.67
513.195	86.77
513.65	95.38
514.105	88.58
514.56	91.77
515.015	97.58
515.47	94.67
515.925	93.38
516.38	91.88
516.835	88.08
517.29	91.58
517.745	88.38
518.2	92.17
518.655	88.98
519.109	95.48
519.564	91.58
520.019	88.88
520.474	92.27
520.928	94.27
521.383	95.38
521.838	91.38
522.292	93.67
522.747	91.38
523.201	92.67
523.656	92.58
524.11	92.38
524.565	89.67
525.019	95.17
525.474	92.88
525.928	92.08
526.382	97.58
526.837	94.77
527.291	88.17
527.745	90.67
528.2	87.27
528.654	87.67
529.108	88.88
529.562	90.27
530.016	94.88
530.47	96.38
530.925	95.67
531.379	91.98
531.833	89.08
532.287	93.58
532.741	91.58
533.195	90.77
533.649	87.17
534.103	93.17
534.556	96.98
535.01	88.08
535.464	90.48
535.918	91.17
536.372	90.88
536.826	85.77
537.279	86.27
537.733	87.67
538.187	93.17
538.64	90.67
539.094	88.98
539.548	92.38
540.001	87.48
540.455	97.67
540.908	93.58
541.362	93.77
541.815	99.58
542.269	91.88
542.722	92.58
543.175	92.27
543.629	94.77
544.082	92.67
544.536	93.17
544.989	90.77
545.442	90.58
545.895	89.58
546.349	89.67
546.802	91.48
547.255	89.38
547.708	90.58
548.161	92.98
548.614	85.08
549.067	92.67
549.52	88.27
549.973	92.98
550.426	93.27
550.879	84.08
551.332	88.98
551.785	92.48
552.238	90.08
552.691	88.08
553.144	94.67
553.596	89.08
554.049	91.58
554.502	91.17
554.955	87.67
555.407	88.88
555.86	85.08
556.313	91.98
556.765	86.67
557.218	91.17
557.67	91.38
558.123	93.27
558.576	86.77
559.028	93.67
559.48	92.38
559.933	91.67
560.385	93.67
560.838	91.77
561.29	94.08
561.742	85.98
562.195	88.17
562.647	90.88
563.099	88.17
563.551	87.48
564.004	84.48
564.456	89.08
564.908	94.08
565.36	93.77
565.812	92.38
566.264	94.08
566.716	93.48
567.168	94.77
567.62	90.77
568.072	88.17
568.524	94.67
568.976	93.38
569.428	91.77
569.88	89.38
570.332	97.88
570.784	95.38
571.235	96.38
571.687	93.58
572.139	94.48
572.59	92.08
573.042	89.77
573.494	87.58
573.945	89.67
574.397	93.58
574.849	93.17
575.3	85.48
575.752	92.38
576.203	90.27
576.655	89.48
577.106	91.48
577.557	94.67
578.009	92.98
578.46	87.08
578.912	91.98
579.363	88.77
579.814	89.27
580.265	89.27
580.717	88.88
581.168	92.58
581.619	93.48
582.07	91.38
582.521	91.48
582.972	96.08
583.423	92.27
583.875	92.08
584.326	86.27
584.777	91.27
585.227	89.08
585.678	90.27
586.129	92.38
586.58	88.17
587.031	91.77
587.482	91.17
587.933	95.08
588.384	93.38
588.834	90.88
589.285	90.17
589.736	92.58
590.186	89.48
590.637	91.08
591.088	94.88
591.538	86.98
591.989	89.38
592.439	95.67
592.89	88.88
593.34	85.77
593.791	95.17
594.241	96.88
594.692	90.27
595.142	93.88
595.593	89.08
596.043	92.98
596.493	89.17
596.943	91.88
597.394	89.17
597.844	89.67
598.294	94.17
598.744	92.08
599.195	96.77
599.645	91.48
600.095	94.38
600.545	92.58
600.995	96.38
601.445	93.38
601.895	91.77
602.345	90.48
602.795	91.27
603.245	90.88
603.695	91.08
604.145	97.77
604.594	89.98
605.044	89.38
605.494	89.27
605.944	90.67
606.393	93.17
606.843	91.88
607.293	91.58
607.743	91.98
608.192	90.48
608.642	93.88
609.091	90.88
609.541	93.98
609.99	90.08
610.44	90.77
610.889	91.67
611.339	96.38
611.788	93.58
612.238	95.88
612.687	88.98
613.136	89.98
613.586	96.17
614.035	92.08
614.484	96.27
614.933	88.38
615.383	92.17
615.832	90.58
616.281	94.08
616.73	94.17
617.179	92.48
617.628	92.98
618.077	92.98
618.526	96.38
618.975	92.88
619.424	92.88
619.873	95.98
620.322	90.17
620.771	92.77
621.22	91.67
621.669	89.77
622.118	91.08
622.567	96.58
623.015	88.38
623.464	94.17
623.913	92.58
624.361	90.88
624.81	93.08
625.259	87.98
625.707	94.27
626.156	90.17
626.604	91.08
627.053	90.17
627.501	89.98
627.95	91.77
628.398	92.98
628.847	91.77
629.295	90.48
629.744	86.77
630.192	91.48
630.64	97.27
631.089	92.27
631.537	92.38
631.985	96.67
632.433	90.48
632.881	95.48
633.33	91.98
633.778	90.48
634.226	90.48
634.674	94.38
635.122	94.27
635.57	87.88
636.018	92.48
636.466	92.38
636.914	89.48
637.362	87.98
637.81	91.88
638.258	93.27
638.705	94.48
639.153	94.58
639.601	92.67
640.049	95.88
640.497	93.88
640.944	96.77
641.392	97.48
641.84	94.67
642.287	94.08
642.735	88.88
643.182	92.48
643.63	91.58
644.078	91.17
644.525	93.48
644.973	92.58
645.42	91.27
645.867	93.08
646.315	92.98
646.762	90.67
647.21	91.58
647.657	96.38
648.104	96.27
648.551	90.77
648.999	92.17
649.446	94.88
649.893	92.27
650.34	93.58
650.787	91.27
651.234	90.27
651.682	86.58
652.129	92.17
652.576	96.17
653.023	93.38
653.47	93.67
653.917	87.98
654.363	92.08
654.81	96.17
655.257	95.38
655.704	95.58
656.151	87.17
656.598	91.98
657.044	91.77
657.491	93.77
657.938	90.08
658.385	90.77
658.831	86.08
659.278	88.17
659.724	90.88
660.171	88.98
660.618	90.27
661.064	90.27
661.511	88.98
661.957	92.98
662.404	90.67
662.85	90.88
663.296	92.67
663.743	90.38
664.189	89.17
664.635	90.38
665.082	90.27
665.528	94.77
665.974	99.67
666.42	99.98
666.867	86.48
667.313	89.48
667.759	93.88
668.205	90.58
668.651	91.77
669.097	87.38
669.543	91.67
669.989	92.38
670.435	89.48
670.881	94.27
671.327	87.38
671.773	93.08
672.219	92.67
672.665	91.27
673.11	83.88
673.556	92.67
674.002	90.77
674.448	89.58
674.893	97.08
675.339	90.48
675.785	86.67
676.23	89.48
676.676	88.48
677.122	93.58
677.567	98.27
678.013	88.08
678.458	90.77
678.904	94.38
679.349	93.67
679.794	92.27
680.24	91.17
680.685	90.48
681.131	91.27
681.576	95.67
682.021	97.17
682.466	93.38
682.912	96.88
683.357	93.17
683.802	86.48
684.247	88.58
684.692	86.38
685.137	92.58
685.583	93.67
686.028	84.48
686.473	91.88
686.918	90.67
687.363	93.08
687.807	94.17
688.252	90.17
688.697	90.77
689.142	92.77
689.587	92.38
690.032	90.08
690.477	89.27
690.921	92.17
691.366	90.38
691.811	85.67
692.255	88.88
692.7	91.08
693.145	87.17
693.589	87.27
694.034	90.27
694.478	87.77
694.923	87.98
695.367	90.08
695.812	88.67
696.256	89.08
696.701	88.17
697.145	93.67
697.59	92.48
698.034	98.27
698.478	92.58
698.922	91.88
699.367	95.98
699.811	90.58
700.255	88.17
700.699	92.77
701.143	91.77
701.588	85.27
702.032	92.38
702.476	88.38
702.92	90.38
703.364	92.48
703.808	84.58
704.252	89.17
704.696	87.98
705.14	92.17
705.584	86.77
706.027	89.98
706.471	88.27
706.915	88.48
707.359	89.08
707.803	92.17
708.246	93.17
708.69	89.98
709.134	92.17
709.577	83.58
710.021	91.08
710.465	93.27
710.908	89.88
711.352	90.27
711.795	88.67
712.239	90.48
712.682	90.77
713.126	90.88
713.569	90.38
714.012	91.38
714.456	86.38
714.899	87.27
715.342	86.58
715.786	89.48
716.229	91.88
716.672	90.67
717.115	90.48
717.558	88.38
718.002	89.08
718.445	90.48
718.888	88.98
719.331	90.17
719.774	87.38
720.217	92.38
720.66	91.17
721.103	85.77
721.546	91.48
721.989	92.58
722.432	88.67
722.874	82.58
723.317	92.58
723.76	92.17
724.203	91.08
724.645	89.08
725.088	89.08
725.531	90.88
725.974	85.58
726.416	89.08
726.859	88.17
727.301	91.58
727.744	89.77
728.187	92.58
728.629	88.17
729.071	92.38
729.514	87.98
729.956	86.27
730.399	85.67
730.841	90.27
731.283	91.58
731.726	88.08
732.168	89.08
732.61	89.88
733.053	88.98
733.495	89.17
733.937	90.08
734.379	90.38
734.821	87.88
735.263	91.38
735.705	87.88
736.148	88.67
736.59	91.17
737.032	89.67
737.474	86.98
737.916	82.88
738.357	89.38
738.799	88.17
739.241	88.58
739.683	92.88
740.125	85.17
740.567	88.27
741.008	90.67
741.45	86.98
741.892	83.58
742.334	90.77
742.775	89.17
743.217	91.17
743.658	86.58
744.1	89.98
744.542	85.48
744.983	88.58
745.425	80.98
745.866	90.48
746.307	92.17
746.749	94.48
747.19	90.38
747.632	87.38
748.073	95.58
748.514	87.67
748.956	85.17
749.397	88.67
749.838	86.48
750.279	89.38
750.72	86.27
751.162	92.98
751.603	92.38
752.044	86.58
752.485	89.38
752.926	89.98
753.367	86.77
753.808	85.38
754.249	91.27
754.69	89.98
755.131	89.27
755.572	89.67
756.013	91.48
756.453	93.17
756.894	88.38
757.335	88.08
757.776	85.77
758.216	92.27
758.657	85.88
759.098	87.67
759.538	90.38
759.979	84.67
760.42	86.67
760.86	89.48
761.301	89.88
761.741	92.27
762.182	91.67
762.622	88.67
763.063	92.98
763.503	81.38
763.943	86.77
764.384	89.27
764.824	88.17
765.264	90.27
765.705	85.38
766.145	87.17
766.585	90.88
767.025	87.27
767.465	86.67
767.906	87.58
768.346	90.77
768.786	89.77
769.226	93.48
769.666	91.98
770.106	84.88
770.546	86.77
770.986	89.17
771.426	91.48
771.866	87.67
772.306	91.88
772.745	88.77
773.185	88.88
773.625	90.38
774.065	88.27
774.505	89.38
774.944	90.27
775.384	91.08
775.824	88.17
776.263	89.27
776.703	86.08
777.142	92.38
777.582	89.58
778.021	87.88
778.461	90.67
778.9	89.98
779.34	84.58
779.779	86.58
780.219	86.17
780.658	89.27
781.097	84.67
781.537	90.08
781.976	85.98
782.415	93.38
782.855	83.17
783.294	94.08
783.733	88.88
784.172	88.77
784.611	90.58
785.05	87.38
785.489	86.88
785.928	89.08
786.367	86.48
786.806	89.67
787.245	85.98
787.684	91.17
788.123	88.67
