Data from DH-3PlusCalLight-Background_HRD10391_13-34-15-950.txt Node
Date: Thu Feb 15 13:34:15 EST 2018
User: Ender
Spectrometer: HR+D1039
Trigger mode: 0
Integration Time (sec): 2.730000E-2
Scans to average: 10
Electric dark correction enabled: true
Nonlinearity correction enabled: false
Boxcar width: 0
XAxis mode: Wavelengths
Number of Pixels in Spectrum: 2048
>>>>>Begin Spectral Data<<<<<
187.836	0.69
188.309	0.69
188.782	0.69
189.255	0.69
189.728	-2.51
190.201	-4.01
190.674	-7.11
191.147	-8.61
191.619	-10.31
192.092	-6.01
192.565	-4.11
193.038	-5.41
193.511	-0.51
193.984	-0.01
194.456	7.69
194.929	9.19
195.402	13.19
195.874	17.19
196.347	20.79
196.82	27.39
197.292	29.99
197.765	35.09
198.237	36.19
198.71	42.69
199.182	41.49
199.655	46.29
200.127	53.79
200.6	50.09
201.072	57.69
201.544	61.29
202.017	67.09
202.489	65.19
202.961	71.69
203.433	70.89
203.906	70.39
204.378	76.49
204.85	77.69
205.322	77.79
205.794	77.59
206.266	84.89
206.739	78.99
207.211	86.49
207.683	81.99
208.155	85.79
208.627	88.49
209.099	86.79
209.57	87.89
210.042	83.69
210.514	84.89
210.986	83.19
211.458	85.69
211.93	87.09
212.402	88.09
212.873	86.29
213.345	86.59
213.817	84.29
214.288	82.89
214.76	82.49
215.232	87.99
215.703	83.49
216.175	83.79
216.646	81.69
217.118	81.89
217.589	77.89
218.061	81.19
218.532	80.49
219.004	79.79
219.475	81.89
219.946	74.79
220.418	78.49
220.889	78.59
221.36	81.29
221.832	80.89
222.303	82.49
222.774	74.69
223.245	83.79
223.717	82.59
224.188	74.69
224.659	81.79
225.13	78.79
225.601	82.19
226.072	76.99
226.543	83.39
227.014	85.69
227.485	81.59
227.956	76.89
228.427	77.89
228.898	73.49
229.369	76.09
229.839	80.59
230.31	78.89
230.781	74.39
231.252	72.19
231.722	77.39
232.193	83.59
232.664	76.39
233.135	76.09
233.605	75.99
234.076	83.59
234.546	78.89
235.017	80.09
235.487	76.39
235.958	82.09
236.428	80.99
236.899	74.69
237.369	76.19
237.84	82.49
238.31	82.79
238.78	82.49
239.251	83.19
239.721	81.59
240.191	76.99
240.662	77.89
241.132	77.79
241.602	79.89
242.072	80.59
242.542	83.29
243.013	78.09
243.483	79.29
243.953	79.29
244.423	73.89
244.893	83.09
245.363	81.89
245.833	85.19
246.303	79.49
246.773	81.39
247.243	76.69
247.712	84.49
248.182	77.29
248.652	81.69
249.122	80.09
249.592	78.29
250.061	77.29
250.531	80.29
251.001	85.09
251.471	76.89
251.94	83.69
252.41	78.09
252.879	77.29
253.349	82.19
253.818	78.39
254.288	81.29
254.757	81.59
255.227	84.09
255.696	86.19
256.166	84.19
256.635	83.59
257.105	82.59
257.574	86.19
258.043	81.89
258.513	82.89
258.982	76.99
259.451	84.59
259.92	79.19
260.389	80.69
260.859	87.39
261.328	79.69
261.797	84.99
262.266	86.79
262.735	88.09
263.204	81.39
263.673	84.59
264.142	83.89
264.611	81.39
265.08	88.89
265.549	83.39
266.018	79.79
266.487	83.89
266.955	81.49
267.424	80.89
267.893	85.99
268.362	84.49
268.83	82.19
269.299	84.79
269.768	84.79
270.236	86.19
270.705	81.89
271.174	79.39
271.642	83.89
272.111	83.59
272.579	82.39
273.048	79.19
273.516	83.39
273.985	81.19
274.453	88.19
274.922	84.59
275.39	84.69
275.858	80.49
276.327	81.69
276.795	84.59
277.263	82.59
277.731	85.59
278.2	81.79
278.668	85.69
279.136	82.09
279.604	82.59
280.072	80.89
280.54	84.29
281.008	88.29
281.477	82.29
281.945	87.39
282.413	86.59
282.881	89.09
283.348	85.39
283.816	86.79
284.284	88.49
284.752	83.89
285.22	88.29
285.688	79.29
286.156	87.09
286.623	83.39
287.091	84.49
287.559	87.19
288.026	84.89
288.494	85.29
288.962	83.19
289.429	86.89
289.897	83.59
290.364	85.79
290.832	83.89
291.3	92.19
291.767	80.99
292.234	87.89
292.702	84.59
293.169	82.19
293.637	82.79
294.104	82.29
294.571	81.69
295.039	82.29
295.506	81.29
295.973	82.79
296.44	83.09
296.908	86.29
297.375	84.29
297.842	84.99
298.309	87.09
298.776	80.09
299.243	83.69
299.71	92.19
300.177	82.49
300.644	86.29
301.111	86.29
301.578	81.59
302.045	86.69
302.512	81.19
302.979	84.39
303.446	82.09
303.913	85.69
304.379	77.09
304.846	87.09
305.313	81.89
305.78	86.19
306.246	88.79
306.713	86.09
307.18	87.29
307.646	87.49
308.113	87.09
308.579	85.59
309.046	79.69
309.512	84.29
309.979	82.09
310.445	89.49
310.912	82.69
311.378	84.89
311.845	86.19
312.311	86.29
312.777	85.39
313.244	86.39
313.71	83.59
314.176	82.79
314.642	85.29
315.109	85.09
315.575	87.69
316.041	83.19
316.507	83.89
316.973	86.49
317.439	88.39
317.905	82.29
318.371	83.69
318.837	82.09
319.303	87.39
319.769	93.09
320.235	84.29
320.701	86.89
321.167	87.69
321.633	77.69
322.099	86.29
322.564	88.09
323.03	90.89
323.496	80.69
323.962	82.09
324.427	84.49
324.893	88.59
325.359	85.49
325.824	84.09
326.29	86.79
326.755	87.69
327.221	83.99
327.686	81.59
328.152	83.69
328.617	81.69
329.083	86.59
329.548	88.59
330.014	81.69
330.479	86.09
330.944	85.39
331.41	87.29
331.875	87.99
332.34	88.19
332.805	86.99
333.271	84.99
333.736	89.49
334.201	88.39
334.666	86.89
335.131	81.29
335.596	88.09
336.061	86.39
336.526	86.19
336.991	79.99
337.456	88.19
337.921	88.39
338.386	81.49
338.851	86.89
339.316	90.19
339.781	93.09
340.246	87.39
340.711	84.19
341.175	87.39
341.64	92.19
342.105	82.39
342.569	85.49
343.034	87.19
343.499	82.69
343.963	90.89
344.428	85.19
344.893	90.29
345.357	83.99
345.822	82.79
346.286	90.69
346.751	83.69
347.215	88.39
347.679	79.49
348.144	81.99
348.608	84.49
349.073	91.49
349.537	85.99
350.001	81.89
350.465	86.09
350.93	78.29
351.394	83.89
351.858	86.39
352.322	86.69
352.786	85.19
353.25	88.29
353.715	89.79
354.179	83.79
354.643	90.29
355.107	83.79
355.571	87.19
356.035	84.59
356.498	91.49
356.962	91.69
357.426	88.49
357.89	90.29
358.354	83.59
358.818	85.09
359.281	86.69
359.745	92.99
360.209	81.49
360.673	88.89
361.136	85.59
361.6	82.89
362.064	85.49
362.527	87.79
362.991	87.99
363.454	86.39
363.918	83.09
364.381	80.09
364.845	88.29
365.308	86.89
365.772	81.69
366.235	86.79
366.698	85.69
367.162	88.09
367.625	83.29
368.088	86.59
368.552	83.49
369.015	83.79
369.478	87.19
369.941	83.59
370.404	85.59
370.867	85.29
371.331	88.69
371.794	84.39
372.257	84.89
372.72	84.89
373.183	87.89
373.646	86.59
374.109	84.89
374.572	85.79
375.035	80.79
375.497	90.09
375.96	84.79
376.423	82.29
376.886	85.79
377.349	81.29
377.811	83.59
378.274	85.19
378.737	88.19
379.199	83.09
379.662	90.99
380.125	84.89
380.587	84.89
381.05	89.19
381.512	86.19
381.975	85.29
382.437	81.39
382.9	83.89
383.362	84.79
383.825	86.19
384.287	87.89
384.75	89.89
385.212	86.79
385.674	87.09
386.136	79.79
386.599	85.99
387.061	87.09
387.523	84.59
387.985	87.69
388.447	80.39
388.91	92.99
389.372	86.09
389.834	86.09
390.296	84.99
390.758	87.39
391.22	87.99
391.682	85.59
392.144	82.29
392.606	82.69
393.068	90.39
393.529	83.19
393.991	85.19
394.453	85.79
394.915	81.79
395.377	85.99
395.838	85.69
396.3	86.59
396.762	81.29
397.224	85.69
397.685	84.09
398.147	85.39
398.608	88.09
399.07	87.29
399.531	91.29
399.993	84.39
400.454	88.09
400.916	85.49
401.377	85.89
401.839	85.49
402.3	84.29
402.762	88.19
403.223	87.29
403.684	85.49
404.145	87.89
404.607	84.19
405.068	83.99
405.529	89.69
405.99	86.69
406.451	80.89
406.913	85.19
407.374	88.19
407.835	86.89
408.296	89.39
408.757	90.09
409.218	84.59
409.679	89.49
410.14	85.59
410.601	79.29
411.062	84.89
411.522	83.09
411.983	81.79
412.444	84.19
412.905	87.39
413.366	89.29
413.826	83.69
414.287	84.69
414.748	84.59
415.208	86.29
415.669	84.29
416.13	90.29
416.59	84.79
417.051	86.09
417.511	85.69
417.972	88.79
418.432	82.39
418.893	82.99
419.353	81.79
419.814	87.19
420.274	89.69
420.734	83.29
421.195	84.39
421.655	85.39
422.115	84.79
422.576	83.99
423.036	81.39
423.496	82.89
423.956	86.29
424.416	86.79
424.876	82.49
425.336	82.99
425.797	82.89
426.257	85.09
426.717	82.89
427.177	85.69
427.637	92.79
428.097	81.59
428.556	86.89
429.016	84.39
429.476	86.79
429.936	84.09
430.396	83.89
430.856	83.39
431.315	82.79
431.775	87.39
432.235	84.49
432.694	92.69
433.154	81.79
433.614	80.89
434.073	86.29
434.533	83.39
434.993	83.59
435.452	83.59
435.912	84.69
436.371	84.19
436.83	85.59
437.29	84.29
437.749	84.49
438.209	87.99
438.668	83.89
439.127	87.89
439.587	85.19
440.046	84.39
440.505	89.09
440.964	85.19
441.424	88.09
441.883	84.79
442.342	87.69
442.801	86.19
443.26	81.89
443.719	80.29
444.178	85.09
444.637	84.69
445.096	86.19
445.555	82.49
446.014	81.59
446.473	87.49
446.932	78.89
447.391	86.79
447.849	86.79
448.308	88.29
448.767	84.09
449.226	85.79
449.685	83.39
450.143	86.09
450.602	80.69
451.061	85.59
451.519	90.79
451.978	87.69
452.436	83.39
452.895	83.99
453.353	82.99
453.812	91.09
454.27	83.19
454.729	84.89
455.187	84.39
455.646	87.79
456.104	82.59
456.562	84.09
457.021	84.99
457.479	78.99
457.937	82.29
458.395	86.19
458.854	83.69
459.312	88.89
459.77	85.29
460.228	81.99
460.686	90.19
461.144	81.19
461.602	81.59
462.06	82.69
462.518	83.29
462.976	82.89
463.434	82.29
463.892	86.59
464.35	82.29
464.808	82.89
465.266	86.09
465.724	89.59
466.181	81.49
466.639	80.59
467.097	86.79
467.555	82.89
468.012	85.89
468.47	85.79
468.928	86.99
469.385	85.79
469.843	82.59
470.3	87.79
470.758	81.99
471.215	85.89
471.673	86.49
472.13	89.99
472.588	83.49
473.045	88.79
473.503	86.69
473.96	79.59
474.417	86.99
474.875	81.99
475.332	85.69
475.789	81.89
476.246	86.39
476.704	87.29
477.161	89.79
477.618	82.19
478.075	86.69
478.532	87.79
478.989	81.09
479.446	86.69
479.903	86.89
480.36	86.39
480.817	82.69
481.274	84.99
481.731	88.39
482.188	84.09
482.645	85.19
483.102	81.39
483.558	85.49
484.015	86.69
484.472	82.69
484.929	80.49
485.385	87.99
485.842	81.09
486.299	78.99
486.755	85.99
487.212	81.49
487.668	84.39
488.125	84.89
488.582	87.59
489.038	77.89
489.494	82.79
489.951	82.49
490.407	81.79
490.864	80.39
491.32	84.59
491.776	86.59
492.233	84.49
492.689	82.09
493.145	80.19
493.602	82.39
494.058	84.19
494.514	83.59
494.97	87.09
495.426	88.59
495.882	84.79
496.338	81.29
496.794	75.99
497.251	83.19
497.707	82.89
498.163	85.79
498.618	80.09
499.074	83.29
499.53	80.69
499.986	81.79
500.442	80.89
500.898	85.49
501.354	80.09
501.809	82.59
502.265	83.69
502.721	83.39
503.177	83.99
503.632	85.59
504.088	85.09
504.543	83.29
504.999	86.59
505.455	82.69
505.91	77.49
506.366	84.09
506.821	88.19
507.277	87.89
507.732	82.19
508.187	86.69
508.643	80.29
509.098	84.09
509.553	83.79
510.009	82.49
510.464	83.59
510.919	77.19
511.375	82.59
511.83	81.19
512.285	85.49
512.74	82.09
513.195	85.99
513.65	82.79
514.105	90.49
514.56	85.69
515.015	79.19
515.47	84.19
515.925	78.89
516.38	83.89
516.835	84.19
517.29	86.09
517.745	85.79
518.2	86.49
518.655	83.19
519.109	80.79
519.564	86.79
520.019	86.09
520.474	78.99
520.928	83.79
521.383	87.39
521.838	84.59
522.292	86.59
522.747	82.19
523.201	86.29
523.656	85.49
524.11	82.09
524.565	85.79
525.019	78.79
525.474	83.99
525.928	83.09
526.382	85.59
526.837	84.39
527.291	79.69
527.745	88.49
528.2	79.79
528.654	82.69
529.108	81.69
529.562	81.79
530.016	79.69
530.47	87.89
530.925	85.29
531.379	87.19
531.833	85.89
532.287	80.99
532.741	83.89
533.195	86.89
533.649	86.69
534.103	90.69
534.556	83.59
535.01	86.29
535.464	87.89
535.918	85.09
536.372	78.89
536.826	77.69
537.279	81.29
537.733	83.29
538.187	82.99
538.64	79.99
539.094	86.69
539.548	86.19
540.001	83.79
540.455	82.89
540.908	85.79
541.362	84.89
541.815	85.59
542.269	86.99
542.722	84.99
543.175	88.39
543.629	80.19
544.082	83.89
544.536	81.49
544.989	82.89
545.442	83.39
545.895	85.69
546.349	86.69
546.802	83.59
547.255	80.09
547.708	80.89
548.161	86.59
548.614	80.99
549.067	81.99
549.52	80.79
549.973	80.09
550.426	85.29
550.879	78.39
551.332	82.09
551.785	82.19
552.238	81.99
552.691	84.09
553.144	82.79
553.596	81.39
554.049	82.39
554.502	81.99
554.955	82.59
555.407	81.19
555.86	83.29
556.313	82.29
556.765	85.69
557.218	81.99
557.67	82.29
558.123	79.89
558.576	80.19
559.028	81.19
559.48	86.89
559.933	82.39
560.385	81.49
560.838	82.19
561.29	81.29
561.742	88.29
562.195	85.29
562.647	87.39
563.099	81.89
563.551	82.79
564.004	81.49
564.456	86.09
564.908	82.99
565.36	82.59
565.812	80.39
566.264	79.79
566.716	83.79
567.168	74.59
567.62	87.79
568.072	79.89
568.524	78.39
568.976	83.79
569.428	80.39
569.88	86.59
570.332	81.19
570.784	83.89
571.235	79.79
571.687	89.29
572.139	83.19
572.59	83.49
573.042	89.59
573.494	80.89
573.945	86.19
574.397	85.49
574.849	83.79
575.3	83.29
575.752	81.79
576.203	81.89
576.655	88.29
577.106	89.29
577.557	82.89
578.009	80.99
578.46	83.49
578.912	81.89
579.363	83.89
579.814	87.49
580.265	85.59
580.717	89.79
581.168	87.89
581.619	80.19
582.07	80.69
582.521	83.29
582.972	81.99
583.423	82.89
583.875	84.49
584.326	88.29
584.777	87.49
585.227	85.49
585.678	84.59
586.129	79.19
586.58	82.59
587.031	80.59
587.482	81.09
587.933	85.89
588.384	81.49
588.834	81.59
589.285	84.39
589.736	81.39
590.186	83.39
590.637	82.29
591.088	83.69
591.538	77.79
591.989	85.89
592.439	83.09
592.89	78.79
593.34	85.89
593.791	81.09
594.241	87.69
594.692	82.69
595.142	82.09
595.593	85.39
596.043	78.29
596.493	83.79
596.943	82.09
597.394	88.59
597.844	80.79
598.294	87.19
598.744	77.19
599.195	85.19
599.645	83.49
600.095	85.89
600.545	86.79
600.995	82.29
601.445	85.79
601.895	84.79
602.345	85.19
602.795	80.79
603.245	86.29
603.695	84.09
604.145	79.69
604.594	88.79
605.044	83.39
605.494	84.39
605.944	87.09
606.393	90.29
606.843	85.29
607.293	86.19
607.743	83.29
608.192	86.39
608.642	84.99
609.091	81.99
609.541	79.49
609.99	85.39
610.44	82.09
610.889	82.69
611.339	85.39
611.788	83.39
612.238	86.79
612.687	83.39
613.136	81.19
613.586	86.09
614.035	85.29
614.484	84.29
614.933	82.69
615.383	81.99
615.832	84.29
616.281	78.89
616.73	85.39
617.179	84.69
617.628	85.09
618.077	86.09
618.526	85.39
618.975	87.29
619.424	84.39
619.873	80.29
620.322	84.59
620.771	83.29
621.22	86.99
621.669	89.39
622.118	84.39
622.567	86.59
623.015	80.09
623.464	79.79
623.913	82.79
624.361	82.99
624.81	83.99
625.259	81.89
625.707	81.49
626.156	86.89
626.604	82.89
627.053	84.99
627.501	82.79
627.95	82.59
628.398	74.59
628.847	85.29
629.295	82.39
629.744	84.19
630.192	81.99
630.64	85.29
631.089	83.99
631.537	81.79
631.985	84.39
632.433	83.59
632.881	88.79
633.33	81.79
633.778	82.99
634.226	78.79
634.674	82.19
635.122	84.99
635.57	80.69
636.018	83.09
636.466	85.99
636.914	85.99
637.362	79.09
637.81	87.09
638.258	82.89
638.705	81.29
639.153	85.99
639.601	85.09
640.049	85.99
640.497	78.79
640.944	84.99
641.392	84.39
641.84	90.19
642.287	83.29
642.735	85.59
643.182	81.59
643.63	83.09
644.078	86.29
644.525	77.69
644.973	84.69
645.42	86.69
645.867	82.09
646.315	84.19
646.762	89.69
647.21	89.09
647.657	85.49
648.104	80.69
648.551	79.69
648.999	86.29
649.446	78.19
649.893	84.89
650.34	84.89
650.787	83.89
651.234	84.79
651.682	81.19
652.129	83.89
652.576	81.39
653.023	85.19
653.47	87.79
653.917	84.79
654.363	79.99
654.81	86.39
655.257	85.59
655.704	83.19
656.151	84.79
656.598	80.49
657.044	86.99
657.491	84.39
657.938	87.99
658.385	85.39
658.831	79.09
659.278	85.49
659.724	88.29
660.171	85.89
660.618	81.69
661.064	87.29
661.511	85.59
661.957	84.19
662.404	76.39
662.85	82.69
663.296	84.49
663.743	80.89
664.189	81.99
664.635	82.39
665.082	88.39
665.528	76.49
665.974	81.89
666.42	83.99
666.867	86.99
667.313	84.89
667.759	86.89
668.205	87.29
668.651	83.19
669.097	88.19
669.543	86.49
669.989	81.29
670.435	79.79
670.881	81.49
671.327	88.79
671.773	84.29
672.219	84.59
672.665	83.69
673.11	86.39
673.556	81.49
674.002	84.39
674.448	83.99
674.893	83.39
675.339	86.09
675.785	83.69
676.23	80.99
676.676	85.29
677.122	90.49
677.567	86.19
678.013	83.19
678.458	86.29
678.904	85.39
679.349	81.59
679.794	86.69
680.24	87.69
680.685	84.39
681.131	86.19
681.576	84.59
682.021	88.49
682.466	87.39
682.912	85.39
683.357	83.99
683.802	87.39
684.247	85.79
684.692	82.89
685.137	87.89
685.583	84.59
686.028	82.99
686.473	83.79
686.918	82.59
687.363	82.79
687.807	82.79
688.252	82.89
688.697	82.19
689.142	84.69
689.587	84.99
690.032	82.69
690.477	86.39
690.921	85.59
691.366	86.09
691.811	85.19
692.255	87.39
692.7	85.59
693.145	89.29
693.589	85.59
694.034	85.69
694.478	82.49
694.923	78.19
695.367	86.49
695.812	82.39
696.256	86.39
696.701	84.29
697.145	85.89
697.59	83.19
698.034	80.19
698.478	86.19
698.922	78.89
699.367	88.29
699.811	82.39
700.255	85.39
700.699	87.79
701.143	83.59
701.588	85.09
702.032	88.59
702.476	88.59
702.92	85.49
703.364	84.39
703.808	83.59
704.252	83.89
704.696	84.99
705.14	86.89
705.584	84.69
706.027	81.99
706.471	84.59
706.915	84.49
707.359	85.39
707.803	84.29
708.246	88.99
708.69	83.79
709.134	87.99
709.577	86.59
710.021	83.09
710.465	90.59
710.908	87.49
711.352	83.09
711.795	84.09
712.239	84.79
712.682	81.09
713.126	82.69
713.569	81.79
714.012	82.19
714.456	89.39
714.899	83.49
715.342	84.09
715.786	81.69
716.229	82.19
716.672	87.29
717.115	85.19
717.558	84.39
718.002	82.79
718.445	83.19
718.888	82.89
719.331	85.89
719.774	88.69
720.217	84.89
720.66	80.09
721.103	81.99
721.546	84.99
721.989	88.99
722.432	84.29
722.874	82.09
723.317	84.69
723.76	84.59
724.203	78.19
724.645	83.79
725.088	81.59
725.531	81.19
725.974	89.99
726.416	88.39
726.859	87.39
727.301	86.49
727.744	87.09
728.187	88.39
728.629	84.89
729.071	84.89
729.514	84.79
729.956	84.99
730.399	87.09
730.841	82.29
731.283	90.39
731.726	82.79
732.168	86.39
732.61	86.19
733.053	81.29
733.495	88.99
733.937	83.09
734.379	87.19
734.821	86.79
735.263	88.49
735.705	84.99
736.148	83.49
736.59	88.79
737.032	86.69
737.474	88.79
737.916	83.79
738.357	78.69
738.799	87.79
739.241	87.09
739.683	85.59
740.125	83.39
740.567	83.79
741.008	84.19
741.45	89.99
741.892	84.09
742.334	89.19
742.775	86.89
743.217	85.69
743.658	82.39
744.1	84.39
744.542	88.89
744.983	85.19
745.425	81.79
745.866	86.09
746.307	86.49
746.749	85.89
747.19	88.19
747.632	84.29
748.073	81.09
748.514	90.89
748.956	86.19
749.397	78.69
749.838	81.39
750.279	87.29
750.72	86.49
751.162	87.49
751.603	80.69
752.044	83.29
752.485	85.59
752.926	84.99
753.367	84.59
753.808	81.59
754.249	85.39
754.69	89.29
755.131	87.09
755.572	84.39
756.013	85.49
756.453	82.19
756.894	91.09
757.335	85.99
757.776	78.79
758.216	85.39
758.657	86.79
759.098	82.19
759.538	88.89
759.979	88.79
760.42	89.69
760.86	87.99
761.301	83.89
761.741	86.49
762.182	86.69
762.622	85.39
763.063	82.19
763.503	85.39
763.943	87.79
764.384	87.59
764.824	86.29
765.264	88.79
765.705	88.79
766.145	85.59
766.585	84.49
767.025	85.69
767.465	90.49
767.906	85.39
768.346	81.59
768.786	86.99
769.226	82.39
769.666	85.49
770.106	84.99
770.546	86.49
770.986	87.89
771.426	86.89
771.866	83.59
772.306	89.69
772.745	86.69
773.185	86.19
773.625	88.29
774.065	84.19
774.505	87.19
774.944	81.79
775.384	92.39
775.824	87.29
776.263	84.99
776.703	82.69
777.142	84.19
777.582	84.69
778.021	90.79
778.461	83.89
778.9	83.99
779.34	90.69
779.779	84.19
780.219	91.59
780.658	86.39
781.097	88.09
781.537	93.09
781.976	85.29
782.415	86.29
782.855	83.29
783.294	86.79
783.733	84.39
784.172	89.69
784.611	85.29
785.05	85.29
785.489	91.29
785.928	88.59
786.367	81.19
786.806	82.39
787.245	88.89
787.684	88.69
788.123	92.79
