Data from DH-3PlusCalLight-DeuteriumHalogen_HRD10391_13-38-34-990.txt Node
Date: Thu Feb 15 13:38:34 EST 2018
User: Ender
Spectrometer: HR+D1039
Trigger mode: 0
Integration Time (sec): 2.730000E-2
Scans to average: 10
Electric dark correction enabled: true
Nonlinearity correction enabled: false
Boxcar width: 0
XAxis mode: Wavelengths
Number of Pixels in Spectrum: 2048
>>>>>Begin Spectral Data<<<<<
187.836	-0.2
188.309	-0.2
188.782	-0.2
189.255	-2
189.728	-8.1
190.201	-6.2
190.674	-6.4
191.147	-6.8
191.619	-5
192.092	-1.8
192.565	-2.9
193.038	-2.9
193.511	-4.3
193.984	1.5
194.456	5.8
194.929	8.3
195.402	14.1
195.874	16.9
196.347	20.2
196.82	21.5
197.292	25.9
197.765	28.3
198.237	37.9
198.71	35.6
199.182	44.3
199.655	44
200.127	52.1
200.6	56.3
201.072	57
201.544	63
202.017	67.9
202.489	71.7
202.961	63.7
203.433	70.9
203.906	71.1
204.378	71.6
204.85	79.9
205.322	81.3
205.794	83.1
206.266	82.5
206.739	83
207.211	85.9
207.683	85.2
208.155	84
208.627	83.6
209.099	80.4
209.57	83
210.042	84
210.514	87.3
210.986	88.7
211.458	86.2
211.93	82.6
212.402	87.3
212.873	88.1
213.345	87.3
213.817	83.4
214.288	89.7
214.76	83.4
215.232	82.2
215.703	84
216.175	78.4
216.646	82.3
217.118	81.9
217.589	86.2
218.061	81.6
218.532	86.7
219.004	84.5
219.475	79.6
219.946	79.5
220.418	84.2
220.889	84.9
221.36	82.7
221.832	81
222.303	84.4
222.774	84.3
223.245	89.8
223.717	88
224.188	87.2
224.659	91.9
225.13	89
225.601	92.5
226.072	96.5
226.543	102.4
227.014	103
227.485	98.1
227.956	101.7
228.427	104.2
228.898	116.3
229.369	112
229.839	113.2
230.31	116.1
230.781	118.4
231.252	115.5
231.722	117.1
232.193	116.4
232.664	117.5
233.135	120
233.605	120.1
234.076	114.7
234.546	116.8
235.017	107.4
235.487	107.2
235.958	109.7
236.428	108.6
236.899	101.5
237.369	96.4
237.84	96.4
238.31	95.6
238.78	96.3
239.251	97.6
239.721	92.7
240.191	82.9
240.662	86.4
241.132	87.6
241.602	88.2
242.072	92.7
242.542	86.1
243.013	81.2
243.483	79.2
243.953	81.7
244.423	83.6
244.893	85.1
245.363	88.5
245.833	86.7
246.303	85.1
246.773	84.5
247.243	87.5
247.712	88.1
248.182	85.2
248.652	84.3
249.122	86.1
249.592	89.4
250.061	87.1
250.531	88.2
251.001	87
251.471	94.9
251.94	93.4
252.41	87.8
252.879	91.7
253.349	88.9
253.818	99.2
254.288	98.5
254.757	101.6
255.227	100.5
255.696	111.3
256.166	114.4
256.635	113.6
257.105	123
257.574	128.5
258.043	129.8
258.513	139.6
258.982	150.9
259.451	158.8
259.92	168.6
260.389	176.6
260.859	180.5
261.328	189.3
261.797	197.9
262.266	209.9
262.735	220
263.204	229.4
263.673	238.5
264.142	249.8
264.611	258.2
265.08	261.3
265.549	271
266.018	279.7
266.487	280.8
266.955	287.7
267.424	294.7
267.893	304.3
268.362	304.7
268.83	312.6
269.299	314.2
269.768	321.4
270.236	320.8
270.705	335.2
271.174	335.9
271.642	337.7
272.111	338.1
272.579	349.2
273.048	352.6
273.516	346.8
273.985	352.7
274.453	348
274.922	361.7
275.39	344.4
275.858	352
276.327	357.1
276.795	350.2
277.263	351
277.731	356.3
278.2	350
278.668	351.9
279.136	351.9
279.604	352.9
280.072	351.4
280.54	347.8
281.008	344.6
281.477	341.9
281.945	338.1
282.413	337
282.881	341.2
283.348	337.4
283.816	333.5
284.284	333
284.752	333.1
285.22	322.8
285.688	322.2
286.156	319
286.623	314.9
287.091	319
287.559	320.2
288.026	316.5
288.494	316.5
288.962	318.4
289.429	323.5
289.897	321.1
290.364	312
290.832	328.5
291.3	332.4
291.767	330
292.234	336
292.702	338.4
293.169	344.6
293.637	355.6
294.104	356.5
294.571	354.5
295.039	360.8
295.506	363.2
295.973	366.1
296.44	371.2
296.908	370.2
297.375	380.8
297.842	384
298.309	377.4
298.776	384.4
299.243	395.3
299.71	396
300.177	388.8
300.644	388.4
301.111	387.8
301.578	385.7
302.045	385.1
302.512	396.4
302.979	391.7
303.446	393
303.913	387.3
304.379	392.3
304.846	381.2
305.313	381.6
305.78	383.1
306.246	380
306.713	384.7
307.18	382.9
307.646	375.1
308.113	378.9
308.579	371.6
309.046	379.4
309.512	373
309.979	377.1
310.445	369
310.912	368.3
311.378	368.5
311.845	370.1
312.311	365.1
312.777	353.6
313.244	357
313.71	362.5
314.176	363.9
314.642	363.6
315.109	371.9
315.575	365.7
316.041	364.9
316.507	363.7
316.973	363.3
317.439	374.2
317.905	371.4
318.371	375.8
318.837	375.6
319.303	385.6
319.769	387.7
320.235	383.8
320.701	393.7
321.167	390.5
321.633	388.7
322.099	393
322.564	384.7
323.03	397.5
323.496	396.7
323.962	404.6
324.427	400.2
324.893	402.5
325.359	396.4
325.824	405.1
326.29	397.9
326.755	404.2
327.221	406.9
327.686	408.6
328.152	406.1
328.617	396
329.083	401.4
329.548	398.1
330.014	398.9
330.479	388.4
330.944	383.9
331.41	391.1
331.875	377.9
332.34	379.7
332.805	380.7
333.271	373.3
333.736	370.7
334.201	383.6
334.666	364.6
335.131	362.9
335.596	362.8
336.061	354.1
336.526	366.9
336.991	357.2
337.456	358.1
337.921	348.4
338.386	355.7
338.851	365.8
339.316	363.5
339.781	363.9
340.246	363.7
340.711	369.9
341.175	377
341.64	380.7
342.105	380.1
342.569	385.3
343.034	391.7
343.499	380.8
343.963	404
344.428	391.2
344.893	400.9
345.357	402.6
345.822	413.4
346.286	415.2
346.751	420.8
347.215	418.1
347.679	424.8
348.144	433
348.608	438.6
349.073	436.6
349.537	436.7
350.001	435.3
350.465	441.2
350.93	441.6
351.394	437.3
351.858	436.9
352.322	438.4
352.786	439.7
353.25	434.6
353.715	438.4
354.179	436.3
354.643	434
355.107	440.3
355.571	435.2
356.035	438.6
356.498	436.9
356.962	435.4
357.426	437.7
357.89	441.6
358.354	435
358.818	443.5
359.281	440.2
359.745	447.5
360.209	437.3
360.673	451.5
361.136	435
361.6	438.4
362.064	443.5
362.527	443.1
362.991	455
363.454	432.5
363.918	440.6
364.381	439
364.845	447.4
365.308	444.7
365.772	448
366.235	448.7
366.698	446
367.162	443.2
367.625	446.1
368.088	446
368.552	449.4
369.015	444.6
369.478	447.2
369.941	436.5
370.404	444.1
370.867	438.9
371.331	446.7
371.794	444.2
372.257	449.4
372.72	448.8
373.183	447
373.646	460.4
374.109	454.3
374.572	458.8
375.035	467.2
375.497	461.8
375.96	466.4
376.423	473.3
376.886	473.7
377.349	476.9
377.811	476.3
378.274	482.5
378.737	481.3
379.199	485.3
379.662	486
380.125	481.2
380.587	477
381.05	483.4
381.512	484.3
381.975	498.3
382.437	477.7
382.9	490.2
383.362	496.3
383.825	490.4
384.287	489.1
384.75	500
385.212	500.8
385.674	505.5
386.136	505.5
386.599	514.1
387.061	514.5
387.523	516.5
387.985	508.2
388.447	494.3
388.91	501.7
389.372	502.6
389.834	498.6
390.296	505.4
390.758	513.9
391.22	520.2
391.682	533.6
392.144	531.5
392.606	513.9
393.068	518.3
393.529	521.1
393.991	513.5
394.453	515.1
394.915	521.5
395.377	520.6
395.838	531.1
396.3	535.1
396.762	534.7
397.224	551.2
397.685	551.7
398.147	539.9
398.608	533.1
399.07	526.3
399.531	529.6
399.993	534.6
400.454	530.2
400.916	531.7
401.377	530.7
401.839	538.4
402.3	533.8
402.762	545.5
403.223	544.1
403.684	542.4
404.145	550.3
404.607	552.4
405.068	541
405.529	536.9
405.99	536.4
406.451	527.9
406.913	536.8
407.374	539.7
407.835	543.1
408.296	542.3
408.757	546.2
409.218	537.7
409.679	531.8
410.14	536.7
410.601	543.1
411.062	536.9
411.522	551.9
411.983	553.1
412.444	546.3
412.905	545.1
413.366	546.2
413.826	546.6
414.287	549.9
414.748	538.2
415.208	549.5
415.669	554.7
416.13	554.6
416.59	563.4
417.051	550.9
417.511	562.5
417.972	583.5
418.432	577
418.893	593.2
419.353	602.5
419.814	616.9
420.274	612.6
420.734	622.8
421.195	632.5
421.655	611.6
422.115	626.2
422.576	615.8
423.036	631.7
423.496	634.9
423.956	639.7
424.416	627.6
424.876	657.5
425.336	644.2
425.797	657.4
426.257	672.2
426.717	698.5
427.177	675.2
427.637	701.9
428.097	707.5
428.556	724.1
429.016	743.2
429.476	742.6
429.936	757.8
430.396	748.3
430.856	735.9
431.315	741.1
431.775	763.8
432.235	784.8
432.694	807.1
433.154	828.8
433.614	803.2
434.073	833.5
434.533	824.8
434.993	837.8
435.452	856
435.912	847.2
436.371	860.6
436.83	869.5
437.29	880.3
437.749	889.4
438.209	903.9
438.668	907.8
439.127	919.8
439.587	936.8
440.046	941.1
440.505	971.4
440.964	967.8
441.424	991.5
441.883	1007.5
442.342	1006.5
442.801	1010
443.26	1047.8
443.719	1056.9
444.178	1055.5
444.637	1080.9
445.096	1088.5
445.555	1109
446.014	1101.4
446.473	1105.3
446.932	1135.9
447.391	1147.7
447.849	1182.9
448.308	1157
448.767	1166.7
449.226	1200.1
449.685	1206.4
450.143	1226.3
450.602	1261.5
451.061	1239
451.519	1265.6
451.978	1298.2
452.436	1291
452.895	1309
453.353	1301.3
453.812	1314.7
454.27	1350.4
454.729	1362.6
455.187	1392.7
455.646	1379.6
456.104	1403.4
456.562	1401.2
457.021	1457.4
457.479	1398.2
457.937	1435
458.395	1476.1
458.854	1462
459.312	1461.9
459.77	1469.9
460.228	1475
460.686	1522.1
461.144	1518.9
461.602	1488.5
462.06	1506.4
462.518	1515.6
462.976	1523.4
463.434	1520.9
463.892	1510.5
464.35	1500.5
464.808	1502.8
465.266	1519.5
465.724	1531.1
466.181	1538.1
466.639	1508.7
467.097	1559.7
467.555	1593.7
468.012	1558.4
468.47	1561.7
468.928	1578.3
469.385	1580.1
469.843	1620.5
470.3	1605.3
470.758	1636.5
471.215	1639.6
471.673	1657.3
472.13	1689
472.588	1719.7
473.045	1726.7
473.503	1773.1
473.96	1836.8
474.417	1821.1
474.875	1864.7
475.332	1879.1
475.789	1890.9
476.246	1928.1
476.704	1975.1
477.161	2007.3
477.618	2034.5
478.075	2055.5
478.532	2137
478.989	2161.7
479.446	2204.6
479.903	2222.1
480.36	2317.9
480.817	2305.5
481.274	2368.8
481.731	2399.2
482.188	2429.5
482.645	2498.1
483.102	2520.7
483.558	2544.8
484.015	2610.2
484.472	2649.1
484.929	2700
485.385	2714.8
485.842	2720.8
486.299	2805.7
486.755	2820.7
487.212	2850.7
487.668	2858.4
488.125	2891.9
488.582	2864
489.038	2914
489.494	2919.6
489.951	2953.5
490.407	2956.1
490.864	2969.9
491.32	2985.9
491.776	2987.9
492.233	3027.3
492.689	2991.6
493.145	2998.5
493.602	2979.3
494.058	3021.2
494.514	3015.8
494.97	3031.5
495.426	3015.7
495.882	3040.6
496.338	2991.7
496.794	3039.5
497.251	3023.6
497.707	3049.6
498.163	3062.9
498.618	3061.1
499.074	3029.5
499.53	3027.8
499.986	3049.2
500.442	3061.4
500.898	3034.6
501.354	3067.6
501.809	3081.4
502.265	3035
502.721	3052.3
503.177	3055.5
503.632	3067.1
504.088	3064.8
504.543	3053.9
504.999	3057.7
505.455	3071.9
505.91	3057
506.366	3046.4
506.821	3086
507.277	3038.8
507.732	3051.6
508.187	3033.4
508.643	3062.3
509.098	3021.2
509.553	3025.7
510.009	3003.9
510.464	3003.4
510.919	2994.6
511.375	3005
511.83	2988.7
512.285	2986.9
512.74	2985.8
513.195	2957.9
513.65	2933.7
514.105	2924.6
514.56	2914.4
515.015	2924.8
515.47	2913.2
515.925	2883.8
516.38	2895
516.835	2907.6
517.29	2873.9
517.745	2882.2
518.2	2877.4
518.655	2836.3
519.109	2852.4
519.564	2809.8
520.019	2830.7
520.474	2804.9
520.928	2790.1
521.383	2785
521.838	2788.7
522.292	2776.4
522.747	2777.6
523.201	2762.6
523.656	2762.5
524.11	2731.7
524.565	2748.7
525.019	2743.7
525.474	2769.5
525.928	2738.9
526.382	2756.1
526.837	2739.6
527.291	2762.3
527.745	2742.4
528.2	2748.4
528.654	2708.2
529.108	2718.6
529.562	2740.4
530.016	2736.2
530.47	2725.7
530.925	2744.5
531.379	2728.2
531.833	2746.4
532.287	2741.2
532.741	2721.8
533.195	2741.6
533.649	2759.5
534.103	2731.9
534.556	2716.9
535.01	2739.3
535.464	2718.3
535.918	2729.2
536.372	2743
536.826	2742.1
537.279	2710.8
537.733	2742.7
538.187	2749.7
538.64	2720.5
539.094	2722.4
539.548	2735.3
540.001	2728.3
540.455	2716.4
540.908	2707.3
541.362	2704.5
541.815	2705.5
542.269	2711
542.722	2681.5
543.175	2680.6
543.629	2657.1
544.082	2661.1
544.536	2669.5
544.989	2657.2
545.442	2655.8
545.895	2656.9
546.349	2642.6
546.802	2643.8
547.255	2601.7
547.708	2624.2
548.161	2631.2
548.614	2614.6
549.067	2613
549.52	2639.5
549.973	2615.2
550.426	2590.4
550.879	2611.3
551.332	2615.2
551.785	2620.7
552.238	2617
552.691	2593.6
553.144	2625.4
553.596	2617.5
554.049	2610.5
554.502	2615.7
554.955	2602.1
555.407	2616.7
555.86	2635
556.313	2625.5
556.765	2640.9
557.218	2637.7
557.67	2643.8
558.123	2648.9
558.576	2668
559.028	2645.3
559.48	2659.4
559.933	2650.8
560.385	2668.9
560.838	2671.3
561.29	2671.5
561.742	2695.5
562.195	2677.5
562.647	2675.2
563.099	2699
563.551	2684.8
564.004	2705.3
564.456	2696.5
564.908	2714
565.36	2714.6
565.812	2697
566.264	2713.8
566.716	2715.2
567.168	2698.5
567.62	2717.1
568.072	2729.7
568.524	2717.6
568.976	2723.2
569.428	2699.5
569.88	2704.5
570.332	2712.7
570.784	2706
571.235	2681.3
571.687	2701.1
572.139	2682.5
572.59	2697.9
573.042	2678.5
573.494	2683.7
573.945	2677.4
574.397	2632.6
574.849	2660.6
575.3	2665.6
575.752	2661.8
576.203	2629.7
576.655	2648.7
577.106	2635.1
577.557	2617
578.009	2601.6
578.46	2626.1
578.912	2611.1
579.363	2613.9
579.814	2599.7
580.265	2593.8
580.717	2603.9
581.168	2612.6
581.619	2607.3
582.07	2610.2
582.521	2581.6
582.972	2598.1
583.423	2611.4
583.875	2596.4
584.326	2599.5
584.777	2594.7
585.227	2594.9
585.678	2589.3
586.129	2598.9
586.58	2593.7
587.031	2593.2
587.482	2612
587.933	2588.3
588.384	2604.5
588.834	2576.3
589.285	2604.9
589.736	2626.4
590.186	2605.5
590.637	2621.6
591.088	2609.8
591.538	2622.3
591.989	2624.9
592.439	2613.9
592.89	2614
593.34	2619.4
593.791	2619.8
594.241	2623
594.692	2630.1
595.142	2631.3
595.593	2635.8
596.043	2632.9
596.493	2659.9
596.943	2625.6
597.394	2653.2
597.844	2630.7
598.294	2645.5
598.744	2638.3
599.195	2645
599.645	2659.4
600.095	2660.6
600.545	2656.4
600.995	2665.3
601.445	2640.9
601.895	2694.2
602.345	2662.3
602.795	2653
603.245	2661.3
603.695	2660.5
604.145	2687.4
604.594	2687.5
605.044	2672
605.494	2686.8
605.944	2674.7
606.393	2682.7
606.843	2667.9
607.293	2667.1
607.743	2673.7
608.192	2691.8
608.642	2682.9
609.091	2679
609.541	2675
609.99	2683.4
610.44	2683.5
610.889	2708
611.339	2691.5
611.788	2653.4
612.238	2690.6
612.687	2674
613.136	2684.9
613.586	2693.1
614.035	2671.9
614.484	2683
614.933	2680.2
615.383	2670.9
615.832	2666.2
616.281	2664.7
616.73	2660.9
617.179	2678.2
617.628	2676.6
618.077	2648.4
618.526	2668.1
618.975	2664.1
619.424	2631.4
619.873	2665.4
620.322	2642
620.771	2657.5
621.22	2648
621.669	2652.4
622.118	2666.4
622.567	2652.5
623.015	2646.2
623.464	2654.9
623.913	2665.5
624.361	2672.2
624.81	2658.2
625.259	2661.6
625.707	2645.3
626.156	2625.9
626.604	2654.9
627.053	2632.3
627.501	2617
627.95	2620.1
628.398	2671
628.847	2597.2
629.295	2616.5
629.744	2601.2
630.192	2585.9
630.64	2614.4
631.089	2617.5
631.537	2601.9
631.985	2601.2
632.433	2600.9
632.881	2606.9
633.33	2600.8
633.778	2580
634.226	2570.5
634.674	2567
635.122	2573.5
635.57	2558.9
636.018	2585.6
636.466	2549.8
636.914	2554.7
637.362	2580.3
637.81	2558.2
638.258	2558
638.705	2537.5
639.153	2569.2
639.601	2536.7
640.049	2540.2
640.497	2530.4
640.944	2532.7
641.392	2529.6
641.84	2535.9
642.287	2526.7
642.735	2516.8
643.182	2517.9
643.63	2525.6
644.078	2530.4
644.525	2514.8
644.973	2510.2
645.42	2525.8
645.867	2520.7
646.315	2488.9
646.762	2508.9
647.21	2495.5
647.657	2500.6
648.104	2499.1
648.551	2464.7
648.999	2496.4
649.446	2504
649.893	2480
650.34	2475
650.787	2497.9
651.234	2486.9
651.682	2502.1
652.129	2481.7
652.576	2470.3
653.023	2471.9
653.47	2466.2
653.917	2487.7
654.363	2462.7
654.81	2508.4
655.257	2492.4
655.704	2484
656.151	2473.5
656.598	2467
657.044	2434.9
657.491	2447.2
657.938	2444.8
658.385	2439.7
658.831	2455.9
659.278	2430.2
659.724	2422.7
660.171	2440.1
660.618	2404.4
661.064	2416
661.511	2424.9
661.957	2409.8
662.404	2399.1
662.85	2432.8
663.296	2406.1
663.743	2398.3
664.189	2400.1
664.635	2396.5
665.082	2389.5
665.528	2388
665.974	2374.7
666.42	2380.1
666.867	2385.1
667.313	2353.3
667.759	2367.9
668.205	2360.3
668.651	2344.7
669.097	2342.3
669.543	2345.5
669.989	2328.1
670.435	2354.6
670.881	2327.6
671.327	2305.9
671.773	2337.8
672.219	2312.1
672.665	2313.8
673.11	2314
673.556	2289.6
674.002	2300.2
674.448	2279.3
674.893	2265
675.339	2274.7
675.785	2257.3
676.23	2240.2
676.676	2256.6
677.122	2241.6
677.567	2224.7
678.013	2211.5
678.458	2214.2
678.904	2208.5
679.349	2193.5
679.794	2188.5
680.24	2177.9
680.685	2168.6
681.131	2158.2
681.576	2145.5
682.021	2133.4
682.466	2119
682.912	2124.4
683.357	2109.7
683.802	2119.3
684.247	2092.8
684.692	2095.7
685.137	2080.9
685.583	2075.4
686.028	2063.4
686.473	2053.3
686.918	2061.6
687.363	2042.1
687.807	2020.9
688.252	2019.1
688.697	2031.7
689.142	2025.7
689.587	2012.7
690.032	2011.3
690.477	1988.9
690.921	1985.3
691.366	1971.5
691.811	1970.4
692.255	1954.7
692.7	1960
693.145	1961.6
693.589	1953.6
694.034	1938.3
694.478	1937.8
694.923	1941.2
695.367	1927
695.812	1911
696.256	1912.3
696.701	1914.8
697.145	1915.1
697.59	1889.5
698.034	1889.6
698.478	1874.5
698.922	1889.9
699.367	1883.7
699.811	1869.1
700.255	1871.7
700.699	1861.9
701.143	1838.2
701.588	1836.3
702.032	1841.2
702.476	1844.5
702.92	1848.9
703.364	1817.6
703.808	1829.6
704.252	1829.7
704.696	1812.5
705.14	1801.9
705.584	1811.4
706.027	1813.6
706.471	1812.4
706.915	1800.9
707.359	1787.1
707.803	1778
708.246	1772.5
708.69	1774.5
709.134	1783.9
709.577	1752.2
710.021	1749.4
710.465	1746.9
710.908	1745.2
711.352	1740.6
711.795	1739.9
712.239	1738.8
712.682	1742.7
713.126	1726.3
713.569	1717.3
714.012	1710.4
714.456	1711.9
714.899	1706.3
715.342	1711.8
715.786	1699.2
716.229	1701.2
716.672	1696.3
717.115	1693
717.558	1682.5
718.002	1670.9
718.445	1671.9
718.888	1676.7
719.331	1652.8
719.774	1665.9
720.217	1654.9
720.66	1658
721.103	1631.9
721.546	1639
721.989	1636.7
722.432	1647.7
722.874	1631.5
723.317	1626.7
723.76	1625.1
724.203	1617.2
724.645	1619.5
725.088	1615.8
725.531	1620.5
725.974	1616.6
726.416	1600.4
726.859	1598.6
727.301	1603.7
727.744	1598.6
728.187	1583.8
728.629	1571.2
729.071	1576.9
729.514	1566.2
729.956	1566.8
730.399	1558.4
730.841	1566
731.283	1567.7
731.726	1526.4
732.168	1524.1
732.61	1540.4
733.053	1524.6
733.495	1514.6
733.937	1513.8
734.379	1525.5
734.821	1504.7
735.263	1508.7
735.705	1487
736.148	1488.4
736.59	1487
737.032	1486.8
737.474	1481
737.916	1474.6
738.357	1486.8
738.799	1459.1
739.241	1468
739.683	1461.7
740.125	1448.3
740.567	1461.3
741.008	1457
741.45	1440.3
741.892	1447.4
742.334	1428.5
742.775	1434
743.217	1408.3
743.658	1425.4
744.1	1403.3
744.542	1412.2
744.983	1385.3
745.425	1398.2
745.866	1385.5
746.307	1388.1
746.749	1377.4
747.19	1375.7
747.632	1376.1
748.073	1358.9
748.514	1364.6
748.956	1357.6
749.397	1345.4
749.838	1345.2
750.279	1336.9
750.72	1331.2
751.162	1329.9
751.603	1312.8
752.044	1320.9
752.485	1297.4
752.926	1306.1
753.367	1310.5
753.808	1288.6
754.249	1298.1
754.69	1291.3
755.131	1293.1
755.572	1290.6
756.013	1287
756.453	1282.9
756.894	1263.7
757.335	1266
757.776	1256.4
758.216	1274.3
758.657	1269.6
759.098	1271.8
759.538	1263.7
759.979	1246.9
760.42	1233.8
760.86	1249.5
761.301	1250.4
761.741	1247.4
762.182	1227
762.622	1219.1
763.063	1226.1
763.503	1215.9
763.943	1216.5
764.384	1206.6
764.824	1197
765.264	1214.7
765.705	1196.4
766.145	1183.8
766.585	1198.5
767.025	1192.5
767.465	1190.9
767.906	1177.3
768.346	1167.7
768.786	1183
769.226	1163.2
769.666	1153.9
770.106	1168.8
770.546	1158.6
770.986	1143.4
771.426	1152.1
771.866	1154.2
772.306	1136.3
772.745	1128.2
773.185	1132.9
773.625	1130.2
774.065	1129.7
774.505	1122.2
774.944	1122.5
775.384	1108.2
775.824	1103.5
776.263	1114.4
776.703	1094.3
777.142	1096.3
