Data from DH-3PlusCalLight-Background_HRD10391_13-40-44-120.txt Node
Date: Thu Feb 15 13:40:44 EST 2018
User: Ender
Spectrometer: HR+D1039
Trigger mode: 0
Integration Time (sec): 2.730000E-2
Scans to average: 10
Electric dark correction enabled: true
Nonlinearity correction enabled: false
Boxcar width: 0
XAxis mode: Wavelengths
Number of Pixels in Spectrum: 2048
>>>>>Begin Spectral Data<<<<<
187.836	1.21
188.309	1.21
188.782	1.21
189.255	-2.99
189.728	-5.29
190.201	-8.39
190.674	-6.39
191.147	-8.59
191.619	-7.39
192.092	-3.29
192.565	-6.39
193.038	-1.89
193.511	-0.29
193.984	3.61
194.456	9.71
194.929	9.61
195.402	11.11
195.874	15.61
196.347	16.41
196.82	18.41
197.292	26.21
197.765	31.21
198.237	41.71
198.71	30.51
199.182	39.01
199.655	47.01
200.127	52.81
200.6	53.81
201.072	55.01
201.544	61.91
202.017	66.51
202.489	65.31
202.961	69.41
203.433	72.01
203.906	67.91
204.378	74.11
204.85	73.31
205.322	80.51
205.794	75.61
206.266	80.01
206.739	77.91
207.211	80.11
207.683	79.71
208.155	85.51
208.627	83.31
209.099	81.51
209.57	84.91
210.042	85.11
210.514	84.31
210.986	81.51
211.458	85.91
211.93	83.91
212.402	74.31
212.873	77.21
213.345	79.61
213.817	80.11
214.288	81.71
214.76	77.01
215.232	84.01
215.703	87.11
216.175	76.21
216.646	76.61
217.118	80.41
217.589	77.61
218.061	75.81
218.532	79.91
219.004	74.81
219.475	73.71
219.946	74.11
220.418	76.41
220.889	73.11
221.36	72.41
221.832	71.51
222.303	76.41
222.774	76.71
223.245	81.21
223.717	78.41
224.188	77.01
224.659	71.61
225.13	75.31
225.601	76.31
226.072	75.71
226.543	77.81
227.014	78.31
227.485	73.91
227.956	79.61
228.427	72.31
228.898	72.31
229.369	74.11
229.839	80.51
230.31	77.81
230.781	73.01
231.252	75.61
231.722	74.91
232.193	84.11
232.664	74.61
233.135	74.51
233.605	80.41
234.076	74.71
234.546	78.11
235.017	75.11
235.487	73.81
235.958	78.81
236.428	77.51
236.899	76.91
237.369	77.81
237.84	77.51
238.31	78.01
238.78	76.91
239.251	73.11
239.721	74.11
240.191	73.21
240.662	78.41
241.132	78.91
241.602	81.21
242.072	80.01
242.542	74.41
243.013	80.31
243.483	76.01
243.953	77.51
244.423	79.91
244.893	77.51
245.363	82.81
245.833	75.41
246.303	78.71
246.773	78.01
247.243	82.21
247.712	76.81
248.182	80.41
248.652	76.41
249.122	79.21
249.592	82.81
250.061	78.41
250.531	79.81
251.001	80.91
251.471	81.61
251.94	76.81
252.41	82.11
252.879	79.01
253.349	77.61
253.818	79.71
254.288	76.71
254.757	81.31
255.227	79.71
255.696	78.71
256.166	76.41
256.635	76.41
257.105	76.41
257.574	78.01
258.043	79.41
258.513	81.91
258.982	81.31
259.451	77.71
259.92	81.71
260.389	80.11
260.859	80.61
261.328	82.31
261.797	77.91
262.266	78.41
262.735	80.11
263.204	83.01
263.673	77.71
264.142	81.81
264.611	81.71
265.08	81.91
265.549	84.61
266.018	79.91
266.487	80.11
266.955	77.71
267.424	81.51
267.893	79.81
268.362	83.71
268.83	79.31
269.299	70.51
269.768	82.21
270.236	79.21
270.705	81.01
271.174	74.31
271.642	83.21
272.111	79.61
272.579	77.81
273.048	75.91
273.516	81.11
273.985	86.71
274.453	83.11
274.922	83.21
275.39	77.51
275.858	83.71
276.327	79.11
276.795	81.51
277.263	79.11
277.731	84.21
278.2	78.51
278.668	76.81
279.136	82.71
279.604	78.21
280.072	79.21
280.54	80.41
281.008	78.11
281.477	81.11
281.945	80.51
282.413	84.21
282.881	80.71
283.348	79.51
283.816	74.21
284.284	79.21
284.752	88.41
285.22	89.01
285.688	84.71
286.156	81.91
286.623	81.81
287.091	81.51
287.559	80.21
288.026	82.51
288.494	77.81
288.962	85.21
289.429	84.41
289.897	79.81
290.364	85.31
290.832	82.91
291.3	82.61
291.767	78.31
292.234	82.31
292.702	79.71
293.169	83.21
293.637	82.61
294.104	76.81
294.571	82.41
295.039	83.91
295.506	80.71
295.973	80.21
296.44	84.71
296.908	81.51
297.375	81.01
297.842	78.01
298.309	88.61
298.776	80.81
299.243	73.31
299.71	83.41
300.177	81.21
300.644	80.81
301.111	81.11
301.578	81.51
302.045	77.01
302.512	84.21
302.979	82.31
303.446	85.81
303.913	81.11
304.379	77.41
304.846	79.21
305.313	83.21
305.78	81.71
306.246	79.81
306.713	87.31
307.18	77.91
307.646	86.11
308.113	87.91
308.579	81.41
309.046	86.91
309.512	85.91
309.979	84.71
310.445	84.51
310.912	80.31
311.378	85.91
311.845	79.21
312.311	80.61
312.777	80.11
313.244	80.01
313.71	81.81
314.176	82.91
314.642	75.61
315.109	84.21
315.575	85.41
316.041	76.51
316.507	86.71
316.973	85.71
317.439	81.61
317.905	83.81
318.371	84.91
318.837	85.91
319.303	83.31
319.769	86.01
320.235	83.41
320.701	87.11
321.167	86.91
321.633	82.91
322.099	85.61
322.564	85.31
323.03	83.71
323.496	80.61
323.962	82.91
324.427	83.31
324.893	86.21
325.359	84.71
325.824	81.01
326.29	88.11
326.755	80.71
327.221	85.31
327.686	86.21
328.152	85.81
328.617	83.31
329.083	88.31
329.548	85.41
330.014	80.41
330.479	80.31
330.944	81.01
331.41	85.11
331.875	85.51
332.34	87.11
332.805	84.41
333.271	81.41
333.736	85.41
334.201	85.11
334.666	87.41
335.131	84.31
335.596	85.71
336.061	83.71
336.526	86.11
336.991	80.51
337.456	81.91
337.921	83.21
338.386	84.41
338.851	83.01
339.316	83.51
339.781	83.01
340.246	85.11
340.711	78.41
341.175	80.91
341.64	86.41
342.105	84.41
342.569	81.41
343.034	85.21
343.499	84.11
343.963	85.21
344.428	78.81
344.893	79.01
345.357	88.11
345.822	84.71
346.286	87.11
346.751	81.81
347.215	86.01
347.679	83.21
348.144	81.61
348.608	86.41
349.073	85.71
349.537	83.61
350.001	81.21
350.465	83.31
350.93	82.41
351.394	88.71
351.858	82.71
352.322	82.71
352.786	86.61
353.25	86.41
353.715	82.31
354.179	82.21
354.643	82.11
355.107	80.91
355.571	88.01
356.035	81.71
356.498	88.31
356.962	86.51
357.426	78.41
357.89	84.51
358.354	84.71
358.818	87.11
359.281	81.51
359.745	79.01
360.209	77.41
360.673	83.81
361.136	85.71
361.6	85.21
362.064	82.81
362.527	78.91
362.991	82.71
363.454	83.31
363.918	81.71
364.381	83.91
364.845	84.51
365.308	82.61
365.772	85.71
366.235	84.41
366.698	83.41
367.162	80.01
367.625	82.21
368.088	82.51
368.552	82.81
369.015	85.91
369.478	79.71
369.941	82.41
370.404	87.41
370.867	79.51
371.331	77.41
371.794	84.61
372.257	85.71
372.72	80.21
373.183	81.41
373.646	79.21
374.109	84.01
374.572	86.61
375.035	86.01
375.497	83.11
375.96	83.61
376.423	82.31
376.886	83.51
377.349	78.41
377.811	87.51
378.274	83.51
378.737	88.51
379.199	81.21
379.662	86.41
380.125	83.31
380.587	80.71
381.05	82.51
381.512	82.21
381.975	82.21
382.437	79.51
382.9	85.51
383.362	84.71
383.825	80.41
384.287	84.51
384.75	83.21
385.212	76.91
385.674	80.91
386.136	81.21
386.599	88.61
387.061	81.91
387.523	78.01
387.985	85.11
388.447	85.11
388.91	82.41
389.372	81.11
389.834	75.61
390.296	81.21
390.758	82.31
391.22	84.01
391.682	83.11
392.144	85.61
392.606	83.61
393.068	84.21
393.529	86.11
393.991	83.91
394.453	80.31
394.915	79.31
395.377	81.21
395.838	85.21
396.3	88.71
396.762	78.81
397.224	78.01
397.685	80.01
398.147	78.51
398.608	82.31
399.07	81.51
399.531	83.71
399.993	83.31
400.454	83.81
400.916	90.91
401.377	85.01
401.839	81.61
402.3	84.41
402.762	80.21
403.223	79.31
403.684	81.61
404.145	88.41
404.607	83.21
405.068	81.71
405.529	81.71
405.99	82.01
406.451	86.11
406.913	84.51
407.374	81.81
407.835	81.81
408.296	83.21
408.757	83.11
409.218	85.21
409.679	80.91
410.14	77.41
410.601	86.11
411.062	79.31
411.522	86.21
411.983	83.51
412.444	88.51
412.905	81.01
413.366	84.11
413.826	83.51
414.287	85.41
414.748	80.81
415.208	84.11
415.669	81.71
416.13	79.31
416.59	80.21
417.051	85.81
417.511	82.01
417.972	78.21
418.432	78.51
418.893	81.01
419.353	83.91
419.814	86.51
420.274	82.01
420.734	82.41
421.195	87.31
421.655	82.21
422.115	87.81
422.576	85.61
423.036	87.21
423.496	82.11
423.956	84.51
424.416	78.01
424.876	82.81
425.336	83.31
425.797	85.31
426.257	77.51
426.717	81.41
427.177	78.41
427.637	82.81
428.097	83.51
428.556	78.81
429.016	80.91
429.476	86.41
429.936	83.01
430.396	85.51
430.856	85.11
431.315	81.31
431.775	83.11
432.235	84.21
432.694	78.21
433.154	85.31
433.614	84.11
434.073	80.71
434.533	82.91
434.993	84.21
435.452	83.01
435.912	84.61
436.371	83.51
436.83	82.81
437.29	84.81
437.749	83.31
438.209	84.81
438.668	85.51
439.127	82.21
439.587	82.51
440.046	81.21
440.505	85.01
440.964	86.61
441.424	79.91
441.883	83.01
442.342	82.41
442.801	86.41
443.26	78.31
443.719	83.61
444.178	86.91
444.637	85.71
445.096	85.61
445.555	88.01
446.014	87.01
446.473	85.11
446.932	83.31
447.391	83.81
447.849	87.51
448.308	83.71
448.767	85.51
449.226	81.41
449.685	82.51
450.143	88.31
450.602	85.11
451.061	86.61
451.519	84.31
451.978	84.01
452.436	81.01
452.895	92.01
453.353	91.31
453.812	84.31
454.27	85.11
454.729	89.81
455.187	87.71
455.646	85.11
456.104	87.31
456.562	83.61
457.021	76.81
457.479	81.91
457.937	85.21
458.395	90.01
458.854	91.41
459.312	81.31
459.77	81.51
460.228	79.21
460.686	89.21
461.144	84.61
461.602	86.71
462.06	82.51
462.518	85.61
462.976	80.81
463.434	82.61
463.892	81.81
464.35	85.61
464.808	84.31
465.266	86.61
465.724	88.41
466.181	86.41
466.639	85.61
467.097	85.51
467.555	88.41
468.012	87.61
468.47	82.91
468.928	88.21
469.385	84.21
469.843	90.31
470.3	79.71
470.758	80.41
471.215	82.91
471.673	83.71
472.13	85.61
472.588	82.91
473.045	86.41
473.503	84.31
473.96	92.71
474.417	86.01
474.875	83.31
475.332	92.91
475.789	82.01
476.246	88.11
476.704	82.91
477.161	82.01
477.618	80.61
478.075	85.01
478.532	86.11
478.989	87.11
479.446	85.31
479.903	86.41
480.36	91.61
480.817	92.11
481.274	88.71
481.731	89.51
482.188	87.01
482.645	89.61
483.102	81.21
483.558	85.01
484.015	90.71
484.472	88.81
484.929	89.51
485.385	92.31
485.842	91.91
486.299	88.81
486.755	87.11
487.212	91.61
487.668	91.31
488.125	90.91
488.582	89.11
489.038	90.81
489.494	89.41
489.951	87.81
490.407	91.41
490.864	92.21
491.32	85.91
491.776	91.31
492.233	90.21
492.689	94.91
493.145	89.21
493.602	87.21
494.058	84.71
494.514	87.51
494.97	92.31
495.426	95.21
495.882	86.61
496.338	87.61
496.794	88.71
497.251	91.01
497.707	88.81
498.163	89.21
498.618	91.01
499.074	89.41
499.53	87.21
499.986	93.91
500.442	89.21
500.898	87.81
501.354	89.61
501.809	89.31
502.265	94.21
502.721	89.61
503.177	92.61
503.632	90.41
504.088	91.41
504.543	88.91
504.999	91.71
505.455	94.81
505.91	94.31
506.366	93.81
506.821	94.71
507.277	89.51
507.732	91.21
508.187	93.71
508.643	86.81
509.098	88.01
509.553	92.11
510.009	83.01
510.464	93.71
510.919	89.31
511.375	91.71
511.83	92.81
512.285	92.61
512.74	92.51
513.195	93.61
513.65	91.51
514.105	91.61
514.56	91.31
515.015	89.11
515.47	91.81
515.925	89.51
516.38	90.81
516.835	92.71
517.29	95.61
517.745	92.21
518.2	87.41
518.655	90.51
519.109	90.51
519.564	94.41
520.019	91.41
520.474	86.71
520.928	90.91
521.383	88.21
521.838	89.61
522.292	93.51
522.747	88.41
523.201	88.41
523.656	88.01
524.11	92.51
524.565	88.21
525.019	91.81
525.474	85.31
525.928	89.11
526.382	88.01
526.837	91.01
527.291	86.71
527.745	92.71
528.2	91.31
528.654	80.11
529.108	88.61
529.562	86.51
530.016	92.81
530.47	89.81
530.925	92.21
531.379	89.81
531.833	91.61
532.287	93.31
532.741	88.41
533.195	88.71
533.649	93.81
534.103	95.61
534.556	89.71
535.01	88.71
535.464	88.11
535.918	87.21
536.372	91.81
536.826	88.61
537.279	86.11
537.733	90.61
538.187	89.51
538.64	88.81
539.094	89.41
539.548	90.21
540.001	92.41
540.455	89.01
540.908	87.91
541.362	86.81
541.815	89.71
542.269	90.61
542.722	93.31
543.175	95.51
543.629	90.91
544.082	86.71
544.536	88.71
544.989	93.21
545.442	92.31
545.895	86.31
546.349	94.21
546.802	89.01
547.255	85.91
547.708	89.91
548.161	92.31
548.614	91.71
549.067	90.21
549.52	85.61
549.973	93.61
550.426	88.71
550.879	87.41
551.332	91.91
551.785	92.71
552.238	92.91
552.691	91.21
553.144	90.11
553.596	88.41
554.049	85.51
554.502	88.91
554.955	89.51
555.407	87.81
555.86	91.41
556.313	88.41
556.765	88.31
557.218	91.61
557.67	86.31
558.123	87.81
558.576	89.11
559.028	94.41
559.48	94.31
559.933	91.01
560.385	93.31
560.838	90.11
561.29	92.71
561.742	87.21
562.195	87.31
562.647	89.91
563.099	89.91
563.551	92.31
564.004	94.11
564.456	94.31
564.908	89.51
565.36	91.21
565.812	90.81
566.264	97.61
566.716	90.71
567.168	93.81
567.62	92.71
568.072	90.51
568.524	89.51
568.976	90.81
569.428	88.81
569.88	92.11
570.332	90.91
570.784	92.61
571.235	89.91
571.687	91.01
572.139	85.61
572.59	85.31
573.042	88.01
573.494	89.71
573.945	92.61
574.397	91.61
574.849	88.81
575.3	91.41
575.752	90.01
576.203	93.41
576.655	95.31
577.106	88.91
577.557	90.11
578.009	93.51
578.46	89.71
578.912	91.01
579.363	97.41
579.814	91.31
580.265	91.01
580.717	90.71
581.168	89.91
581.619	92.91
582.07	89.51
582.521	89.21
582.972	94.11
583.423	93.11
583.875	98.11
584.326	89.11
584.777	94.81
585.227	90.41
585.678	87.21
586.129	87.01
586.58	88.11
587.031	87.11
587.482	85.31
587.933	89.91
588.384	88.81
588.834	90.51
589.285	94.51
589.736	92.81
590.186	91.11
590.637	88.61
591.088	90.81
591.538	88.61
591.989	89.51
592.439	89.31
592.89	93.21
593.34	88.31
593.791	93.41
594.241	92.11
594.692	90.71
595.142	90.21
595.593	91.21
596.043	94.91
596.493	93.61
596.943	90.01
597.394	95.61
597.844	91.91
598.294	88.91
598.744	87.71
599.195	90.41
599.645	96.11
600.095	87.11
600.545	91.91
600.995	96.41
601.445	92.91
601.895	93.71
602.345	89.01
602.795	94.01
603.245	96.01
603.695	91.11
604.145	92.11
604.594	92.51
605.044	89.11
605.494	93.01
605.944	95.21
606.393	92.51
606.843	87.31
607.293	92.41
607.743	95.61
608.192	94.01
608.642	91.11
609.091	93.41
609.541	87.51
609.99	91.51
610.44	89.11
610.889	92.31
611.339	91.21
611.788	90.61
612.238	89.91
612.687	90.31
613.136	90.41
613.586	88.11
614.035	93.91
614.484	95.01
614.933	85.41
615.383	94.71
615.832	92.61
616.281	91.71
616.73	89.41
617.179	92.71
617.628	85.21
618.077	94.91
618.526	89.21
618.975	92.51
619.424	89.21
619.873	86.61
620.322	90.81
620.771	90.31
621.22	93.31
621.669	92.11
622.118	89.51
622.567	92.61
623.015	92.61
623.464	91.51
623.913	94.81
624.361	97.51
624.81	93.71
625.259	90.41
625.707	92.11
626.156	94.01
626.604	88.51
627.053	93.71
627.501	89.71
627.95	93.11
628.398	91.21
628.847	92.61
629.295	91.71
629.744	90.21
630.192	91.51
630.64	98.31
631.089	90.21
631.537	93.21
631.985	88.21
632.433	88.71
632.881	93.61
633.33	89.21
633.778	96.01
634.226	93.51
634.674	93.11
635.122	87.31
635.57	89.51
636.018	92.71
636.466	92.01
636.914	90.71
637.362	88.01
637.81	90.51
638.258	91.61
638.705	89.61
639.153	94.51
639.601	88.31
640.049	88.71
640.497	88.61
640.944	92.81
641.392	91.41
641.84	94.01
642.287	97.61
642.735	97.51
643.182	88.91
643.63	88.01
644.078	94.01
644.525	89.61
644.973	92.21
645.42	88.71
645.867	95.01
646.315	92.31
646.762	91.41
647.21	92.41
647.657	88.81
648.104	88.31
648.551	87.81
648.999	94.31
649.446	90.01
649.893	89.01
650.34	86.31
650.787	94.11
651.234	92.01
651.682	95.31
652.129	91.91
652.576	92.51
653.023	89.51
653.47	89.41
653.917	88.01
654.363	95.61
654.81	84.71
655.257	91.51
655.704	91.71
656.151	90.21
656.598	94.61
657.044	88.01
657.491	89.71
657.938	94.01
658.385	89.71
658.831	89.71
659.278	91.61
659.724	91.71
660.171	92.71
660.618	88.21
661.064	92.91
661.511	88.81
661.957	89.01
662.404	86.81
662.85	88.81
663.296	94.71
663.743	92.41
664.189	90.51
664.635	90.51
665.082	89.51
665.528	94.31
665.974	87.41
666.42	90.01
666.867	86.21
667.313	87.11
667.759	91.01
668.205	89.11
668.651	85.71
669.097	89.31
669.543	93.11
669.989	90.71
670.435	94.71
670.881	93.41
671.327	87.41
671.773	91.51
672.219	92.81
672.665	93.21
673.11	91.41
673.556	92.71
674.002	87.51
674.448	90.21
674.893	87.21
675.339	95.51
675.785	82.61
676.23	84.71
676.676	90.31
677.122	89.31
677.567	95.71
678.013	86.51
678.458	87.61
678.904	90.21
679.349	93.61
679.794	91.21
680.24	91.01
680.685	87.91
681.131	95.21
681.576	91.91
682.021	89.71
682.466	93.91
682.912	86.81
683.357	89.91
683.802	92.21
684.247	91.31
684.692	87.91
685.137	89.61
685.583	86.71
686.028	88.71
686.473	94.01
686.918	89.51
687.363	93.91
687.807	89.41
688.252	86.91
688.697	94.41
689.142	86.71
689.587	89.71
690.032	88.71
690.477	83.61
690.921	85.81
691.366	88.11
691.811	90.91
692.255	94.01
692.7	88.81
693.145	91.21
693.589	90.41
694.034	87.51
694.478	89.21
694.923	96.41
695.367	87.61
695.812	92.21
696.256	92.01
696.701	89.71
697.145	89.51
697.59	91.41
698.034	83.11
698.478	90.81
698.922	92.91
699.367	90.91
699.811	93.21
700.255	93.21
700.699	86.81
701.143	90.01
701.588	87.81
702.032	88.71
702.476	89.61
702.92	93.31
703.364	87.41
703.808	86.01
704.252	92.41
704.696	88.41
705.14	91.31
705.584	88.01
706.027	87.71
706.471	85.01
706.915	93.21
707.359	87.61
707.803	93.51
708.246	92.41
708.69	90.81
709.134	89.71
709.577	88.51
710.021	84.41
710.465	89.41
710.908	96.91
711.352	91.81
711.795	93.51
712.239	90.11
712.682	87.11
713.126	86.91
713.569	84.31
714.012	91.31
714.456	89.91
714.899	88.81
715.342	87.71
715.786	91.51
716.229	87.21
716.672	91.01
717.115	87.81
717.558	88.31
718.002	85.91
718.445	91.41
718.888	95.61
719.331	91.31
719.774	93.71
720.217	87.31
720.66	89.71
721.103	90.31
721.546	95.11
721.989	94.01
722.432	88.11
722.874	86.11
723.317	84.91
723.76	90.01
724.203	88.51
724.645	90.91
725.088	92.81
725.531	87.71
725.974	94.21
726.416	89.81
726.859	87.31
727.301	90.81
727.744	87.91
728.187	89.81
728.629	89.01
729.071	87.01
729.514	91.01
729.956	90.61
730.399	89.51
730.841	93.21
731.283	92.71
731.726	91.61
732.168	90.11
732.61	88.01
733.053	90.41
733.495	86.71
733.937	84.61
734.379	87.81
734.821	91.01
735.263	84.31
735.705	90.81
736.148	88.41
736.59	88.21
737.032	87.91
737.474	86.21
737.916	89.31
738.357	91.11
738.799	88.61
739.241	85.31
739.683	84.91
740.125	87.31
740.567	85.61
741.008	87.01
741.45	87.41
741.892	87.71
742.334	89.81
742.775	89.01
743.217	84.61
743.658	80.41
744.1	85.31
744.542	90.81
744.983	91.61
745.425	90.41
745.866	90.51
746.307	88.51
746.749	90.71
747.19	85.91
747.632	92.61
748.073	93.81
748.514	89.91
748.956	86.21
749.397	85.91
749.838	89.91
750.279	89.41
750.72	88.91
751.162	87.31
751.603	88.41
752.044	84.11
752.485	85.11
752.926	88.81
753.367	84.61
753.808	87.71
754.249	87.01
754.69	84.51
755.131	88.41
755.572	83.31
756.013	90.51
756.453	88.31
756.894	82.51
757.335	87.71
757.776	86.21
758.216	90.11
758.657	87.01
759.098	85.61
759.538	92.71
759.979	91.21
760.42	88.51
760.86	89.31
761.301	88.11
761.741	78.51
762.182	88.51
762.622	85.11
763.063	86.71
763.503	86.71
763.943	86.01
764.384	86.81
764.824	86.51
765.264	85.21
765.705	83.91
766.145	92.81
766.585	90.61
767.025	88.91
767.465	80.51
767.906	85.01
768.346	88.21
768.786	82.61
769.226	84.91
769.666	87.81
770.106	90.41
770.546	86.11
770.986	88.41
771.426	89.61
771.866	76.51
772.306	89.31
772.745	85.21
773.185	83.21
773.625	82.51
774.065	92.81
774.505	92.01
774.944	88.91
775.384	87.11
775.824	88.31
776.263	85.31
776.703	89.01
777.142	91.51
777.582	86.01
778.021	91.41
778.461	88.41
778.9	89.71
779.34	91.31
779.779	87.71
780.219	92.31
780.658	88.51
781.097	85.01
781.537	86.31
781.976	89.01
782.415	90.21
782.855	84.21
783.294	86.01
783.733	91.01
784.172	89.11
784.611	84.91
785.05	87.91
785.489	89.21
785.928	88.01
786.367	85.31
786.806	84.91
787.245	91.11
787.684	88.31
788.123	87.31
