Data from DH-3PlusCalLight-Halogen_HRD10391_13-39-50-615.txt Node
Date: Thu Feb 15 13:39:50 EST 2018
User: Ender
Spectrometer: HR+D1039
Trigger mode: 0
Integration Time (sec): 2.730000E-2
Scans to average: 10
Electric dark correction enabled: true
Nonlinearity correction enabled: false
Boxcar width: 0
XAxis mode: Wavelengths
Number of Pixels in Spectrum: 2048
>>>>>Begin Spectral Data<<<<<
187.836	4.21
188.309	4.21
188.782	4.21
189.255	-4.59
189.728	-7.59
190.201	-6.39
190.674	-6.09
191.147	-9.59
191.619	-8.09
192.092	-5.59
192.565	-1.09
193.038	-1.99
193.511	-0.79
193.984	0.41
194.456	7.81
194.929	9.21
195.402	12.61
195.874	17.61
196.347	20.21
196.82	25.11
197.292	28.91
197.765	31.61
198.237	36.11
198.71	40.01
199.182	43.41
199.655	52.91
200.127	52.51
200.6	57.31
201.072	56.71
201.544	63.71
202.017	66.41
202.489	70.51
202.961	69.41
203.433	68.41
203.906	75.01
204.378	70.01
204.85	76.71
205.322	79.31
205.794	77.41
206.266	80.81
206.739	85.31
207.211	78.61
207.683	86.41
208.155	82.91
208.627	81.21
209.099	80.91
209.57	85.51
210.042	85.81
210.514	85.31
210.986	87.01
211.458	89.01
211.93	89.01
212.402	84.51
212.873	83.71
213.345	83.81
213.817	88.91
214.288	86.11
214.76	81.11
215.232	84.51
215.703	80.91
216.175	83.71
216.646	83.41
217.118	79.71
217.589	82.81
218.061	83.61
218.532	79.61
219.004	85.71
219.475	82.31
219.946	73.51
220.418	82.31
220.889	88.11
221.36	82.81
221.832	84.41
222.303	79.21
222.774	77.51
223.245	76.11
223.717	78.11
224.188	78.91
224.659	81.51
225.13	80.71
225.601	78.51
226.072	75.61
226.543	80.81
227.014	79.41
227.485	72.21
227.956	74.81
228.427	79.61
228.898	82.21
229.369	80.71
229.839	77.41
230.31	77.71
230.781	80.31
231.252	79.31
231.722	81.81
232.193	79.51
232.664	78.31
233.135	82.41
233.605	81.71
234.076	81.81
234.546	82.91
235.017	77.31
235.487	78.91
235.958	78.41
236.428	78.91
236.899	79.01
237.369	88.71
237.84	79.91
238.31	84.11
238.78	84.11
239.251	83.01
239.721	75.21
240.191	80.91
240.662	81.41
241.132	88.11
241.602	80.11
242.072	78.01
242.542	82.41
243.013	82.01
243.483	82.11
243.953	81.31
244.423	80.01
244.893	81.71
245.363	85.51
245.833	82.71
246.303	79.61
246.773	83.31
247.243	80.51
247.712	78.31
248.182	83.71
248.652	82.61
249.122	84.71
249.592	82.81
250.061	82.01
250.531	83.01
251.001	84.21
251.471	84.21
251.94	88.81
252.41	82.01
252.879	81.01
253.349	79.41
253.818	83.21
254.288	82.91
254.757	84.61
255.227	80.51
255.696	78.31
256.166	80.71
256.635	86.31
257.105	85.51
257.574	84.51
258.043	87.51
258.513	84.11
258.982	80.11
259.451	82.61
259.92	85.61
260.389	80.51
260.859	82.51
261.328	88.91
261.797	83.81
262.266	82.61
262.735	84.41
263.204	83.81
263.673	81.31
264.142	82.41
264.611	86.61
265.08	82.71
265.549	78.61
266.018	84.01
266.487	83.51
266.955	85.51
267.424	82.21
267.893	81.01
268.362	86.21
268.83	88.81
269.299	86.31
269.768	87.91
270.236	83.91
270.705	83.41
271.174	84.41
271.642	80.01
272.111	80.41
272.579	86.81
273.048	80.11
273.516	86.41
273.985	82.61
274.453	90.91
274.922	84.81
275.39	86.71
275.858	85.31
276.327	85.91
276.795	83.21
277.263	87.41
277.731	84.71
278.2	84.31
278.668	78.21
279.136	85.81
279.604	84.71
280.072	85.51
280.54	91.41
281.008	88.51
281.477	82.41
281.945	86.81
282.413	83.61
282.881	90.31
283.348	81.91
283.816	84.11
284.284	88.91
284.752	88.11
285.22	85.91
285.688	84.21
286.156	84.01
286.623	84.21
287.091	85.31
287.559	89.81
288.026	85.81
288.494	85.71
288.962	86.61
289.429	83.41
289.897	88.31
290.364	85.51
290.832	84.91
291.3	84.11
291.767	86.21
292.234	84.11
292.702	85.81
293.169	89.21
293.637	88.51
294.104	84.41
294.571	81.21
295.039	84.81
295.506	85.31
295.973	85.01
296.44	88.31
296.908	87.61
297.375	90.21
297.842	89.01
298.309	86.71
298.776	83.31
299.243	81.81
299.71	85.81
300.177	85.91
300.644	85.01
301.111	86.31
301.578	88.81
302.045	85.21
302.512	90.61
302.979	83.31
303.446	87.41
303.913	87.81
304.379	87.51
304.846	88.71
305.313	90.71
305.78	86.81
306.246	84.61
306.713	86.61
307.18	87.21
307.646	93.71
308.113	89.11
308.579	88.71
309.046	87.41
309.512	84.51
309.979	88.11
310.445	86.51
310.912	86.41
311.378	91.31
311.845	88.21
312.311	83.31
312.777	91.41
313.244	90.51
313.71	83.21
314.176	83.21
314.642	86.91
315.109	91.91
315.575	88.71
316.041	89.71
316.507	84.61
316.973	94.61
317.439	88.31
317.905	82.91
318.371	93.21
318.837	89.41
319.303	92.11
319.769	89.91
320.235	87.41
320.701	91.01
321.167	88.81
321.633	86.41
322.099	82.11
322.564	86.21
323.03	87.61
323.496	88.91
323.962	84.41
324.427	84.51
324.893	90.51
325.359	91.01
325.824	85.51
326.29	87.41
326.755	90.71
327.221	92.41
327.686	84.21
328.152	90.41
328.617	88.21
329.083	87.01
329.548	88.01
330.014	86.71
330.479	87.21
330.944	91.31
331.41	86.01
331.875	92.31
332.34	85.61
332.805	90.11
333.271	87.41
333.736	87.81
334.201	86.01
334.666	92.71
335.131	89.81
335.596	89.61
336.061	85.91
336.526	93.51
336.991	83.91
337.456	85.91
337.921	86.91
338.386	88.11
338.851	84.71
339.316	94.91
339.781	88.91
340.246	86.41
340.711	85.31
341.175	86.11
341.64	88.61
342.105	89.11
342.569	94.61
343.034	85.11
343.499	88.91
343.963	91.71
344.428	89.41
344.893	84.21
345.357	85.61
345.822	90.51
346.286	87.41
346.751	86.81
347.215	87.71
347.679	84.51
348.144	91.81
348.608	84.41
349.073	86.81
349.537	83.61
350.001	88.81
350.465	89.51
350.93	85.01
351.394	90.61
351.858	85.91
352.322	87.81
352.786	95.71
353.25	88.51
353.715	86.61
354.179	95.71
354.643	90.01
355.107	88.71
355.571	94.51
356.035	90.71
356.498	85.61
356.962	87.51
357.426	88.81
357.89	96.91
358.354	87.81
358.818	89.41
359.281	87.51
359.745	94.61
360.209	85.31
360.673	87.21
361.136	86.91
361.6	95.31
362.064	92.81
362.527	92.01
362.991	87.41
363.454	90.41
363.918	84.21
364.381	87.51
364.845	93.01
365.308	84.21
365.772	93.21
366.235	86.61
366.698	89.31
367.162	88.51
367.625	93.41
368.088	93.21
368.552	87.31
369.015	94.61
369.478	90.41
369.941	93.91
370.404	89.71
370.867	93.61
371.331	90.71
371.794	93.71
372.257	92.81
372.72	88.41
373.183	97.01
373.646	89.61
374.109	96.91
374.572	92.61
375.035	95.01
375.497	92.31
375.96	100.41
376.423	97.21
376.886	94.31
377.349	91.21
377.811	101.01
378.274	101.21
378.737	102.31
379.199	107.21
379.662	99.11
380.125	95.41
380.587	100.71
381.05	99.91
381.512	99.01
381.975	100.61
382.437	104.91
382.9	106.41
383.362	101.21
383.825	105.21
384.287	107.11
384.75	102.71
385.212	109.61
385.674	108.41
386.136	103.51
386.599	111.21
387.061	106.11
387.523	102.11
387.985	108.41
388.447	104.91
388.91	111.31
389.372	109.11
389.834	109.61
390.296	107.01
390.758	113.21
391.22	109.51
391.682	108.11
392.144	113.31
392.606	113.41
393.068	117.01
393.529	117.91
393.991	113.71
394.453	120.51
394.915	115.81
395.377	117.91
395.838	119.51
396.3	124.21
396.762	124.11
397.224	124.01
397.685	125.21
398.147	126.51
398.608	123.01
399.07	127.41
399.531	121.91
399.993	132.61
400.454	136.11
400.916	128.91
401.377	129.01
401.839	136.71
402.3	133.31
402.762	137.51
403.223	138.51
403.684	140.61
404.145	142.91
404.607	140.61
405.068	140.21
405.529	146.01
405.99	146.01
406.451	147.91
406.913	148.61
407.374	155.31
407.835	163.81
408.296	160.21
408.757	163.31
409.218	168.51
409.679	167.01
410.14	175.11
410.601	173.31
411.062	173.21
411.522	179.41
411.983	196.31
412.444	190.71
412.905	192.91
413.366	189.31
413.826	201.61
414.287	207.01
414.748	208.81
415.208	213.91
415.669	217.71
416.13	222.61
416.59	225.51
417.051	233.91
417.511	234.51
417.972	250.51
418.432	250.61
418.893	252.31
419.353	262.41
419.814	265.11
420.274	278.91
420.734	277.01
421.195	286.41
421.655	288.31
422.115	302.01
422.576	308.61
423.036	321.61
423.496	333.61
423.956	337.11
424.416	345.31
424.876	369.11
425.336	362.61
425.797	376.81
426.257	389.91
426.717	408.71
427.177	414.51
427.637	426.71
428.097	438.11
428.556	449.11
429.016	459.11
429.476	471.31
429.936	488.21
430.396	505.71
430.856	523.71
431.315	535.41
431.775	549.91
432.235	566.21
432.694	582.01
433.154	602.01
433.614	597.51
434.073	634.51
434.533	647.61
434.993	652.61
435.452	678.31
435.912	684.21
436.371	692.51
436.83	711.81
437.29	727.31
437.749	734.91
438.209	759.41
438.668	778.51
439.127	803.31
439.587	811.11
440.046	820.41
440.505	846.21
440.964	851.51
441.424	873.41
441.883	902.21
442.342	904.21
442.801	921.01
443.26	965.71
443.719	974.51
444.178	976.41
444.637	999.61
445.096	1013.61
445.555	1042.11
446.014	1041.41
446.473	1046.01
446.932	1066.71
447.391	1089.11
447.849	1133.21
448.308	1107.81
448.767	1145.61
449.226	1167.71
449.685	1172.01
450.143	1187.91
450.602	1228.11
451.061	1208.81
451.519	1254.61
451.978	1264.51
452.436	1271.51
452.895	1289.31
453.353	1290.31
453.812	1294.41
454.27	1335.01
454.729	1339.31
455.187	1362.11
455.646	1370.51
456.104	1382.11
456.562	1394.61
457.021	1426.11
457.479	1387.51
457.937	1419.11
458.395	1455.81
458.854	1443.21
459.312	1432.21
459.77	1438.61
460.228	1456.11
460.686	1487.01
461.144	1467.21
461.602	1476.21
462.06	1466.71
462.518	1479.41
462.976	1475.91
463.434	1464.31
463.892	1465.01
464.35	1463.71
464.808	1472.41
465.266	1483.91
465.724	1483.21
466.181	1495.81
466.639	1472.51
467.097	1503.41
467.555	1545.61
468.012	1512.71
468.47	1514.11
468.928	1528.51
469.385	1530.61
469.843	1575.91
470.3	1567.81
470.758	1604.91
471.215	1587.51
471.673	1596.21
472.13	1624.41
472.588	1667.51
473.045	1678.41
473.503	1710.21
473.96	1775.61
474.417	1755.01
474.875	1812.01
475.332	1817.51
475.789	1845.01
476.246	1875.11
476.704	1911.01
477.161	1941.11
477.618	1952.71
478.075	1981.71
478.532	2064.71
478.989	2097.91
479.446	2117.11
479.903	2148.41
480.36	2248.81
480.817	2245.61
481.274	2287.41
481.731	2313.11
482.188	2341.31
482.645	2414.41
483.102	2424.61
483.558	2456.01
484.015	2516.01
484.472	2568.51
484.929	2626.61
485.385	2631.91
485.842	2668.51
486.299	2720.31
486.755	2718.81
487.212	2742.61
487.668	2759.31
488.125	2797.31
488.582	2777.31
489.038	2813.11
489.494	2837.71
489.951	2833.71
490.407	2862.61
490.864	2893.41
491.32	2899.21
491.776	2900.01
492.233	2917.31
492.689	2916.41
493.145	2913.81
493.602	2887.01
494.058	2919.51
494.514	2914.51
494.97	2907.81
495.426	2912.61
495.882	2913.51
496.338	2904.01
496.794	2939.91
497.251	2940.11
497.707	2956.61
498.163	2951.81
498.618	2951.41
499.074	2937.11
499.53	2937.41
499.986	2947.21
500.442	2958.91
500.898	2921.01
501.354	2954.21
501.809	2974.61
502.265	2940.41
502.721	2948.61
503.177	2951.91
503.632	2957.21
504.088	2933.61
504.543	2957.21
504.999	2982.01
505.455	2968.51
505.91	2971.11
506.366	2953.91
506.821	2966.71
507.277	2968.21
507.732	2959.61
508.187	2942.61
508.643	2940.51
509.098	2934.71
509.553	2948.11
510.009	2908.71
510.464	2944.81
510.919	2938.31
511.375	2922.31
511.83	2884.71
512.285	2881.11
512.74	2901.21
513.195	2878.01
513.65	2856.91
514.105	2848.91
514.56	2831.41
515.015	2846.41
515.47	2854.31
515.925	2806.91
516.38	2805.11
516.835	2823.01
517.29	2769.91
517.745	2782.71
518.2	2796.51
518.655	2784.31
519.109	2744.51
519.564	2741.11
520.019	2740.91
520.474	2718.81
520.928	2717.71
521.383	2699.11
521.838	2677.61
522.292	2697.11
522.747	2688.91
523.201	2678.51
523.656	2667.81
524.11	2679.21
524.565	2653.21
525.019	2664.61
525.474	2676.01
525.928	2653.41
526.382	2661.11
526.837	2650.71
527.291	2667.71
527.745	2664.21
528.2	2654.01
528.654	2650.91
529.108	2658.31
529.562	2651.21
530.016	2645.61
530.47	2653.31
530.925	2642.51
531.379	2644.11
531.833	2671.21
532.287	2651.41
532.741	2636.91
533.195	2650.91
533.649	2667.81
534.103	2652.61
534.556	2650.71
535.01	2668.11
535.464	2653.51
535.918	2663.81
536.372	2680.11
536.826	2667.61
537.279	2629.31
537.733	2648.21
538.187	2663.11
538.64	2625.91
539.094	2650.91
539.548	2679.41
540.001	2666.51
540.455	2635.21
540.908	2628.71
541.362	2632.81
541.815	2636.51
542.269	2634.41
542.722	2605.61
543.175	2617.31
543.629	2605.91
544.082	2600.91
544.536	2585.31
544.989	2581.41
545.442	2571.71
545.895	2586.91
546.349	2568.51
546.802	2572.31
547.255	2540.61
547.708	2538.91
548.161	2551.51
548.614	2540.31
549.067	2555.51
549.52	2544.71
549.973	2540.01
550.426	2537.11
550.879	2534.21
551.332	2530.61
551.785	2531.01
552.238	2531.61
552.691	2529.71
553.144	2517.61
553.596	2537.01
554.049	2533.61
554.502	2559.11
554.955	2559.91
555.407	2553.51
555.86	2565.51
556.313	2565.11
556.765	2573.81
557.218	2570.71
557.67	2579.91
558.123	2573.51
558.576	2580.71
559.028	2600.01
559.48	2600.91
559.933	2594.51
560.385	2622.91
560.838	2604.21
561.29	2591.21
561.742	2615.61
562.195	2606.31
562.647	2612.81
563.099	2618.91
563.551	2625.21
564.004	2642.61
564.456	2642.81
564.908	2637.11
565.36	2645.91
565.812	2632.21
566.264	2668.31
566.716	2653.71
567.168	2645.11
567.62	2649.61
568.072	2635.61
568.524	2659.81
568.976	2646.21
569.428	2641.11
569.88	2647.91
570.332	2627.61
570.784	2623.91
571.235	2621.41
571.687	2635.71
572.139	2622.01
572.59	2633.81
573.042	2614.11
573.494	2635.91
573.945	2618.21
574.397	2564.61
574.849	2580.01
575.3	2604.81
575.752	2582.71
576.203	2542.71
576.655	2576.31
577.106	2570.21
577.557	2545.41
578.009	2549.61
578.46	2563.61
578.912	2534.21
579.363	2541.31
579.814	2542.81
580.265	2537.71
580.717	2519.51
581.168	2525.91
581.619	2523.81
582.07	2552.91
582.521	2527.11
582.972	2508.01
583.423	2545.21
583.875	2534.11
584.326	2524.91
584.777	2528.41
585.227	2516.01
585.678	2546.41
586.129	2534.91
586.58	2543.31
587.031	2541.11
587.482	2526.81
587.933	2526.61
588.384	2534.21
588.834	2530.11
589.285	2542.21
589.736	2530.61
590.186	2528.51
590.637	2548.11
591.088	2539.61
591.538	2564.41
591.989	2570.31
592.439	2540.71
592.89	2548.21
593.34	2562.81
593.791	2575.01
594.241	2559.41
594.692	2568.31
595.142	2586.51
595.593	2569.01
596.043	2583.71
596.493	2595.71
596.943	2567.81
597.394	2604.91
597.844	2577.61
598.294	2584.21
598.744	2592.21
599.195	2591.21
599.645	2599.61
600.095	2595.31
600.545	2602.91
600.995	2587.31
601.445	2593.01
601.895	2600.21
602.345	2604.31
602.795	2597.71
603.245	2609.41
603.695	2606.91
604.145	2609.31
604.594	2613.91
605.044	2613.31
605.494	2602.41
605.944	2614.91
606.393	2639.71
606.843	2615.21
607.293	2634.31
607.743	2620.61
608.192	2623.01
608.642	2608.81
609.091	2607.21
609.541	2627.81
609.99	2629.21
610.44	2605.01
610.889	2635.21
611.339	2626.81
611.788	2640.61
612.238	2617.91
612.687	2608.31
613.136	2624.21
613.586	2618.31
614.035	2587.81
614.484	2629.01
614.933	2598.11
615.383	2603.61
615.832	2604.31
616.281	2598.21
616.73	2608.31
617.179	2604.51
617.628	2584.71
618.077	2595.61
618.526	2599.21
618.975	2588.51
619.424	2576.31
619.873	2586.81
620.322	2579.11
620.771	2608.21
621.22	2588.51
621.669	2585.21
622.118	2611.41
622.567	2610.21
623.015	2599.01
623.464	2583.01
623.913	2604.21
624.361	2599.51
624.81	2598.21
625.259	2604.71
625.707	2578.01
626.156	2601.11
626.604	2597.11
627.053	2575.51
627.501	2573.21
627.95	2564.41
628.398	2599.71
628.847	2545.51
629.295	2565.81
629.744	2558.61
630.192	2545.11
630.64	2560.81
631.089	2560.91
631.537	2540.31
631.985	2537.91
632.433	2541.81
632.881	2523.31
633.33	2530.11
633.778	2527.41
634.226	2532.31
634.674	2536.51
635.122	2518.21
635.57	2520.21
636.018	2534.51
636.466	2506.41
636.914	2494.01
637.362	2510.91
637.81	2510.41
638.258	2521.81
638.705	2477.01
639.153	2501.81
639.601	2482.71
640.049	2499.21
640.497	2486.61
640.944	2490.41
641.392	2475.11
641.84	2480.61
642.287	2482.51
642.735	2473.21
643.182	2464.11
643.63	2461.21
644.078	2480.11
644.525	2464.01
644.973	2458.81
645.42	2469.11
645.867	2469.21
646.315	2437.01
646.762	2445.81
647.21	2442.61
647.657	2451.11
648.104	2448.71
648.551	2399.11
648.999	2461.21
649.446	2442.21
649.893	2427.71
650.34	2426.91
650.787	2447.81
651.234	2425.31
651.682	2439.11
652.129	2419.31
652.576	2417.91
653.023	2427.41
653.47	2407.81
653.917	2412.31
654.363	2396.91
654.81	2423.71
655.257	2396.71
655.704	2393.11
656.151	2390.51
656.598	2411.31
657.044	2382.91
657.491	2396.21
657.938	2400.91
658.385	2393.31
658.831	2403.01
659.278	2373.81
659.724	2368.31
660.171	2384.61
660.618	2360.61
661.064	2357.31
661.511	2361.51
661.957	2366.91
662.404	2341.41
662.85	2348.21
663.296	2343.61
663.743	2351.31
664.189	2344.21
664.635	2347.81
665.082	2339.31
665.528	2343.91
665.974	2324.01
666.42	2325.91
666.867	2326.71
667.313	2327.11
667.759	2330.21
668.205	2314.01
668.651	2307.11
669.097	2291.91
669.543	2306.21
669.989	2287.31
670.435	2282.51
670.881	2277.71
671.327	2261.61
671.773	2280.61
672.219	2242.41
672.665	2265.01
673.11	2258.21
673.556	2265.21
674.002	2231.21
674.448	2241.41
674.893	2224.01
675.339	2215.21
675.785	2217.61
676.23	2201.91
676.676	2184.71
677.122	2195.51
677.567	2190.11
678.013	2154.91
678.458	2160.81
678.904	2173.51
679.349	2159.01
679.794	2130.41
680.24	2127.61
680.685	2118.81
681.131	2104.81
681.576	2112.21
682.021	2108.31
682.466	2084.41
682.912	2078.71
683.357	2071.31
683.802	2062.91
684.247	2035.31
684.692	2039.71
685.137	2038.51
685.583	2022.11
686.028	2010.41
686.473	2009.01
686.918	2011.81
687.363	2005.71
687.807	1979.41
688.252	1976.01
688.697	1978.21
689.142	1968.31
689.587	1962.81
690.032	1953.81
690.477	1947.91
690.921	1942.11
691.366	1940.41
691.811	1942.11
692.255	1921.91
692.7	1911.21
693.145	1922.21
693.589	1905.61
694.034	1897.31
694.478	1913.51
694.923	1895.81
695.367	1894.11
695.812	1885.21
696.256	1855.81
696.701	1873.81
697.145	1872.61
697.59	1840.21
698.034	1838.11
698.478	1851.81
698.922	1835.31
699.367	1833.01
699.811	1823.81
700.255	1830.21
700.699	1808.01
701.143	1814.11
701.588	1812.11
702.032	1799.41
702.476	1793.41
702.92	1800.11
703.364	1787.71
703.808	1772.31
704.252	1780.41
704.696	1772.81
705.14	1766.41
705.584	1773.81
706.027	1764.01
706.471	1761.01
706.915	1755.61
707.359	1765.61
707.803	1745.61
708.246	1726.01
708.69	1729.31
709.134	1734.11
709.577	1727.61
710.021	1729.31
710.465	1719.31
710.908	1702.41
711.352	1702.81
711.795	1700.41
712.239	1690.51
712.682	1693.11
713.126	1689.31
713.569	1685.71
714.012	1667.91
714.456	1667.81
714.899	1662.11
715.342	1682.31
715.786	1660.01
716.229	1653.11
716.672	1654.51
717.115	1655.91
717.558	1638.71
718.002	1638.61
718.445	1646.61
718.888	1636.71
719.331	1621.21
719.774	1637.41
720.217	1624.61
720.66	1615.61
721.103	1602.91
721.546	1614.51
721.989	1605.61
722.432	1604.31
722.874	1599.81
723.317	1594.21
723.76	1606.71
724.203	1589.71
724.645	1578.01
725.088	1569.01
725.531	1580.51
725.974	1567.41
726.416	1563.91
726.859	1564.41
727.301	1550.31
727.744	1552.91
728.187	1541.81
728.629	1544.81
729.071	1545.61
729.514	1528.51
729.956	1543.71
730.399	1519.11
730.841	1515.51
731.283	1529.41
731.726	1502.71
732.168	1502.71
732.61	1503.91
733.053	1477.71
733.495	1477.51
733.937	1474.21
734.379	1484.51
734.821	1468.71
735.263	1461.91
735.705	1460.41
736.148	1447.01
736.59	1455.61
737.032	1455.21
737.474	1441.51
737.916	1420.01
738.357	1440.91
738.799	1426.51
739.241	1439.61
739.683	1423.91
740.125	1419.41
740.567	1418.21
741.008	1429.91
741.45	1396.21
741.892	1404.31
742.334	1392.61
742.775	1395.41
743.217	1385.41
743.658	1381.71
744.1	1375.71
744.542	1378.31
