Data from DH-3PlusCalLight-Halogen_HRD10391_13-39-48-432.txt Node
Date: Thu Feb 15 13:39:48 EST 2018
User: Ender
Spectrometer: HR+D1039
Trigger mode: 0
Integration Time (sec): 2.730000E-2
Scans to average: 10
Electric dark correction enabled: true
Nonlinearity correction enabled: false
Boxcar width: 0
XAxis mode: Wavelengths
Number of Pixels in Spectrum: 2048
>>>>>Begin Spectral Data<<<<<
187.836	0.21
188.309	0.21
188.782	0.21
189.255	-1.19
189.728	-6.59
190.201	-6.59
190.674	-7.09
191.147	-6.29
191.619	-5.79
192.092	-7.19
192.565	-5.19
193.038	-0.49
193.511	-6.29
193.984	3.61
194.456	7.71
194.929	13.41
195.402	12.31
195.874	15.51
196.347	21.41
196.82	22.71
197.292	25.01
197.765	35.81
198.237	34.51
198.71	42.81
199.182	43.41
199.655	50.31
200.127	59.61
200.6	54.31
201.072	58.21
201.544	62.91
202.017	66.71
202.489	67.61
202.961	72.11
203.433	75.21
203.906	69.91
204.378	77.41
204.85	77.61
205.322	78.01
205.794	74.31
206.266	89.01
206.739	76.01
207.211	87.41
207.683	84.01
208.155	82.21
208.627	85.61
209.099	83.01
209.57	83.11
210.042	85.61
210.514	87.71
210.986	86.91
211.458	85.81
211.93	82.31
212.402	87.81
212.873	83.21
213.345	80.61
213.817	86.31
214.288	85.71
214.76	81.21
215.232	80.51
215.703	84.91
216.175	81.41
216.646	84.91
217.118	78.51
217.589	76.91
218.061	83.21
218.532	75.61
219.004	74.31
219.475	80.01
219.946	81.81
220.418	77.41
220.889	79.11
221.36	82.51
221.832	78.51
222.303	74.11
222.774	80.41
223.245	74.31
223.717	78.21
224.188	74.91
224.659	77.71
225.13	80.91
225.601	77.71
226.072	75.51
226.543	79.21
227.014	76.91
227.485	72.41
227.956	75.21
228.427	76.71
228.898	73.11
229.369	78.11
229.839	84.41
230.31	78.61
230.781	76.61
231.252	77.41
231.722	82.01
232.193	78.41
232.664	77.31
233.135	83.51
233.605	79.81
234.076	78.91
234.546	81.01
235.017	78.41
235.487	79.81
235.958	87.21
236.428	82.51
236.899	76.91
237.369	80.11
237.84	73.71
238.31	78.01
238.78	75.01
239.251	78.81
239.721	79.51
240.191	80.21
240.662	85.71
241.132	81.31
241.602	84.01
242.072	80.41
242.542	76.71
243.013	78.61
243.483	83.71
243.953	83.01
244.423	80.81
244.893	81.91
245.363	84.61
245.833	79.71
246.303	86.31
246.773	86.81
247.243	78.01
247.712	82.31
248.182	77.61
248.652	83.81
249.122	82.81
249.592	78.51
250.061	77.91
250.531	84.81
251.001	81.21
251.471	80.51
251.94	80.71
252.41	81.91
252.879	78.01
253.349	82.01
253.818	81.51
254.288	81.21
254.757	87.81
255.227	85.11
255.696	79.51
256.166	79.51
256.635	82.81
257.105	85.81
257.574	76.51
258.043	80.51
258.513	78.11
258.982	86.41
259.451	84.41
259.92	86.21
260.389	78.71
260.859	85.91
261.328	82.01
261.797	83.51
262.266	83.91
262.735	82.21
263.204	84.01
263.673	80.41
264.142	80.41
264.611	78.11
265.08	83.81
265.549	81.31
266.018	82.51
266.487	81.61
266.955	85.31
267.424	80.71
267.893	82.81
268.362	82.21
268.83	82.71
269.299	82.51
269.768	83.91
270.236	86.81
270.705	85.11
271.174	84.31
271.642	76.31
272.111	78.41
272.579	86.41
273.048	84.11
273.516	82.21
273.985	81.81
274.453	84.71
274.922	83.41
275.39	83.51
275.858	87.11
276.327	86.01
276.795	86.81
277.263	84.21
277.731	86.21
278.2	82.51
278.668	80.61
279.136	76.61
279.604	86.21
280.072	81.51
280.54	82.21
281.008	86.11
281.477	85.71
281.945	84.71
282.413	86.41
282.881	87.71
283.348	83.41
283.816	83.51
284.284	88.41
284.752	85.71
285.22	87.31
285.688	79.91
286.156	83.11
286.623	82.71
287.091	91.31
287.559	85.21
288.026	87.11
288.494	88.41
288.962	83.21
289.429	80.61
289.897	83.01
290.364	89.61
290.832	85.81
291.3	80.71
291.767	85.31
292.234	81.61
292.702	89.61
293.169	86.41
293.637	82.71
294.104	83.21
294.571	82.11
295.039	85.61
295.506	83.71
295.973	83.71
296.44	80.31
296.908	78.01
297.375	85.01
297.842	80.51
298.309	84.21
298.776	87.71
299.243	88.51
299.71	84.71
300.177	85.31
300.644	87.01
301.111	88.21
301.578	85.81
302.045	87.51
302.512	91.41
302.979	85.51
303.446	87.61
303.913	83.51
304.379	87.41
304.846	90.41
305.313	85.71
305.78	85.61
306.246	92.11
306.713	83.51
307.18	87.01
307.646	91.31
308.113	87.01
308.579	89.11
309.046	86.31
309.512	85.81
309.979	84.31
310.445	84.71
310.912	88.71
311.378	90.11
311.845	91.11
312.311	83.91
312.777	82.61
313.244	84.51
313.71	82.91
314.176	88.41
314.642	88.91
315.109	90.41
315.575	86.41
316.041	88.01
316.507	92.11
316.973	89.61
317.439	91.31
317.905	86.11
318.371	84.51
318.837	80.81
319.303	83.91
319.769	83.11
320.235	86.11
320.701	91.01
321.167	85.01
321.633	84.91
322.099	88.91
322.564	88.81
323.03	92.71
323.496	93.71
323.962	94.01
324.427	90.31
324.893	86.41
325.359	87.51
325.824	88.61
326.29	85.11
326.755	84.41
327.221	87.11
327.686	85.31
328.152	86.81
328.617	87.91
329.083	85.31
329.548	83.91
330.014	84.31
330.479	80.31
330.944	86.91
331.41	84.51
331.875	85.81
332.34	84.91
332.805	92.21
333.271	87.71
333.736	88.51
334.201	84.11
334.666	87.61
335.131	89.61
335.596	86.61
336.061	87.31
336.526	89.11
336.991	89.91
337.456	88.21
337.921	88.61
338.386	83.81
338.851	93.31
339.316	92.21
339.781	87.81
340.246	90.41
340.711	90.51
341.175	90.71
341.64	92.21
342.105	90.91
342.569	87.01
343.034	86.61
343.499	81.81
343.963	85.81
344.428	89.21
344.893	85.31
345.357	88.81
345.822	83.11
346.286	84.81
346.751	86.51
347.215	88.71
347.679	82.41
348.144	92.51
348.608	87.51
349.073	86.31
349.537	86.01
350.001	87.71
350.465	90.81
350.93	92.81
351.394	87.01
351.858	89.21
352.322	90.21
352.786	93.41
353.25	87.41
353.715	84.21
354.179	87.21
354.643	89.41
355.107	86.31
355.571	90.31
356.035	89.81
356.498	89.11
356.962	86.61
357.426	87.41
357.89	90.41
358.354	87.31
358.818	91.61
359.281	87.91
359.745	87.01
360.209	89.01
360.673	89.91
361.136	82.61
361.6	84.91
362.064	93.31
362.527	87.41
362.991	96.31
363.454	86.31
363.918	88.01
364.381	83.61
364.845	89.11
365.308	89.11
365.772	86.31
366.235	88.11
366.698	85.11
367.162	93.71
367.625	94.91
368.088	95.61
368.552	93.61
369.015	89.31
369.478	92.41
369.941	92.31
370.404	97.71
370.867	91.41
371.331	92.81
371.794	96.21
372.257	89.31
372.72	97.81
373.183	90.61
373.646	89.61
374.109	97.51
374.572	96.21
375.035	92.71
375.497	95.11
375.96	99.31
376.423	96.11
376.886	95.31
377.349	96.01
377.811	97.71
378.274	95.51
378.737	93.61
379.199	96.51
379.662	103.21
380.125	99.41
380.587	102.11
381.05	99.21
381.512	102.61
381.975	98.21
382.437	99.61
382.9	99.81
383.362	100.81
383.825	104.51
384.287	105.71
384.75	103.51
385.212	106.91
385.674	102.71
386.136	108.11
386.599	112.31
387.061	104.71
387.523	102.41
387.985	105.21
388.447	102.31
388.91	109.11
389.372	103.81
389.834	101.81
390.296	104.51
390.758	108.01
391.22	114.21
391.682	113.71
392.144	110.21
392.606	109.21
393.068	110.81
393.529	116.71
393.991	112.41
394.453	115.21
394.915	120.01
395.377	114.11
395.838	123.61
396.3	117.51
396.762	123.61
397.224	121.81
397.685	121.61
398.147	123.71
398.608	127.01
399.07	118.51
399.531	129.21
399.993	126.21
400.454	129.41
400.916	132.71
401.377	128.11
401.839	131.61
402.3	132.71
402.762	135.61
403.223	137.21
403.684	136.11
404.145	141.01
404.607	138.51
405.068	147.91
405.529	145.31
405.99	148.51
406.451	146.61
406.913	147.31
407.374	156.11
407.835	156.01
408.296	161.61
408.757	161.71
409.218	169.01
409.679	169.21
410.14	171.01
410.601	172.41
411.062	179.71
411.522	171.71
411.983	181.81
412.444	190.61
412.905	189.21
413.366	196.61
413.826	201.61
414.287	204.01
414.748	208.01
415.208	213.01
415.669	214.21
416.13	221.01
416.59	223.11
417.051	235.41
417.511	239.41
417.972	240.21
418.432	249.91
418.893	256.81
419.353	260.31
419.814	261.01
420.274	271.61
420.734	279.91
421.195	283.01
421.655	298.11
422.115	300.31
422.576	312.91
423.036	319.61
423.496	329.41
423.956	336.51
424.416	344.31
424.876	363.71
425.336	364.31
425.797	371.51
426.257	376.61
426.717	407.51
427.177	407.71
427.637	428.11
428.097	428.41
428.556	435.11
429.016	458.41
429.476	467.51
429.936	490.01
430.396	505.61
430.856	515.31
431.315	530.31
431.775	549.01
432.235	564.61
432.694	572.81
433.154	597.81
433.614	601.11
434.073	631.41
434.533	633.61
434.993	648.71
435.452	671.61
435.912	675.21
436.371	706.21
436.83	715.61
437.29	719.01
437.749	741.51
438.209	759.81
438.668	780.11
439.127	795.11
439.587	803.21
440.046	808.01
440.505	842.41
440.964	853.91
441.424	863.81
441.883	905.51
442.342	906.11
442.801	922.31
443.26	955.91
443.719	974.11
444.178	979.11
444.637	997.41
445.096	1028.11
445.555	1035.71
446.014	1035.21
446.473	1037.91
446.932	1071.91
447.391	1098.91
447.849	1122.31
448.308	1109.31
448.767	1138.11
449.226	1161.61
449.685	1169.01
450.143	1199.61
450.602	1228.41
451.061	1210.11
451.519	1245.31
451.978	1268.91
452.436	1265.31
452.895	1290.61
453.353	1286.31
453.812	1297.81
454.27	1335.31
454.729	1340.81
455.187	1360.91
455.646	1359.21
456.104	1387.01
456.562	1394.61
457.021	1415.41
457.479	1370.41
457.937	1410.81
458.395	1465.11
458.854	1441.31
459.312	1432.11
459.77	1447.01
460.228	1443.71
460.686	1487.51
461.144	1473.61
461.602	1466.01
462.06	1473.71
462.518	1481.01
462.976	1485.81
463.434	1466.31
463.892	1468.11
464.35	1464.21
464.808	1475.61
465.266	1475.41
465.724	1485.91
466.181	1492.31
466.639	1470.61
467.097	1510.21
467.555	1546.01
468.012	1511.61
468.47	1501.21
468.928	1535.51
469.385	1546.71
469.843	1566.91
470.3	1544.91
470.758	1581.01
471.215	1586.01
471.673	1599.31
472.13	1641.31
472.588	1652.51
473.045	1658.91
473.503	1719.51
473.96	1765.11
474.417	1755.81
474.875	1803.61
475.332	1807.61
475.789	1821.01
476.246	1868.31
476.704	1905.41
477.161	1930.41
477.618	1949.31
478.075	1985.01
478.532	2063.31
478.989	2076.11
479.446	2113.61
479.903	2131.41
480.36	2235.51
480.817	2230.41
481.274	2282.81
481.731	2315.61
482.188	2344.61
482.645	2406.11
483.102	2435.31
483.558	2462.51
484.015	2518.21
484.472	2547.61
484.929	2615.41
485.385	2638.91
485.842	2653.41
486.299	2719.01
486.755	2723.61
487.212	2739.91
487.668	2777.21
488.125	2788.81
488.582	2777.61
489.038	2813.21
489.494	2836.61
489.951	2851.51
490.407	2872.51
490.864	2880.81
491.32	2897.11
491.776	2893.71
492.233	2909.91
492.689	2905.01
493.145	2907.21
493.602	2890.41
494.058	2909.11
494.514	2909.91
494.97	2911.61
495.426	2910.21
495.882	2896.41
496.338	2888.41
496.794	2943.11
497.251	2916.61
497.707	2936.21
498.163	2934.91
498.618	2942.61
499.074	2918.91
499.53	2932.11
499.986	2943.91
500.442	2942.51
500.898	2935.81
501.354	2962.21
501.809	2953.51
502.265	2950.71
502.721	2948.31
503.177	2962.01
503.632	2958.71
504.088	2938.41
504.543	2951.71
504.999	2964.91
505.455	2944.81
505.91	2959.31
506.366	2969.41
506.821	2971.51
507.277	2974.21
507.732	2964.01
508.187	2945.61
508.643	2952.11
509.098	2941.81
509.553	2934.21
510.009	2915.91
510.464	2934.21
510.919	2930.71
511.375	2915.21
511.83	2881.11
512.285	2879.21
512.74	2904.21
513.195	2851.61
513.65	2842.21
514.105	2867.31
514.56	2822.81
515.015	2847.01
515.47	2835.51
515.925	2808.61
516.38	2785.81
516.835	2782.91
517.29	2772.51
517.745	2774.61
518.2	2780.71
518.655	2748.01
519.109	2738.61
519.564	2718.51
520.019	2724.11
520.474	2727.51
520.928	2717.61
521.383	2696.61
521.838	2693.01
522.292	2685.01
522.747	2673.81
523.201	2679.81
523.656	2656.51
524.11	2669.21
524.565	2665.31
525.019	2666.81
525.474	2676.51
525.928	2639.81
526.382	2652.71
526.837	2654.31
527.291	2669.21
527.745	2632.91
528.2	2655.21
528.654	2624.71
529.108	2637.01
529.562	2641.11
530.016	2642.21
530.47	2658.71
530.925	2645.81
531.379	2647.31
531.833	2676.51
532.287	2664.91
532.741	2644.71
533.195	2657.41
533.649	2666.21
534.103	2675.91
534.556	2664.01
535.01	2650.11
535.464	2647.31
535.918	2659.41
536.372	2678.51
536.826	2652.71
537.279	2648.21
537.733	2653.21
538.187	2665.31
538.64	2638.11
539.094	2658.41
539.548	2673.31
540.001	2656.11
540.455	2645.41
540.908	2633.21
541.362	2619.81
541.815	2618.91
542.269	2620.81
542.722	2605.81
543.175	2606.71
543.629	2600.41
544.082	2591.81
544.536	2584.91
544.989	2564.61
545.442	2574.61
545.895	2576.41
546.349	2561.51
546.802	2570.31
547.255	2570.51
547.708	2552.21
548.161	2564.41
548.614	2541.71
549.067	2537.61
549.52	2565.91
549.973	2527.01
550.426	2535.71
550.879	2544.11
551.332	2526.51
551.785	2534.91
552.238	2527.51
552.691	2529.91
553.144	2544.61
553.596	2529.11
554.049	2561.31
554.502	2556.91
554.955	2521.91
555.407	2544.11
555.86	2572.71
556.313	2549.21
556.765	2563.51
557.218	2562.41
557.67	2582.41
558.123	2580.61
558.576	2581.61
559.028	2576.41
559.48	2596.11
559.933	2593.51
560.385	2598.71
560.838	2598.81
561.29	2594.11
561.742	2630.61
562.195	2604.31
562.647	2610.01
563.099	2634.21
563.551	2613.91
564.004	2636.31
564.456	2633.11
564.908	2636.01
565.36	2620.51
565.812	2637.81
566.264	2653.71
566.716	2646.61
567.168	2618.41
567.62	2654.71
568.072	2648.51
568.524	2630.61
568.976	2638.41
569.428	2632.51
569.88	2630.81
570.332	2648.71
570.784	2645.61
571.235	2632.51
571.687	2634.01
572.139	2620.01
572.59	2639.31
573.042	2627.01
573.494	2628.41
573.945	2600.91
574.397	2579.81
574.849	2594.01
575.3	2587.61
575.752	2585.91
576.203	2539.51
576.655	2558.51
577.106	2566.41
577.557	2547.81
578.009	2525.81
578.46	2562.71
578.912	2518.21
579.363	2554.01
579.814	2527.71
580.265	2529.81
580.717	2520.61
581.168	2534.01
581.619	2526.21
582.07	2538.01
582.521	2511.51
582.972	2511.11
583.423	2533.21
583.875	2521.21
584.326	2537.51
584.777	2531.01
585.227	2525.21
585.678	2519.31
586.129	2519.51
586.58	2527.41
587.031	2520.21
587.482	2538.41
587.933	2509.21
588.384	2538.41
588.834	2522.81
589.285	2532.21
589.736	2542.91
590.186	2543.41
590.637	2526.61
591.088	2536.51
591.538	2553.51
591.989	2564.71
592.439	2542.41
592.89	2554.01
593.34	2558.11
593.791	2561.01
594.241	2565.11
594.692	2554.71
595.142	2575.11
595.593	2544.81
596.043	2575.91
596.493	2577.41
596.943	2546.41
597.394	2594.71
597.844	2564.31
598.294	2580.11
598.744	2572.61
599.195	2580.31
599.645	2593.01
600.095	2574.61
600.545	2596.21
600.995	2601.81
601.445	2589.81
601.895	2597.51
602.345	2618.01
602.795	2596.71
603.245	2607.11
603.695	2601.41
604.145	2595.01
604.594	2604.91
605.044	2596.41
605.494	2586.01
605.944	2602.01
606.393	2626.11
606.843	2621.61
607.293	2618.41
607.743	2623.31
608.192	2621.81
608.642	2617.21
609.091	2607.01
609.541	2602.71
609.99	2626.41
610.44	2595.01
610.889	2632.81
611.339	2619.01
611.788	2613.21
612.238	2620.61
612.687	2615.81
613.136	2608.71
613.586	2625.31
614.035	2589.01
614.484	2617.31
614.933	2618.01
615.383	2596.11
615.832	2606.11
616.281	2608.11
616.73	2607.21
617.179	2620.01
617.628	2603.11
618.077	2591.61
618.526	2596.41
618.975	2578.11
619.424	2565.01
619.873	2606.71
620.322	2591.31
620.771	2595.71
621.22	2593.01
621.669	2583.71
622.118	2604.81
622.567	2606.81
623.015	2575.11
623.464	2586.51
623.913	2580.91
624.361	2595.11
624.81	2593.71
625.259	2600.81
625.707	2570.31
626.156	2568.91
626.604	2604.41
627.053	2574.91
627.501	2566.81
627.95	2584.61
628.398	2590.61
628.847	2562.71
629.295	2560.11
629.744	2557.91
630.192	2550.71
630.64	2548.41
631.089	2542.41
631.537	2559.81
631.985	2544.01
632.433	2556.31
632.881	2541.51
633.33	2535.71
633.778	2523.81
634.226	2517.21
634.674	2535.71
635.122	2521.81
635.57	2516.41
636.018	2546.61
636.466	2511.81
636.914	2462.61
637.362	2508.61
637.81	2497.91
638.258	2520.31
638.705	2471.61
639.153	2489.91
639.601	2475.01
640.049	2496.81
640.497	2490.71
640.944	2484.51
641.392	2469.61
641.84	2478.31
642.287	2468.21
642.735	2475.11
643.182	2448.51
643.63	2475.41
644.078	2470.91
644.525	2455.41
644.973	2458.91
645.42	2470.91
645.867	2477.21
646.315	2442.81
646.762	2454.31
647.21	2439.91
647.657	2448.11
648.104	2462.11
648.551	2394.51
648.999	2460.61
649.446	2445.81
649.893	2424.21
650.34	2417.21
650.787	2424.81
651.234	2424.51
651.682	2435.41
652.129	2410.61
652.576	2407.71
653.023	2434.91
653.47	2405.61
653.917	2410.91
654.363	2407.41
654.81	2418.01
655.257	2403.01
655.704	2395.11
656.151	2397.01
656.598	2392.51
657.044	2377.51
657.491	2392.81
657.938	2390.71
658.385	2384.51
658.831	2386.71
659.278	2380.41
659.724	2374.01
660.171	2372.31
660.618	2371.21
661.064	2354.81
661.511	2365.31
661.957	2357.51
662.404	2370.61
662.85	2357.31
663.296	2344.11
663.743	2345.41
664.189	2338.81
664.635	2343.71
665.082	2317.11
665.528	2318.41
665.974	2315.01
666.42	2316.71
666.867	2325.81
667.313	2325.91
667.759	2326.41
668.205	2316.51
668.651	2296.61
669.097	2281.61
669.543	2307.31
669.989	2286.61
670.435	2297.31
670.881	2295.91
671.327	2258.41
671.773	2275.51
672.219	2239.51
672.665	2256.61
673.11	2266.51
673.556	2235.41
674.002	2236.51
674.448	2228.41
674.893	2202.81
675.339	2223.61
675.785	2214.21
676.23	2212.71
676.676	2199.81
677.122	2197.51
677.567	2184.51
678.013	2161.81
678.458	2165.01
678.904	2177.51
679.349	2143.21
679.794	2133.11
680.24	2125.81
680.685	2118.31
681.131	2110.61
681.576	2102.21
682.021	2100.41
682.466	2081.31
682.912	2071.11
683.357	2075.91
683.802	2054.11
684.247	2056.11
684.692	2033.71
685.137	2037.91
685.583	2032.81
686.028	2011.91
686.473	2009.61
686.918	2006.21
687.363	2008.61
687.807	1993.21
688.252	1975.41
688.697	1971.91
689.142	1976.11
689.587	1964.91
690.032	1944.01
690.477	1950.21
690.921	1924.51
691.366	1943.41
691.811	1928.91
692.255	1938.71
692.7	1913.31
693.145	1913.41
693.589	1905.21
694.034	1903.71
694.478	1906.21
694.923	1888.11
695.367	1882.71
695.812	1866.31
696.256	1869.71
696.701	1889.21
697.145	1858.41
697.59	1851.61
698.034	1837.71
698.478	1843.91
698.922	1836.71
699.367	1844.11
699.811	1830.71
700.255	1822.71
700.699	1810.61
701.143	1802.11
701.588	1799.31
702.032	1783.61
702.476	1797.71
702.92	1804.51
703.364	1772.71
703.808	1779.91
704.252	1782.31
704.696	1772.91
705.14	1768.81
705.584	1770.61
706.027	1759.91
706.471	1752.81
706.915	1753.31
707.359	1757.51
707.803	1726.41
708.246	1729.61
708.69	1726.01
709.134	1730.81
709.577	1719.41
710.021	1718.61
710.465	1703.31
710.908	1705.71
711.352	1704.11
711.795	1695.11
712.239	1695.41
712.682	1691.41
713.126	1680.71
713.569	1685.31
714.012	1674.31
714.456	1667.11
714.899	1673.81
715.342	1659.21
715.786	1655.31
716.229	1659.51
716.672	1649.61
717.115	1650.01
717.558	1640.01
718.002	1628.31
718.445	1634.41
718.888	1635.01
719.331	1613.01
719.774	1620.71
720.217	1606.61
720.66	1611.81
721.103	1606.71
721.546	1591.31
721.989	1596.01
722.432	1585.21
722.874	1600.51
723.317	1589.21
723.76	1586.91
724.203	1579.61
724.645	1588.01
725.088	1569.41
725.531	1573.91
725.974	1556.71
726.416	1560.61
726.859	1555.31
727.301	1551.91
727.744	1560.41
728.187	1550.51
728.629	1537.91
729.071	1531.91
729.514	1528.11
729.956	1533.61
730.399	1523.81
730.841	1522.41
731.283	1515.01
731.726	1500.71
732.168	1499.91
732.61	1500.01
733.053	1491.31
733.495	1476.31
733.937	1471.21
734.379	1477.81
734.821	1457.91
735.263	1454.41
735.705	1449.51
736.148	1454.71
736.59	1456.41
737.032	1456.51
737.474	1448.71
737.916	1429.81
738.357	1440.31
738.799	1441.51
739.241	1417.81
739.683	1440.21
740.125	1421.11
740.567	1408.81
741.008	1433.41
741.45	1413.51
741.892	1405.01
742.334	1402.31
742.775	1401.81
743.217	1394.71
743.658	1377.71
744.1	1366.81
744.542	1369.81
