Data from 20170802-ORNL-NYSim-Air_HRD10391_10-37-44-644.txt Node
Date: Wed Aug 02 10:37:44 EDT 2017
User: Ender
Spectrometer: HR+D1039
Trigger mode: 0
Integration Time (sec): 1.510000E-3
Scans to average: 1
Electric dark correction enabled: true
Nonlinearity correction enabled: false
Boxcar width: 0
XAxis mode: Wavelengths
Number of Pixels in Spectrum: 2048
>>>>>Begin Spectral Data<<<<<
187.836	15.25
188.309	15.25
188.782	15.25
189.255	0.25
189.728	11.25
190.201	-6.75
190.674	-14.75
191.147	-13.75
191.619	-13.75
192.092	8.25
192.565	2.25
193.038	9.25
193.511	7.25
193.984	-27.75
194.456	9.25
194.929	7.25
195.402	1.25
195.874	5.25
196.347	29.25
196.82	24.25
197.292	28.25
197.765	41.25
198.237	33.25
198.71	59.25
199.182	33.25
199.655	55.25
200.127	42.25
200.6	63.25
201.072	63.25
201.544	68.25
202.017	77.25
202.489	73.25
202.961	61.25
203.433	65.25
203.906	71.25
204.378	82.25
204.85	77.25
205.322	92.25
205.794	67.25
206.266	67.25
206.739	86.25
207.211	101.25
207.683	91.25
208.155	103.25
208.627	96.25
209.099	91.25
209.57	89.25
210.042	82.25
210.514	92.25
210.986	77.25
211.458	81.25
211.93	94.25
212.402	77.25
212.873	89.25
213.345	76.25
213.817	105.25
214.288	86.25
214.76	95.25
215.232	68.25
215.703	85.25
216.175	85.25
216.646	90.25
217.118	94.25
217.589	73.25
218.061	95.25
218.532	80.25
219.004	94.25
219.475	72.25
219.946	82.25
220.418	86.25
220.889	79.25
221.36	83.25
221.832	88.25
222.303	62.25
222.774	89.25
223.245	85.25
223.717	89.25
224.188	88.25
224.659	79.25
225.13	77.25
225.601	80.25
226.072	68.25
226.543	78.25
227.014	81.25
227.485	92.25
227.956	95.25
228.427	81.25
228.898	95.25
229.369	80.25
229.839	87.25
230.31	87.25
230.781	74.25
231.252	89.25
231.722	88.25
232.193	84.25
232.664	90.25
233.135	71.25
233.605	94.25
234.076	87.25
234.546	77.25
235.017	78.25
235.487	103.25
235.958	71.25
236.428	86.25
236.899	82.25
237.369	76.25
237.84	80.25
238.31	82.25
238.78	87.25
239.251	71.25
239.721	83.25
240.191	90.25
240.662	87.25
241.132	94.25
241.602	94.25
242.072	94.25
242.542	74.25
243.013	91.25
243.483	97.25
243.953	88.25
244.423	81.25
244.893	89.25
245.363	97.25
245.833	79.25
246.303	81.25
246.773	74.25
247.243	102.25
247.712	97.25
248.182	81.25
248.652	95.25
249.122	80.25
249.592	91.25
250.061	97.25
250.531	90.25
251.001	96.25
251.471	87.25
251.94	95.25
252.41	101.25
252.879	94.25
253.349	104.25
253.818	98.25
254.288	93.25
254.757	96.25
255.227	94.25
255.696	91.25
256.166	109.25
256.635	95.25
257.105	100.25
257.574	107.25
258.043	100.25
258.513	99.25
258.982	103.25
259.451	79.25
259.92	96.25
260.389	102.25
260.859	103.25
261.328	101.25
261.797	99.25
262.266	103.25
262.735	108.25
263.204	94.25
263.673	104.25
264.142	99.25
264.611	104.25
265.08	95.25
265.549	106.25
266.018	115.25
266.487	96.25
266.955	80.25
267.424	93.25
267.893	103.25
268.362	104.25
268.83	113.25
269.299	100.25
269.768	116.25
270.236	102.25
270.705	99.25
271.174	110.25
271.642	103.25
272.111	97.25
272.579	99.25
273.048	92.25
273.516	112.25
273.985	103.25
274.453	101.25
274.922	104.25
275.39	117.25
275.858	98.25
276.327	112.25
276.795	91.25
277.263	119.25
277.731	134.25
278.2	100.25
278.668	98.25
279.136	97.25
279.604	107.25
280.072	100.25
280.54	104.25
281.008	109.25
281.477	111.25
281.945	105.25
282.413	110.25
282.881	144.25
283.348	100.25
283.816	107.25
284.284	117.25
284.752	117.25
285.22	109.25
285.688	109.25
286.156	116.25
286.623	97.25
287.091	118.25
287.559	133.25
288.026	139.25
288.494	115.25
288.962	117.25
289.429	113.25
289.897	123.25
290.364	133.25
290.832	106.25
291.3	105.25
291.767	117.25
292.234	109.25
292.702	131.25
293.169	125.25
293.637	98.25
294.104	107.25
294.571	131.25
295.039	109.25
295.506	117.25
295.973	128.25
296.44	125.25
296.908	117.25
297.375	129.25
297.842	120.25
298.309	128.25
298.776	115.25
299.243	105.25
299.71	124.25
300.177	123.25
300.644	124.25
301.111	121.25
301.578	140.25
302.045	129.25
302.512	108.25
302.979	126.25
303.446	124.25
303.913	136.25
304.379	148.25
304.846	121.25
305.313	128.25
305.78	119.25
306.246	111.25
306.713	132.25
307.18	111.25
307.646	126.25
308.113	150.25
308.579	131.25
309.046	133.25
309.512	137.25
309.979	153.25
310.445	145.25
310.912	139.25
311.378	139.25
311.845	159.25
312.311	127.25
312.777	145.25
313.244	139.25
313.71	152.25
314.176	158.25
314.642	138.25
315.109	143.25
315.575	142.25
316.041	146.25
316.507	153.25
316.973	149.25
317.439	120.25
317.905	159.25
318.371	159.25
318.837	156.25
319.303	161.25
319.769	146.25
320.235	147.25
320.701	146.25
321.167	137.25
321.633	150.25
322.099	156.25
322.564	171.25
323.03	135.25
323.496	142.25
323.962	138.25
324.427	164.25
324.893	161.25
325.359	173.25
325.824	149.25
326.29	172.25
326.755	170.25
327.221	161.25
327.686	153.25
328.152	155.25
328.617	147.25
329.083	170.25
329.548	169.25
330.014	166.25
330.479	159.25
330.944	160.25
331.41	169.25
331.875	168.25
332.34	198.25
332.805	183.25
333.271	173.25
333.736	165.25
334.201	175.25
334.666	191.25
335.131	167.25
335.596	166.25
336.061	181.25
336.526	175.25
336.991	177.25
337.456	172.25
337.921	162.25
338.386	181.25
338.851	155.25
339.316	182.25
339.781	172.25
340.246	186.25
340.711	179.25
341.175	183.25
341.64	173.25
342.105	178.25
342.569	174.25
343.034	176.25
343.499	181.25
343.963	202.25
344.428	165.25
344.893	180.25
345.357	185.25
345.822	191.25
346.286	185.25
346.751	208.25
347.215	202.25
347.679	202.25
348.144	209.25
348.608	191.25
349.073	197.25
349.537	212.25
350.001	189.25
350.465	207.25
350.93	218.25
351.394	191.25
351.858	215.25
352.322	241.25
352.786	234.25
353.25	216.25
353.715	214.25
354.179	229.25
354.643	234.25
355.107	241.25
355.571	240.25
356.035	214.25
356.498	228.25
356.962	210.25
357.426	230.25
357.89	216.25
358.354	213.25
358.818	235.25
359.281	217.25
359.745	211.25
360.209	238.25
360.673	229.25
361.136	231.25
361.6	215.25
362.064	232.25
362.527	249.25
362.991	237.25
363.454	238.25
363.918	246.25
364.381	261.25
364.845	233.25
365.308	257.25
365.772	235.25
366.235	250.25
366.698	253.25
367.162	233.25
367.625	249.25
368.088	231.25
368.552	230.25
369.015	237.25
369.478	247.25
369.941	238.25
370.404	264.25
370.867	246.25
371.331	259.25
371.794	265.25
372.257	263.25
372.72	252.25
373.183	262.25
373.646	239.25
374.109	254.25
374.572	239.25
375.035	256.25
375.497	269.25
375.96	260.25
376.423	263.25
376.886	256.25
377.349	289.25
377.811	267.25
378.274	262.25
378.737	287.25
379.199	275.25
379.662	274.25
380.125	271.25
380.587	296.25
381.05	297.25
381.512	277.25
381.975	293.25
382.437	297.25
382.9	304.25
383.362	302.25
383.825	298.25
384.287	283.25
384.75	297.25
385.212	291.25
385.674	294.25
386.136	291.25
386.599	283.25
387.061	309.25
387.523	323.25
387.985	300.25
388.447	316.25
388.91	316.25
389.372	331.25
389.834	316.25
390.296	307.25
390.758	327.25
391.22	319.25
391.682	304.25
392.144	298.25
392.606	309.25
393.068	343.25
393.529	349.25
393.991	347.25
394.453	330.25
394.915	327.25
395.377	311.25
395.838	325.25
396.3	292.25
396.762	317.25
397.224	298.25
397.685	323.25
398.147	333.25
398.608	296.25
399.07	334.25
399.531	311.25
399.993	358.25
400.454	357.25
400.916	366.25
401.377	353.25
401.839	343.25
402.3	371.25
402.762	354.25
403.223	379.25
403.684	379.25
404.145	376.25
404.607	359.25
405.068	360.25
405.529	364.25
405.99	340.25
406.451	395.25
406.913	382.25
407.374	377.25
407.835	371.25
408.296	373.25
408.757	383.25
409.218	377.25
409.679	415.25
410.14	389.25
410.601	398.25
411.062	379.25
411.522	401.25
411.983	389.25
412.444	398.25
412.905	436.25
413.366	416.25
413.826	444.25
414.287	483.25
414.748	558.25
415.208	549.25
415.669	503.25
416.13	466.25
416.59	458.25
417.051	483.25
417.511	444.25
417.972	499.25
418.432	529.25
418.893	582.25
419.353	564.25
419.814	466.25
420.274	418.25
420.734	408.25
421.195	419.25
421.655	415.25
422.115	428.25
422.576	427.25
423.036	415.25
423.496	414.25
423.956	447.25
424.416	465.25
424.876	519.25
425.336	521.25
425.797	513.25
426.257	502.25
426.717	491.25
427.177	461.25
427.637	491.25
428.097	497.25
428.556	516.25
429.016	535.25
429.476	572.25
429.936	532.25
430.396	513.25
430.856	559.25
431.315	537.25
431.775	597.25
432.235	625.25
432.694	646.25
433.154	618.25
433.614	597.25
434.073	571.25
434.533	523.25
434.993	520.25
435.452	519.25
435.912	486.25
436.371	501.25
436.83	506.25
437.29	509.25
437.749	484.25
438.209	468.25
438.668	464.25
439.127	497.25
439.587	485.25
440.046	455.25
440.505	495.25
440.964	487.25
441.424	481.25
441.883	509.25
442.342	475.25
442.801	445.25
443.26	475.25
443.719	474.25
444.178	439.25
444.637	488.25
445.096	482.25
445.555	463.25
446.014	465.25
446.473	473.25
446.932	479.25
447.391	476.25
447.849	479.25
448.308	456.25
448.767	468.25
449.226	480.25
449.685	491.25
450.143	497.25
450.602	509.25
451.061	475.25
451.519	473.25
451.978	470.25
452.436	500.25
452.895	494.25
453.353	487.25
453.812	466.25
454.27	468.25
454.729	461.25
455.187	471.25
455.646	470.25
456.104	449.25
456.562	471.25
457.021	497.25
457.479	459.25
457.937	496.25
458.395	489.25
458.854	495.25
459.312	480.25
459.77	483.25
460.228	508.25
460.686	515.25
461.144	527.25
461.602	502.25
462.06	500.25
462.518	508.25
462.976	511.25
463.434	511.25
463.892	547.25
464.35	552.25
464.808	546.25
465.266	559.25
465.724	543.25
466.181	554.25
466.639	557.25
467.097	587.25
467.555	588.25
468.012	594.25
468.47	599.25
468.928	598.25
469.385	594.25
469.843	639.25
470.3	634.25
470.758	595.25
471.215	647.25
471.673	664.25
472.13	681.25
472.588	687.25
473.045	694.25
473.503	676.25
473.96	737.25
474.417	751.25
474.875	759.25
475.332	786.25
475.789	781.25
476.246	837.25
476.704	815.25
477.161	847.25
477.618	916.25
478.075	943.25
478.532	967.25
478.989	1047.25
479.446	1144.25
479.903	1216.25
480.36	1280.25
480.817	1413.25
481.274	1471.25
481.731	1624.25
482.188	1739.25
482.645	1865.25
483.102	1958.25
483.558	2089.25
484.015	2172.25
484.472	2200.25
484.929	2126.25
485.385	2064.25
485.842	2014.25
486.299	1931.25
486.755	1799.25
487.212	1592.25
487.668	1445.25
488.125	1342.25
488.582	1233.25
489.038	1183.25
489.494	1167.25
489.951	1132.25
490.407	1125.25
490.864	1099.25
491.32	1079.25
491.776	1034.25
492.233	1061.25
492.689	1083.25
493.145	1014.25
493.602	1011.25
494.058	1007.25
494.514	1045.25
494.97	1015.25
495.426	1047.25
495.882	1059.25
496.338	1031.25
496.794	1062.25
497.251	1011.25
497.707	1061.25
498.163	1056.25
498.618	1057.25
499.074	1035.25
499.53	1070.25
499.986	1066.25
500.442	1053.25
500.898	1079.25
501.354	1073.25
501.809	1085.25
502.265	1133.25
502.721	1119.25
503.177	1108.25
503.632	1049.25
504.088	1069.25
504.543	1067.25
504.999	1139.25
505.455	1096.25
505.91	1086.25
506.366	1107.25
506.821	1084.25
507.277	1102.25
507.732	1132.25
508.187	1078.25
508.643	1125.25
509.098	1113.25
509.553	1115.25
510.009	1128.25
510.464	1143.25
510.919	1152.25
511.375	1157.25
511.83	1156.25
512.285	1177.25
512.74	1210.25
513.195	1215.25
513.65	1243.25
514.105	1291.25
514.56	1263.25
515.015	1282.25
515.47	1307.25
515.925	1305.25
516.38	1279.25
516.835	1294.25
517.29	1267.25
517.745	1287.25
518.2	1272.25
518.655	1254.25
519.109	1257.25
519.564	1259.25
520.019	1194.25
520.474	1167.25
520.928	1186.25
521.383	1171.25
521.838	1189.25
522.292	1163.25
522.747	1198.25
523.201	1153.25
523.656	1181.25
524.11	1133.25
524.565	1131.25
525.019	1157.25
525.474	1170.25
525.928	1108.25
526.382	1139.25
526.837	1149.25
527.291	1131.25
527.745	1145.25
528.2	1149.25
528.654	1141.25
529.108	1133.25
529.562	1125.25
530.016	1137.25
530.47	1148.25
530.925	1108.25
531.379	1157.25
531.833	1124.25
532.287	1150.25
532.741	1127.25
533.195	1139.25
533.649	1142.25
534.103	1165.25
534.556	1126.25
535.01	1149.25
535.464	1135.25
535.918	1147.25
536.372	1161.25
536.826	1161.25
537.279	1121.25
537.733	1161.25
538.187	1161.25
538.64	1132.25
539.094	1133.25
539.548	1152.25
540.001	1160.25
540.455	1147.25
540.908	1163.25
541.362	1193.25
541.815	1192.25
542.269	1226.25
542.722	1206.25
543.175	1230.25
543.629	1248.25
544.082	1243.25
544.536	1283.25
544.989	1247.25
545.442	1272.25
545.895	1282.25
546.349	1268.25
546.802	1247.25
547.255	1255.25
547.708	1255.25
548.161	1295.25
548.614	1319.25
549.067	1253.25
549.52	1297.25
549.973	1335.25
550.426	1297.25
550.879	1283.25
551.332	1265.25
551.785	1255.25
552.238	1269.25
552.691	1285.25
553.144	1309.25
553.596	1290.25
554.049	1315.25
554.502	1357.25
554.955	1373.25
555.407	1363.25
555.86	1428.25
556.313	1417.25
556.765	1371.25
557.218	1367.25
557.67	1324.25
558.123	1335.25
558.576	1351.25
559.028	1355.25
559.48	1370.25
559.933	1335.25
560.385	1330.25
560.838	1261.25
561.29	1245.25
561.742	1225.25
562.195	1163.25
562.647	1167.25
563.099	1206.25
563.551	1183.25
564.004	1169.25
564.456	1152.25
564.908	1146.25
565.36	1147.25
565.812	1096.25
566.264	1122.25
566.716	1105.25
567.168	1066.25
567.62	1096.25
568.072	1091.25
568.524	1062.25
568.976	1044.25
569.428	1051.25
569.88	1038.25
570.332	1043.25
570.784	1069.25
571.235	1049.25
571.687	1058.25
572.139	1056.25
572.59	1093.25
573.042	1080.25
573.494	1082.25
573.945	1091.25
574.397	1061.25
574.849	1049.25
575.3	1041.25
575.752	1024.25
576.203	1050.25
576.655	1019.25
577.106	1047.25
577.557	979.25
578.009	998.25
578.46	995.25
578.912	989.25
579.363	1032.25
579.814	1017.25
580.265	999.25
580.717	1025.25
581.168	982.25
581.619	1015.25
582.07	1022.25
582.521	1032.25
582.972	1013.25
583.423	991.25
583.875	1057.25
584.326	1019.25
584.777	1033.25
585.227	1073.25
585.678	1083.25
586.129	1096.25
586.58	1110.25
587.031	1150.25
587.482	1120.25
587.933	1165.25
588.384	1169.25
588.834	1153.25
589.285	1116.25
589.736	1128.25
590.186	1114.25
590.637	1105.25
591.088	1111.25
591.538	1131.25
591.989	1047.25
592.439	1052.25
592.89	1047.25
593.34	1027.25
593.791	1075.25
594.241	1003.25
594.692	1015.25
595.142	974.25
595.593	1013.25
596.043	1035.25
596.493	1042.25
596.943	1018.25
597.394	1057.25
597.844	1054.25
598.294	1091.25
598.744	1131.25
599.195	1169.25
599.645	1219.25
600.095	1298.25
600.545	1334.25
600.995	1363.25
601.445	1409.25
601.895	1499.25
602.345	1565.25
602.795	1584.25
603.245	1493.25
603.695	1443.25
604.145	1349.25
604.594	1304.25
605.044	1237.25
605.494	1155.25
605.944	1115.25
606.393	1072.25
606.843	1044.25
607.293	1036.25
607.743	1012.25
608.192	1040.25
608.642	1031.25
609.091	1074.25
609.541	1049.25
609.99	1059.25
610.44	1027.25
610.889	1019.25
611.339	1006.25
611.788	967.25
612.238	978.25
612.687	991.25
613.136	1003.25
613.586	1003.25
614.035	997.25
614.484	1015.25
614.933	1027.25
615.383	975.25
615.832	980.25
616.281	959.25
616.73	969.25
617.179	958.25
617.628	912.25
618.077	890.25
618.526	903.25
618.975	896.25
619.424	881.25
619.873	881.25
620.322	857.25
620.771	877.25
621.22	868.25
621.669	850.25
622.118	840.25
622.567	833.25
623.015	832.25
623.464	824.25
623.913	788.25
624.361	803.25
624.81	819.25
625.259	833.25
625.707	791.25
626.156	819.25
626.604	789.25
627.053	777.25
627.501	822.25
627.95	803.25
628.398	815.25
628.847	828.25
629.295	825.25
629.744	822.25
630.192	765.25
630.64	797.25
631.089	784.25
631.537	766.25
631.985	765.25
632.433	741.25
632.881	729.25
633.33	759.25
633.778	749.25
634.226	769.25
634.674	788.25
635.122	747.25
635.57	782.25
636.018	795.25
636.466	792.25
636.914	785.25
637.362	766.25
637.81	794.25
638.258	812.25
638.705	862.25
639.153	838.25
639.601	875.25
640.049	863.25
640.497	931.25
640.944	923.25
641.392	910.25
641.84	843.25
642.287	808.25
642.735	803.25
643.182	804.25
643.63	825.25
644.078	787.25
644.525	839.25
644.973	819.25
645.42	833.25
645.867	871.25
646.315	903.25
646.762	879.25
647.21	904.25
647.657	929.25
648.104	1003.25
648.551	1013.25
648.999	1092.25
649.446	1194.25
649.893	1307.25
650.34	1509.25
650.787	1750.25
651.234	2164.25
651.682	2897.25
652.129	3993.25
652.576	5737.25
653.023	7916.25
653.47	9696.25
653.917	10811.25
654.363	11576.25
654.81	12127.25
655.257	12787.25
655.704	9787.25
656.151	5911.25
656.598	3701.25
657.044	2614.25
657.491	2066.25
657.938	1672.25
658.385	1405.25
658.831	1228.25
659.278	1128.25
659.724	1029.25
660.171	957.25
660.618	913.25
661.064	854.25
661.511	836.25
661.957	780.25
662.404	805.25
662.85	780.25
663.296	762.25
663.743	735.25
664.189	765.25
664.635	764.25
665.082	729.25
665.528	741.25
665.974	696.25
666.42	683.25
666.867	675.25
667.313	647.25
667.759	641.25
668.205	653.25
668.651	636.25
669.097	633.25
669.543	645.25
669.989	650.25
670.435	666.25
670.881	662.25
671.327	682.25
671.773	699.25
672.219	759.25
672.665	809.25
673.11	855.25
673.556	833.25
674.002	873.25
674.448	933.25
674.893	795.25
675.339	673.25
675.785	620.25
676.23	615.25
676.676	575.25
677.122	571.25
677.567	539.25
678.013	538.25
678.458	539.25
678.904	527.25
679.349	544.25
679.794	511.25
680.24	512.25
680.685	521.25
681.131	499.25
681.576	512.25
682.021	520.25
682.466	506.25
682.912	530.25
683.357	548.25
683.802	543.25
684.247	601.25
684.692	627.25
685.137	694.25
685.583	714.25
686.028	745.25
686.473	731.25
686.918	650.25
687.363	592.25
687.807	541.25
688.252	541.25
688.697	528.25
689.142	503.25
689.587	491.25
690.032	534.25
690.477	521.25
690.921	539.25
691.366	563.25
691.811	593.25
692.255	605.25
692.7	711.25
693.145	889.25
693.589	1351.25
694.034	1775.25
694.478	1975.25
694.923	1822.25
695.367	2205.25
695.812	2046.25
696.256	865.25
696.701	571.25
697.145	531.25
697.59	508.25
698.034	486.25
698.478	491.25
698.922	500.25
699.367	501.25
699.811	520.25
700.255	553.25
700.699	575.25
701.143	669.25
701.588	666.25
702.032	700.25
702.476	724.25
702.92	737.25
703.364	835.25
703.808	1211.25
704.252	1654.25
704.696	1843.25
705.14	1726.25
705.584	2180.25
706.027	1775.25
706.471	886.25
706.915	618.25
707.359	570.25
707.803	504.25
708.246	502.25
708.69	479.25
709.134	483.25
709.577	447.25
710.021	441.25
710.465	445.25
710.908	467.25
711.352	462.25
711.795	480.25
712.239	560.25
712.682	560.25
713.126	566.25
713.569	601.25
714.012	570.25
714.456	479.25
714.899	453.25
715.342	423.25
715.786	416.25
716.229	411.25
716.672	403.25
717.115	417.25
717.558	415.25
718.002	406.25
718.445	418.25
718.888	439.25
719.331	431.25
719.774	460.25
720.217	452.25
720.66	430.25
721.103	438.25
721.546	428.25
721.989	402.25
722.432	357.25
722.874	405.25
723.317	398.25
723.76	391.25
724.203	445.25
724.645	554.25
725.088	687.25
725.531	689.25
725.974	692.25
726.416	768.25
726.859	526.25
727.301	394.25
727.744	389.25
728.187	363.25
728.629	367.25
729.071	420.25
729.514	407.25
729.956	429.25
730.399	456.25
730.841	434.25
731.283	431.25
731.726	413.25
732.168	416.25
732.61	433.25
733.053	467.25
733.495	497.25
733.937	520.25
734.379	602.25
734.821	697.25
735.263	967.25
735.705	1615.25
736.148	2575.25
736.59	2989.25
737.032	2828.25
737.474	3107.25
737.916	1531.25
738.357	775.25
738.799	548.25
739.241	447.25
739.683	460.25
740.125	460.25
740.567	480.25
741.008	519.25
741.45	521.25
741.892	525.25
742.334	545.25
742.775	521.25
743.217	545.25
743.658	487.25
744.1	471.25
744.542	494.25
744.983	565.25
745.425	523.25
745.866	583.25
746.307	494.25
746.749	466.25
