Data from 20170802-ORNL-NYSim-Air_HRD10391_10-36-34-610.txt Node
Date: Wed Aug 02 10:36:34 EDT 2017
User: Ender
Spectrometer: HR+D1039
Trigger mode: 0
Integration Time (sec): 3.750000E-3
Scans to average: 1
Electric dark correction enabled: true
Nonlinearity correction enabled: false
Boxcar width: 0
XAxis mode: Wavelengths
Number of Pixels in Spectrum: 2048
>>>>>Begin Spectral Data<<<<<
187.836	4.31
188.309	4.31
188.782	4.31
189.255	-0.69
189.728	-0.69
190.201	-14.69
190.674	-0.69
191.147	-8.69
191.619	-14.69
192.092	-14.69
192.565	-6.69
193.038	-4.69
193.511	0.31
193.984	6.31
194.456	-0.69
194.929	16.31
195.402	19.31
195.874	20.31
196.347	10.31
196.82	22.31
197.292	27.31
197.765	48.31
198.237	49.31
198.71	47.31
199.182	56.31
199.655	54.31
200.127	62.31
200.6	61.31
201.072	62.31
201.544	70.31
202.017	86.31
202.489	54.31
202.961	62.31
203.433	78.31
203.906	75.31
204.378	79.31
204.85	72.31
205.322	88.31
205.794	84.31
206.266	75.31
206.739	90.31
207.211	89.31
207.683	90.31
208.155	89.31
208.627	90.31
209.099	70.31
209.57	90.31
210.042	89.31
210.514	81.31
210.986	79.31
211.458	90.31
211.93	85.31
212.402	80.31
212.873	94.31
213.345	86.31
213.817	92.31
214.288	87.31
214.76	107.31
215.232	61.31
215.703	95.31
216.175	88.31
216.646	70.31
217.118	82.31
217.589	89.31
218.061	71.31
218.532	83.31
219.004	100.31
219.475	81.31
219.946	82.31
220.418	88.31
220.889	82.31
221.36	82.31
221.832	106.31
222.303	87.31
222.774	89.31
223.245	84.31
223.717	72.31
224.188	90.31
224.659	97.31
225.13	67.31
225.601	78.31
226.072	98.31
226.543	84.31
227.014	100.31
227.485	72.31
227.956	88.31
228.427	83.31
228.898	82.31
229.369	70.31
229.839	96.31
230.31	75.31
230.781	82.31
231.252	94.31
231.722	81.31
232.193	88.31
232.664	94.31
233.135	95.31
233.605	94.31
234.076	82.31
234.546	92.31
235.017	104.31
235.487	99.31
235.958	91.31
236.428	104.31
236.899	103.31
237.369	88.31
237.84	98.31
238.31	85.31
238.78	80.31
239.251	95.31
239.721	88.31
240.191	97.31
240.662	99.31
241.132	96.31
241.602	96.31
242.072	110.31
242.542	95.31
243.013	103.31
243.483	96.31
243.953	105.31
244.423	114.31
244.893	115.31
245.363	108.31
245.833	111.31
246.303	103.31
246.773	106.31
247.243	104.31
247.712	105.31
248.182	107.31
248.652	106.31
249.122	106.31
249.592	112.31
250.061	105.31
250.531	101.31
251.001	108.31
251.471	124.31
251.94	113.31
252.41	110.31
252.879	93.31
253.349	112.31
253.818	112.31
254.288	105.31
254.757	98.31
255.227	108.31
255.696	116.31
256.166	117.31
256.635	110.31
257.105	129.31
257.574	112.31
258.043	137.31
258.513	111.31
258.982	112.31
259.451	119.31
259.92	119.31
260.389	128.31
260.859	131.31
261.328	138.31
261.797	121.31
262.266	120.31
262.735	131.31
263.204	119.31
263.673	129.31
264.142	134.31
264.611	138.31
265.08	120.31
265.549	138.31
266.018	145.31
266.487	138.31
266.955	124.31
267.424	128.31
267.893	147.31
268.362	139.31
268.83	124.31
269.299	150.31
269.768	138.31
270.236	155.31
270.705	128.31
271.174	139.31
271.642	121.31
272.111	145.31
272.579	144.31
273.048	136.31
273.516	152.31
273.985	145.31
274.453	129.31
274.922	141.31
275.39	149.31
275.858	139.31
276.327	151.31
276.795	132.31
277.263	169.31
277.731	150.31
278.2	151.31
278.668	145.31
279.136	152.31
279.604	154.31
280.072	158.31
280.54	143.31
281.008	154.31
281.477	128.31
281.945	153.31
282.413	154.31
282.881	159.31
283.348	166.31
283.816	172.31
284.284	169.31
284.752	174.31
285.22	167.31
285.688	174.31
286.156	164.31
286.623	144.31
287.091	182.31
287.559	166.31
288.026	182.31
288.494	178.31
288.962	160.31
289.429	152.31
289.897	153.31
290.364	168.31
290.832	175.31
291.3	166.31
291.767	157.31
292.234	186.31
292.702	176.31
293.169	173.31
293.637	191.31
294.104	180.31
294.571	177.31
295.039	184.31
295.506	188.31
295.973	194.31
296.44	171.31
296.908	213.31
297.375	172.31
297.842	190.31
298.309	176.31
298.776	184.31
299.243	192.31
299.71	170.31
300.177	193.31
300.644	187.31
301.111	185.31
301.578	200.31
302.045	197.31
302.512	185.31
302.979	192.31
303.446	193.31
303.913	204.31
304.379	218.31
304.846	208.31
305.313	194.31
305.78	215.31
306.246	220.31
306.713	200.31
307.18	197.31
307.646	195.31
308.113	216.31
308.579	248.31
309.046	222.31
309.512	220.31
309.979	234.31
310.445	243.31
310.912	237.31
311.378	229.31
311.845	247.31
312.311	217.31
312.777	247.31
313.244	237.31
313.71	248.31
314.176	255.31
314.642	250.31
315.109	272.31
315.575	256.31
316.041	252.31
316.507	250.31
316.973	275.31
317.439	253.31
317.905	240.31
318.371	230.31
318.837	246.31
319.303	269.31
319.769	262.31
320.235	255.31
320.701	272.31
321.167	265.31
321.633	263.31
322.099	309.31
322.564	277.31
323.03	267.31
323.496	287.31
323.962	296.31
324.427	273.31
324.893	268.31
325.359	274.31
325.824	285.31
326.29	269.31
326.755	296.31
327.221	296.31
327.686	313.31
328.152	293.31
328.617	287.31
329.083	312.31
329.548	302.31
330.014	314.31
330.479	298.31
330.944	308.31
331.41	310.31
331.875	295.31
332.34	296.31
332.805	317.31
333.271	312.31
333.736	324.31
334.201	336.31
334.666	311.31
335.131	309.31
335.596	330.31
336.061	324.31
336.526	323.31
336.991	337.31
337.456	324.31
337.921	323.31
338.386	326.31
338.851	306.31
339.316	334.31
339.781	349.31
340.246	319.31
340.711	290.31
341.175	325.31
341.64	335.31
342.105	349.31
342.569	370.31
343.034	364.31
343.499	364.31
343.963	359.31
344.428	353.31
344.893	376.31
345.357	376.31
345.822	400.31
346.286	358.31
346.751	380.31
347.215	386.31
347.679	412.31
348.144	409.31
348.608	429.31
349.073	427.31
349.537	428.31
350.001	389.31
350.465	402.31
350.93	422.31
351.394	442.31
351.858	430.31
352.322	440.31
352.786	400.31
353.25	446.31
353.715	472.31
354.179	450.31
354.643	480.31
355.107	477.31
355.571	460.31
356.035	458.31
356.498	468.31
356.962	481.31
357.426	474.31
357.89	457.31
358.354	473.31
358.818	460.31
359.281	439.31
359.745	436.31
360.209	463.31
360.673	450.31
361.136	470.31
361.6	449.31
362.064	470.31
362.527	472.31
362.991	464.31
363.454	458.31
363.918	523.31
364.381	491.31
364.845	507.31
365.308	490.31
365.772	508.31
366.235	510.31
366.698	506.31
367.162	489.31
367.625	492.31
368.088	526.31
368.552	527.31
369.015	510.31
369.478	520.31
369.941	524.31
370.404	547.31
370.867	506.31
371.331	542.31
371.794	549.31
372.257	530.31
372.72	557.31
373.183	552.31
373.646	559.31
374.109	531.31
374.572	572.31
375.035	558.31
375.497	580.31
375.96	587.31
376.423	594.31
376.886	597.31
377.349	597.31
377.811	603.31
378.274	593.31
378.737	583.31
379.199	612.31
379.662	609.31
380.125	614.31
380.587	613.31
381.05	626.31
381.512	624.31
381.975	654.31
382.437	638.31
382.9	643.31
383.362	649.31
383.825	679.31
384.287	676.31
384.75	662.31
385.212	646.31
385.674	651.31
386.136	669.31
386.599	695.31
387.061	684.31
387.523	695.31
387.985	713.31
388.447	687.31
388.91	691.31
389.372	715.31
389.834	691.31
390.296	683.31
390.758	696.31
391.22	709.31
391.682	731.31
392.144	702.31
392.606	734.31
393.068	723.31
393.529	753.31
393.991	770.31
394.453	743.31
394.915	737.31
395.377	715.31
395.838	730.31
396.3	712.31
396.762	745.31
397.224	732.31
397.685	768.31
398.147	734.31
398.608	749.31
399.07	756.31
399.531	780.31
399.993	774.31
400.454	798.31
400.916	794.31
401.377	771.31
401.839	806.31
402.3	799.31
402.762	818.31
403.223	886.31
403.684	872.31
404.145	841.31
404.607	838.31
405.068	831.31
405.529	872.31
405.99	893.31
406.451	855.31
406.913	838.31
407.374	874.31
407.835	831.31
408.296	871.31
408.757	878.31
409.218	880.31
409.679	902.31
410.14	910.31
410.601	894.31
411.062	924.31
411.522	898.31
411.983	940.31
412.444	936.31
412.905	956.31
413.366	1012.31
413.826	1062.31
414.287	1111.31
414.748	1344.31
415.208	1405.31
415.669	1200.31
416.13	1098.31
416.59	1092.31
417.051	1128.31
417.511	1142.31
417.972	1245.31
418.432	1334.31
418.893	1485.31
419.353	1410.31
419.814	1120.31
420.274	996.31
420.734	979.31
421.195	1028.31
421.655	996.31
422.115	1055.31
422.576	1077.31
423.036	1037.31
423.496	1069.31
423.956	1093.31
424.416	1146.31
424.876	1296.31
425.336	1314.31
425.797	1262.31
426.257	1241.31
426.717	1176.31
427.177	1125.31
427.637	1114.31
428.097	1138.31
428.556	1167.31
429.016	1278.31
429.476	1267.31
429.936	1207.31
430.396	1234.31
430.856	1246.31
431.315	1304.31
431.775	1329.31
432.235	1454.31
432.694	1471.31
433.154	1341.31
433.614	1376.31
434.073	1310.31
434.533	1217.31
434.993	1186.31
435.452	1175.31
435.912	1190.31
436.371	1185.31
436.83	1186.31
437.29	1170.31
437.749	1139.31
438.209	1133.31
438.668	1170.31
439.127	1188.31
439.587	1168.31
440.046	1116.31
440.505	1164.31
440.964	1170.31
441.424	1222.31
441.883	1220.31
442.342	1130.31
442.801	1136.31
443.26	1104.31
443.719	1135.31
444.178	1113.31
444.637	1126.31
445.096	1129.31
445.555	1171.31
446.014	1151.31
446.473	1141.31
446.932	1164.31
447.391	1200.31
447.849	1187.31
448.308	1138.31
448.767	1149.31
449.226	1221.31
449.685	1198.31
450.143	1258.31
450.602	1250.31
451.061	1204.31
451.519	1200.31
451.978	1170.31
452.436	1192.31
452.895	1187.31
453.353	1185.31
453.812	1187.31
454.27	1193.31
454.729	1168.31
455.187	1196.31
455.646	1212.31
456.104	1225.31
456.562	1234.31
457.021	1213.31
457.479	1153.31
457.937	1232.31
458.395	1262.31
458.854	1266.31
459.312	1249.31
459.77	1246.31
460.228	1215.31
460.686	1244.31
461.144	1260.31
461.602	1231.31
462.06	1275.31
462.518	1269.31
462.976	1286.31
463.434	1307.31
463.892	1302.31
464.35	1324.31
464.808	1380.31
465.266	1397.31
465.724	1357.31
466.181	1388.31
466.639	1400.31
467.097	1405.31
467.555	1472.31
468.012	1475.31
468.47	1460.31
468.928	1519.31
469.385	1545.31
469.843	1538.31
470.3	1557.31
470.758	1588.31
471.215	1658.31
471.673	1668.31
472.13	1715.31
472.588	1776.31
473.045	1728.31
473.503	1741.31
473.96	1808.31
474.417	1824.31
474.875	1936.31
475.332	1966.31
475.789	2078.31
476.246	2034.31
476.704	2101.31
477.161	2193.31
477.618	2244.31
478.075	2300.31
478.532	2452.31
478.989	2554.31
479.446	2793.31
479.903	2900.31
480.36	3061.31
480.817	3214.31
481.274	3332.31
481.731	3634.31
482.188	3902.31
482.645	4088.31
483.102	4282.31
483.558	4541.31
484.015	4670.31
484.472	4720.31
484.929	4555.31
485.385	4418.31
485.842	4414.31
486.299	4278.31
486.755	4053.31
487.212	3760.31
487.668	3435.31
488.125	3272.31
488.582	3090.31
489.038	2984.31
489.494	2946.31
489.951	2890.31
490.407	2863.31
490.864	2807.31
491.32	2726.31
491.776	2712.31
492.233	2744.31
492.689	2727.31
493.145	2673.31
493.602	2687.31
494.058	2702.31
494.514	2708.31
494.97	2699.31
495.426	2765.31
495.882	2758.31
496.338	2775.31
496.794	2765.31
497.251	2732.31
497.707	2835.31
498.163	2828.31
498.618	2788.31
499.074	2848.31
499.53	2798.31
499.986	2891.31
500.442	2779.31
500.898	2828.31
501.354	2822.31
501.809	2888.31
502.265	2858.31
502.721	2901.31
503.177	2882.31
503.632	2866.31
504.088	2835.31
504.543	2894.31
504.999	2948.31
505.455	2964.31
505.91	2938.31
506.366	2950.31
506.821	2867.31
507.277	2912.31
507.732	2899.31
508.187	2922.31
508.643	2948.31
509.098	2951.31
509.553	2978.31
510.009	2961.31
510.464	3043.31
510.919	3112.31
511.375	3160.31
511.83	3142.31
512.285	3205.31
512.74	3295.31
513.195	3354.31
513.65	3349.31
514.105	3406.31
514.56	3400.31
515.015	3483.31
515.47	3493.31
515.925	3419.31
516.38	3444.31
516.835	3430.31
517.29	3494.31
517.745	3487.31
518.2	3402.31
518.655	3381.31
519.109	3309.31
519.564	3235.31
520.019	3241.31
520.474	3230.31
520.928	3184.31
521.383	3181.31
521.838	3136.31
522.292	3116.31
522.747	3148.31
523.201	3163.31
523.656	3090.31
524.11	3117.31
524.565	3053.31
525.019	3089.31
525.474	3114.31
525.928	3097.31
526.382	3061.31
526.837	3053.31
527.291	3110.31
527.745	3036.31
528.2	3057.31
528.654	3070.31
529.108	3064.31
529.562	3060.31
530.016	3067.31
530.47	3078.31
530.925	3008.31
531.379	3067.31
531.833	3155.31
532.287	3057.31
532.741	3060.31
533.195	3079.31
533.649	3013.31
534.103	3104.31
534.556	3042.31
535.01	3031.31
535.464	3051.31
535.918	3020.31
536.372	3151.31
536.826	3120.31
537.279	3038.31
537.733	3062.31
538.187	3077.31
538.64	3054.31
539.094	3113.31
539.548	3214.31
540.001	3146.31
540.455	3158.31
540.908	3178.31
541.362	3132.31
541.815	3215.31
542.269	3253.31
542.722	3232.31
543.175	3312.31
543.629	3296.31
544.082	3274.31
544.536	3382.31
544.989	3371.31
545.442	3442.31
545.895	3395.31
546.349	3396.31
546.802	3359.31
547.255	3412.31
547.708	3422.31
548.161	3467.31
548.614	3472.31
549.067	3503.31
549.52	3453.31
549.973	3412.31
550.426	3434.31
550.879	3414.31
551.332	3436.31
551.785	3490.31
552.238	3510.31
552.691	3441.31
553.144	3483.31
553.596	3586.31
554.049	3613.31
554.502	3733.31
554.955	3741.31
555.407	3776.31
555.86	3751.31
556.313	3732.31
556.765	3638.31
557.218	3638.31
557.67	3631.31
558.123	3608.31
558.576	3576.31
559.028	3571.31
559.48	3622.31
559.933	3598.31
560.385	3529.31
560.838	3396.31
561.29	3326.31
561.742	3266.31
562.195	3258.31
562.647	3223.31
563.099	3146.31
563.551	3133.31
564.004	3245.31
564.456	3218.31
564.908	3123.31
565.36	3075.31
565.812	2960.31
566.264	2974.31
566.716	2970.31
567.168	2902.31
567.62	2906.31
568.072	2922.31
568.524	2865.31
568.976	2861.31
569.428	2797.31
569.88	2795.31
570.332	2812.31
570.784	2847.31
571.235	2831.31
571.687	2850.31
572.139	2859.31
572.59	2882.31
573.042	2893.31
573.494	2898.31
573.945	2840.31
574.397	2861.31
574.849	2789.31
575.3	2796.31
575.752	2778.31
576.203	2701.31
576.655	2760.31
577.106	2706.31
577.557	2688.31
578.009	2682.31
578.46	2680.31
578.912	2733.31
579.363	2716.31
579.814	2673.31
580.265	2632.31
580.717	2666.31
581.168	2631.31
581.619	2707.31
582.07	2714.31
582.521	2722.31
582.972	2684.31
583.423	2760.31
583.875	2749.31
584.326	2706.31
584.777	2725.31
585.227	2755.31
585.678	2812.31
586.129	2894.31
586.58	2887.31
587.031	2900.31
587.482	2949.31
587.933	3004.31
588.384	3027.31
588.834	3033.31
589.285	2996.31
589.736	3023.31
590.186	2972.31
590.637	2956.31
591.088	2930.31
591.538	2926.31
591.989	2831.31
592.439	2798.31
592.89	2761.31
593.34	2773.31
593.791	2750.31
594.241	2728.31
594.692	2724.31
595.142	2732.31
595.593	2687.31
596.043	2720.31
596.493	2700.31
596.943	2745.31
597.394	2834.31
597.844	2880.31
598.294	2928.31
598.744	3026.31
599.195	3144.31
599.645	3240.31
600.095	3479.31
600.545	3530.31
600.995	3728.31
601.445	3809.31
601.895	4087.31
602.345	4102.31
602.795	4196.31
603.245	4066.31
603.695	3803.31
604.145	3686.31
604.594	3504.31
605.044	3361.31
605.494	3098.31
605.944	2969.31
606.393	2884.31
606.843	2754.31
607.293	2755.31
607.743	2763.31
608.192	2806.31
608.642	2830.31
609.091	2761.31
609.541	2806.31
609.99	2847.31
610.44	2774.31
610.889	2719.31
611.339	2666.31
611.788	2658.31
612.238	2721.31
612.687	2651.31
613.136	2667.31
613.586	2692.31
614.035	2711.31
614.484	2751.31
614.933	2711.31
615.383	2691.31
615.832	2689.31
616.281	2561.31
616.73	2542.31
617.179	2470.31
617.628	2440.31
618.077	2388.31
618.526	2369.31
618.975	2306.31
619.424	2305.31
619.873	2274.31
620.322	2277.31
620.771	2269.31
621.22	2230.31
621.669	2168.31
622.118	2176.31
622.567	2166.31
623.015	2117.31
623.464	2142.31
623.913	2135.31
624.361	2115.31
624.81	2076.31
625.259	2129.31
625.707	2109.31
626.156	2056.31
626.604	2111.31
627.053	2116.31
627.501	2117.31
627.95	2133.31
628.398	2115.31
628.847	2092.31
629.295	2112.31
629.744	2084.31
630.192	2107.31
630.64	2060.31
631.089	2044.31
631.537	1992.31
631.985	1949.31
632.433	1925.31
632.881	1895.31
633.33	1946.31
633.778	1889.31
634.226	1930.31
634.674	1906.31
635.122	1919.31
635.57	1960.31
636.018	1997.31
636.466	1972.31
636.914	2010.31
637.362	2022.31
637.81	2091.31
638.258	2082.31
638.705	2155.31
639.153	2209.31
639.601	2251.31
640.049	2282.31
640.497	2339.31
640.944	2406.31
641.392	2308.31
641.84	2190.31
642.287	2127.31
642.735	2038.31
643.182	1989.31
643.63	2022.31
644.078	1999.31
644.525	2055.31
644.973	2052.31
645.42	2120.31
645.867	2155.31
646.315	2153.31
646.762	2261.31
647.21	2279.31
647.657	2338.31
648.104	2396.31
648.551	2452.31
648.999	2587.31
649.446	2685.31
649.893	2904.31
650.34	3288.31
650.787	3790.31
651.234	4703.31
651.682	5881.31
652.129	8048.31
652.576	11080.31
653.023	14870.31
653.47	15701.31
653.917	15701.31
654.363	15701.31
654.81	15701.31
655.257	15701.31
655.704	15701.31
656.151	11232.31
656.598	7360.31
657.044	5389.31
657.491	4336.31
657.938	3562.31
658.385	3118.31
658.831	2789.31
659.278	2536.31
659.724	2467.31
660.171	2303.31
660.618	2098.31
661.064	2038.31
661.511	1989.31
661.957	1997.31
662.404	1889.31
662.85	1883.31
663.296	1921.31
663.743	1859.31
664.189	1832.31
664.635	1826.31
665.082	1762.31
665.528	1807.31
665.974	1751.31
666.42	1712.31
666.867	1736.31
667.313	1676.31
667.759	1586.31
668.205	1614.31
668.651	1630.31
669.097	1553.31
669.543	1615.31
669.989	1604.31
670.435	1638.31
670.881	1616.31
671.327	1675.31
671.773	1767.31
672.219	1899.31
672.665	2029.31
673.11	2081.31
673.556	2190.31
674.002	2190.31
674.448	2297.31
674.893	2034.31
675.339	1766.31
675.785	1598.31
676.23	1498.31
676.676	1440.31
677.122	1434.31
677.567	1364.31
678.013	1325.31
678.458	1298.31
678.904	1318.31
679.349	1294.31
679.794	1294.31
680.24	1278.31
680.685	1270.31
681.131	1292.31
681.576	1263.31
682.021	1299.31
682.466	1248.31
682.912	1306.31
683.357	1354.31
683.802	1433.31
684.247	1518.31
684.692	1639.31
685.137	1716.31
685.583	1763.31
686.028	1891.31
686.473	1883.31
686.918	1649.31
687.363	1515.31
687.807	1429.31
688.252	1320.31
688.697	1276.31
689.142	1260.31
689.587	1249.31
690.032	1276.31
690.477	1284.31
690.921	1336.31
691.366	1402.31
691.811	1450.31
692.255	1579.31
692.7	1778.31
693.145	2282.31
693.589	3548.31
694.034	4724.31
694.478	5164.31
694.923	4846.31
695.367	6052.31
695.812	5499.31
696.256	2166.31
696.701	1440.31
697.145	1263.31
697.59	1224.31
698.034	1218.31
698.478	1223.31
698.922	1191.31
699.367	1244.31
699.811	1260.31
700.255	1339.31
700.699	1420.31
701.143	1588.31
701.588	1700.31
702.032	1781.31
702.476	1835.31
702.92	1888.31
703.364	2178.31
703.808	3259.31
704.252	4429.31
704.696	5022.31
705.14	4626.31
705.584	5944.31
706.027	4813.31
706.471	2214.31
706.915	1500.31
707.359	1329.31
707.803	1227.31
708.246	1177.31
708.69	1164.31
709.134	1164.31
709.577	1133.31
710.021	1138.31
710.465	1116.31
710.908	1126.31
711.352	1158.31
711.795	1239.31
712.239	1373.31
712.682	1381.31
713.126	1376.31
713.569	1468.31
714.012	1375.31
714.456	1171.31
714.899	1117.31
715.342	1046.31
715.786	1000.31
716.229	962.31
716.672	963.31
717.115	930.31
717.558	919.31
718.002	960.31
718.445	978.31
718.888	1042.31
719.331	1061.31
719.774	1111.31
720.217	1064.31
720.66	1030.31
721.103	986.31
721.546	951.31
721.989	923.31
722.432	887.31
722.874	918.31
723.317	916.31
723.76	954.31
724.203	1106.31
724.645	1384.31
725.088	1730.31
725.531	1769.31
725.974	1750.31
726.416	1949.31
726.859	1272.31
727.301	998.31
727.744	894.31
728.187	884.31
728.629	911.31
729.071	918.31
729.514	966.31
729.956	1043.31
730.399	1042.31
730.841	1010.31
731.283	1044.31
731.726	990.31
732.168	1017.31
732.61	1039.31
733.053	1115.31
733.495	1230.31
733.937	1336.31
734.379	1488.31
734.821	1731.31
735.263	2453.31
