Data from 20170802-ORNL-NYSim-Air_HRD10391_10-37-05-627.txt Node
Date: Wed Aug 02 10:37:05 EDT 2017
User: Ender
Spectrometer: HR+D1039
Trigger mode: 0
Integration Time (sec): 1.510000E-3
Scans to average: 1
Electric dark correction enabled: true
Nonlinearity correction enabled: false
Boxcar width: 0
XAxis mode: Wavelengths
Number of Pixels in Spectrum: 2048
>>>>>Begin Spectral Data<<<<<
187.836	-7.25
188.309	-7.25
188.782	-7.25
189.255	-4.25
189.728	-15.25
190.201	-11.25
190.674	-3.25
191.147	5.75
191.619	-1.25
192.092	1.75
192.565	7.75
193.038	7.75
193.511	4.75
193.984	2.75
194.456	3.75
194.929	6.75
195.402	-4.25
195.874	5.75
196.347	13.75
196.82	34.75
197.292	38.75
197.765	29.75
198.237	41.75
198.71	41.75
199.182	52.75
199.655	59.75
200.127	57.75
200.6	49.75
201.072	56.75
201.544	74.75
202.017	81.75
202.489	71.75
202.961	72.75
203.433	63.75
203.906	78.75
204.378	68.75
204.85	79.75
205.322	73.75
205.794	75.75
206.266	81.75
206.739	90.75
207.211	83.75
207.683	84.75
208.155	81.75
208.627	86.75
209.099	86.75
209.57	97.75
210.042	80.75
210.514	93.75
210.986	78.75
211.458	86.75
211.93	96.75
212.402	82.75
212.873	73.75
213.345	85.75
213.817	87.75
214.288	98.75
214.76	92.75
215.232	82.75
215.703	76.75
216.175	76.75
216.646	75.75
217.118	90.75
217.589	75.75
218.061	69.75
218.532	78.75
219.004	79.75
219.475	87.75
219.946	66.75
220.418	88.75
220.889	76.75
221.36	96.75
221.832	83.75
222.303	78.75
222.774	78.75
223.245	77.75
223.717	81.75
224.188	71.75
224.659	84.75
225.13	81.75
225.601	89.75
226.072	82.75
226.543	79.75
227.014	95.75
227.485	99.75
227.956	93.75
228.427	87.75
228.898	87.75
229.369	81.75
229.839	81.75
230.31	73.75
230.781	71.75
231.252	91.75
231.722	70.75
232.193	87.75
232.664	88.75
233.135	65.75
233.605	85.75
234.076	68.75
234.546	71.75
235.017	95.75
235.487	92.75
235.958	79.75
236.428	78.75
236.899	80.75
237.369	79.75
237.84	74.75
238.31	88.75
238.78	76.75
239.251	92.75
239.721	86.75
240.191	80.75
240.662	84.75
241.132	84.75
241.602	89.75
242.072	98.75
242.542	68.75
243.013	86.75
243.483	83.75
243.953	110.75
244.423	78.75
244.893	87.75
245.363	82.75
245.833	102.75
246.303	101.75
246.773	86.75
247.243	96.75
247.712	90.75
248.182	87.75
248.652	86.75
249.122	91.75
249.592	78.75
250.061	100.75
250.531	93.75
251.001	85.75
251.471	91.75
251.94	97.75
252.41	79.75
252.879	97.75
253.349	97.75
253.818	90.75
254.288	91.75
254.757	93.75
255.227	90.75
255.696	99.75
256.166	97.75
256.635	80.75
257.105	75.75
257.574	77.75
258.043	88.75
258.513	104.75
258.982	92.75
259.451	107.75
259.92	95.75
260.389	88.75
260.859	86.75
261.328	89.75
261.797	96.75
262.266	110.75
262.735	112.75
263.204	99.75
263.673	93.75
264.142	98.75
264.611	100.75
265.08	89.75
265.549	96.75
266.018	97.75
266.487	100.75
266.955	96.75
267.424	100.75
267.893	87.75
268.362	97.75
268.83	98.75
269.299	100.75
269.768	105.75
270.236	106.75
270.705	112.75
271.174	112.75
271.642	99.75
272.111	110.75
272.579	106.75
273.048	108.75
273.516	94.75
273.985	89.75
274.453	103.75
274.922	100.75
275.39	100.75
275.858	101.75
276.327	106.75
276.795	104.75
277.263	127.75
277.731	120.75
278.2	104.75
278.668	107.75
279.136	110.75
279.604	112.75
280.072	121.75
280.54	128.75
281.008	114.75
281.477	104.75
281.945	133.75
282.413	114.75
282.881	107.75
283.348	118.75
283.816	114.75
284.284	106.75
284.752	110.75
285.22	107.75
285.688	114.75
286.156	106.75
286.623	121.75
287.091	116.75
287.559	127.75
288.026	96.75
288.494	122.75
288.962	123.75
289.429	112.75
289.897	105.75
290.364	119.75
290.832	108.75
291.3	127.75
291.767	129.75
292.234	124.75
292.702	119.75
293.169	106.75
293.637	136.75
294.104	111.75
294.571	122.75
295.039	121.75
295.506	124.75
295.973	124.75
296.44	130.75
296.908	108.75
297.375	120.75
297.842	123.75
298.309	129.75
298.776	133.75
299.243	123.75
299.71	126.75
300.177	124.75
300.644	123.75
301.111	133.75
301.578	138.75
302.045	133.75
302.512	133.75
302.979	121.75
303.446	127.75
303.913	135.75
304.379	117.75
304.846	134.75
305.313	124.75
305.78	141.75
306.246	137.75
306.713	128.75
307.18	138.75
307.646	146.75
308.113	124.75
308.579	140.75
309.046	134.75
309.512	142.75
309.979	144.75
310.445	140.75
310.912	134.75
311.378	134.75
311.845	153.75
312.311	130.75
312.777	137.75
313.244	132.75
313.71	152.75
314.176	138.75
314.642	151.75
315.109	158.75
315.575	142.75
316.041	137.75
316.507	150.75
316.973	164.75
317.439	165.75
317.905	133.75
318.371	153.75
318.837	146.75
319.303	140.75
319.769	165.75
320.235	152.75
320.701	148.75
321.167	169.75
321.633	144.75
322.099	155.75
322.564	140.75
323.03	152.75
323.496	164.75
323.962	143.75
324.427	146.75
324.893	156.75
325.359	174.75
325.824	148.75
326.29	162.75
326.755	154.75
327.221	175.75
327.686	175.75
328.152	171.75
328.617	170.75
329.083	169.75
329.548	189.75
330.014	168.75
330.479	161.75
330.944	186.75
331.41	146.75
331.875	180.75
332.34	175.75
332.805	178.75
333.271	154.75
333.736	168.75
334.201	169.75
334.666	182.75
335.131	191.75
335.596	174.75
336.061	176.75
336.526	192.75
336.991	176.75
337.456	168.75
337.921	161.75
338.386	183.75
338.851	156.75
339.316	173.75
339.781	186.75
340.246	187.75
340.711	178.75
341.175	180.75
341.64	183.75
342.105	168.75
342.569	189.75
343.034	180.75
343.499	170.75
343.963	200.75
344.428	216.75
344.893	179.75
345.357	188.75
345.822	206.75
346.286	202.75
346.751	210.75
347.215	208.75
347.679	202.75
348.144	208.75
348.608	221.75
349.073	220.75
349.537	214.75
350.001	237.75
350.465	224.75
350.93	234.75
351.394	231.75
351.858	200.75
352.322	228.75
352.786	217.75
353.25	243.75
353.715	208.75
354.179	246.75
354.643	219.75
355.107	228.75
355.571	232.75
356.035	223.75
356.498	214.75
356.962	230.75
357.426	234.75
357.89	235.75
358.354	244.75
358.818	224.75
359.281	232.75
359.745	226.75
360.209	230.75
360.673	224.75
361.136	220.75
361.6	241.75
362.064	244.75
362.527	238.75
362.991	256.75
363.454	223.75
363.918	245.75
364.381	234.75
364.845	249.75
365.308	266.75
365.772	246.75
366.235	240.75
366.698	261.75
367.162	248.75
367.625	248.75
368.088	261.75
368.552	255.75
369.015	248.75
369.478	244.75
369.941	275.75
370.404	264.75
370.867	265.75
371.331	266.75
371.794	279.75
372.257	291.75
372.72	268.75
373.183	258.75
373.646	255.75
374.109	248.75
374.572	266.75
375.035	294.75
375.497	281.75
375.96	283.75
376.423	288.75
376.886	268.75
377.349	282.75
377.811	298.75
378.274	280.75
378.737	296.75
379.199	307.75
379.662	294.75
380.125	296.75
380.587	289.75
381.05	300.75
381.512	296.75
381.975	309.75
382.437	302.75
382.9	306.75
383.362	294.75
383.825	333.75
384.287	326.75
384.75	302.75
385.212	301.75
385.674	328.75
386.136	313.75
386.599	293.75
387.061	297.75
387.523	316.75
387.985	317.75
388.447	344.75
388.91	345.75
389.372	344.75
389.834	307.75
390.296	336.75
390.758	298.75
391.22	310.75
391.682	316.75
392.144	318.75
392.606	320.75
393.068	321.75
393.529	347.75
393.991	346.75
394.453	335.75
394.915	322.75
395.377	325.75
395.838	344.75
396.3	316.75
396.762	330.75
397.224	346.75
397.685	330.75
398.147	343.75
398.608	366.75
399.07	351.75
399.531	346.75
399.993	339.75
400.454	355.75
400.916	357.75
401.377	363.75
401.839	343.75
402.3	366.75
402.762	374.75
403.223	403.75
403.684	397.75
404.145	399.75
404.607	367.75
405.068	383.75
405.529	369.75
405.99	386.75
406.451	424.75
406.913	394.75
407.374	413.75
407.835	394.75
408.296	400.75
408.757	415.75
409.218	394.75
409.679	390.75
410.14	411.75
410.601	424.75
411.062	423.75
411.522	420.75
411.983	417.75
412.444	425.75
412.905	422.75
413.366	442.75
413.826	488.75
414.287	481.75
414.748	613.75
415.208	614.75
415.669	526.75
416.13	480.75
416.59	448.75
417.051	483.75
417.511	504.75
417.972	535.75
418.432	546.75
418.893	602.75
419.353	593.75
419.814	492.75
420.274	440.75
420.734	437.75
421.195	451.75
421.655	434.75
422.115	454.75
422.576	458.75
423.036	460.75
423.496	464.75
423.956	467.75
424.416	514.75
424.876	546.75
425.336	537.75
425.797	516.75
426.257	548.75
426.717	524.75
427.177	508.75
427.637	513.75
428.097	521.75
428.556	530.75
429.016	558.75
429.476	567.75
429.936	565.75
430.396	571.75
430.856	563.75
431.315	587.75
431.775	621.75
432.235	652.75
432.694	673.75
433.154	620.75
433.614	617.75
434.073	606.75
434.533	538.75
434.993	504.75
435.452	508.75
435.912	526.75
436.371	512.75
436.83	534.75
437.29	506.75
437.749	490.75
438.209	480.75
438.668	518.75
439.127	524.75
439.587	524.75
440.046	495.75
440.505	488.75
440.964	507.75
441.424	508.75
441.883	504.75
442.342	528.75
442.801	493.75
443.26	499.75
443.719	484.75
444.178	486.75
444.637	482.75
445.096	486.75
445.555	465.75
446.014	488.75
446.473	496.75
446.932	496.75
447.391	498.75
447.849	507.75
448.308	498.75
448.767	500.75
449.226	521.75
449.685	517.75
450.143	523.75
450.602	531.75
451.061	507.75
451.519	519.75
451.978	516.75
452.436	480.75
452.895	489.75
453.353	504.75
453.812	484.75
454.27	477.75
454.729	505.75
455.187	507.75
455.646	520.75
456.104	518.75
456.562	509.75
457.021	526.75
457.479	478.75
457.937	506.75
458.395	539.75
458.854	498.75
459.312	490.75
459.77	504.75
460.228	529.75
460.686	526.75
461.144	556.75
461.602	533.75
462.06	531.75
462.518	542.75
462.976	541.75
463.434	541.75
463.892	546.75
464.35	583.75
464.808	578.75
465.266	564.75
465.724	554.75
466.181	566.75
466.639	587.75
467.097	600.75
467.555	644.75
468.012	582.75
468.47	605.75
468.928	652.75
469.385	646.75
469.843	675.75
470.3	668.75
470.758	691.75
471.215	664.75
471.673	677.75
472.13	698.75
472.588	717.75
473.045	713.75
473.503	732.75
473.96	770.75
474.417	790.75
474.875	796.75
475.332	818.75
475.789	830.75
476.246	839.75
476.704	860.75
477.161	923.75
477.618	916.75
478.075	971.75
478.532	1041.75
478.989	1086.75
479.446	1192.75
479.903	1240.75
480.36	1338.75
480.817	1432.75
481.274	1505.75
481.731	1626.75
482.188	1781.75
482.645	1854.75
483.102	1952.75
483.558	2050.75
484.015	2147.75
484.472	2166.75
484.929	2164.75
485.385	2062.75
485.842	1999.75
486.299	1898.75
486.755	1809.75
487.212	1608.75
487.668	1466.75
488.125	1396.75
488.582	1313.75
489.038	1265.75
489.494	1239.75
489.951	1162.75
490.407	1144.75
490.864	1129.75
491.32	1103.75
491.776	1098.75
492.233	1117.75
492.689	1082.75
493.145	1100.75
493.602	1062.75
494.058	1064.75
494.514	1098.75
494.97	1076.75
495.426	1110.75
495.882	1103.75
496.338	1104.75
496.794	1086.75
497.251	1084.75
497.707	1115.75
498.163	1081.75
498.618	1128.75
499.074	1088.75
499.53	1118.75
499.986	1122.75
500.442	1103.75
500.898	1116.75
501.354	1100.75
501.809	1109.75
502.265	1128.75
502.721	1091.75
503.177	1114.75
503.632	1095.75
504.088	1167.75
504.543	1189.75
504.999	1164.75
505.455	1128.75
505.91	1164.75
506.366	1116.75
506.821	1165.75
507.277	1129.75
507.732	1156.75
508.187	1163.75
508.643	1152.75
509.098	1135.75
509.553	1164.75
510.009	1195.75
510.464	1213.75
510.919	1195.75
511.375	1206.75
511.83	1213.75
512.285	1227.75
512.74	1284.75
513.195	1290.75
513.65	1316.75
514.105	1326.75
514.56	1326.75
515.015	1329.75
515.47	1347.75
515.925	1341.75
516.38	1350.75
516.835	1337.75
517.29	1312.75
517.745	1353.75
518.2	1302.75
518.655	1318.75
519.109	1280.75
519.564	1254.75
520.019	1241.75
520.474	1248.75
520.928	1203.75
521.383	1200.75
521.838	1214.75
522.292	1202.75
522.747	1225.75
523.201	1192.75
523.656	1184.75
524.11	1200.75
524.565	1165.75
525.019	1169.75
525.474	1170.75
525.928	1196.75
526.382	1162.75
526.837	1210.75
527.291	1202.75
527.745	1220.75
528.2	1189.75
528.654	1190.75
529.108	1187.75
529.562	1176.75
530.016	1186.75
530.47	1202.75
530.925	1171.75
531.379	1202.75
531.833	1182.75
532.287	1150.75
532.741	1195.75
533.195	1188.75
533.649	1203.75
534.103	1207.75
534.556	1162.75
535.01	1162.75
535.464	1160.75
535.918	1189.75
536.372	1178.75
536.826	1166.75
537.279	1177.75
537.733	1219.75
538.187	1181.75
538.64	1168.75
539.094	1182.75
539.548	1187.75
540.001	1204.75
540.455	1222.75
540.908	1218.75
541.362	1246.75
541.815	1231.75
542.269	1288.75
542.722	1242.75
543.175	1238.75
543.629	1286.75
544.082	1307.75
544.536	1322.75
544.989	1291.75
545.442	1318.75
545.895	1292.75
546.349	1307.75
546.802	1327.75
547.255	1292.75
547.708	1325.75
548.161	1321.75
548.614	1324.75
549.067	1346.75
549.52	1338.75
549.973	1322.75
550.426	1315.75
550.879	1327.75
551.332	1306.75
551.785	1310.75
552.238	1305.75
552.691	1338.75
553.144	1345.75
553.596	1339.75
554.049	1371.75
554.502	1409.75
554.955	1430.75
555.407	1443.75
555.86	1451.75
556.313	1394.75
556.765	1386.75
557.218	1410.75
557.67	1367.75
558.123	1372.75
558.576	1334.75
559.028	1365.75
559.48	1402.75
559.933	1343.75
560.385	1339.75
560.838	1281.75
561.29	1265.75
561.742	1280.75
562.195	1258.75
562.647	1237.75
563.099	1237.75
563.551	1236.75
564.004	1185.75
564.456	1200.75
564.908	1190.75
565.36	1146.75
565.812	1125.75
566.264	1126.75
566.716	1115.75
567.168	1123.75
567.62	1139.75
568.072	1096.75
568.524	1104.75
568.976	1099.75
569.428	1092.75
569.88	1072.75
570.332	1083.75
570.784	1086.75
571.235	1146.75
571.687	1133.75
572.139	1085.75
572.59	1112.75
573.042	1136.75
573.494	1131.75
573.945	1099.75
574.397	1103.75
574.849	1081.75
575.3	1091.75
575.752	1101.75
576.203	1048.75
576.655	1076.75
577.106	1049.75
577.557	1071.75
578.009	1035.75
578.46	1091.75
578.912	1065.75
579.363	1048.75
579.814	1080.75
580.265	1048.75
580.717	1032.75
581.168	1064.75
581.619	1048.75
582.07	1080.75
582.521	1058.75
582.972	1076.75
583.423	1055.75
583.875	1054.75
584.326	1049.75
584.777	1055.75
585.227	1096.75
585.678	1085.75
586.129	1114.75
586.58	1088.75
587.031	1120.75
587.482	1142.75
587.933	1158.75
588.384	1155.75
588.834	1195.75
589.285	1174.75
589.736	1136.75
590.186	1156.75
590.637	1150.75
591.088	1122.75
591.538	1114.75
591.989	1124.75
592.439	1103.75
592.89	1086.75
593.34	1056.75
593.791	1053.75
594.241	1061.75
594.692	1057.75
595.142	1034.75
595.593	1044.75
596.043	1025.75
596.493	1077.75
596.943	1086.75
597.394	1080.75
597.844	1085.75
598.294	1112.75
598.744	1125.75
599.195	1206.75
599.645	1247.75
600.095	1318.75
600.545	1396.75
600.995	1406.75
601.445	1461.75
601.895	1551.75
602.345	1577.75
602.795	1607.75
603.245	1542.75
603.695	1452.75
604.145	1361.75
604.594	1320.75
605.044	1292.75
605.494	1228.75
605.944	1141.75
606.393	1088.75
606.843	1093.75
607.293	1079.75
607.743	1064.75
608.192	1068.75
608.642	1059.75
609.091	1137.75
609.541	1098.75
609.99	1094.75
610.44	1080.75
610.889	1054.75
611.339	1026.75
611.788	993.75
612.238	1022.75
612.687	1032.75
613.136	1035.75
613.586	1033.75
614.035	1060.75
614.484	1074.75
614.933	1049.75
615.383	1024.75
615.832	1025.75
616.281	1005.75
616.73	1002.75
617.179	973.75
617.628	922.75
618.077	946.75
618.526	920.75
618.975	927.75
619.424	913.75
619.873	901.75
620.322	920.75
620.771	894.75
621.22	904.75
621.669	863.75
622.118	846.75
622.567	861.75
623.015	854.75
623.464	819.75
623.913	836.75
624.361	836.75
624.81	825.75
625.259	822.75
625.707	819.75
626.156	859.75
626.604	845.75
627.053	844.75
627.501	844.75
627.95	871.75
628.398	830.75
628.847	844.75
629.295	846.75
629.744	811.75
630.192	808.75
630.64	844.75
631.089	801.75
631.537	753.75
631.985	738.75
632.433	766.75
632.881	800.75
633.33	782.75
633.778	774.75
634.226	784.75
634.674	775.75
635.122	788.75
635.57	780.75
636.018	816.75
636.466	826.75
636.914	800.75
637.362	806.75
637.81	815.75
638.258	839.75
638.705	867.75
639.153	879.75
639.601	917.75
640.049	904.75
640.497	924.75
640.944	938.75
641.392	944.75
641.84	875.75
642.287	859.75
642.735	843.75
643.182	819.75
643.63	849.75
644.078	827.75
644.525	832.75
644.973	861.75
645.42	843.75
645.867	848.75
646.315	895.75
646.762	934.75
647.21	964.75
647.657	984.75
648.104	1021.75
648.551	1025.75
648.999	1132.75
649.446	1194.75
649.893	1328.75
650.34	1453.75
650.787	1735.75
651.234	2162.75
651.682	2814.75
652.129	3951.75
652.576	5557.75
653.023	7605.75
653.47	9440.75
653.917	10505.75
654.363	11099.75
654.81	11710.75
655.257	12294.75
655.704	9321.75
656.151	5688.75
656.598	3706.75
657.044	2652.75
657.491	2065.75
657.938	1658.75
658.385	1417.75
658.831	1260.75
659.278	1133.75
659.724	1063.75
660.171	972.75
660.618	920.75
661.064	877.75
661.511	826.75
661.957	844.75
662.404	811.75
662.85	795.75
663.296	777.75
663.743	788.75
664.189	757.75
664.635	750.75
665.082	739.75
665.528	734.75
665.974	730.75
666.42	718.75
666.867	695.75
667.313	658.75
667.759	659.75
668.205	664.75
668.651	646.75
669.097	637.75
669.543	687.75
669.989	656.75
670.435	679.75
670.881	690.75
671.327	697.75
671.773	710.75
672.219	762.75
672.665	806.75
673.11	819.75
673.556	866.75
674.002	859.75
674.448	886.75
674.893	780.75
675.339	720.75
675.785	668.75
676.23	648.75
676.676	618.75
677.122	588.75
677.567	564.75
678.013	559.75
678.458	544.75
678.904	530.75
679.349	529.75
679.794	528.75
680.24	533.75
680.685	525.75
681.131	530.75
681.576	563.75
682.021	545.75
682.466	556.75
682.912	548.75
683.357	555.75
683.802	582.75
684.247	636.75
684.692	692.75
685.137	686.75
685.583	693.75
686.028	747.75
686.473	744.75
686.918	672.75
687.363	605.75
687.807	575.75
688.252	532.75
688.697	545.75
689.142	529.75
689.587	512.75
690.032	521.75
690.477	548.75
690.921	558.75
691.366	589.75
691.811	621.75
692.255	630.75
692.7	696.75
693.145	910.75
693.589	1367.75
694.034	1794.75
694.478	1924.75
694.923	1838.75
695.367	2186.75
695.812	2068.75
696.256	881.75
696.701	611.75
697.145	542.75
697.59	504.75
698.034	508.75
698.478	510.75
698.922	507.75
699.367	504.75
699.811	524.75
700.255	547.75
700.699	585.75
701.143	612.75
701.588	664.75
702.032	720.75
702.476	721.75
702.92	745.75
703.364	878.75
703.808	1224.75
704.252	1621.75
704.696	1881.75
705.14	1772.75
705.584	2172.75
706.027	1810.75
706.471	874.75
706.915	600.75
707.359	525.75
707.803	514.75
708.246	498.75
708.69	468.75
709.134	462.75
709.577	460.75
710.021	475.75
710.465	485.75
710.908	476.75
711.352	464.75
711.795	506.75
712.239	560.75
712.682	579.75
713.126	550.75
713.569	591.75
714.012	541.75
714.456	513.75
714.899	459.75
715.342	429.75
715.786	398.75
716.229	433.75
716.672	388.75
717.115	389.75
717.558	409.75
718.002	412.75
718.445	440.75
718.888	434.75
719.331	450.75
719.774	462.75
720.217	466.75
720.66	449.75
721.103	440.75
721.546	394.75
721.989	374.75
722.432	396.75
722.874	371.75
723.317	402.75
723.76	383.75
724.203	457.75
724.645	556.75
725.088	691.75
725.531	745.75
725.974	719.75
726.416	764.75
726.859	517.75
727.301	388.75
727.744	413.75
728.187	376.75
728.629	413.75
729.071	406.75
729.514	420.75
729.956	430.75
730.399	454.75
730.841	441.75
731.283	433.75
731.726	417.75
732.168	431.75
732.61	447.75
733.053	454.75
733.495	497.75
733.937	558.75
734.379	609.75
734.821	701.75
735.263	959.75
735.705	1612.75
736.148	2562.75
736.59	2994.75
737.032	2870.75
737.474	3096.75
737.916	1536.75
738.357	761.75
738.799	546.75
739.241	473.75
739.683	472.75
740.125	507.75
740.567	496.75
741.008	489.75
741.45	535.75
741.892	544.75
742.334	570.75
742.775	565.75
743.217	572.75
743.658	505.75
744.1	465.75
744.542	520.75
744.983	560.75
745.425	566.75
745.866	594.75
746.307	551.75
746.749	482.75
