Data from 20170802-ORNL-NYSim-Air_HRD10391_10-36-58-625.txt Node
Date: Wed Aug 02 10:36:58 EDT 2017
User: Ender
Spectrometer: HR+D1039
Trigger mode: 0
Integration Time (sec): 1.510000E-3
Scans to average: 1
Electric dark correction enabled: true
Nonlinearity correction enabled: false
Boxcar width: 0
XAxis mode: Wavelengths
Number of Pixels in Spectrum: 2048
>>>>>Begin Spectral Data<<<<<
187.836	12.38
188.309	12.38
188.782	12.38
189.255	-7.62
189.728	7.38
190.201	-13.62
190.674	-5.62
191.147	-14.62
191.619	-15.62
192.092	-12.62
192.565	0.38
193.038	8.38
193.511	6.38
193.984	6.38
194.456	0.38
194.929	4.38
195.402	3.38
195.874	20.38
196.347	6.38
196.82	29.38
197.292	16.38
197.765	29.38
198.237	34.38
198.71	29.38
199.182	52.38
199.655	51.38
200.127	47.38
200.6	61.38
201.072	64.38
201.544	61.38
202.017	66.38
202.489	61.38
202.961	49.38
203.433	81.38
203.906	74.38
204.378	74.38
204.85	86.38
205.322	94.38
205.794	73.38
206.266	80.38
206.739	94.38
207.211	77.38
207.683	101.38
208.155	76.38
208.627	98.38
209.099	84.38
209.57	85.38
210.042	90.38
210.514	87.38
210.986	87.38
211.458	75.38
211.93	94.38
212.402	98.38
212.873	95.38
213.345	81.38
213.817	68.38
214.288	74.38
214.76	73.38
215.232	98.38
215.703	84.38
216.175	72.38
216.646	66.38
217.118	84.38
217.589	92.38
218.061	98.38
218.532	79.38
219.004	77.38
219.475	80.38
219.946	78.38
220.418	80.38
220.889	77.38
221.36	84.38
221.832	72.38
222.303	75.38
222.774	87.38
223.245	69.38
223.717	95.38
224.188	66.38
224.659	90.38
225.13	67.38
225.601	86.38
226.072	84.38
226.543	68.38
227.014	82.38
227.485	70.38
227.956	85.38
228.427	78.38
228.898	80.38
229.369	78.38
229.839	96.38
230.31	94.38
230.781	84.38
231.252	78.38
231.722	81.38
232.193	90.38
232.664	83.38
233.135	89.38
233.605	73.38
234.076	90.38
234.546	82.38
235.017	87.38
235.487	102.38
235.958	87.38
236.428	81.38
236.899	88.38
237.369	82.38
237.84	90.38
238.31	67.38
238.78	86.38
239.251	63.38
239.721	79.38
240.191	94.38
240.662	89.38
241.132	93.38
241.602	73.38
242.072	73.38
242.542	70.38
243.013	95.38
243.483	66.38
243.953	93.38
244.423	70.38
244.893	106.38
245.363	86.38
245.833	98.38
246.303	91.38
246.773	93.38
247.243	85.38
247.712	102.38
248.182	71.38
248.652	76.38
249.122	76.38
249.592	91.38
250.061	86.38
250.531	76.38
251.001	72.38
251.471	100.38
251.94	91.38
252.41	106.38
252.879	91.38
253.349	76.38
253.818	89.38
254.288	98.38
254.757	86.38
255.227	96.38
255.696	88.38
256.166	92.38
256.635	96.38
257.105	98.38
257.574	90.38
258.043	92.38
258.513	98.38
258.982	99.38
259.451	90.38
259.92	98.38
260.389	96.38
260.859	86.38
261.328	98.38
261.797	76.38
262.266	102.38
262.735	88.38
263.204	103.38
263.673	88.38
264.142	96.38
264.611	92.38
265.08	103.38
265.549	103.38
266.018	90.38
266.487	118.38
266.955	95.38
267.424	93.38
267.893	108.38
268.362	104.38
268.83	102.38
269.299	90.38
269.768	84.38
270.236	92.38
270.705	94.38
271.174	106.38
271.642	114.38
272.111	118.38
272.579	96.38
273.048	114.38
273.516	88.38
273.985	107.38
274.453	113.38
274.922	106.38
275.39	113.38
275.858	93.38
276.327	99.38
276.795	96.38
277.263	113.38
277.731	96.38
278.2	100.38
278.668	102.38
279.136	101.38
279.604	102.38
280.072	92.38
280.54	94.38
281.008	124.38
281.477	96.38
281.945	103.38
282.413	104.38
282.881	107.38
283.348	116.38
283.816	114.38
284.284	92.38
284.752	112.38
285.22	108.38
285.688	96.38
286.156	117.38
286.623	102.38
287.091	118.38
287.559	118.38
288.026	109.38
288.494	100.38
288.962	100.38
289.429	114.38
289.897	120.38
290.364	116.38
290.832	113.38
291.3	125.38
291.767	118.38
292.234	118.38
292.702	106.38
293.169	114.38
293.637	120.38
294.104	128.38
294.571	120.38
295.039	106.38
295.506	122.38
295.973	124.38
296.44	123.38
296.908	130.38
297.375	108.38
297.842	107.38
298.309	120.38
298.776	125.38
299.243	126.38
299.71	125.38
300.177	112.38
300.644	130.38
301.111	129.38
301.578	140.38
302.045	151.38
302.512	137.38
302.979	134.38
303.446	131.38
303.913	133.38
304.379	121.38
304.846	126.38
305.313	133.38
305.78	127.38
306.246	139.38
306.713	136.38
307.18	118.38
307.646	127.38
308.113	130.38
308.579	143.38
309.046	131.38
309.512	137.38
309.979	135.38
310.445	149.38
310.912	131.38
311.378	128.38
311.845	127.38
312.311	123.38
312.777	141.38
313.244	128.38
313.71	133.38
314.176	158.38
314.642	161.38
315.109	135.38
315.575	134.38
316.041	147.38
316.507	160.38
316.973	150.38
317.439	143.38
317.905	136.38
318.371	138.38
318.837	149.38
319.303	152.38
319.769	146.38
320.235	166.38
320.701	161.38
321.167	156.38
321.633	155.38
322.099	148.38
322.564	136.38
323.03	145.38
323.496	158.38
323.962	139.38
324.427	149.38
324.893	153.38
325.359	144.38
325.824	164.38
326.29	166.38
326.755	169.38
327.221	167.38
327.686	153.38
328.152	149.38
328.617	174.38
329.083	162.38
329.548	151.38
330.014	176.38
330.479	191.38
330.944	174.38
331.41	172.38
331.875	160.38
332.34	185.38
332.805	175.38
333.271	161.38
333.736	170.38
334.201	177.38
334.666	175.38
335.131	175.38
335.596	176.38
336.061	170.38
336.526	172.38
336.991	184.38
337.456	176.38
337.921	156.38
338.386	196.38
338.851	181.38
339.316	180.38
339.781	154.38
340.246	187.38
340.711	183.38
341.175	203.38
341.64	182.38
342.105	188.38
342.569	184.38
343.034	197.38
343.499	197.38
343.963	202.38
344.428	202.38
344.893	186.38
345.357	184.38
345.822	204.38
346.286	199.38
346.751	213.38
347.215	223.38
347.679	207.38
348.144	217.38
348.608	214.38
349.073	206.38
349.537	232.38
350.001	226.38
350.465	214.38
350.93	226.38
351.394	201.38
351.858	196.38
352.322	208.38
352.786	234.38
353.25	216.38
353.715	216.38
354.179	231.38
354.643	222.38
355.107	234.38
355.571	225.38
356.035	238.38
356.498	235.38
356.962	235.38
357.426	239.38
357.89	234.38
358.354	250.38
358.818	230.38
359.281	218.38
359.745	249.38
360.209	249.38
360.673	258.38
361.136	228.38
361.6	236.38
362.064	246.38
362.527	272.38
362.991	250.38
363.454	248.38
363.918	246.38
364.381	238.38
364.845	247.38
365.308	257.38
365.772	261.38
366.235	256.38
366.698	250.38
367.162	269.38
367.625	256.38
368.088	247.38
368.552	247.38
369.015	258.38
369.478	241.38
369.941	255.38
370.404	254.38
370.867	257.38
371.331	274.38
371.794	255.38
372.257	278.38
372.72	278.38
373.183	290.38
373.646	282.38
374.109	302.38
374.572	283.38
375.035	296.38
375.497	283.38
375.96	267.38
376.423	266.38
376.886	278.38
377.349	280.38
377.811	296.38
378.274	266.38
378.737	300.38
379.199	291.38
379.662	317.38
380.125	290.38
380.587	302.38
381.05	286.38
381.512	312.38
381.975	315.38
382.437	318.38
382.9	321.38
383.362	302.38
383.825	326.38
384.287	348.38
384.75	320.38
385.212	342.38
385.674	316.38
386.136	315.38
386.599	324.38
387.061	325.38
387.523	329.38
387.985	328.38
388.447	339.38
388.91	314.38
389.372	326.38
389.834	338.38
390.296	334.38
390.758	324.38
391.22	319.38
391.682	327.38
392.144	334.38
392.606	320.38
393.068	340.38
393.529	355.38
393.991	343.38
394.453	360.38
394.915	347.38
395.377	334.38
395.838	342.38
396.3	335.38
396.762	353.38
397.224	339.38
397.685	347.38
398.147	351.38
398.608	353.38
399.07	359.38
399.531	352.38
399.993	376.38
400.454	356.38
400.916	360.38
401.377	374.38
401.839	374.38
402.3	373.38
402.762	380.38
403.223	408.38
403.684	415.38
404.145	378.38
404.607	384.38
405.068	378.38
405.529	384.38
405.99	412.38
406.451	380.38
406.913	386.38
407.374	390.38
407.835	423.38
408.296	403.38
408.757	400.38
409.218	422.38
409.679	421.38
410.14	408.38
410.601	423.38
411.062	408.38
411.522	438.38
411.983	433.38
412.444	453.38
412.905	441.38
413.366	431.38
413.826	440.38
414.287	514.38
414.748	600.38
415.208	630.38
415.669	536.38
416.13	488.38
416.59	514.38
417.051	487.38
417.511	524.38
417.972	548.38
418.432	570.38
418.893	626.38
419.353	591.38
419.814	478.38
420.274	448.38
420.734	444.38
421.195	458.38
421.655	449.38
422.115	462.38
422.576	429.38
423.036	452.38
423.496	508.38
423.956	516.38
424.416	517.38
424.876	563.38
425.336	604.38
425.797	566.38
426.257	595.38
426.717	551.38
427.177	509.38
427.637	498.38
428.097	520.38
428.556	539.38
429.016	601.38
429.476	594.38
429.936	544.38
430.396	572.38
430.856	589.38
431.315	597.38
431.775	656.38
432.235	661.38
432.694	687.38
433.154	665.38
433.614	636.38
434.073	638.38
434.533	578.38
434.993	545.38
435.452	532.38
435.912	518.38
436.371	517.38
436.83	500.38
437.29	554.38
437.749	487.38
438.209	496.38
438.668	540.38
439.127	518.38
439.587	518.38
440.046	517.38
440.505	512.38
440.964	513.38
441.424	536.38
441.883	533.38
442.342	511.38
442.801	488.38
443.26	512.38
443.719	492.38
444.178	499.38
444.637	475.38
445.096	532.38
445.555	512.38
446.014	516.38
446.473	517.38
446.932	515.38
447.391	528.38
447.849	504.38
448.308	463.38
448.767	516.38
449.226	502.38
449.685	513.38
450.143	555.38
450.602	539.38
451.061	534.38
451.519	501.38
451.978	527.38
452.436	505.38
452.895	526.38
453.353	510.38
453.812	550.38
454.27	518.38
454.729	520.38
455.187	502.38
455.646	510.38
456.104	536.38
456.562	512.38
457.021	534.38
457.479	507.38
457.937	534.38
458.395	537.38
458.854	531.38
459.312	544.38
459.77	549.38
460.228	546.38
460.686	570.38
461.144	543.38
461.602	559.38
462.06	545.38
462.518	550.38
462.976	547.38
463.434	557.38
463.892	562.38
464.35	578.38
464.808	582.38
465.266	598.38
465.724	588.38
466.181	602.38
466.639	611.38
467.097	602.38
467.555	626.38
468.012	610.38
468.47	638.38
468.928	630.38
469.385	659.38
469.843	679.38
470.3	687.38
470.758	690.38
471.215	694.38
471.673	718.38
472.13	732.38
472.588	741.38
473.045	756.38
473.503	774.38
473.96	762.38
474.417	786.38
474.875	838.38
475.332	821.38
475.789	832.38
476.246	873.38
476.704	888.38
477.161	899.38
477.618	976.38
478.075	1044.38
478.532	1089.38
478.989	1154.38
479.446	1279.38
479.903	1328.38
480.36	1420.38
480.817	1562.38
481.274	1615.38
481.731	1726.38
482.188	1913.38
482.645	2049.38
483.102	2118.38
483.558	2278.38
484.015	2403.38
484.472	2377.38
484.929	2280.38
485.385	2244.38
485.842	2154.38
486.299	2086.38
486.755	1913.38
487.212	1841.38
487.668	1587.38
488.125	1465.38
488.582	1378.38
489.038	1341.38
489.494	1328.38
489.951	1248.38
490.407	1231.38
490.864	1188.38
491.32	1177.38
491.776	1164.38
492.233	1172.38
492.689	1160.38
493.145	1119.38
493.602	1104.38
494.058	1112.38
494.514	1118.38
494.97	1091.38
495.426	1143.38
495.882	1150.38
496.338	1096.38
496.794	1102.38
497.251	1148.38
497.707	1176.38
498.163	1164.38
498.618	1165.38
499.074	1125.38
499.53	1164.38
499.986	1127.38
500.442	1142.38
500.898	1164.38
501.354	1137.38
501.809	1150.38
502.265	1144.38
502.721	1180.38
503.177	1184.38
503.632	1183.38
504.088	1171.38
504.543	1186.38
504.999	1198.38
505.455	1216.38
505.91	1156.38
506.366	1161.38
506.821	1191.38
507.277	1176.38
507.732	1174.38
508.187	1193.38
508.643	1207.38
509.098	1174.38
509.553	1202.38
510.009	1201.38
510.464	1225.38
510.919	1221.38
511.375	1275.38
511.83	1271.38
512.285	1264.38
512.74	1283.38
513.195	1341.38
513.65	1324.38
514.105	1345.38
514.56	1391.38
515.015	1402.38
515.47	1359.38
515.925	1382.38
516.38	1354.38
516.835	1396.38
517.29	1396.38
517.745	1373.38
518.2	1370.38
518.655	1341.38
519.109	1355.38
519.564	1260.38
520.019	1320.38
520.474	1289.38
520.928	1283.38
521.383	1267.38
521.838	1262.38
522.292	1261.38
522.747	1244.38
523.201	1220.38
523.656	1208.38
524.11	1262.38
524.565	1240.38
525.019	1219.38
525.474	1244.38
525.928	1238.38
526.382	1206.38
526.837	1226.38
527.291	1242.38
527.745	1224.38
528.2	1252.38
528.654	1202.38
529.108	1271.38
529.562	1226.38
530.016	1217.38
530.47	1224.38
530.925	1193.38
531.379	1213.38
531.833	1230.38
532.287	1238.38
532.741	1242.38
533.195	1198.38
533.649	1216.38
534.103	1259.38
534.556	1245.38
535.01	1197.38
535.464	1214.38
535.918	1204.38
536.372	1222.38
536.826	1256.38
537.279	1221.38
537.733	1206.38
538.187	1243.38
538.64	1225.38
539.094	1231.38
539.548	1253.38
540.001	1246.38
540.455	1246.38
540.908	1268.38
541.362	1265.38
541.815	1262.38
542.269	1306.38
542.722	1290.38
543.175	1296.38
543.629	1333.38
544.082	1337.38
544.536	1358.38
544.989	1352.38
545.442	1312.38
545.895	1357.38
546.349	1377.38
546.802	1332.38
547.255	1309.38
547.708	1342.38
548.161	1376.38
548.614	1382.38
549.067	1388.38
549.52	1332.38
549.973	1359.38
550.426	1393.38
550.879	1374.38
551.332	1325.38
551.785	1401.38
552.238	1392.38
552.691	1349.38
553.144	1392.38
553.596	1407.38
554.049	1405.38
554.502	1442.38
554.955	1470.38
555.407	1526.38
555.86	1492.38
556.313	1470.38
556.765	1466.38
557.218	1436.38
557.67	1457.38
558.123	1442.38
558.576	1438.38
559.028	1416.38
559.48	1416.38
559.933	1434.38
560.385	1382.38
560.838	1357.38
561.29	1308.38
561.742	1304.38
562.195	1273.38
562.647	1234.38
563.099	1254.38
563.551	1236.38
564.004	1265.38
564.456	1258.38
564.908	1239.38
565.36	1235.38
565.812	1164.38
566.264	1202.38
566.716	1174.38
567.168	1164.38
567.62	1166.38
568.072	1176.38
568.524	1169.38
568.976	1140.38
569.428	1114.38
569.88	1127.38
570.332	1108.38
570.784	1117.38
571.235	1115.38
571.687	1183.38
572.139	1151.38
572.59	1155.38
573.042	1126.38
573.494	1196.38
573.945	1160.38
574.397	1128.38
574.849	1100.38
575.3	1064.38
575.752	1122.38
576.203	1071.38
576.655	1126.38
577.106	1105.38
577.557	1065.38
578.009	1104.38
578.46	1073.38
578.912	1080.38
579.363	1057.38
579.814	1072.38
580.265	1066.38
580.717	1074.38
581.168	1061.38
581.619	1059.38
582.07	1074.38
582.521	1094.38
582.972	1066.38
583.423	1099.38
583.875	1094.38
584.326	1096.38
584.777	1111.38
585.227	1110.38
585.678	1152.38
586.129	1138.38
586.58	1169.38
587.031	1174.38
587.482	1230.38
587.933	1248.38
588.384	1256.38
588.834	1185.38
589.285	1224.38
589.736	1209.38
590.186	1168.38
590.637	1223.38
591.088	1170.38
591.538	1182.38
591.989	1138.38
592.439	1157.38
592.89	1125.38
593.34	1150.38
593.791	1092.38
594.241	1098.38
594.692	1103.38
595.142	1087.38
595.593	1099.38
596.043	1084.38
596.493	1116.38
596.943	1094.38
597.394	1096.38
597.844	1115.38
598.294	1136.38
598.744	1186.38
599.195	1286.38
599.645	1332.38
600.095	1342.38
600.545	1395.38
600.995	1480.38
601.445	1531.38
601.895	1578.38
602.345	1602.38
602.795	1639.38
603.245	1571.38
603.695	1532.38
604.145	1416.38
604.594	1373.38
605.044	1325.38
605.494	1254.38
605.944	1194.38
606.393	1150.38
606.843	1098.38
607.293	1121.38
607.743	1107.38
608.192	1117.38
608.642	1108.38
609.091	1095.38
609.541	1091.38
609.99	1137.38
610.44	1094.38
610.889	1103.38
611.339	1077.38
611.788	1062.38
612.238	1075.38
612.687	1021.38
613.136	1070.38
613.586	1095.38
614.035	1056.38
614.484	1070.38
614.933	1079.38
615.383	1037.38
615.832	1050.38
616.281	1067.38
616.73	1013.38
617.179	1031.38
617.628	958.38
618.077	960.38
618.526	942.38
618.975	959.38
619.424	933.38
619.873	922.38
620.322	916.38
620.771	916.38
621.22	909.38
621.669	887.38
622.118	900.38
622.567	875.38
623.015	870.38
623.464	856.38
623.913	866.38
624.361	901.38
624.81	873.38
625.259	880.38
625.707	842.38
626.156	831.38
626.604	871.38
627.053	859.38
627.501	857.38
627.95	845.38
628.398	912.38
628.847	871.38
629.295	864.38
629.744	890.38
630.192	866.38
630.64	844.38
631.089	824.38
631.537	811.38
631.985	804.38
632.433	803.38
632.881	790.38
633.33	800.38
633.778	817.38
634.226	802.38
634.674	791.38
635.122	818.38
635.57	810.38
636.018	856.38
636.466	809.38
636.914	806.38
637.362	853.38
637.81	876.38
638.258	882.38
638.705	908.38
639.153	914.38
639.601	908.38
640.049	911.38
640.497	981.38
640.944	979.38
641.392	966.38
641.84	938.38
642.287	855.38
642.735	863.38
643.182	872.38
643.63	848.38
644.078	828.38
644.525	857.38
644.973	882.38
645.42	879.38
645.867	952.38
646.315	926.38
646.762	994.38
647.21	1002.38
647.657	1050.38
648.104	1081.38
648.551	1066.38
648.999	1218.38
649.446	1285.38
649.893	1430.38
650.34	1584.38
650.787	1924.38
651.234	2446.38
651.682	3218.38
652.129	4483.38
652.576	6460.38
653.023	8738.38
653.47	10820.38
653.917	12000.38
654.363	12625.38
654.81	13308.38
655.257	14094.38
655.704	10721.38
656.151	6545.38
656.598	4131.38
657.044	2905.38
657.491	2251.38
657.938	1830.38
658.385	1540.38
658.831	1324.38
659.278	1202.38
659.724	1127.38
660.171	1052.38
660.618	977.38
661.064	950.38
661.511	868.38
661.957	872.38
662.404	857.38
662.85	836.38
663.296	827.38
663.743	818.38
664.189	807.38
664.635	792.38
665.082	775.38
665.528	764.38
665.974	737.38
666.42	711.38
666.867	739.38
667.313	698.38
667.759	688.38
668.205	684.38
668.651	674.38
669.097	679.38
669.543	697.38
669.989	672.38
670.435	727.38
670.881	707.38
671.327	696.38
671.773	746.38
672.219	773.38
672.665	861.38
673.11	872.38
673.556	887.38
674.002	895.38
674.448	947.38
674.893	846.38
675.339	724.38
675.785	670.38
676.23	648.38
676.676	602.38
677.122	580.38
677.567	592.38
678.013	550.38
678.458	577.38
678.904	550.38
679.349	562.38
679.794	552.38
680.24	556.38
680.685	548.38
681.131	552.38
681.576	537.38
682.021	577.38
682.466	556.38
682.912	588.38
683.357	552.38
683.802	614.38
684.247	624.38
684.692	726.38
685.137	721.38
685.583	746.38
686.028	761.38
686.473	753.38
686.918	689.38
687.363	630.38
687.807	568.38
688.252	554.38
688.697	553.38
689.142	536.38
689.587	551.38
690.032	563.38
690.477	549.38
690.921	568.38
691.366	596.38
691.811	616.38
692.255	666.38
692.7	756.38
693.145	952.38
693.589	1392.38
694.034	1829.38
694.478	2042.38
694.923	1830.38
695.367	2267.38
695.812	2152.38
696.256	913.38
696.701	602.38
697.145	556.38
697.59	534.38
698.034	474.38
698.478	497.38
698.922	507.38
699.367	535.38
699.811	533.38
700.255	584.38
700.699	597.38
701.143	642.38
701.588	694.38
702.032	716.38
702.476	730.38
702.92	772.38
703.364	861.38
703.808	1262.38
704.252	1670.38
704.696	1916.38
705.14	1782.38
705.584	2236.38
706.027	1873.38
706.471	909.38
706.915	640.38
707.359	562.38
707.803	524.38
708.246	482.38
708.69	495.38
709.134	476.38
709.577	530.38
710.021	501.38
710.465	501.38
710.908	491.38
711.352	506.38
711.795	502.38
712.239	598.38
712.682	574.38
713.126	588.38
713.569	605.38
714.012	580.38
714.456	512.38
714.899	468.38
715.342	438.38
715.786	414.38
716.229	431.38
716.672	425.38
717.115	416.38
717.558	395.38
718.002	422.38
718.445	421.38
718.888	449.38
719.331	454.38
719.774	478.38
720.217	465.38
720.66	464.38
721.103	433.38
721.546	414.38
721.989	430.38
722.432	416.38
722.874	392.38
723.317	372.38
723.76	410.38
724.203	471.38
724.645	587.38
725.088	697.38
725.531	740.38
725.974	736.38
726.416	815.38
726.859	546.38
727.301	412.38
727.744	400.38
728.187	389.38
728.629	403.38
729.071	392.38
729.514	418.38
729.956	431.38
730.399	441.38
730.841	453.38
731.283	445.38
731.726	418.38
732.168	438.38
732.61	437.38
733.053	481.38
733.495	525.38
733.937	553.38
734.379	634.38
734.821	742.38
735.263	984.38
735.705	1691.38
736.148	2703.38
736.59	3186.38
737.032	2997.38
737.474	3224.38
737.916	1608.38
738.357	807.38
738.799	566.38
739.241	492.38
739.683	490.38
740.125	487.38
740.567	513.38
741.008	514.38
741.45	556.38
741.892	586.38
742.334	574.38
742.775	555.38
743.217	580.38
743.658	527.38
744.1	484.38
744.542	540.38
744.983	564.38
745.425	554.38
745.866	610.38
746.307	505.38
