Data from 20170802-ORNL-NYSim-Air_HRD10391_10-37-21-635.txt Node
Date: Wed Aug 02 10:37:21 EDT 2017
User: Ender
Spectrometer: HR+D1039
Trigger mode: 0
Integration Time (sec): 1.510000E-3
Scans to average: 1
Electric dark correction enabled: true
Nonlinearity correction enabled: false
Boxcar width: 0
XAxis mode: Wavelengths
Number of Pixels in Spectrum: 2048
>>>>>Begin Spectral Data<<<<<
187.836	6.31
188.309	6.31
188.782	6.31
189.255	-10.69
189.728	-12.69
190.201	-11.69
190.674	6.31
191.147	-7.69
191.619	-8.69
192.092	-16.69
192.565	3.31
193.038	12.31
193.511	-10.69
193.984	-4.69
194.456	12.31
194.929	8.31
195.402	11.31
195.874	23.31
196.347	21.31
196.82	20.31
197.292	28.31
197.765	33.31
198.237	25.31
198.71	38.31
199.182	43.31
199.655	42.31
200.127	49.31
200.6	53.31
201.072	67.31
201.544	59.31
202.017	72.31
202.489	53.31
202.961	73.31
203.433	50.31
203.906	59.31
204.378	73.31
204.85	81.31
205.322	87.31
205.794	76.31
206.266	74.31
206.739	71.31
207.211	97.31
207.683	74.31
208.155	72.31
208.627	87.31
209.099	94.31
209.57	95.31
210.042	79.31
210.514	88.31
210.986	77.31
211.458	82.31
211.93	63.31
212.402	99.31
212.873	70.31
213.345	77.31
213.817	81.31
214.288	82.31
214.76	79.31
215.232	68.31
215.703	81.31
216.175	81.31
216.646	73.31
217.118	78.31
217.589	97.31
218.061	63.31
218.532	88.31
219.004	87.31
219.475	80.31
219.946	67.31
220.418	87.31
220.889	91.31
221.36	74.31
221.832	88.31
222.303	91.31
222.774	57.31
223.245	83.31
223.717	74.31
224.188	70.31
224.659	71.31
225.13	84.31
225.601	71.31
226.072	83.31
226.543	74.31
227.014	82.31
227.485	88.31
227.956	89.31
228.427	78.31
228.898	70.31
229.369	84.31
229.839	88.31
230.31	86.31
230.781	78.31
231.252	87.31
231.722	78.31
232.193	83.31
232.664	87.31
233.135	74.31
233.605	61.31
234.076	80.31
234.546	77.31
235.017	59.31
235.487	88.31
235.958	89.31
236.428	98.31
236.899	73.31
237.369	88.31
237.84	82.31
238.31	75.31
238.78	77.31
239.251	79.31
239.721	107.31
240.191	78.31
240.662	91.31
241.132	87.31
241.602	75.31
242.072	96.31
242.542	62.31
243.013	74.31
243.483	93.31
243.953	85.31
244.423	66.31
244.893	79.31
245.363	75.31
245.833	66.31
246.303	68.31
246.773	83.31
247.243	98.31
247.712	95.31
248.182	97.31
248.652	77.31
249.122	86.31
249.592	75.31
250.061	83.31
250.531	95.31
251.001	64.31
251.471	72.31
251.94	76.31
252.41	98.31
252.879	95.31
253.349	93.31
253.818	97.31
254.288	85.31
254.757	91.31
255.227	89.31
255.696	95.31
256.166	99.31
256.635	116.31
257.105	97.31
257.574	78.31
258.043	94.31
258.513	82.31
258.982	102.31
259.451	97.31
259.92	97.31
260.389	84.31
260.859	95.31
261.328	87.31
261.797	95.31
262.266	90.31
262.735	92.31
263.204	93.31
263.673	80.31
264.142	103.31
264.611	111.31
265.08	96.31
265.549	98.31
266.018	80.31
266.487	84.31
266.955	79.31
267.424	88.31
267.893	95.31
268.362	110.31
268.83	85.31
269.299	94.31
269.768	112.31
270.236	81.31
270.705	93.31
271.174	93.31
271.642	111.31
272.111	96.31
272.579	98.31
273.048	86.31
273.516	90.31
273.985	87.31
274.453	101.31
274.922	119.31
275.39	104.31
275.858	93.31
276.327	103.31
276.795	112.31
277.263	101.31
277.731	105.31
278.2	105.31
278.668	101.31
279.136	117.31
279.604	94.31
280.072	109.31
280.54	106.31
281.008	105.31
281.477	96.31
281.945	102.31
282.413	110.31
282.881	121.31
283.348	112.31
283.816	114.31
284.284	109.31
284.752	114.31
285.22	103.31
285.688	109.31
286.156	119.31
286.623	111.31
287.091	110.31
287.559	113.31
288.026	100.31
288.494	109.31
288.962	112.31
289.429	104.31
289.897	109.31
290.364	104.31
290.832	128.31
291.3	115.31
291.767	122.31
292.234	108.31
292.702	110.31
293.169	140.31
293.637	97.31
294.104	132.31
294.571	123.31
295.039	114.31
295.506	113.31
295.973	119.31
296.44	129.31
296.908	103.31
297.375	117.31
297.842	112.31
298.309	110.31
298.776	109.31
299.243	123.31
299.71	131.31
300.177	135.31
300.644	129.31
301.111	145.31
301.578	141.31
302.045	122.31
302.512	111.31
302.979	129.31
303.446	125.31
303.913	123.31
304.379	118.31
304.846	132.31
305.313	131.31
305.78	128.31
306.246	125.31
306.713	123.31
307.18	131.31
307.646	120.31
308.113	143.31
308.579	135.31
309.046	129.31
309.512	152.31
309.979	150.31
310.445	150.31
310.912	139.31
311.378	153.31
311.845	122.31
312.311	121.31
312.777	137.31
313.244	147.31
313.71	147.31
314.176	143.31
314.642	151.31
315.109	150.31
315.575	129.31
316.041	134.31
316.507	147.31
316.973	145.31
317.439	140.31
317.905	138.31
318.371	118.31
318.837	160.31
319.303	157.31
319.769	138.31
320.235	141.31
320.701	153.31
321.167	161.31
321.633	155.31
322.099	144.31
322.564	153.31
323.03	137.31
323.496	163.31
323.962	140.31
324.427	155.31
324.893	155.31
325.359	171.31
325.824	164.31
326.29	157.31
326.755	158.31
327.221	182.31
327.686	166.31
328.152	179.31
328.617	167.31
329.083	161.31
329.548	189.31
330.014	180.31
330.479	151.31
330.944	158.31
331.41	162.31
331.875	167.31
332.34	149.31
332.805	162.31
333.271	162.31
333.736	166.31
334.201	189.31
334.666	182.31
335.131	183.31
335.596	167.31
336.061	170.31
336.526	187.31
336.991	169.31
337.456	176.31
337.921	163.31
338.386	168.31
338.851	166.31
339.316	182.31
339.781	180.31
340.246	161.31
340.711	179.31
341.175	185.31
341.64	180.31
342.105	181.31
342.569	205.31
343.034	191.31
343.499	191.31
343.963	194.31
344.428	186.31
344.893	172.31
345.357	195.31
345.822	190.31
346.286	196.31
346.751	199.31
347.215	187.31
347.679	215.31
348.144	215.31
348.608	198.31
349.073	203.31
349.537	212.31
350.001	224.31
350.465	206.31
350.93	222.31
351.394	218.31
351.858	222.31
352.322	199.31
352.786	219.31
353.25	229.31
353.715	212.31
354.179	243.31
354.643	239.31
355.107	239.31
355.571	242.31
356.035	233.31
356.498	217.31
356.962	240.31
357.426	227.31
357.89	235.31
358.354	238.31
358.818	199.31
359.281	243.31
359.745	236.31
360.209	239.31
360.673	221.31
361.136	225.31
361.6	238.31
362.064	240.31
362.527	238.31
362.991	207.31
363.454	243.31
363.918	222.31
364.381	243.31
364.845	240.31
365.308	243.31
365.772	247.31
366.235	253.31
366.698	237.31
367.162	237.31
367.625	218.31
368.088	253.31
368.552	243.31
369.015	253.31
369.478	250.31
369.941	296.31
370.404	249.31
370.867	250.31
371.331	261.31
371.794	250.31
372.257	262.31
372.72	252.31
373.183	274.31
373.646	258.31
374.109	265.31
374.572	263.31
375.035	259.31
375.497	257.31
375.96	268.31
376.423	263.31
376.886	255.31
377.349	284.31
377.811	286.31
378.274	296.31
378.737	288.31
379.199	288.31
379.662	267.31
380.125	277.31
380.587	305.31
381.05	303.31
381.512	309.31
381.975	312.31
382.437	316.31
382.9	304.31
383.362	311.31
383.825	291.31
384.287	296.31
384.75	299.31
385.212	343.31
385.674	303.31
386.136	301.31
386.599	308.31
387.061	307.31
387.523	311.31
387.985	319.31
388.447	327.31
388.91	316.31
389.372	318.31
389.834	323.31
390.296	325.31
390.758	326.31
391.22	334.31
391.682	325.31
392.144	335.31
392.606	320.31
393.068	342.31
393.529	353.31
393.991	334.31
394.453	337.31
394.915	323.31
395.377	334.31
395.838	309.31
396.3	359.31
396.762	330.31
397.224	335.31
397.685	346.31
398.147	323.31
398.608	350.31
399.07	352.31
399.531	349.31
399.993	345.31
400.454	345.31
400.916	359.31
401.377	363.31
401.839	378.31
402.3	351.31
402.762	359.31
403.223	386.31
403.684	406.31
404.145	363.31
404.607	363.31
405.068	375.31
405.529	371.31
405.99	384.31
406.451	390.31
406.913	378.31
407.374	369.31
407.835	385.31
408.296	412.31
408.757	382.31
409.218	419.31
409.679	415.31
410.14	403.31
410.601	431.31
411.062	404.31
411.522	403.31
411.983	435.31
412.444	420.31
412.905	432.31
413.366	444.31
413.826	445.31
414.287	531.31
414.748	573.31
415.208	592.31
415.669	529.31
416.13	452.31
416.59	431.31
417.051	470.31
417.511	507.31
417.972	535.31
418.432	523.31
418.893	612.31
419.353	599.31
419.814	477.31
420.274	412.31
420.734	420.31
421.195	422.31
421.655	439.31
422.115	469.31
422.576	453.31
423.036	452.31
423.496	473.31
423.956	482.31
424.416	508.31
424.876	539.31
425.336	540.31
425.797	566.31
426.257	533.31
426.717	500.31
427.177	477.31
427.637	486.31
428.097	478.31
428.556	490.31
429.016	568.31
429.476	512.31
429.936	554.31
430.396	539.31
430.856	563.31
431.315	589.31
431.775	611.31
432.235	661.31
432.694	654.31
433.154	645.31
433.614	631.31
434.073	591.31
434.533	545.31
434.993	509.31
435.452	523.31
435.912	490.31
436.371	513.31
436.83	506.31
437.29	507.31
437.749	484.31
438.209	491.31
438.668	523.31
439.127	514.31
439.587	487.31
440.046	497.31
440.505	503.31
440.964	504.31
441.424	481.31
441.883	536.31
442.342	469.31
442.801	516.31
443.26	477.31
443.719	487.31
444.178	485.31
444.637	450.31
445.096	497.31
445.555	493.31
446.014	465.31
446.473	483.31
446.932	502.31
447.391	508.31
447.849	511.31
448.308	489.31
448.767	517.31
449.226	517.31
449.685	495.31
450.143	539.31
450.602	547.31
451.061	521.31
451.519	506.31
451.978	500.31
452.436	521.31
452.895	511.31
453.353	482.31
453.812	469.31
454.27	506.31
454.729	495.31
455.187	491.31
455.646	510.31
456.104	472.31
456.562	522.31
457.021	505.31
457.479	513.31
457.937	517.31
458.395	498.31
458.854	525.31
459.312	529.31
459.77	499.31
460.228	507.31
460.686	519.31
461.144	499.31
461.602	507.31
462.06	521.31
462.518	526.31
462.976	566.31
463.434	522.31
463.892	555.31
464.35	548.31
464.808	560.31
465.266	572.31
465.724	576.31
466.181	560.31
466.639	555.31
467.097	603.31
467.555	611.31
468.012	644.31
468.47	612.31
468.928	631.31
469.385	641.31
469.843	669.31
470.3	640.31
470.758	665.31
471.215	673.31
471.673	690.31
472.13	688.31
472.588	720.31
473.045	716.31
473.503	715.31
473.96	777.31
474.417	763.31
474.875	777.31
475.332	816.31
475.789	825.31
476.246	852.31
476.704	871.31
477.161	877.31
477.618	909.31
478.075	963.31
478.532	1024.31
478.989	1091.31
479.446	1229.31
479.903	1272.31
480.36	1335.31
480.817	1429.31
481.274	1532.31
481.731	1616.31
482.188	1779.31
482.645	1903.31
483.102	1994.31
483.558	2125.31
484.015	2189.31
484.472	2166.31
484.929	2189.31
485.385	2063.31
485.842	2010.31
486.299	1954.31
486.755	1781.31
487.212	1638.31
487.668	1515.31
488.125	1391.31
488.582	1305.31
489.038	1239.31
489.494	1233.31
489.951	1188.31
490.407	1135.31
490.864	1132.31
491.32	1125.31
491.776	1108.31
492.233	1146.31
492.689	1122.31
493.145	1068.31
493.602	1057.31
494.058	1081.31
494.514	1121.31
494.97	1110.31
495.426	1094.31
495.882	1091.31
496.338	1103.31
496.794	1084.31
497.251	1107.31
497.707	1103.31
498.163	1131.31
498.618	1124.31
499.074	1118.31
499.53	1105.31
499.986	1125.31
500.442	1149.31
500.898	1076.31
501.354	1131.31
501.809	1102.31
502.265	1101.31
502.721	1152.31
503.177	1132.31
503.632	1119.31
504.088	1113.31
504.543	1149.31
504.999	1165.31
505.455	1175.31
505.91	1133.31
506.366	1135.31
506.821	1183.31
507.277	1163.31
507.732	1154.31
508.187	1151.31
508.643	1148.31
509.098	1191.31
509.553	1177.31
510.009	1185.31
510.464	1192.31
510.919	1201.31
511.375	1229.31
511.83	1216.31
512.285	1269.31
512.74	1275.31
513.195	1295.31
513.65	1299.31
514.105	1325.31
514.56	1305.31
515.015	1346.31
515.47	1323.31
515.925	1350.31
516.38	1315.31
516.835	1328.31
517.29	1353.31
517.745	1335.31
518.2	1351.31
518.655	1299.31
519.109	1271.31
519.564	1270.31
520.019	1247.31
520.474	1261.31
520.928	1247.31
521.383	1238.31
521.838	1246.31
522.292	1227.31
522.747	1195.31
523.201	1214.31
523.656	1223.31
524.11	1195.31
524.565	1210.31
525.019	1151.31
525.474	1201.31
525.928	1173.31
526.382	1185.31
526.837	1194.31
527.291	1173.31
527.745	1191.31
528.2	1192.31
528.654	1172.31
529.108	1153.31
529.562	1161.31
530.016	1180.31
530.47	1169.31
530.925	1197.31
531.379	1157.31
531.833	1171.31
532.287	1175.31
532.741	1189.31
533.195	1208.31
533.649	1210.31
534.103	1204.31
534.556	1175.31
535.01	1179.31
535.464	1215.31
535.918	1188.31
536.372	1218.31
536.826	1201.31
537.279	1187.31
537.733	1196.31
538.187	1190.31
538.64	1176.31
539.094	1212.31
539.548	1189.31
540.001	1241.31
540.455	1209.31
540.908	1210.31
541.362	1266.31
541.815	1223.31
542.269	1275.31
542.722	1264.31
543.175	1275.31
543.629	1285.31
544.082	1303.31
544.536	1339.31
544.989	1282.31
545.442	1333.31
545.895	1320.31
546.349	1318.31
546.802	1323.31
547.255	1307.31
547.708	1337.31
548.161	1371.31
548.614	1341.31
549.067	1346.31
549.52	1337.31
549.973	1320.31
550.426	1328.31
550.879	1323.31
551.332	1336.31
551.785	1338.31
552.238	1327.31
552.691	1359.31
553.144	1347.31
553.596	1371.31
554.049	1401.31
554.502	1390.31
554.955	1463.31
555.407	1497.31
555.86	1457.31
556.313	1433.31
556.765	1439.31
557.218	1407.31
557.67	1397.31
558.123	1395.31
558.576	1368.31
559.028	1370.31
559.48	1390.31
559.933	1429.31
560.385	1384.31
560.838	1298.31
561.29	1243.31
561.742	1279.31
562.195	1286.31
562.647	1180.31
563.099	1264.31
563.551	1228.31
564.004	1217.31
564.456	1232.31
564.908	1243.31
565.36	1198.31
565.812	1157.31
566.264	1149.31
566.716	1165.31
567.168	1093.31
567.62	1092.31
568.072	1125.31
568.524	1102.31
568.976	1108.31
569.428	1101.31
569.88	1105.31
570.332	1083.31
570.784	1115.31
571.235	1063.31
571.687	1114.31
572.139	1109.31
572.59	1133.31
573.042	1095.31
573.494	1119.31
573.945	1085.31
574.397	1067.31
574.849	1084.31
575.3	1077.31
575.752	1052.31
576.203	1075.31
576.655	1069.31
577.106	1016.31
577.557	1052.31
578.009	1050.31
578.46	1046.31
578.912	1040.31
579.363	1025.31
579.814	1049.31
580.265	1005.31
580.717	1033.31
581.168	1022.31
581.619	1049.31
582.07	1062.31
582.521	1067.31
582.972	1101.31
583.423	1056.31
583.875	1086.31
584.326	1081.31
584.777	1083.31
585.227	1073.31
585.678	1123.31
586.129	1086.31
586.58	1113.31
587.031	1169.31
587.482	1131.31
587.933	1175.31
588.384	1189.31
588.834	1190.31
589.285	1165.31
589.736	1133.31
590.186	1206.31
590.637	1148.31
591.088	1125.31
591.538	1105.31
591.989	1090.31
592.439	1077.31
592.89	1073.31
593.34	1066.31
593.791	1083.31
594.241	1061.31
594.692	1043.31
595.142	1052.31
595.593	1085.31
596.043	1071.31
596.493	1081.31
596.943	1049.31
597.394	1103.31
597.844	1078.31
598.294	1171.31
598.744	1148.31
599.195	1206.31
599.645	1293.31
600.095	1289.31
600.545	1416.31
600.995	1443.31
601.445	1472.31
601.895	1555.31
602.345	1615.31
602.795	1604.31
603.245	1550.31
603.695	1469.31
604.145	1400.31
604.594	1323.31
605.044	1270.31
605.494	1208.31
605.944	1166.31
606.393	1101.31
606.843	1061.31
607.293	1058.31
607.743	1124.31
608.192	1092.31
608.642	1064.31
609.091	1107.31
609.541	1097.31
609.99	1089.31
610.44	1082.31
610.889	1078.31
611.339	1060.31
611.788	1028.31
612.238	1041.31
612.687	1038.31
613.136	1033.31
613.586	1043.31
614.035	1053.31
614.484	1057.31
614.933	1077.31
615.383	1049.31
615.832	1035.31
616.281	1013.31
616.73	1019.31
617.179	981.31
617.628	955.31
618.077	943.31
618.526	919.31
618.975	940.31
619.424	889.31
619.873	947.31
620.322	907.31
620.771	890.31
621.22	891.31
621.669	867.31
622.118	834.31
622.567	841.31
623.015	853.31
623.464	839.31
623.913	836.31
624.361	832.31
624.81	810.31
625.259	831.31
625.707	836.31
626.156	833.31
626.604	847.31
627.053	858.31
627.501	839.31
627.95	842.31
628.398	841.31
628.847	844.31
629.295	839.31
629.744	855.31
630.192	813.31
630.64	791.31
631.089	794.31
631.537	785.31
631.985	757.31
632.433	787.31
632.881	767.31
633.33	770.31
633.778	767.31
634.226	793.31
634.674	809.31
635.122	773.31
635.57	804.31
636.018	821.31
636.466	828.31
636.914	795.31
637.362	829.31
637.81	857.31
638.258	859.31
638.705	855.31
639.153	875.31
639.601	868.31
640.049	923.31
640.497	930.31
640.944	932.31
641.392	933.31
641.84	894.31
642.287	848.31
642.735	831.31
643.182	813.31
643.63	816.31
644.078	793.31
644.525	851.31
644.973	867.31
645.42	862.31
645.867	906.31
646.315	875.31
646.762	944.31
647.21	934.31
647.657	1011.31
648.104	1033.31
648.551	1030.31
648.999	1126.31
649.446	1232.31
649.893	1334.31
650.34	1481.31
650.787	1784.31
651.234	2212.31
651.682	2905.31
652.129	4011.31
652.576	5731.31
653.023	7770.31
653.47	9578.31
653.917	10681.31
654.363	11317.31
654.81	11913.31
655.257	12607.31
655.704	9649.31
656.151	5816.31
656.598	3758.31
657.044	2696.31
657.491	2133.31
657.938	1673.31
658.385	1456.31
658.831	1257.31
659.278	1155.31
659.724	1081.31
660.171	991.31
660.618	923.31
661.064	906.31
661.511	866.31
661.957	835.31
662.404	813.31
662.85	803.31
663.296	759.31
663.743	760.31
664.189	786.31
664.635	775.31
665.082	726.31
665.528	733.31
665.974	761.31
666.42	705.31
666.867	723.31
667.313	702.31
667.759	675.31
668.205	678.31
668.651	650.31
669.097	655.31
669.543	688.31
669.989	697.31
670.435	675.31
670.881	669.31
671.327	697.31
671.773	752.31
672.219	797.31
672.665	811.31
673.11	861.31
673.556	851.31
674.002	859.31
674.448	885.31
674.893	819.31
675.339	715.31
675.785	651.31
676.23	646.31
676.676	619.31
677.122	573.31
677.567	543.31
678.013	570.31
678.458	552.31
678.904	534.31
679.349	550.31
679.794	524.31
680.24	543.31
680.685	510.31
681.131	545.31
681.576	542.31
682.021	552.31
682.466	554.31
682.912	549.31
683.357	545.31
683.802	574.31
684.247	644.31
684.692	673.31
685.137	737.31
685.583	716.31
686.028	734.31
686.473	720.31
686.918	674.31
687.363	611.31
687.807	563.31
688.252	557.31
688.697	563.31
689.142	536.31
689.587	503.31
690.032	527.31
690.477	546.31
690.921	551.31
691.366	588.31
691.811	613.31
692.255	604.31
692.7	719.31
693.145	935.31
693.589	1359.31
694.034	1806.31
694.478	1971.31
694.923	1837.31
695.367	2273.31
695.812	2050.31
696.256	893.31
696.701	589.31
697.145	555.31
697.59	539.31
698.034	488.31
698.478	485.31
698.922	519.31
699.367	495.31
699.811	549.31
700.255	540.31
700.699	601.31
701.143	640.31
701.588	692.31
702.032	714.31
702.476	717.31
702.92	769.31
703.364	867.31
703.808	1258.31
704.252	1667.31
704.696	1903.31
705.14	1801.31
705.584	2143.31
706.027	1847.31
706.471	877.31
706.915	633.31
707.359	566.31
707.803	516.31
708.246	505.31
708.69	512.31
709.134	484.31
709.577	467.31
710.021	465.31
710.465	485.31
710.908	460.31
711.352	449.31
711.795	532.31
712.239	550.31
712.682	591.31
713.126	556.31
713.569	603.31
714.012	571.31
714.456	471.31
714.899	477.31
715.342	456.31
715.786	436.31
716.229	422.31
716.672	387.31
717.115	383.31
717.558	400.31
718.002	422.31
718.445	419.31
718.888	436.31
719.331	443.31
719.774	441.31
720.217	464.31
720.66	446.31
721.103	429.31
721.546	425.31
721.989	423.31
722.432	392.31
722.874	394.31
723.317	397.31
723.76	393.31
724.203	443.31
724.645	564.31
725.088	704.31
725.531	741.31
725.974	723.31
726.416	750.31
726.859	533.31
727.301	413.31
727.744	421.31
728.187	376.31
728.629	388.31
729.071	403.31
729.514	425.31
729.956	411.31
730.399	445.31
730.841	420.31
731.283	449.31
731.726	448.31
732.168	421.31
732.61	432.31
733.053	470.31
733.495	493.31
733.937	541.31
734.379	589.31
734.821	708.31
735.263	1003.31
735.705	1617.31
736.148	2632.31
736.59	3087.31
737.032	2904.31
737.474	3165.31
737.916	1561.31
738.357	787.31
738.799	524.31
739.241	489.31
739.683	475.31
740.125	480.31
740.567	493.31
741.008	490.31
741.45	524.31
741.892	558.31
742.334	580.31
742.775	551.31
743.217	575.31
743.658	483.31
744.1	456.31
744.542	525.31
744.983	567.31
745.425	598.31
745.866	586.31
746.307	509.31
746.749	511.31
