Data from 20170802-ORNL-NYSim-Air_HRD10391_10-36-45-619.txt Node
Date: Wed Aug 02 10:36:45 EDT 2017
User: Ender
Spectrometer: HR+D1039
Trigger mode: 0
Integration Time (sec): 1.510000E-3
Scans to average: 1
Electric dark correction enabled: true
Nonlinearity correction enabled: false
Boxcar width: 0
XAxis mode: Wavelengths
Number of Pixels in Spectrum: 2048
>>>>>Begin Spectral Data<<<<<
187.836	-6.19
188.309	-6.19
188.782	-6.19
189.255	7.81
189.728	-5.19
190.201	-10.19
190.674	-12.19
191.147	-3.19
191.619	-11.19
192.092	-27.19
192.565	-0.19
193.038	10.81
193.511	-8.19
193.984	10.81
194.456	2.81
194.929	7.81
195.402	30.81
195.874	12.81
196.347	29.81
196.82	39.81
197.292	26.81
197.765	27.81
198.237	29.81
198.71	46.81
199.182	54.81
199.655	53.81
200.127	31.81
200.6	66.81
201.072	61.81
201.544	69.81
202.017	58.81
202.489	74.81
202.961	63.81
203.433	73.81
203.906	75.81
204.378	77.81
204.85	88.81
205.322	78.81
205.794	70.81
206.266	86.81
206.739	76.81
207.211	87.81
207.683	89.81
208.155	83.81
208.627	74.81
209.099	83.81
209.57	93.81
210.042	88.81
210.514	93.81
210.986	79.81
211.458	83.81
211.93	66.81
212.402	84.81
212.873	82.81
213.345	74.81
213.817	91.81
214.288	87.81
214.76	95.81
215.232	83.81
215.703	73.81
216.175	79.81
216.646	75.81
217.118	79.81
217.589	86.81
218.061	73.81
218.532	79.81
219.004	84.81
219.475	86.81
219.946	77.81
220.418	90.81
220.889	82.81
221.36	75.81
221.832	76.81
222.303	63.81
222.774	71.81
223.245	85.81
223.717	80.81
224.188	62.81
224.659	72.81
225.13	68.81
225.601	73.81
226.072	91.81
226.543	77.81
227.014	89.81
227.485	91.81
227.956	86.81
228.427	75.81
228.898	80.81
229.369	85.81
229.839	93.81
230.31	77.81
230.781	81.81
231.252	76.81
231.722	53.81
232.193	94.81
232.664	94.81
233.135	77.81
233.605	92.81
234.076	93.81
234.546	78.81
235.017	85.81
235.487	94.81
235.958	82.81
236.428	105.81
236.899	82.81
237.369	78.81
237.84	83.81
238.31	95.81
238.78	85.81
239.251	89.81
239.721	86.81
240.191	88.81
240.662	91.81
241.132	81.81
241.602	92.81
242.072	76.81
242.542	84.81
243.013	87.81
243.483	77.81
243.953	85.81
244.423	92.81
244.893	90.81
245.363	88.81
245.833	93.81
246.303	75.81
246.773	99.81
247.243	96.81
247.712	93.81
248.182	97.81
248.652	94.81
249.122	87.81
249.592	105.81
250.061	105.81
250.531	62.81
251.001	89.81
251.471	93.81
251.94	95.81
252.41	91.81
252.879	86.81
253.349	99.81
253.818	93.81
254.288	98.81
254.757	90.81
255.227	83.81
255.696	92.81
256.166	85.81
256.635	95.81
257.105	87.81
257.574	99.81
258.043	115.81
258.513	112.81
258.982	92.81
259.451	91.81
259.92	109.81
260.389	79.81
260.859	85.81
261.328	100.81
261.797	103.81
262.266	106.81
262.735	108.81
263.204	87.81
263.673	99.81
264.142	104.81
264.611	92.81
265.08	103.81
265.549	101.81
266.018	96.81
266.487	104.81
266.955	101.81
267.424	89.81
267.893	101.81
268.362	100.81
268.83	111.81
269.299	103.81
269.768	105.81
270.236	108.81
270.705	118.81
271.174	100.81
271.642	119.81
272.111	107.81
272.579	83.81
273.048	110.81
273.516	95.81
273.985	99.81
274.453	120.81
274.922	112.81
275.39	103.81
275.858	120.81
276.327	101.81
276.795	110.81
277.263	110.81
277.731	103.81
278.2	112.81
278.668	104.81
279.136	111.81
279.604	98.81
280.072	112.81
280.54	118.81
281.008	104.81
281.477	107.81
281.945	115.81
282.413	151.81
282.881	117.81
283.348	108.81
283.816	139.81
284.284	124.81
284.752	120.81
285.22	124.81
285.688	118.81
286.156	102.81
286.623	117.81
287.091	121.81
287.559	115.81
288.026	105.81
288.494	112.81
288.962	124.81
289.429	103.81
289.897	137.81
290.364	125.81
290.832	117.81
291.3	117.81
291.767	115.81
292.234	122.81
292.702	119.81
293.169	127.81
293.637	125.81
294.104	128.81
294.571	119.81
295.039	130.81
295.506	127.81
295.973	120.81
296.44	119.81
296.908	124.81
297.375	121.81
297.842	136.81
298.309	121.81
298.776	114.81
299.243	121.81
299.71	123.81
300.177	120.81
300.644	142.81
301.111	111.81
301.578	135.81
302.045	131.81
302.512	123.81
302.979	141.81
303.446	140.81
303.913	141.81
304.379	136.81
304.846	143.81
305.313	120.81
305.78	146.81
306.246	140.81
306.713	131.81
307.18	143.81
307.646	137.81
308.113	140.81
308.579	147.81
309.046	138.81
309.512	133.81
309.979	157.81
310.445	132.81
310.912	142.81
311.378	161.81
311.845	149.81
312.311	130.81
312.777	147.81
313.244	149.81
313.71	164.81
314.176	156.81
314.642	142.81
315.109	140.81
315.575	138.81
316.041	155.81
316.507	146.81
316.973	168.81
317.439	147.81
317.905	141.81
318.371	161.81
318.837	166.81
319.303	144.81
319.769	165.81
320.235	163.81
320.701	149.81
321.167	161.81
321.633	155.81
322.099	172.81
322.564	161.81
323.03	166.81
323.496	157.81
323.962	172.81
324.427	161.81
324.893	175.81
325.359	168.81
325.824	164.81
326.29	186.81
326.755	165.81
327.221	191.81
327.686	167.81
328.152	169.81
328.617	178.81
329.083	186.81
329.548	177.81
330.014	177.81
330.479	178.81
330.944	208.81
331.41	179.81
331.875	190.81
332.34	183.81
332.805	197.81
333.271	195.81
333.736	187.81
334.201	188.81
334.666	194.81
335.131	198.81
335.596	191.81
336.061	180.81
336.526	194.81
336.991	194.81
337.456	175.81
337.921	196.81
338.386	204.81
338.851	209.81
339.316	221.81
339.781	185.81
340.246	180.81
340.711	197.81
341.175	194.81
341.64	201.81
342.105	217.81
342.569	206.81
343.034	192.81
343.499	204.81
343.963	202.81
344.428	177.81
344.893	210.81
345.357	203.81
345.822	200.81
346.286	208.81
346.751	229.81
347.215	221.81
347.679	202.81
348.144	215.81
348.608	212.81
349.073	221.81
349.537	221.81
350.001	249.81
350.465	260.81
350.93	274.81
351.394	236.81
351.858	239.81
352.322	220.81
352.786	241.81
353.25	261.81
353.715	262.81
354.179	249.81
354.643	242.81
355.107	253.81
355.571	260.81
356.035	268.81
356.498	263.81
356.962	251.81
357.426	245.81
357.89	270.81
358.354	240.81
358.818	231.81
359.281	259.81
359.745	236.81
360.209	232.81
360.673	255.81
361.136	259.81
361.6	252.81
362.064	271.81
362.527	249.81
362.991	271.81
363.454	273.81
363.918	258.81
364.381	261.81
364.845	263.81
365.308	242.81
365.772	259.81
366.235	258.81
366.698	254.81
367.162	266.81
367.625	272.81
368.088	280.81
368.552	286.81
369.015	282.81
369.478	274.81
369.941	265.81
370.404	281.81
370.867	265.81
371.331	307.81
371.794	282.81
372.257	283.81
372.72	291.81
373.183	297.81
373.646	274.81
374.109	294.81
374.572	303.81
375.035	318.81
375.497	299.81
375.96	285.81
376.423	307.81
376.886	320.81
377.349	320.81
377.811	298.81
378.274	327.81
378.737	329.81
379.199	326.81
379.662	305.81
380.125	303.81
380.587	352.81
381.05	329.81
381.512	331.81
381.975	340.81
382.437	347.81
382.9	339.81
383.362	358.81
383.825	360.81
384.287	338.81
384.75	351.81
385.212	347.81
385.674	352.81
386.136	351.81
386.599	354.81
387.061	350.81
387.523	367.81
387.985	343.81
388.447	346.81
388.91	332.81
389.372	344.81
389.834	347.81
390.296	361.81
390.758	384.81
391.22	363.81
391.682	339.81
392.144	355.81
392.606	346.81
393.068	358.81
393.529	382.81
393.991	387.81
394.453	396.81
394.915	371.81
395.377	367.81
395.838	369.81
396.3	377.81
396.762	360.81
397.224	362.81
397.685	382.81
398.147	348.81
398.608	398.81
399.07	389.81
399.531	369.81
399.993	395.81
400.454	403.81
400.916	387.81
401.377	404.81
401.839	391.81
402.3	401.81
402.762	425.81
403.223	422.81
403.684	440.81
404.145	409.81
404.607	429.81
405.068	433.81
405.529	425.81
405.99	431.81
406.451	423.81
406.913	427.81
407.374	412.81
407.835	434.81
408.296	433.81
408.757	439.81
409.218	435.81
409.679	468.81
410.14	458.81
410.601	440.81
411.062	469.81
411.522	482.81
411.983	463.81
412.444	474.81
412.905	481.81
413.366	500.81
413.826	494.81
414.287	550.81
414.748	595.81
415.208	638.81
415.669	569.81
416.13	507.81
416.59	526.81
417.051	529.81
417.511	567.81
417.972	587.81
418.432	610.81
418.893	659.81
419.353	648.81
419.814	522.81
420.274	485.81
420.734	480.81
421.195	479.81
421.655	494.81
422.115	505.81
422.576	507.81
423.036	503.81
423.496	537.81
423.956	546.81
424.416	553.81
424.876	606.81
425.336	595.81
425.797	625.81
426.257	591.81
426.717	577.81
427.177	548.81
427.637	529.81
428.097	571.81
428.556	579.81
429.016	628.81
429.476	617.81
429.936	614.81
430.396	653.81
430.856	640.81
431.315	655.81
431.775	690.81
432.235	727.81
432.694	761.81
433.154	692.81
433.614	679.81
434.073	667.81
434.533	635.81
434.993	579.81
435.452	581.81
435.912	573.81
436.371	582.81
436.83	562.81
437.29	559.81
437.749	569.81
438.209	545.81
438.668	546.81
439.127	556.81
439.587	563.81
440.046	530.81
440.505	556.81
440.964	526.81
441.424	571.81
441.883	578.81
442.342	549.81
442.801	555.81
443.26	526.81
443.719	540.81
444.178	541.81
444.637	526.81
445.096	529.81
445.555	538.81
446.014	538.81
446.473	521.81
446.932	528.81
447.391	559.81
447.849	541.81
448.308	546.81
448.767	535.81
449.226	535.81
449.685	552.81
450.143	565.81
450.602	576.81
451.061	533.81
451.519	557.81
451.978	534.81
452.436	551.81
452.895	546.81
453.353	553.81
453.812	517.81
454.27	526.81
454.729	531.81
455.187	568.81
455.646	535.81
456.104	550.81
456.562	550.81
457.021	557.81
457.479	548.81
457.937	561.81
458.395	579.81
458.854	551.81
459.312	559.81
459.77	570.81
460.228	583.81
460.686	571.81
461.144	583.81
461.602	569.81
462.06	576.81
462.518	615.81
462.976	589.81
463.434	595.81
463.892	593.81
464.35	605.81
464.808	615.81
465.266	621.81
465.724	622.81
466.181	642.81
466.639	619.81
467.097	653.81
467.555	649.81
468.012	669.81
468.47	649.81
468.928	710.81
469.385	697.81
469.843	692.81
470.3	727.81
470.758	700.81
471.215	713.81
471.673	760.81
472.13	796.81
472.588	798.81
473.045	799.81
473.503	767.81
473.96	802.81
474.417	870.81
474.875	866.81
475.332	909.81
475.789	924.81
476.246	930.81
476.704	985.81
477.161	996.81
477.618	1020.81
478.075	1062.81
478.532	1153.81
478.989	1233.81
479.446	1343.81
479.903	1432.81
480.36	1554.81
480.817	1678.81
481.274	1767.81
481.731	1916.81
482.188	2097.81
482.645	2271.81
483.102	2373.81
483.558	2542.81
484.015	2680.81
484.472	2591.81
484.929	2562.81
485.385	2463.81
485.842	2484.81
486.299	2341.81
486.755	2163.81
487.212	1957.81
487.668	1749.81
488.125	1605.81
488.582	1481.81
489.038	1404.81
489.494	1388.81
489.951	1329.81
490.407	1313.81
490.864	1280.81
491.32	1206.81
491.776	1243.81
492.233	1257.81
492.689	1184.81
493.145	1179.81
493.602	1189.81
494.058	1163.81
494.514	1171.81
494.97	1174.81
495.426	1215.81
495.882	1195.81
496.338	1208.81
496.794	1207.81
497.251	1218.81
497.707	1202.81
498.163	1173.81
498.618	1199.81
499.074	1179.81
499.53	1191.81
499.986	1232.81
500.442	1238.81
500.898	1183.81
501.354	1203.81
501.809	1211.81
502.265	1224.81
502.721	1235.81
503.177	1243.81
503.632	1213.81
504.088	1193.81
504.543	1243.81
504.999	1277.81
505.455	1232.81
505.91	1239.81
506.366	1232.81
506.821	1225.81
507.277	1220.81
507.732	1234.81
508.187	1205.81
508.643	1239.81
509.098	1227.81
509.553	1259.81
510.009	1302.81
510.464	1279.81
510.919	1266.81
511.375	1301.81
511.83	1353.81
512.285	1383.81
512.74	1377.81
513.195	1397.81
513.65	1408.81
514.105	1425.81
514.56	1436.81
515.015	1443.81
515.47	1480.81
515.925	1462.81
516.38	1459.81
516.835	1428.81
517.29	1423.81
517.745	1430.81
518.2	1432.81
518.655	1398.81
519.109	1365.81
519.564	1388.81
520.019	1334.81
520.474	1319.81
520.928	1327.81
521.383	1329.81
521.838	1346.81
522.292	1313.81
522.747	1315.81
523.201	1300.81
523.656	1330.81
524.11	1325.81
524.565	1340.81
525.019	1289.81
525.474	1340.81
525.928	1266.81
526.382	1294.81
526.837	1296.81
527.291	1297.81
527.745	1283.81
528.2	1293.81
528.654	1311.81
529.108	1298.81
529.562	1291.81
530.016	1285.81
530.47	1296.81
530.925	1275.81
531.379	1257.81
531.833	1296.81
532.287	1271.81
532.741	1277.81
533.195	1259.81
533.649	1273.81
534.103	1256.81
534.556	1296.81
535.01	1309.81
535.464	1282.81
535.918	1274.81
536.372	1259.81
536.826	1275.81
537.279	1289.81
537.733	1284.81
538.187	1260.81
538.64	1245.81
539.094	1322.81
539.548	1311.81
540.001	1287.81
540.455	1333.81
540.908	1339.81
541.362	1337.81
541.815	1353.81
542.269	1384.81
542.722	1367.81
543.175	1353.81
543.629	1355.81
544.082	1365.81
544.536	1389.81
544.989	1417.81
545.442	1419.81
545.895	1421.81
546.349	1403.81
546.802	1409.81
547.255	1407.81
547.708	1419.81
548.161	1433.81
548.614	1449.81
549.067	1471.81
549.52	1413.81
549.973	1395.81
550.426	1424.81
550.879	1432.81
551.332	1393.81
551.785	1403.81
552.238	1460.81
552.691	1449.81
553.144	1428.81
553.596	1447.81
554.049	1543.81
554.502	1545.81
554.955	1543.81
555.407	1567.81
555.86	1547.81
556.313	1505.81
556.765	1523.81
557.218	1509.81
557.67	1490.81
558.123	1471.81
558.576	1443.81
559.028	1474.81
559.48	1515.81
559.933	1475.81
560.385	1471.81
560.838	1440.81
561.29	1388.81
561.742	1359.81
562.195	1355.81
562.647	1337.81
563.099	1342.81
563.551	1321.81
564.004	1372.81
564.456	1329.81
564.908	1291.81
565.36	1293.81
565.812	1231.81
566.264	1257.81
566.716	1243.81
567.168	1206.81
567.62	1205.81
568.072	1175.81
568.524	1197.81
568.976	1200.81
569.428	1151.81
569.88	1153.81
570.332	1176.81
570.784	1157.81
571.235	1190.81
571.687	1182.81
572.139	1208.81
572.59	1177.81
573.042	1155.81
573.494	1211.81
573.945	1149.81
574.397	1162.81
574.849	1128.81
575.3	1149.81
575.752	1143.81
576.203	1154.81
576.655	1155.81
577.106	1144.81
577.557	1130.81
578.009	1098.81
578.46	1144.81
578.912	1122.81
579.363	1106.81
579.814	1104.81
580.265	1128.81
580.717	1153.81
581.168	1116.81
581.619	1165.81
582.07	1128.81
582.521	1116.81
582.972	1105.81
583.423	1137.81
583.875	1096.81
584.326	1125.81
584.777	1159.81
585.227	1151.81
585.678	1205.81
586.129	1190.81
586.58	1213.81
587.031	1184.81
587.482	1246.81
587.933	1285.81
588.384	1268.81
588.834	1218.81
589.285	1265.81
589.736	1284.81
590.186	1245.81
590.637	1244.81
591.088	1201.81
591.538	1211.81
591.989	1188.81
592.439	1160.81
592.89	1152.81
593.34	1193.81
593.791	1163.81
594.241	1127.81
594.692	1107.81
595.142	1137.81
595.593	1120.81
596.043	1128.81
596.493	1132.81
596.943	1159.81
597.394	1148.81
597.844	1191.81
598.294	1194.81
598.744	1217.81
599.195	1255.81
599.645	1345.81
600.095	1396.81
600.545	1449.81
600.995	1511.81
601.445	1564.81
601.895	1627.81
602.345	1689.81
602.795	1684.81
603.245	1641.81
603.695	1541.81
604.145	1504.81
604.594	1443.81
605.044	1344.81
605.494	1283.81
605.944	1213.81
606.393	1159.81
606.843	1145.81
607.293	1168.81
607.743	1159.81
608.192	1155.81
608.642	1151.81
609.091	1117.81
609.541	1169.81
609.99	1162.81
610.44	1138.81
610.889	1115.81
611.339	1104.81
611.788	1086.81
612.238	1114.81
612.687	1089.81
613.136	1130.81
613.586	1125.81
614.035	1128.81
614.484	1123.81
614.933	1119.81
615.383	1147.81
615.832	1105.81
616.281	1051.81
616.73	1038.81
617.179	1047.81
617.628	1009.81
618.077	1017.81
618.526	962.81
618.975	965.81
619.424	961.81
619.873	954.81
620.322	944.81
620.771	945.81
621.22	934.81
621.669	939.81
622.118	951.81
622.567	939.81
623.015	931.81
623.464	898.81
623.913	864.81
624.361	898.81
624.81	881.81
625.259	879.81
625.707	901.81
626.156	870.81
626.604	884.81
627.053	921.81
627.501	903.81
627.95	913.81
628.398	936.81
628.847	925.81
629.295	933.81
629.744	896.81
630.192	915.81
630.64	877.81
631.089	811.81
631.537	831.81
631.985	818.81
632.433	841.81
632.881	830.81
633.33	846.81
633.778	858.81
634.226	823.81
634.674	849.81
635.122	840.81
635.57	853.81
636.018	873.81
636.466	872.81
636.914	886.81
637.362	891.81
637.81	876.81
638.258	934.81
638.705	915.81
639.153	960.81
639.601	943.81
640.049	961.81
640.497	1001.81
640.944	1023.81
641.392	1028.81
641.84	973.81
642.287	936.81
642.735	919.81
643.182	910.81
643.63	923.81
644.078	903.81
644.525	950.81
644.973	928.81
645.42	951.81
645.867	989.81
646.315	988.81
646.762	1075.81
647.21	1095.81
647.657	1119.81
648.104	1128.81
648.551	1207.81
648.999	1291.81
649.446	1423.81
649.893	1575.81
650.34	1766.81
650.787	2121.81
651.234	2651.81
651.682	3651.81
652.129	5006.81
652.576	7212.81
653.023	9903.81
653.47	12002.81
653.917	13409.81
654.363	14163.81
654.81	14868.81
655.257	15483.81
655.704	12050.81
656.151	7349.81
656.598	4671.81
657.044	3278.81
657.491	2589.81
657.938	2075.81
658.385	1693.81
658.831	1524.81
659.278	1333.81
659.724	1229.81
660.171	1070.81
660.618	1043.81
661.064	1001.81
661.511	985.81
661.957	936.81
662.404	899.81
662.85	878.81
663.296	863.81
663.743	837.81
664.189	837.81
664.635	818.81
665.082	820.81
665.528	826.81
665.974	821.81
666.42	752.81
666.867	743.81
667.313	734.81
667.759	736.81
668.205	710.81
668.651	724.81
669.097	707.81
669.543	729.81
669.989	744.81
670.435	750.81
670.881	745.81
671.327	758.81
671.773	791.81
672.219	838.81
672.665	899.81
673.11	926.81
673.556	925.81
674.002	945.81
674.448	985.81
674.893	879.81
675.339	765.81
675.785	709.81
676.23	654.81
676.676	640.81
677.122	637.81
677.567	615.81
678.013	607.81
678.458	606.81
678.904	579.81
679.349	583.81
679.794	559.81
680.24	560.81
680.685	573.81
681.131	608.81
681.576	574.81
682.021	563.81
682.466	574.81
682.912	571.81
683.357	578.81
683.802	610.81
684.247	659.81
684.692	727.81
685.137	754.81
685.583	757.81
686.028	781.81
686.473	796.81
686.918	733.81
687.363	682.81
687.807	637.81
688.252	599.81
688.697	562.81
689.142	543.81
689.587	563.81
690.032	569.81
690.477	563.81
690.921	589.81
691.366	618.81
691.811	625.81
692.255	671.81
692.7	760.81
693.145	974.81
693.589	1439.81
694.034	1877.81
694.478	2113.81
694.923	1960.81
695.367	2349.81
695.812	2228.81
696.256	965.81
696.701	625.81
697.145	561.81
697.59	557.81
698.034	541.81
698.478	528.81
698.922	539.81
699.367	553.81
699.811	543.81
700.255	614.81
700.699	647.81
701.143	665.81
701.588	704.81
702.032	769.81
702.476	829.81
702.92	794.81
703.364	897.81
703.808	1313.81
704.252	1751.81
704.696	2027.81
705.14	1872.81
705.584	2309.81
706.027	1899.81
706.471	927.81
706.915	663.81
707.359	581.81
707.803	560.81
708.246	521.81
708.69	516.81
709.134	512.81
709.577	510.81
710.021	539.81
710.465	508.81
710.908	503.81
711.352	487.81
711.795	550.81
712.239	573.81
712.682	602.81
713.126	593.81
713.569	663.81
714.012	605.81
714.456	510.81
714.899	487.81
715.342	465.81
715.786	473.81
716.229	425.81
716.672	434.81
717.115	414.81
717.558	425.81
718.002	451.81
718.445	439.81
718.888	475.81
719.331	479.81
719.774	483.81
720.217	493.81
720.66	472.81
721.103	496.81
721.546	437.81
721.989	431.81
722.432	415.81
722.874	441.81
723.317	403.81
723.76	428.81
724.203	470.81
724.645	599.81
725.088	738.81
725.531	787.81
725.974	790.81
726.416	827.81
726.859	555.81
727.301	431.81
727.744	403.81
728.187	429.81
728.629	432.81
729.071	413.81
729.514	439.81
729.956	447.81
730.399	485.81
730.841	463.81
731.283	443.81
731.726	462.81
732.168	445.81
732.61	444.81
733.053	492.81
733.495	522.81
733.937	573.81
734.379	652.81
734.821	761.81
735.263	1034.81
735.705	1734.81
736.148	2804.81
736.59	3233.81
737.032	3087.81
737.474	3348.81
737.916	1689.81
738.357	825.81
738.799	576.81
739.241	519.81
739.683	487.81
740.125	517.81
740.567	543.81
741.008	530.81
741.45	581.81
741.892	608.81
742.334	635.81
742.775	599.81
743.217	636.81
743.658	528.81
744.1	505.81
744.542	574.81
744.983	610.81
745.425	593.81
745.866	635.81
