Data from 20170802-ORNL-NYSim-Air_HRD10391_10-36-33-609.txt Node
Date: Wed Aug 02 10:36:33 EDT 2017
User: Ender
Spectrometer: HR+D1039
Trigger mode: 0
Integration Time (sec): 3.750000E-3
Scans to average: 1
Electric dark correction enabled: true
Nonlinearity correction enabled: false
Boxcar width: 0
XAxis mode: Wavelengths
Number of Pixels in Spectrum: 2048
>>>>>Begin Spectral Data<<<<<
187.836	-2.62
188.309	-2.62
188.782	-2.62
189.255	-10.62
189.728	-0.62
190.201	-12.62
190.674	-14.62
191.147	-8.62
191.619	-17.62
192.092	3.38
192.565	-2.62
193.038	2.38
193.511	7.38
193.984	9.38
194.456	11.38
194.929	21.38
195.402	5.38
195.874	9.38
196.347	29.38
196.82	20.38
197.292	41.38
197.765	34.38
198.237	35.38
198.71	36.38
199.182	49.38
199.655	49.38
200.127	44.38
200.6	59.38
201.072	63.38
201.544	72.38
202.017	73.38
202.489	81.38
202.961	72.38
203.433	70.38
203.906	83.38
204.378	96.38
204.85	75.38
205.322	85.38
205.794	94.38
206.266	82.38
206.739	96.38
207.211	89.38
207.683	77.38
208.155	87.38
208.627	97.38
209.099	83.38
209.57	79.38
210.042	83.38
210.514	78.38
210.986	89.38
211.458	87.38
211.93	95.38
212.402	95.38
212.873	86.38
213.345	94.38
213.817	89.38
214.288	97.38
214.76	82.38
215.232	94.38
215.703	86.38
216.175	79.38
216.646	99.38
217.118	78.38
217.589	79.38
218.061	80.38
218.532	66.38
219.004	93.38
219.475	75.38
219.946	79.38
220.418	69.38
220.889	77.38
221.36	89.38
221.832	74.38
222.303	91.38
222.774	74.38
223.245	95.38
223.717	88.38
224.188	88.38
224.659	79.38
225.13	75.38
225.601	80.38
226.072	68.38
226.543	77.38
227.014	87.38
227.485	81.38
227.956	89.38
228.427	81.38
228.898	89.38
229.369	92.38
229.839	78.38
230.31	80.38
230.781	74.38
231.252	92.38
231.722	97.38
232.193	78.38
232.664	94.38
233.135	81.38
233.605	101.38
234.076	93.38
234.546	81.38
235.017	111.38
235.487	101.38
235.958	86.38
236.428	85.38
236.899	88.38
237.369	93.38
237.84	89.38
238.31	99.38
238.78	105.38
239.251	86.38
239.721	105.38
240.191	91.38
240.662	111.38
241.132	100.38
241.602	87.38
242.072	95.38
242.542	91.38
243.013	105.38
243.483	94.38
243.953	107.38
244.423	96.38
244.893	105.38
245.363	99.38
245.833	112.38
246.303	113.38
246.773	92.38
247.243	103.38
247.712	88.38
248.182	98.38
248.652	101.38
249.122	107.38
249.592	106.38
250.061	122.38
250.531	103.38
251.001	101.38
251.471	107.38
251.94	103.38
252.41	119.38
252.879	112.38
253.349	104.38
253.818	107.38
254.288	115.38
254.757	100.38
255.227	113.38
255.696	129.38
256.166	112.38
256.635	136.38
257.105	138.38
257.574	117.38
258.043	115.38
258.513	125.38
258.982	117.38
259.451	108.38
259.92	136.38
260.389	111.38
260.859	125.38
261.328	120.38
261.797	128.38
262.266	127.38
262.735	126.38
263.204	119.38
263.673	135.38
264.142	156.38
264.611	126.38
265.08	123.38
265.549	139.38
266.018	133.38
266.487	147.38
266.955	133.38
267.424	131.38
267.893	128.38
268.362	132.38
268.83	143.38
269.299	149.38
269.768	126.38
270.236	122.38
270.705	139.38
271.174	150.38
271.642	132.38
272.111	117.38
272.579	143.38
273.048	141.38
273.516	139.38
273.985	156.38
274.453	145.38
274.922	153.38
275.39	141.38
275.858	161.38
276.327	128.38
276.795	119.38
277.263	135.38
277.731	139.38
278.2	151.38
278.668	153.38
279.136	142.38
279.604	147.38
280.072	127.38
280.54	157.38
281.008	166.38
281.477	165.38
281.945	170.38
282.413	166.38
282.881	156.38
283.348	152.38
283.816	178.38
284.284	159.38
284.752	163.38
285.22	144.38
285.688	134.38
286.156	135.38
286.623	168.38
287.091	193.38
287.559	163.38
288.026	179.38
288.494	180.38
288.962	152.38
289.429	157.38
289.897	175.38
290.364	179.38
290.832	177.38
291.3	184.38
291.767	178.38
292.234	206.38
292.702	193.38
293.169	191.38
293.637	168.38
294.104	190.38
294.571	189.38
295.039	180.38
295.506	187.38
295.973	204.38
296.44	207.38
296.908	205.38
297.375	217.38
297.842	206.38
298.309	193.38
298.776	205.38
299.243	189.38
299.71	202.38
300.177	194.38
300.644	211.38
301.111	213.38
301.578	196.38
302.045	208.38
302.512	195.38
302.979	211.38
303.446	198.38
303.913	231.38
304.379	216.38
304.846	218.38
305.313	211.38
305.78	239.38
306.246	273.38
306.713	211.38
307.18	257.38
307.646	239.38
308.113	245.38
308.579	235.38
309.046	219.38
309.512	252.38
309.979	248.38
310.445	252.38
310.912	245.38
311.378	269.38
311.845	278.38
312.311	260.38
312.777	236.38
313.244	257.38
313.71	261.38
314.176	262.38
314.642	276.38
315.109	280.38
315.575	271.38
316.041	282.38
316.507	270.38
316.973	251.38
317.439	271.38
317.905	274.38
318.371	277.38
318.837	272.38
319.303	281.38
319.769	277.38
320.235	291.38
320.701	281.38
321.167	271.38
321.633	275.38
322.099	302.38
322.564	297.38
323.03	295.38
323.496	295.38
323.962	301.38
324.427	304.38
324.893	296.38
325.359	312.38
325.824	314.38
326.29	317.38
326.755	307.38
327.221	307.38
327.686	324.38
328.152	315.38
328.617	334.38
329.083	329.38
329.548	340.38
330.014	309.38
330.479	315.38
330.944	325.38
331.41	339.38
331.875	316.38
332.34	321.38
332.805	335.38
333.271	339.38
333.736	348.38
334.201	359.38
334.666	352.38
335.131	380.38
335.596	349.38
336.061	359.38
336.526	341.38
336.991	334.38
337.456	348.38
337.921	344.38
338.386	334.38
338.851	358.38
339.316	365.38
339.781	367.38
340.246	358.38
340.711	363.38
341.175	339.38
341.64	361.38
342.105	368.38
342.569	391.38
343.034	371.38
343.499	403.38
343.963	405.38
344.428	379.38
344.893	383.38
345.357	408.38
345.822	410.38
346.286	392.38
346.751	404.38
347.215	424.38
347.679	437.38
348.144	449.38
348.608	417.38
349.073	450.38
349.537	465.38
350.001	470.38
350.465	445.38
350.93	479.38
351.394	450.38
351.858	472.38
352.322	466.38
352.786	462.38
353.25	486.38
353.715	490.38
354.179	500.38
354.643	492.38
355.107	496.38
355.571	518.38
356.035	515.38
356.498	522.38
356.962	528.38
357.426	521.38
357.89	510.38
358.354	513.38
358.818	495.38
359.281	519.38
359.745	505.38
360.209	516.38
360.673	523.38
361.136	501.38
361.6	525.38
362.064	531.38
362.527	537.38
362.991	523.38
363.454	538.38
363.918	539.38
364.381	522.38
364.845	525.38
365.308	534.38
365.772	534.38
366.235	532.38
366.698	556.38
367.162	544.38
367.625	562.38
368.088	555.38
368.552	543.38
369.015	585.38
369.478	573.38
369.941	546.38
370.404	572.38
370.867	598.38
371.331	562.38
371.794	603.38
372.257	608.38
372.72	575.38
373.183	612.38
373.646	600.38
374.109	595.38
374.572	604.38
375.035	646.38
375.497	630.38
375.96	619.38
376.423	649.38
376.886	648.38
377.349	643.38
377.811	648.38
378.274	654.38
378.737	672.38
379.199	649.38
379.662	654.38
380.125	635.38
380.587	683.38
381.05	709.38
381.512	687.38
381.975	714.38
382.437	721.38
382.9	724.38
383.362	716.38
383.825	727.38
384.287	716.38
384.75	725.38
385.212	702.38
385.674	727.38
386.136	747.38
386.599	743.38
387.061	741.38
387.523	749.38
387.985	758.38
388.447	789.38
388.91	751.38
389.372	741.38
389.834	768.38
390.296	769.38
390.758	759.38
391.22	776.38
391.682	764.38
392.144	822.38
392.606	809.38
393.068	817.38
393.529	836.38
393.991	821.38
394.453	795.38
394.915	776.38
395.377	769.38
395.838	808.38
396.3	811.38
396.762	786.38
397.224	787.38
397.685	766.38
398.147	784.38
398.608	815.38
399.07	816.38
399.531	833.38
399.993	823.38
400.454	863.38
400.916	895.38
401.377	866.38
401.839	905.38
402.3	882.38
402.762	880.38
403.223	933.38
403.684	970.38
404.145	951.38
404.607	901.38
405.068	933.38
405.529	938.38
405.99	944.38
406.451	941.38
406.913	920.38
407.374	945.38
407.835	923.38
408.296	985.38
408.757	1001.38
409.218	1009.38
409.679	977.38
410.14	1027.38
410.601	1027.38
411.062	1021.38
411.522	1039.38
411.983	1021.38
412.444	1054.38
412.905	1063.38
413.366	1108.38
413.826	1159.38
414.287	1255.38
414.748	1451.38
415.208	1522.38
415.669	1256.38
416.13	1156.38
416.59	1162.38
417.051	1205.38
417.511	1231.38
417.972	1319.38
418.432	1421.38
418.893	1549.38
419.353	1495.38
419.814	1196.38
420.274	1063.38
420.734	1102.38
421.195	1117.38
421.655	1093.38
422.115	1122.38
422.576	1105.38
423.036	1127.38
423.496	1164.38
423.956	1231.38
424.416	1265.38
424.876	1396.38
425.336	1433.38
425.797	1380.38
426.257	1397.38
426.717	1312.38
427.177	1220.38
427.637	1249.38
428.097	1306.38
428.556	1318.38
429.016	1435.38
429.476	1425.38
429.936	1377.38
430.396	1414.38
430.856	1433.38
431.315	1466.38
431.775	1579.38
432.235	1651.38
432.694	1690.38
433.154	1620.38
433.614	1632.38
434.073	1493.38
434.533	1376.38
434.993	1360.38
435.452	1332.38
435.912	1361.38
436.371	1317.38
436.83	1304.38
437.29	1294.38
437.749	1251.38
438.209	1225.38
438.668	1272.38
439.127	1279.38
439.587	1290.38
440.046	1222.38
440.505	1265.38
440.964	1229.38
441.424	1329.38
441.883	1359.38
442.342	1239.38
442.801	1196.38
443.26	1228.38
443.719	1195.38
444.178	1233.38
444.637	1192.38
445.096	1214.38
445.555	1264.38
446.014	1230.38
446.473	1247.38
446.932	1212.38
447.391	1219.38
447.849	1251.38
448.308	1229.38
448.767	1210.38
449.226	1294.38
449.685	1301.38
450.143	1306.38
450.602	1347.38
451.061	1309.38
451.519	1251.38
451.978	1302.38
452.436	1270.38
452.895	1283.38
453.353	1237.38
453.812	1265.38
454.27	1259.38
454.729	1235.38
455.187	1276.38
455.646	1311.38
456.104	1299.38
456.562	1322.38
457.021	1312.38
457.479	1286.38
457.937	1299.38
458.395	1316.38
458.854	1326.38
459.312	1309.38
459.77	1323.38
460.228	1310.38
460.686	1370.38
461.144	1363.38
461.602	1332.38
462.06	1348.38
462.518	1389.38
462.976	1391.38
463.434	1401.38
463.892	1400.38
464.35	1409.38
464.808	1483.38
465.266	1455.38
465.724	1471.38
466.181	1489.38
466.639	1499.38
467.097	1553.38
467.555	1590.38
468.012	1557.38
468.47	1588.38
468.928	1637.38
469.385	1704.38
469.843	1733.38
470.3	1734.38
470.758	1733.38
471.215	1745.38
471.673	1817.38
472.13	1873.38
472.588	1901.38
473.045	1870.38
473.503	1935.38
473.96	1985.38
474.417	2013.38
474.875	2130.38
475.332	2196.38
475.789	2207.38
476.246	2265.38
476.704	2379.38
477.161	2425.38
477.618	2491.38
478.075	2623.38
478.532	2812.38
478.989	3009.38
479.446	3335.38
479.903	3487.38
480.36	3759.38
480.817	3993.38
481.274	4355.38
481.731	4684.38
482.188	5064.38
482.645	5413.38
483.102	5677.38
483.558	6081.38
484.015	6325.38
484.472	6359.38
484.929	6139.38
485.385	6013.38
485.842	5771.38
486.299	5592.38
486.755	5177.38
487.212	4684.38
487.668	4256.38
488.125	3933.38
488.582	3648.38
489.038	3494.38
489.494	3387.38
489.951	3285.38
490.407	3217.38
490.864	3167.38
491.32	3055.38
491.776	3047.38
492.233	3137.38
492.689	2973.38
493.145	2942.38
493.602	2936.38
494.058	2927.38
494.514	3007.38
494.97	2968.38
495.426	3038.38
495.882	2995.38
496.338	2959.38
496.794	3027.38
497.251	2997.38
497.707	3065.38
498.163	3086.38
498.618	3040.38
499.074	2981.38
499.53	3109.38
499.986	3115.38
500.442	3039.38
500.898	3037.38
501.354	3054.38
501.809	3103.38
502.265	3046.38
502.721	3096.38
503.177	3052.38
503.632	3152.38
504.088	3112.38
504.543	3171.38
504.999	3161.38
505.455	3175.38
505.91	3185.38
506.366	3145.38
506.821	3160.38
507.277	3046.38
507.732	3229.38
508.187	3157.38
508.643	3191.38
509.098	3197.38
509.553	3228.38
510.009	3225.38
510.464	3323.38
510.919	3349.38
511.375	3363.38
511.83	3367.38
512.285	3474.38
512.74	3507.38
513.195	3538.38
513.65	3602.38
514.105	3617.38
514.56	3677.38
515.015	3769.38
515.47	3835.38
515.925	3755.38
516.38	3785.38
516.835	3759.38
517.29	3732.38
517.745	3745.38
518.2	3670.38
518.655	3643.38
519.109	3619.38
519.564	3515.38
520.019	3525.38
520.474	3532.38
520.928	3414.38
521.383	3428.38
521.838	3434.38
522.292	3398.38
522.747	3429.38
523.201	3382.38
523.656	3381.38
524.11	3378.38
524.565	3327.38
525.019	3379.38
525.474	3375.38
525.928	3301.38
526.382	3270.38
526.837	3342.38
527.291	3361.38
527.745	3306.38
528.2	3309.38
528.654	3327.38
529.108	3301.38
529.562	3321.38
530.016	3307.38
530.47	3323.38
530.925	3300.38
531.379	3274.38
531.833	3417.38
532.287	3357.38
532.741	3330.38
533.195	3269.38
533.649	3335.38
534.103	3352.38
534.556	3312.38
535.01	3309.38
535.464	3335.38
535.918	3277.38
536.372	3319.38
536.826	3366.38
537.279	3296.38
537.733	3272.38
538.187	3357.38
538.64	3354.38
539.094	3401.38
539.548	3371.38
540.001	3398.38
540.455	3410.38
540.908	3359.38
541.362	3456.38
541.815	3486.38
542.269	3517.38
542.722	3510.38
543.175	3534.38
543.629	3601.38
544.082	3617.38
544.536	3642.38
544.989	3693.38
545.442	3726.38
545.895	3640.38
546.349	3688.38
546.802	3672.38
547.255	3657.38
547.708	3707.38
548.161	3709.38
548.614	3737.38
549.067	3733.38
549.52	3757.38
549.973	3715.38
550.426	3747.38
550.879	3705.38
551.332	3687.38
551.785	3683.38
552.238	3747.38
552.691	3788.38
553.144	3806.38
553.596	3888.38
554.049	3933.38
554.502	4027.38
554.955	4061.38
555.407	4097.38
555.86	4063.38
556.313	4072.38
556.765	4047.38
557.218	3957.38
557.67	3912.38
558.123	3884.38
558.576	3850.38
559.028	3874.38
559.48	3919.38
559.933	3943.38
560.385	3845.38
560.838	3654.38
561.29	3578.38
561.742	3520.38
562.195	3535.38
562.647	3467.38
563.099	3490.38
563.551	3385.38
564.004	3451.38
564.456	3461.38
564.908	3319.38
565.36	3237.38
565.812	3197.38
566.264	3228.38
566.716	3146.38
567.168	3126.38
567.62	3167.38
568.072	3129.38
568.524	3067.38
568.976	3049.38
569.428	2989.38
569.88	2995.38
570.332	3017.38
570.784	3061.38
571.235	3038.38
571.687	3078.38
572.139	3095.38
572.59	3080.38
573.042	3108.38
573.494	3135.38
573.945	3072.38
574.397	3013.38
574.849	3034.38
575.3	3019.38
575.752	2928.38
576.203	2915.38
576.655	2975.38
577.106	2949.38
577.557	2914.38
578.009	2909.38
578.46	2892.38
578.912	2830.38
579.363	2876.38
579.814	2880.38
580.265	2874.38
580.717	2865.38
581.168	2855.38
581.619	2904.38
582.07	2939.38
582.521	2907.38
582.972	2954.38
583.423	2927.38
583.875	2922.38
584.326	2904.38
584.777	2978.38
585.227	3044.38
585.678	3152.38
586.129	3137.38
586.58	3233.38
587.031	3248.38
587.482	3346.38
587.933	3489.38
588.384	3365.38
588.834	3349.38
589.285	3244.38
589.736	3225.38
590.186	3264.38
590.637	3263.38
591.088	3250.38
591.538	3111.38
591.989	3102.38
592.439	2999.38
592.89	2994.38
593.34	2956.38
593.791	2955.38
594.241	2894.38
594.692	2920.38
595.142	2888.38
595.593	2936.38
596.043	2941.38
596.493	2957.38
596.943	2936.38
597.394	3065.38
597.844	3074.38
598.294	3079.38
598.744	3211.38
599.195	3381.38
599.645	3489.38
600.095	3647.38
600.545	3882.38
600.995	3999.38
601.445	4117.38
601.895	4330.38
602.345	4476.38
602.795	4497.38
603.245	4347.38
603.695	4171.38
604.145	3885.38
604.594	3665.38
605.044	3550.38
605.494	3360.38
605.944	3185.38
606.393	3085.38
606.843	3006.38
607.293	2983.38
607.743	3002.38
608.192	3012.38
608.642	2974.38
609.091	2978.38
609.541	3017.38
609.99	2959.38
610.44	2920.38
610.889	2957.38
611.339	2873.38
611.788	2809.38
612.238	2924.38
612.687	2812.38
613.136	2885.38
613.586	2965.38
614.035	2981.38
614.484	2908.38
614.933	3011.38
615.383	2904.38
615.832	2806.38
616.281	2815.38
616.73	2703.38
617.179	2644.38
617.628	2642.38
618.077	2561.38
618.526	2553.38
618.975	2530.38
619.424	2504.38
619.873	2483.38
620.322	2426.38
620.771	2453.38
621.22	2403.38
621.669	2365.38
622.118	2364.38
622.567	2298.38
623.015	2262.38
623.464	2267.38
623.913	2255.38
624.361	2207.38
624.81	2216.38
625.259	2287.38
625.707	2245.38
626.156	2243.38
626.604	2244.38
627.053	2237.38
627.501	2256.38
627.95	2284.38
628.398	2312.38
628.847	2254.38
629.295	2268.38
629.744	2269.38
630.192	2239.38
630.64	2236.38
631.089	2180.38
631.537	2151.38
631.985	2087.38
632.433	2131.38
632.881	2067.38
633.33	2071.38
633.778	2087.38
634.226	2120.38
634.674	2137.38
635.122	2153.38
635.57	2144.38
636.018	2175.38
636.466	2182.38
636.914	2186.38
637.362	2240.38
637.81	2217.38
638.258	2309.38
638.705	2329.38
639.153	2400.38
639.601	2410.38
640.049	2446.38
640.497	2519.38
640.944	2625.38
641.392	2593.38
641.84	2446.38
642.287	2361.38
642.735	2304.38
643.182	2255.38
643.63	2291.38
644.078	2292.38
644.525	2307.38
644.973	2357.38
645.42	2398.38
645.867	2479.38
646.315	2511.38
646.762	2638.38
647.21	2691.38
647.657	2823.38
648.104	2961.38
648.551	3041.38
648.999	3213.38
649.446	3423.38
649.893	3813.38
650.34	4327.38
650.787	5230.38
651.234	6581.38
651.682	8701.38
652.129	11912.38
652.576	15698.38
653.023	15698.38
653.47	15698.38
653.917	15698.38
654.363	15698.38
654.81	15698.38
655.257	15698.38
655.704	15698.38
656.151	15698.38
656.598	11141.38
657.044	7767.38
657.491	6163.38
657.938	4895.38
658.385	4140.38
658.831	3719.38
659.278	3239.38
659.724	2978.38
660.171	2777.38
660.618	2532.38
661.064	2417.38
661.511	2360.38
661.957	2280.38
662.404	2206.38
662.85	2211.38
663.296	2189.38
663.743	2140.38
664.189	2126.38
664.635	2099.38
665.082	2047.38
665.528	1991.38
665.974	1971.38
666.42	1919.38
666.867	1958.38
667.313	1842.38
667.759	1781.38
668.205	1780.38
668.651	1751.38
669.097	1795.38
669.543	1786.38
669.989	1795.38
670.435	1821.38
670.881	1809.38
671.327	1870.38
671.773	1955.38
672.219	2102.38
672.665	2287.38
673.11	2335.38
673.556	2328.38
674.002	2377.38
674.448	2406.38
674.893	2173.38
675.339	1905.38
675.785	1783.38
676.23	1635.38
676.676	1551.38
677.122	1490.38
677.567	1472.38
678.013	1435.38
678.458	1437.38
678.904	1457.38
679.349	1392.38
679.794	1421.38
680.24	1377.38
680.685	1409.38
681.131	1364.38
681.576	1371.38
682.021	1414.38
682.466	1372.38
682.912	1429.38
683.357	1429.38
683.802	1518.38
684.247	1677.38
684.692	1796.38
685.137	1900.38
685.583	1935.38
686.028	2027.38
686.473	1982.38
686.918	1732.38
687.363	1621.38
687.807	1517.38
688.252	1459.38
688.697	1429.38
689.142	1364.38
689.587	1370.38
690.032	1359.38
690.477	1397.38
690.921	1401.38
691.366	1557.38
691.811	1561.38
692.255	1652.38
692.7	1883.38
693.145	2459.38
693.589	3819.38
694.034	5037.38
694.478	5596.38
694.923	5131.38
695.367	6430.38
695.812	5869.38
696.256	2336.38
696.701	1567.38
697.145	1422.38
697.59	1329.38
698.034	1316.38
698.478	1294.38
698.922	1283.38
699.367	1294.38
699.811	1363.38
700.255	1444.38
700.699	1523.38
701.143	1682.38
701.588	1742.38
702.032	1839.38
702.476	1959.38
702.92	1959.38
703.364	2288.38
703.808	3373.38
704.252	4731.38
704.696	5289.38
705.14	4962.38
705.584	6251.38
706.027	5064.38
706.471	2319.38
706.915	1609.38
707.359	1413.38
707.803	1266.38
708.246	1221.38
708.69	1195.38
709.134	1196.38
709.577	1201.38
710.021	1202.38
710.465	1209.38
710.908	1205.38
711.352	1196.38
711.795	1315.38
712.239	1408.38
712.682	1482.38
713.126	1446.38
713.569	1609.38
714.012	1471.38
714.456	1270.38
714.899	1210.38
715.342	1109.38
715.786	1083.38
716.229	1057.38
716.672	1023.38
717.115	1047.38
717.558	1037.38
718.002	1031.38
718.445	1052.38
718.888	1137.38
719.331	1109.38
719.774	1143.38
720.217	1189.38
720.66	1105.38
721.103	1051.38
721.546	1021.38
721.989	976.38
722.432	940.38
722.874	968.38
723.317	969.38
723.76	995.38
724.203	1120.38
724.645	1467.38
725.088	1817.38
725.531	1867.38
725.974	1949.38
726.416	2053.38
726.859	1335.38
727.301	1035.38
727.744	935.38
728.187	910.38
728.629	958.38
729.071	1001.38
729.514	1045.38
729.956	1091.38
730.399	1077.38
730.841	1092.38
731.283	1109.38
731.726	1098.38
732.168	1076.38
732.61	1074.38
733.053	1180.38
733.495	1288.38
733.937	1383.38
734.379	1571.38
734.821	1916.38
