Data from 20170802-ORNL-NYSim-Air_HRD10391_10-37-16-634.txt Node
Date: Wed Aug 02 10:37:16 EDT 2017
User: Ender
Spectrometer: HR+D1039
Trigger mode: 0
Integration Time (sec): 1.510000E-3
Scans to average: 1
Electric dark correction enabled: true
Nonlinearity correction enabled: false
Boxcar width: 0
XAxis mode: Wavelengths
Number of Pixels in Spectrum: 2048
>>>>>Begin Spectral Data<<<<<
187.836	9.56
188.309	9.56
188.782	9.56
189.255	1.56
189.728	-3.44
190.201	-5.44
190.674	-1.44
191.147	-19.44
191.619	-2.44
192.092	0.56
192.565	-5.44
193.038	-2.44
193.511	8.56
193.984	-9.44
194.456	-0.44
194.929	6.56
195.402	1.56
195.874	21.56
196.347	22.56
196.82	31.56
197.292	32.56
197.765	27.56
198.237	26.56
198.71	25.56
199.182	44.56
199.655	44.56
200.127	48.56
200.6	66.56
201.072	59.56
201.544	68.56
202.017	67.56
202.489	59.56
202.961	52.56
203.433	77.56
203.906	82.56
204.378	101.56
204.85	94.56
205.322	73.56
205.794	72.56
206.266	79.56
206.739	97.56
207.211	69.56
207.683	96.56
208.155	96.56
208.627	87.56
209.099	84.56
209.57	100.56
210.042	80.56
210.514	93.56
210.986	83.56
211.458	95.56
211.93	85.56
212.402	90.56
212.873	91.56
213.345	93.56
213.817	78.56
214.288	83.56
214.76	79.56
215.232	81.56
215.703	89.56
216.175	86.56
216.646	90.56
217.118	72.56
217.589	70.56
218.061	88.56
218.532	89.56
219.004	73.56
219.475	74.56
219.946	84.56
220.418	75.56
220.889	88.56
221.36	86.56
221.832	75.56
222.303	74.56
222.774	82.56
223.245	90.56
223.717	76.56
224.188	88.56
224.659	85.56
225.13	82.56
225.601	73.56
226.072	69.56
226.543	66.56
227.014	80.56
227.485	80.56
227.956	84.56
228.427	84.56
228.898	88.56
229.369	80.56
229.839	80.56
230.31	78.56
230.781	71.56
231.252	79.56
231.722	94.56
232.193	66.56
232.664	79.56
233.135	93.56
233.605	78.56
234.076	74.56
234.546	87.56
235.017	90.56
235.487	73.56
235.958	84.56
236.428	78.56
236.899	69.56
237.369	86.56
237.84	86.56
238.31	90.56
238.78	80.56
239.251	72.56
239.721	87.56
240.191	78.56
240.662	88.56
241.132	88.56
241.602	99.56
242.072	85.56
242.542	94.56
243.013	92.56
243.483	95.56
243.953	77.56
244.423	69.56
244.893	84.56
245.363	76.56
245.833	90.56
246.303	70.56
246.773	98.56
247.243	99.56
247.712	87.56
248.182	78.56
248.652	98.56
249.122	88.56
249.592	101.56
250.061	84.56
250.531	85.56
251.001	78.56
251.471	90.56
251.94	74.56
252.41	77.56
252.879	94.56
253.349	98.56
253.818	82.56
254.288	78.56
254.757	93.56
255.227	92.56
255.696	97.56
256.166	84.56
256.635	107.56
257.105	112.56
257.574	91.56
258.043	105.56
258.513	111.56
258.982	108.56
259.451	79.56
259.92	103.56
260.389	101.56
260.859	94.56
261.328	98.56
261.797	82.56
262.266	105.56
262.735	106.56
263.204	96.56
263.673	85.56
264.142	76.56
264.611	82.56
265.08	96.56
265.549	87.56
266.018	100.56
266.487	100.56
266.955	90.56
267.424	109.56
267.893	104.56
268.362	120.56
268.83	105.56
269.299	104.56
269.768	106.56
270.236	98.56
270.705	87.56
271.174	94.56
271.642	100.56
272.111	87.56
272.579	101.56
273.048	115.56
273.516	111.56
273.985	124.56
274.453	110.56
274.922	94.56
275.39	107.56
275.858	101.56
276.327	114.56
276.795	110.56
277.263	109.56
277.731	98.56
278.2	105.56
278.668	97.56
279.136	121.56
279.604	112.56
280.072	86.56
280.54	110.56
281.008	123.56
281.477	96.56
281.945	106.56
282.413	118.56
282.881	103.56
283.348	109.56
283.816	109.56
284.284	96.56
284.752	113.56
285.22	120.56
285.688	111.56
286.156	97.56
286.623	105.56
287.091	114.56
287.559	102.56
288.026	101.56
288.494	104.56
288.962	123.56
289.429	111.56
289.897	115.56
290.364	104.56
290.832	116.56
291.3	113.56
291.767	124.56
292.234	133.56
292.702	111.56
293.169	118.56
293.637	120.56
294.104	107.56
294.571	114.56
295.039	111.56
295.506	126.56
295.973	116.56
296.44	117.56
296.908	116.56
297.375	141.56
297.842	109.56
298.309	102.56
298.776	112.56
299.243	122.56
299.71	116.56
300.177	111.56
300.644	119.56
301.111	122.56
301.578	127.56
302.045	136.56
302.512	120.56
302.979	126.56
303.446	127.56
303.913	132.56
304.379	115.56
304.846	132.56
305.313	116.56
305.78	128.56
306.246	138.56
306.713	132.56
307.18	121.56
307.646	122.56
308.113	138.56
308.579	115.56
309.046	136.56
309.512	163.56
309.979	116.56
310.445	136.56
310.912	136.56
311.378	139.56
311.845	164.56
312.311	129.56
312.777	128.56
313.244	148.56
313.71	136.56
314.176	140.56
314.642	144.56
315.109	141.56
315.575	156.56
316.041	139.56
316.507	136.56
316.973	144.56
317.439	141.56
317.905	148.56
318.371	152.56
318.837	140.56
319.303	155.56
319.769	144.56
320.235	140.56
320.701	136.56
321.167	142.56
321.633	143.56
322.099	144.56
322.564	138.56
323.03	152.56
323.496	151.56
323.962	143.56
324.427	152.56
324.893	156.56
325.359	149.56
325.824	157.56
326.29	153.56
326.755	143.56
327.221	145.56
327.686	169.56
328.152	168.56
328.617	162.56
329.083	162.56
329.548	174.56
330.014	165.56
330.479	172.56
330.944	164.56
331.41	161.56
331.875	182.56
332.34	173.56
332.805	172.56
333.271	167.56
333.736	173.56
334.201	168.56
334.666	175.56
335.131	166.56
335.596	164.56
336.061	180.56
336.526	181.56
336.991	172.56
337.456	174.56
337.921	167.56
338.386	170.56
338.851	154.56
339.316	164.56
339.781	172.56
340.246	160.56
340.711	185.56
341.175	177.56
341.64	165.56
342.105	184.56
342.569	180.56
343.034	170.56
343.499	162.56
343.963	179.56
344.428	168.56
344.893	168.56
345.357	189.56
345.822	188.56
346.286	166.56
346.751	176.56
347.215	176.56
347.679	201.56
348.144	198.56
348.608	205.56
349.073	216.56
349.537	217.56
350.001	199.56
350.465	203.56
350.93	216.56
351.394	207.56
351.858	188.56
352.322	212.56
352.786	204.56
353.25	223.56
353.715	202.56
354.179	223.56
354.643	212.56
355.107	225.56
355.571	215.56
356.035	226.56
356.498	240.56
356.962	219.56
357.426	213.56
357.89	219.56
358.354	214.56
358.818	182.56
359.281	217.56
359.745	221.56
360.209	222.56
360.673	196.56
361.136	215.56
361.6	243.56
362.064	242.56
362.527	230.56
362.991	221.56
363.454	232.56
363.918	234.56
364.381	222.56
364.845	228.56
365.308	244.56
365.772	237.56
366.235	223.56
366.698	235.56
367.162	244.56
367.625	224.56
368.088	232.56
368.552	215.56
369.015	234.56
369.478	243.56
369.941	238.56
370.404	264.56
370.867	230.56
371.331	250.56
371.794	237.56
372.257	220.56
372.72	234.56
373.183	244.56
373.646	257.56
374.109	240.56
374.572	257.56
375.035	260.56
375.497	264.56
375.96	249.56
376.423	265.56
376.886	270.56
377.349	256.56
377.811	289.56
378.274	266.56
378.737	269.56
379.199	262.56
379.662	260.56
380.125	251.56
380.587	268.56
381.05	280.56
381.512	279.56
381.975	284.56
382.437	272.56
382.9	284.56
383.362	296.56
383.825	303.56
384.287	304.56
384.75	294.56
385.212	281.56
385.674	276.56
386.136	302.56
386.599	283.56
387.061	298.56
387.523	286.56
387.985	285.56
388.447	308.56
388.91	293.56
389.372	298.56
389.834	281.56
390.296	312.56
390.758	321.56
391.22	301.56
391.682	296.56
392.144	301.56
392.606	309.56
393.068	306.56
393.529	320.56
393.991	314.56
394.453	324.56
394.915	290.56
395.377	305.56
395.838	296.56
396.3	327.56
396.762	315.56
397.224	307.56
397.685	295.56
398.147	307.56
398.608	310.56
399.07	322.56
399.531	317.56
399.993	333.56
400.454	344.56
400.916	352.56
401.377	331.56
401.839	338.56
402.3	350.56
402.762	344.56
403.223	381.56
403.684	363.56
404.145	350.56
404.607	351.56
405.068	372.56
405.529	343.56
405.99	336.56
406.451	354.56
406.913	370.56
407.374	366.56
407.835	353.56
408.296	368.56
408.757	376.56
409.218	366.56
409.679	389.56
410.14	379.56
410.601	382.56
411.062	370.56
411.522	361.56
411.983	376.56
412.444	393.56
412.905	386.56
413.366	401.56
413.826	430.56
414.287	452.56
414.748	537.56
415.208	542.56
415.669	486.56
416.13	442.56
416.59	442.56
417.051	428.56
417.511	446.56
417.972	491.56
418.432	510.56
418.893	562.56
419.353	548.56
419.814	423.56
420.274	388.56
420.734	384.56
421.195	400.56
421.655	401.56
422.115	419.56
422.576	414.56
423.036	430.56
423.496	397.56
423.956	442.56
424.416	446.56
424.876	498.56
425.336	509.56
425.797	503.56
426.257	504.56
426.717	469.56
427.177	446.56
427.637	455.56
428.097	472.56
428.556	462.56
429.016	525.56
429.476	503.56
429.936	526.56
430.396	498.56
430.856	508.56
431.315	518.56
431.775	572.56
432.235	595.56
432.694	617.56
433.154	583.56
433.614	567.56
434.073	561.56
434.533	506.56
434.993	508.56
435.452	501.56
435.912	494.56
436.371	474.56
436.83	474.56
437.29	473.56
437.749	473.56
438.209	444.56
438.668	457.56
439.127	478.56
439.587	468.56
440.046	456.56
440.505	447.56
440.964	432.56
441.424	449.56
441.883	459.56
442.342	451.56
442.801	428.56
443.26	433.56
443.719	422.56
444.178	442.56
444.637	453.56
445.096	442.56
445.555	457.56
446.014	436.56
446.473	444.56
446.932	453.56
447.391	456.56
447.849	463.56
448.308	437.56
448.767	467.56
449.226	484.56
449.685	472.56
450.143	502.56
450.602	456.56
451.061	459.56
451.519	487.56
451.978	452.56
452.436	457.56
452.895	468.56
453.353	470.56
453.812	451.56
454.27	451.56
454.729	449.56
455.187	450.56
455.646	471.56
456.104	446.56
456.562	463.56
457.021	442.56
457.479	464.56
457.937	462.56
458.395	448.56
458.854	479.56
459.312	467.56
459.77	466.56
460.228	474.56
460.686	516.56
461.144	486.56
461.602	494.56
462.06	493.56
462.518	512.56
462.976	494.56
463.434	481.56
463.892	504.56
464.35	492.56
464.808	526.56
465.266	525.56
465.724	526.56
466.181	543.56
466.639	505.56
467.097	553.56
467.555	554.56
468.012	566.56
468.47	545.56
468.928	598.56
469.385	568.56
469.843	607.56
470.3	606.56
470.758	631.56
471.215	614.56
471.673	632.56
472.13	625.56
472.588	646.56
473.045	650.56
473.503	666.56
473.96	688.56
474.417	703.56
474.875	736.56
475.332	740.56
475.789	759.56
476.246	787.56
476.704	816.56
477.161	847.56
477.618	856.56
478.075	886.56
478.532	907.56
478.989	978.56
479.446	1123.56
479.903	1166.56
480.36	1240.56
480.817	1350.56
481.274	1393.56
481.731	1523.56
482.188	1646.56
482.645	1774.56
483.102	1839.56
483.558	1982.56
484.015	2033.56
484.472	2099.56
484.929	2010.56
485.385	1945.56
485.842	1890.56
486.299	1850.56
486.755	1686.56
487.212	1536.56
487.668	1356.56
488.125	1296.56
488.582	1177.56
489.038	1192.56
489.494	1130.56
489.951	1056.56
490.407	1045.56
490.864	1031.56
491.32	1036.56
491.776	1025.56
492.233	1035.56
492.689	1021.56
493.145	1008.56
493.602	968.56
494.058	976.56
494.514	987.56
494.97	1000.56
495.426	1011.56
495.882	1028.56
496.338	962.56
496.794	1000.56
497.251	1004.56
497.707	1040.56
498.163	1045.56
498.618	1048.56
499.074	985.56
499.53	1029.56
499.986	1037.56
500.442	1041.56
500.898	1006.56
501.354	1002.56
501.809	1045.56
502.265	1020.56
502.721	1030.56
503.177	1033.56
503.632	1000.56
504.088	1014.56
504.543	1038.56
504.999	1052.56
505.455	1054.56
505.91	1027.56
506.366	1056.56
506.821	1025.56
507.277	1012.56
507.732	1021.56
508.187	1050.56
508.643	1048.56
509.098	1062.56
509.553	1067.56
510.009	1087.56
510.464	1097.56
510.919	1116.56
511.375	1105.56
511.83	1123.56
512.285	1136.56
512.74	1150.56
513.195	1163.56
513.65	1185.56
514.105	1199.56
514.56	1210.56
515.015	1231.56
515.47	1252.56
515.925	1185.56
516.38	1239.56
516.835	1234.56
517.29	1214.56
517.745	1205.56
518.2	1182.56
518.655	1199.56
519.109	1179.56
519.564	1178.56
520.019	1176.56
520.474	1126.56
520.928	1110.56
521.383	1152.56
521.838	1140.56
522.292	1100.56
522.747	1101.56
523.201	1103.56
523.656	1118.56
524.11	1080.56
524.565	1107.56
525.019	1092.56
525.474	1071.56
525.928	1099.56
526.382	1064.56
526.837	1078.56
527.291	1090.56
527.745	1097.56
528.2	1093.56
528.654	1086.56
529.108	1064.56
529.562	1083.56
530.016	1084.56
530.47	1080.56
530.925	1091.56
531.379	1087.56
531.833	1119.56
532.287	1080.56
532.741	1090.56
533.195	1106.56
533.649	1090.56
534.103	1117.56
534.556	1076.56
535.01	1097.56
535.464	1057.56
535.918	1096.56
536.372	1080.56
536.826	1078.56
537.279	1066.56
537.733	1079.56
538.187	1081.56
538.64	1093.56
539.094	1083.56
539.548	1114.56
540.001	1113.56
540.455	1087.56
540.908	1106.56
541.362	1137.56
541.815	1117.56
542.269	1178.56
542.722	1148.56
543.175	1174.56
543.629	1157.56
544.082	1142.56
544.536	1212.56
544.989	1204.56
545.442	1208.56
545.895	1167.56
546.349	1221.56
546.802	1221.56
547.255	1204.56
547.708	1203.56
548.161	1196.56
548.614	1228.56
549.067	1240.56
549.52	1246.56
549.973	1204.56
550.426	1218.56
550.879	1222.56
551.332	1234.56
551.785	1215.56
552.238	1222.56
552.691	1188.56
553.144	1221.56
553.596	1276.56
554.049	1269.56
554.502	1296.56
554.955	1314.56
555.407	1344.56
555.86	1336.56
556.313	1291.56
556.765	1278.56
557.218	1280.56
557.67	1271.56
558.123	1296.56
558.576	1240.56
559.028	1249.56
559.48	1251.56
559.933	1284.56
560.385	1236.56
560.838	1200.56
561.29	1184.56
561.742	1157.56
562.195	1144.56
562.647	1147.56
563.099	1116.56
563.551	1114.56
564.004	1123.56
564.456	1143.56
564.908	1116.56
565.36	1074.56
565.812	1022.56
566.264	1067.56
566.716	1046.56
567.168	1025.56
567.62	1043.56
568.072	1020.56
568.524	998.56
568.976	1024.56
569.428	998.56
569.88	1003.56
570.332	1012.56
570.784	1012.56
571.235	1001.56
571.687	1020.56
572.139	1024.56
572.59	1020.56
573.042	1034.56
573.494	1018.56
573.945	1037.56
574.397	1007.56
574.849	1008.56
575.3	1006.56
575.752	950.56
576.203	980.56
576.655	982.56
577.106	966.56
577.557	958.56
578.009	957.56
578.46	956.56
578.912	936.56
579.363	983.56
579.814	953.56
580.265	929.56
580.717	944.56
581.168	942.56
581.619	960.56
582.07	1002.56
582.521	944.56
582.972	954.56
583.423	953.56
583.875	986.56
584.326	974.56
584.777	980.56
585.227	1016.56
585.678	1004.56
586.129	1032.56
586.58	1019.56
587.031	1055.56
587.482	1024.56
587.933	1096.56
588.384	1114.56
588.834	1081.56
589.285	1052.56
589.736	1074.56
590.186	1078.56
590.637	1065.56
591.088	1072.56
591.538	1041.56
591.989	1016.56
592.439	1000.56
592.89	980.56
593.34	995.56
593.791	989.56
594.241	962.56
594.692	976.56
595.142	952.56
595.593	998.56
596.043	998.56
596.493	999.56
596.943	973.56
597.394	1016.56
597.844	985.56
598.294	1024.56
598.744	1050.56
599.195	1104.56
599.645	1172.56
600.095	1184.56
600.545	1263.56
600.995	1285.56
601.445	1302.56
601.895	1402.56
602.345	1468.56
602.795	1444.56
603.245	1411.56
603.695	1318.56
604.145	1268.56
604.594	1204.56
605.044	1158.56
605.494	1088.56
605.944	1054.56
606.393	977.56
606.843	963.56
607.293	986.56
607.743	971.56
608.192	1004.56
608.642	1000.56
609.091	987.56
609.541	998.56
609.99	987.56
610.44	1002.56
610.889	980.56
611.339	949.56
611.788	900.56
612.238	946.56
612.687	960.56
613.136	996.56
613.586	986.56
614.035	973.56
614.484	942.56
614.933	965.56
615.383	912.56
615.832	950.56
616.281	937.56
616.73	910.56
617.179	886.56
617.628	886.56
618.077	854.56
618.526	852.56
618.975	853.56
619.424	856.56
619.873	839.56
620.322	828.56
620.771	826.56
621.22	802.56
621.669	806.56
622.118	824.56
622.567	780.56
623.015	768.56
623.464	800.56
623.913	764.56
624.361	755.56
624.81	748.56
625.259	762.56
625.707	780.56
626.156	750.56
626.604	747.56
627.053	756.56
627.501	792.56
627.95	777.56
628.398	803.56
628.847	786.56
629.295	750.56
629.744	765.56
630.192	766.56
630.64	737.56
631.089	767.56
631.537	733.56
631.985	712.56
632.433	718.56
632.881	724.56
633.33	702.56
633.778	710.56
634.226	710.56
634.674	715.56
635.122	697.56
635.57	728.56
636.018	718.56
636.466	768.56
636.914	759.56
637.362	768.56
637.81	762.56
638.258	793.56
638.705	803.56
639.153	835.56
639.601	840.56
640.049	834.56
640.497	864.56
640.944	884.56
641.392	873.56
641.84	827.56
642.287	780.56
642.735	742.56
643.182	761.56
643.63	729.56
644.078	753.56
644.525	777.56
644.973	749.56
645.42	819.56
645.867	848.56
646.315	809.56
646.762	865.56
647.21	873.56
647.657	918.56
648.104	938.56
648.551	976.56
648.999	1020.56
649.446	1091.56
649.893	1231.56
650.34	1425.56
650.787	1646.56
651.234	2026.56
651.682	2733.56
652.129	3750.56
652.576	5363.56
653.023	7398.56
653.47	9098.56
653.917	10102.56
654.363	10704.56
654.81	11394.56
655.257	11890.56
655.704	9005.56
656.151	5459.56
656.598	3481.56
657.044	2453.56
657.491	1954.56
657.938	1563.56
658.385	1331.56
658.831	1210.56
659.278	1056.56
659.724	1029.56
660.171	919.56
660.618	858.56
661.064	822.56
661.511	812.56
661.957	755.56
662.404	726.56
662.85	717.56
663.296	744.56
663.743	702.56
664.189	729.56
664.635	705.56
665.082	704.56
665.528	666.56
665.974	671.56
666.42	632.56
666.867	646.56
667.313	647.56
667.759	597.56
668.205	594.56
668.651	632.56
669.097	596.56
669.543	630.56
669.989	616.56
670.435	605.56
670.881	630.56
671.327	616.56
671.773	654.56
672.219	720.56
672.665	754.56
673.11	760.56
673.556	828.56
674.002	810.56
674.448	803.56
674.893	760.56
675.339	689.56
675.785	626.56
676.23	570.56
676.676	546.56
677.122	511.56
677.567	520.56
678.013	493.56
678.458	521.56
678.904	512.56
679.349	506.56
679.794	495.56
680.24	490.56
680.685	470.56
681.131	485.56
681.576	497.56
682.021	481.56
682.466	496.56
682.912	474.56
683.357	510.56
683.802	547.56
684.247	600.56
684.692	648.56
685.137	643.56
685.583	687.56
686.028	694.56
686.473	702.56
686.918	622.56
687.363	541.56
687.807	561.56
688.252	515.56
688.697	490.56
689.142	502.56
689.587	477.56
690.032	464.56
690.477	504.56
690.921	507.56
691.366	522.56
691.811	566.56
692.255	604.56
692.7	652.56
693.145	851.56
693.589	1230.56
694.034	1644.56
694.478	1816.56
694.923	1699.56
695.367	2086.56
695.812	1926.56
696.256	839.56
696.701	516.56
697.145	484.56
697.59	467.56
698.034	462.56
698.478	448.56
698.922	441.56
699.367	464.56
699.811	488.56
700.255	514.56
700.699	578.56
701.143	602.56
701.588	640.56
702.032	653.56
702.476	674.56
702.92	697.56
703.364	808.56
703.808	1135.56
704.252	1566.56
704.696	1708.56
705.14	1624.56
705.584	2005.56
706.027	1673.56
706.471	820.56
706.915	566.56
707.359	509.56
707.803	472.56
708.246	461.56
708.69	446.56
709.134	455.56
709.577	438.56
710.021	423.56
710.465	409.56
710.908	432.56
711.352	442.56
711.795	491.56
712.239	518.56
712.682	534.56
713.126	549.56
713.569	576.56
714.012	537.56
714.456	462.56
714.899	432.56
715.342	427.56
715.786	389.56
716.229	393.56
716.672	368.56
717.115	367.56
717.558	382.56
718.002	378.56
718.445	409.56
718.888	435.56
719.331	422.56
719.774	408.56
720.217	402.56
720.66	398.56
721.103	381.56
721.546	391.56
721.989	381.56
722.432	344.56
722.874	361.56
723.317	368.56
723.76	393.56
724.203	406.56
724.645	520.56
725.088	664.56
725.531	668.56
725.974	643.56
726.416	728.56
726.859	478.56
727.301	372.56
727.744	363.56
728.187	350.56
728.629	348.56
729.071	387.56
729.514	384.56
729.956	394.56
730.399	385.56
730.841	422.56
731.283	429.56
731.726	385.56
732.168	399.56
732.61	408.56
733.053	418.56
733.495	484.56
733.937	511.56
734.379	581.56
734.821	632.56
735.263	902.56
735.705	1503.56
736.148	2446.56
736.59	2872.56
737.032	2667.56
737.474	2879.56
737.916	1423.56
738.357	728.56
738.799	485.56
739.241	449.56
739.683	426.56
740.125	441.56
740.567	466.56
741.008	462.56
741.45	501.56
741.892	526.56
742.334	526.56
742.775	523.56
743.217	545.56
743.658	460.56
744.1	426.56
744.542	466.56
744.983	520.56
745.425	524.56
745.866	563.56
746.307	472.56
746.749	463.56
747.19	562.56
747.632	876.56
748.073	1646.56
