Data from 20170802-ORNL-NYSim-Air_HRD10391_10-37-12-630.txt Node
Date: Wed Aug 02 10:37:12 EDT 2017
User: Ender
Spectrometer: HR+D1039
Trigger mode: 0
Integration Time (sec): 1.510000E-3
Scans to average: 1
Electric dark correction enabled: true
Nonlinearity correction enabled: false
Boxcar width: 0
XAxis mode: Wavelengths
Number of Pixels in Spectrum: 2048
>>>>>Begin Spectral Data<<<<<
187.836	1.81
188.309	1.81
188.782	1.81
189.255	-2.19
189.728	-1.19
190.201	-14.19
190.674	-10.19
191.147	-16.19
191.619	-1.19
192.092	0.81
192.565	-4.19
193.038	-19.19
193.511	-0.19
193.984	6.81
194.456	-3.19
194.929	13.81
195.402	17.81
195.874	30.81
196.347	21.81
196.82	22.81
197.292	22.81
197.765	23.81
198.237	27.81
198.71	36.81
199.182	24.81
199.655	42.81
200.127	45.81
200.6	44.81
201.072	58.81
201.544	58.81
202.017	63.81
202.489	46.81
202.961	76.81
203.433	79.81
203.906	74.81
204.378	72.81
204.85	75.81
205.322	73.81
205.794	87.81
206.266	75.81
206.739	57.81
207.211	90.81
207.683	90.81
208.155	74.81
208.627	64.81
209.099	85.81
209.57	76.81
210.042	95.81
210.514	81.81
210.986	91.81
211.458	80.81
211.93	92.81
212.402	80.81
212.873	73.81
213.345	87.81
213.817	86.81
214.288	89.81
214.76	66.81
215.232	80.81
215.703	59.81
216.175	82.81
216.646	84.81
217.118	83.81
217.589	70.81
218.061	79.81
218.532	84.81
219.004	64.81
219.475	78.81
219.946	88.81
220.418	78.81
220.889	79.81
221.36	70.81
221.832	59.81
222.303	84.81
222.774	69.81
223.245	72.81
223.717	70.81
224.188	63.81
224.659	68.81
225.13	84.81
225.601	76.81
226.072	87.81
226.543	67.81
227.014	84.81
227.485	69.81
227.956	70.81
228.427	75.81
228.898	74.81
229.369	82.81
229.839	74.81
230.31	69.81
230.781	82.81
231.252	86.81
231.722	89.81
232.193	82.81
232.664	79.81
233.135	64.81
233.605	66.81
234.076	77.81
234.546	76.81
235.017	93.81
235.487	72.81
235.958	86.81
236.428	76.81
236.899	76.81
237.369	88.81
237.84	80.81
238.31	84.81
238.78	71.81
239.251	80.81
239.721	79.81
240.191	73.81
240.662	70.81
241.132	78.81
241.602	75.81
242.072	79.81
242.542	66.81
243.013	98.81
243.483	72.81
243.953	85.81
244.423	76.81
244.893	83.81
245.363	89.81
245.833	94.81
246.303	95.81
246.773	84.81
247.243	84.81
247.712	89.81
248.182	84.81
248.652	76.81
249.122	73.81
249.592	82.81
250.061	91.81
250.531	93.81
251.001	105.81
251.471	91.81
251.94	100.81
252.41	85.81
252.879	64.81
253.349	80.81
253.818	92.81
254.288	92.81
254.757	72.81
255.227	90.81
255.696	79.81
256.166	102.81
256.635	88.81
257.105	77.81
257.574	83.81
258.043	97.81
258.513	105.81
258.982	98.81
259.451	100.81
259.92	94.81
260.389	71.81
260.859	89.81
261.328	96.81
261.797	99.81
262.266	110.81
262.735	103.81
263.204	98.81
263.673	105.81
264.142	92.81
264.611	85.81
265.08	92.81
265.549	91.81
266.018	87.81
266.487	92.81
266.955	103.81
267.424	93.81
267.893	82.81
268.362	93.81
268.83	86.81
269.299	106.81
269.768	88.81
270.236	101.81
270.705	85.81
271.174	91.81
271.642	85.81
272.111	100.81
272.579	100.81
273.048	94.81
273.516	92.81
273.985	101.81
274.453	110.81
274.922	103.81
275.39	98.81
275.858	95.81
276.327	101.81
276.795	95.81
277.263	105.81
277.731	103.81
278.2	94.81
278.668	92.81
279.136	104.81
279.604	105.81
280.072	111.81
280.54	117.81
281.008	91.81
281.477	99.81
281.945	107.81
282.413	112.81
282.881	106.81
283.348	102.81
283.816	112.81
284.284	108.81
284.752	111.81
285.22	109.81
285.688	114.81
286.156	93.81
286.623	116.81
287.091	111.81
287.559	135.81
288.026	106.81
288.494	120.81
288.962	96.81
289.429	99.81
289.897	105.81
290.364	109.81
290.832	122.81
291.3	115.81
291.767	121.81
292.234	98.81
292.702	109.81
293.169	92.81
293.637	114.81
294.104	117.81
294.571	116.81
295.039	122.81
295.506	110.81
295.973	115.81
296.44	111.81
296.908	118.81
297.375	112.81
297.842	114.81
298.309	121.81
298.776	131.81
299.243	120.81
299.71	120.81
300.177	102.81
300.644	103.81
301.111	118.81
301.578	134.81
302.045	116.81
302.512	119.81
302.979	136.81
303.446	129.81
303.913	105.81
304.379	106.81
304.846	122.81
305.313	119.81
305.78	114.81
306.246	124.81
306.713	129.81
307.18	127.81
307.646	136.81
308.113	138.81
308.579	145.81
309.046	122.81
309.512	122.81
309.979	134.81
310.445	157.81
310.912	144.81
311.378	142.81
311.845	124.81
312.311	147.81
312.777	146.81
313.244	140.81
313.71	148.81
314.176	142.81
314.642	145.81
315.109	134.81
315.575	160.81
316.041	138.81
316.507	132.81
316.973	138.81
317.439	149.81
317.905	144.81
318.371	144.81
318.837	147.81
319.303	140.81
319.769	138.81
320.235	141.81
320.701	160.81
321.167	175.81
321.633	141.81
322.099	134.81
322.564	148.81
323.03	152.81
323.496	146.81
323.962	142.81
324.427	152.81
324.893	173.81
325.359	152.81
325.824	142.81
326.29	150.81
326.755	150.81
327.221	164.81
327.686	150.81
328.152	157.81
328.617	153.81
329.083	164.81
329.548	165.81
330.014	169.81
330.479	155.81
330.944	154.81
331.41	171.81
331.875	162.81
332.34	179.81
332.805	170.81
333.271	161.81
333.736	170.81
334.201	156.81
334.666	179.81
335.131	182.81
335.596	165.81
336.061	158.81
336.526	171.81
336.991	180.81
337.456	175.81
337.921	168.81
338.386	152.81
338.851	149.81
339.316	160.81
339.781	166.81
340.246	175.81
340.711	166.81
341.175	175.81
341.64	184.81
342.105	184.81
342.569	179.81
343.034	195.81
343.499	180.81
343.963	184.81
344.428	161.81
344.893	186.81
345.357	212.81
345.822	200.81
346.286	194.81
346.751	192.81
347.215	204.81
347.679	209.81
348.144	210.81
348.608	198.81
349.073	215.81
349.537	197.81
350.001	204.81
350.465	212.81
350.93	213.81
351.394	208.81
351.858	221.81
352.322	214.81
352.786	206.81
353.25	194.81
353.715	218.81
354.179	198.81
354.643	246.81
355.107	225.81
355.571	238.81
356.035	234.81
356.498	212.81
356.962	244.81
357.426	251.81
357.89	215.81
358.354	217.81
358.818	208.81
359.281	239.81
359.745	232.81
360.209	234.81
360.673	228.81
361.136	214.81
361.6	256.81
362.064	217.81
362.527	225.81
362.991	220.81
363.454	250.81
363.918	239.81
364.381	244.81
364.845	265.81
365.308	229.81
365.772	234.81
366.235	252.81
366.698	226.81
367.162	240.81
367.625	241.81
368.088	268.81
368.552	242.81
369.015	248.81
369.478	240.81
369.941	245.81
370.404	237.81
370.867	253.81
371.331	244.81
371.794	251.81
372.257	256.81
372.72	254.81
373.183	240.81
373.646	247.81
374.109	257.81
374.572	288.81
375.035	266.81
375.497	264.81
375.96	268.81
376.423	290.81
376.886	269.81
377.349	270.81
377.811	286.81
378.274	272.81
378.737	274.81
379.199	280.81
379.662	282.81
380.125	299.81
380.587	298.81
381.05	288.81
381.512	280.81
381.975	297.81
382.437	307.81
382.9	314.81
383.362	310.81
383.825	319.81
384.287	299.81
384.75	319.81
385.212	306.81
385.674	316.81
386.136	298.81
386.599	305.81
387.061	308.81
387.523	277.81
387.985	316.81
388.447	312.81
388.91	318.81
389.372	309.81
389.834	320.81
390.296	307.81
390.758	327.81
391.22	310.81
391.682	338.81
392.144	325.81
392.606	302.81
393.068	322.81
393.529	334.81
393.991	350.81
394.453	309.81
394.915	324.81
395.377	342.81
395.838	334.81
396.3	325.81
396.762	327.81
397.224	332.81
397.685	326.81
398.147	309.81
398.608	320.81
399.07	331.81
399.531	350.81
399.993	344.81
400.454	345.81
400.916	354.81
401.377	370.81
401.839	347.81
402.3	368.81
402.762	361.81
403.223	368.81
403.684	384.81
404.145	373.81
404.607	370.81
405.068	350.81
405.529	357.81
405.99	360.81
406.451	371.81
406.913	391.81
407.374	383.81
407.835	387.81
408.296	391.81
408.757	373.81
409.218	375.81
409.679	407.81
410.14	427.81
410.601	409.81
411.062	410.81
411.522	396.81
411.983	392.81
412.444	422.81
412.905	416.81
413.366	428.81
413.826	474.81
414.287	497.81
414.748	558.81
415.208	579.81
415.669	502.81
416.13	451.81
416.59	484.81
417.051	474.81
417.511	494.81
417.972	500.81
418.432	561.81
418.893	591.81
419.353	568.81
419.814	447.81
420.274	413.81
420.734	408.81
421.195	419.81
421.655	412.81
422.115	456.81
422.576	417.81
423.036	422.81
423.496	446.81
423.956	441.81
424.416	456.81
424.876	552.81
425.336	543.81
425.797	543.81
426.257	523.81
426.717	502.81
427.177	460.81
427.637	438.81
428.097	516.81
428.556	503.81
429.016	545.81
429.476	537.81
429.936	531.81
430.396	546.81
430.856	554.81
431.315	572.81
431.775	599.81
432.235	607.81
432.694	645.81
433.154	610.81
433.614	590.81
434.073	557.81
434.533	549.81
434.993	529.81
435.452	515.81
435.912	514.81
436.371	500.81
436.83	510.81
437.29	506.81
437.749	473.81
438.209	482.81
438.668	464.81
439.127	512.81
439.587	493.81
440.046	451.81
440.505	490.81
440.964	490.81
441.424	487.81
441.883	504.81
442.342	484.81
442.801	480.81
443.26	447.81
443.719	482.81
444.178	456.81
444.637	462.81
445.096	475.81
445.555	484.81
446.014	490.81
446.473	455.81
446.932	466.81
447.391	495.81
447.849	496.81
448.308	490.81
448.767	472.81
449.226	493.81
449.685	492.81
450.143	519.81
450.602	508.81
451.061	511.81
451.519	502.81
451.978	499.81
452.436	502.81
452.895	488.81
453.353	488.81
453.812	475.81
454.27	484.81
454.729	500.81
455.187	480.81
455.646	504.81
456.104	502.81
456.562	497.81
457.021	517.81
457.479	464.81
457.937	489.81
458.395	534.81
458.854	517.81
459.312	500.81
459.77	513.81
460.228	507.81
460.686	527.81
461.144	524.81
461.602	508.81
462.06	542.81
462.518	524.81
462.976	523.81
463.434	539.81
463.892	509.81
464.35	537.81
464.808	554.81
465.266	542.81
465.724	546.81
466.181	560.81
466.639	563.81
467.097	584.81
467.555	586.81
468.012	608.81
468.47	624.81
468.928	604.81
469.385	631.81
469.843	619.81
470.3	636.81
470.758	651.81
471.215	664.81
471.673	681.81
472.13	700.81
472.588	696.81
473.045	686.81
473.503	703.81
473.96	720.81
474.417	761.81
474.875	770.81
475.332	806.81
475.789	823.81
476.246	827.81
476.704	839.81
477.161	884.81
477.618	892.81
478.075	940.81
478.532	1002.81
478.989	1068.81
479.446	1149.81
479.903	1220.81
480.36	1313.81
480.817	1382.81
481.274	1459.81
481.731	1608.81
482.188	1700.81
482.645	1830.81
483.102	1942.81
483.558	2058.81
484.015	2130.81
484.472	2143.81
484.929	2093.81
485.385	1984.81
485.842	1948.81
486.299	1879.81
486.755	1770.81
487.212	1613.81
487.668	1464.81
488.125	1362.81
488.582	1260.81
489.038	1227.81
489.494	1217.81
489.951	1159.81
490.407	1099.81
490.864	1124.81
491.32	1105.81
491.776	1113.81
492.233	1105.81
492.689	1063.81
493.145	1046.81
493.602	1040.81
494.058	1074.81
494.514	1065.81
494.97	1037.81
495.426	1072.81
495.882	1046.81
496.338	1045.81
496.794	1049.81
497.251	1087.81
497.707	1074.81
498.163	1080.81
498.618	1092.81
499.074	1080.81
499.53	1071.81
499.986	1130.81
500.442	1101.81
500.898	1077.81
501.354	1108.81
501.809	1133.81
502.265	1150.81
502.721	1084.81
503.177	1122.81
503.632	1124.81
504.088	1085.81
504.543	1109.81
504.999	1130.81
505.455	1130.81
505.91	1126.81
506.366	1121.81
506.821	1158.81
507.277	1118.81
507.732	1138.81
508.187	1110.81
508.643	1093.81
509.098	1138.81
509.553	1137.81
510.009	1112.81
510.464	1166.81
510.919	1188.81
511.375	1200.81
511.83	1232.81
512.285	1205.81
512.74	1231.81
513.195	1257.81
513.65	1244.81
514.105	1324.81
514.56	1300.81
515.015	1302.81
515.47	1350.81
515.925	1327.81
516.38	1341.81
516.835	1306.81
517.29	1302.81
517.745	1327.81
518.2	1310.81
518.655	1274.81
519.109	1260.81
519.564	1220.81
520.019	1208.81
520.474	1252.81
520.928	1222.81
521.383	1170.81
521.838	1198.81
522.292	1231.81
522.747	1209.81
523.201	1176.81
523.656	1166.81
524.11	1144.81
524.565	1176.81
525.019	1179.81
525.474	1182.81
525.928	1172.81
526.382	1174.81
526.837	1128.81
527.291	1146.81
527.745	1161.81
528.2	1171.81
528.654	1125.81
529.108	1170.81
529.562	1176.81
530.016	1166.81
530.47	1177.81
530.925	1151.81
531.379	1137.81
531.833	1159.81
532.287	1170.81
532.741	1189.81
533.195	1154.81
533.649	1167.81
534.103	1138.81
534.556	1145.81
535.01	1185.81
535.464	1163.81
535.918	1175.81
536.372	1164.81
536.826	1146.81
537.279	1142.81
537.733	1163.81
538.187	1170.81
538.64	1176.81
539.094	1164.81
539.548	1170.81
540.001	1207.81
540.455	1186.81
540.908	1191.81
541.362	1218.81
541.815	1201.81
542.269	1228.81
542.722	1226.81
543.175	1263.81
543.629	1287.81
544.082	1261.81
544.536	1254.81
544.989	1274.81
545.442	1284.81
545.895	1259.81
546.349	1272.81
546.802	1304.81
547.255	1278.81
547.708	1318.81
548.161	1334.81
548.614	1346.81
549.067	1306.81
549.52	1297.81
549.973	1272.81
550.426	1288.81
550.879	1261.81
551.332	1306.81
551.785	1303.81
552.238	1278.81
552.691	1316.81
553.144	1343.81
553.596	1373.81
554.049	1321.81
554.502	1400.81
554.955	1394.81
555.407	1492.81
555.86	1415.81
556.313	1382.81
556.765	1411.81
557.218	1388.81
557.67	1355.81
558.123	1353.81
558.576	1351.81
559.028	1329.81
559.48	1368.81
559.933	1349.81
560.385	1378.81
560.838	1289.81
561.29	1252.81
561.742	1246.81
562.195	1229.81
562.647	1199.81
563.099	1223.81
563.551	1220.81
564.004	1208.81
564.456	1197.81
564.908	1175.81
565.36	1158.81
565.812	1166.81
566.264	1148.81
566.716	1120.81
567.168	1052.81
567.62	1102.81
568.072	1085.81
568.524	1090.81
568.976	1089.81
569.428	1079.81
569.88	1061.81
570.332	1075.81
570.784	1101.81
571.235	1091.81
571.687	1083.81
572.139	1076.81
572.59	1100.81
573.042	1100.81
573.494	1069.81
573.945	1047.81
574.397	1077.81
574.849	1074.81
575.3	1064.81
575.752	1065.81
576.203	1038.81
576.655	1025.81
577.106	1047.81
577.557	1024.81
578.009	1005.81
578.46	1052.81
578.912	1004.81
579.363	1030.81
579.814	1009.81
580.265	987.81
580.717	1005.81
581.168	991.81
581.619	1006.81
582.07	975.81
582.521	1021.81
582.972	1016.81
583.423	1014.81
583.875	1031.81
584.326	1019.81
584.777	1061.81
585.227	1051.81
585.678	1119.81
586.129	1091.81
586.58	1093.81
587.031	1098.81
587.482	1140.81
587.933	1158.81
588.384	1133.81
588.834	1108.81
589.285	1122.81
589.736	1143.81
590.186	1125.81
590.637	1154.81
591.088	1124.81
591.538	1098.81
591.989	1112.81
592.439	1071.81
592.89	1050.81
593.34	1056.81
593.791	1058.81
594.241	1027.81
594.692	1039.81
595.142	1029.81
595.593	1060.81
596.043	1020.81
596.493	1052.81
596.943	1069.81
597.394	1063.81
597.844	1038.81
598.294	1080.81
598.744	1148.81
599.195	1161.81
599.645	1202.81
600.095	1258.81
600.545	1354.81
600.995	1386.81
601.445	1447.81
601.895	1535.81
602.345	1572.81
602.795	1586.81
603.245	1482.81
603.695	1462.81
604.145	1362.81
604.594	1295.81
605.044	1258.81
605.494	1163.81
605.944	1129.81
606.393	1112.81
606.843	1026.81
607.293	1041.81
607.743	1028.81
608.192	1054.81
608.642	1052.81
609.091	1066.81
609.541	1052.81
609.99	1088.81
610.44	1036.81
610.889	1026.81
611.339	1025.81
611.788	999.81
612.238	1036.81
612.687	1022.81
613.136	1036.81
613.586	1053.81
614.035	1042.81
614.484	1048.81
614.933	1036.81
615.383	1041.81
615.832	965.81
616.281	971.81
616.73	948.81
617.179	943.81
617.628	942.81
618.077	905.81
618.526	875.81
618.975	889.81
619.424	884.81
619.873	877.81
620.322	886.81
620.771	884.81
621.22	863.81
621.669	843.81
622.118	878.81
622.567	853.81
623.015	831.81
623.464	796.81
623.913	800.81
624.361	841.81
624.81	820.81
625.259	820.81
625.707	816.81
626.156	826.81
626.604	791.81
627.053	824.81
627.501	822.81
627.95	824.81
628.398	848.81
628.847	813.81
629.295	820.81
629.744	820.81
630.192	802.81
630.64	783.81
631.089	782.81
631.537	767.81
631.985	770.81
632.433	754.81
632.881	731.81
633.33	760.81
633.778	719.81
634.226	741.81
634.674	766.81
635.122	795.81
635.57	756.81
636.018	770.81
636.466	772.81
636.914	798.81
637.362	859.81
637.81	815.81
638.258	838.81
638.705	841.81
639.153	837.81
639.601	868.81
640.049	870.81
640.497	909.81
640.944	917.81
641.392	912.81
641.84	862.81
642.287	792.81
642.735	808.81
643.182	802.81
643.63	834.81
644.078	805.81
644.525	811.81
644.973	817.81
645.42	855.81
645.867	871.81
646.315	869.81
646.762	877.81
647.21	922.81
647.657	984.81
648.104	1019.81
648.551	1033.81
648.999	1134.81
649.446	1180.81
649.893	1308.81
650.34	1439.81
650.787	1706.81
651.234	2124.81
651.682	2789.81
652.129	3890.81
652.576	5545.81
653.023	7604.81
653.47	9290.81
653.917	10320.81
654.363	10873.81
654.81	11627.81
655.257	12132.81
655.704	9216.81
656.151	5629.81
656.598	3612.81
657.044	2576.81
657.491	2022.81
657.938	1644.81
658.385	1378.81
658.831	1239.81
659.278	1106.81
659.724	1028.81
660.171	996.81
660.618	903.81
661.064	838.81
661.511	808.81
661.957	798.81
662.404	788.81
662.85	782.81
663.296	743.81
663.743	737.81
664.189	745.81
664.635	749.81
665.082	731.81
665.528	720.81
665.974	724.81
666.42	678.81
666.867	708.81
667.313	668.81
667.759	672.81
668.205	658.81
668.651	644.81
669.097	610.81
669.543	650.81
669.989	651.81
670.435	664.81
670.881	647.81
671.327	684.81
671.773	706.81
672.219	774.81
672.665	833.81
673.11	850.81
673.556	853.81
674.002	868.81
674.448	870.81
674.893	795.81
675.339	683.81
675.785	650.81
676.23	602.81
676.676	565.81
677.122	560.81
677.567	553.81
678.013	531.81
678.458	535.81
678.904	536.81
679.349	537.81
679.794	508.81
680.24	532.81
680.685	501.81
681.131	542.81
681.576	540.81
682.021	528.81
682.466	510.81
682.912	520.81
683.357	563.81
683.802	579.81
684.247	619.81
684.692	666.81
685.137	711.81
685.583	696.81
686.028	738.81
686.473	734.81
686.918	646.81
687.363	589.81
687.807	528.81
688.252	529.81
688.697	514.81
689.142	509.81
689.587	489.81
690.032	514.81
690.477	516.81
690.921	542.81
691.366	546.81
691.811	586.81
692.255	610.81
692.7	716.81
693.145	897.81
693.589	1313.81
694.034	1726.81
694.478	1924.81
694.923	1844.81
695.367	2196.81
695.812	2048.81
696.256	864.81
696.701	582.81
697.145	550.81
697.59	510.81
698.034	480.81
698.478	487.81
698.922	500.81
699.367	494.81
699.811	532.81
700.255	518.81
700.699	594.81
701.143	643.81
701.588	681.81
702.032	706.81
702.476	718.81
702.92	733.81
703.364	854.81
703.808	1208.81
704.252	1707.81
704.696	1843.81
705.14	1712.81
705.584	2118.81
706.027	1764.81
706.471	874.81
706.915	616.81
707.359	530.81
707.803	490.81
708.246	494.81
708.69	471.81
709.134	484.81
709.577	463.81
710.021	468.81
710.465	474.81
710.908	444.81
711.352	461.81
711.795	474.81
712.239	534.81
712.682	599.81
713.126	553.81
713.569	594.81
714.012	555.81
714.456	440.81
714.899	439.81
715.342	419.81
715.786	410.81
716.229	407.81
716.672	406.81
717.115	396.81
717.558	367.81
718.002	380.81
718.445	414.81
718.888	435.81
719.331	445.81
719.774	431.81
720.217	458.81
720.66	423.81
721.103	416.81
721.546	383.81
721.989	408.81
722.432	364.81
722.874	397.81
723.317	376.81
723.76	431.81
724.203	470.81
724.645	551.81
725.088	692.81
725.531	690.81
725.974	708.81
726.416	736.81
726.859	518.81
727.301	422.81
727.744	381.81
728.187	374.81
728.629	372.81
729.071	404.81
729.514	421.81
729.956	414.81
730.399	424.81
730.841	425.81
731.283	435.81
731.726	412.81
732.168	423.81
732.61	429.81
733.053	444.81
733.495	476.81
733.937	550.81
734.379	610.81
734.821	678.81
735.263	956.81
735.705	1591.81
736.148	2615.81
736.59	2988.81
737.032	2812.81
737.474	3089.81
737.916	1550.81
738.357	794.81
738.799	525.81
739.241	468.81
739.683	447.81
740.125	470.81
740.567	483.81
741.008	506.81
741.45	542.81
741.892	524.81
742.334	560.81
742.775	515.81
743.217	561.81
743.658	487.81
744.1	474.81
744.542	500.81
744.983	564.81
745.425	533.81
745.866	590.81
746.307	512.81
746.749	466.81
747.19	587.81
