Data from 20170802-ORNL-NYSim-Air_HRD10391_10-37-40-642.txt Node
Date: Wed Aug 02 10:37:40 EDT 2017
User: Ender
Spectrometer: HR+D1039
Trigger mode: 0
Integration Time (sec): 1.510000E-3
Scans to average: 1
Electric dark correction enabled: true
Nonlinearity correction enabled: false
Boxcar width: 0
XAxis mode: Wavelengths
Number of Pixels in Spectrum: 2048
>>>>>Begin Spectral Data<<<<<
187.836	7.75
188.309	7.75
188.782	7.75
189.255	-4.25
189.728	1.75
190.201	-0.25
190.674	-9.25
191.147	3.75
191.619	-5.25
192.092	-15.25
192.565	-2.25
193.038	-16.25
193.511	-3.25
193.984	-0.25
194.456	7.75
194.929	3.75
195.402	2.75
195.874	28.75
196.347	29.75
196.82	35.75
197.292	33.75
197.765	22.75
198.237	27.75
198.71	27.75
199.182	53.75
199.655	44.75
200.127	43.75
200.6	62.75
201.072	48.75
201.544	58.75
202.017	51.75
202.489	77.75
202.961	89.75
203.433	85.75
203.906	57.75
204.378	66.75
204.85	87.75
205.322	71.75
205.794	71.75
206.266	74.75
206.739	80.75
207.211	99.75
207.683	88.75
208.155	90.75
208.627	74.75
209.099	74.75
209.57	81.75
210.042	88.75
210.514	75.75
210.986	91.75
211.458	78.75
211.93	79.75
212.402	78.75
212.873	75.75
213.345	85.75
213.817	86.75
214.288	69.75
214.76	85.75
215.232	93.75
215.703	82.75
216.175	83.75
216.646	73.75
217.118	79.75
217.589	86.75
218.061	78.75
218.532	81.75
219.004	88.75
219.475	73.75
219.946	82.75
220.418	87.75
220.889	91.75
221.36	77.75
221.832	83.75
222.303	70.75
222.774	84.75
223.245	75.75
223.717	81.75
224.188	85.75
224.659	83.75
225.13	81.75
225.601	73.75
226.072	78.75
226.543	78.75
227.014	80.75
227.485	90.75
227.956	75.75
228.427	70.75
228.898	69.75
229.369	89.75
229.839	78.75
230.31	81.75
230.781	67.75
231.252	80.75
231.722	76.75
232.193	82.75
232.664	83.75
233.135	88.75
233.605	77.75
234.076	83.75
234.546	80.75
235.017	82.75
235.487	81.75
235.958	89.75
236.428	77.75
236.899	94.75
237.369	90.75
237.84	93.75
238.31	92.75
238.78	79.75
239.251	81.75
239.721	89.75
240.191	86.75
240.662	82.75
241.132	80.75
241.602	79.75
242.072	85.75
242.542	73.75
243.013	88.75
243.483	95.75
243.953	93.75
244.423	81.75
244.893	89.75
245.363	73.75
245.833	74.75
246.303	94.75
246.773	77.75
247.243	82.75
247.712	76.75
248.182	93.75
248.652	97.75
249.122	89.75
249.592	84.75
250.061	95.75
250.531	82.75
251.001	89.75
251.471	81.75
251.94	101.75
252.41	89.75
252.879	87.75
253.349	82.75
253.818	84.75
254.288	102.75
254.757	94.75
255.227	86.75
255.696	99.75
256.166	89.75
256.635	102.75
257.105	96.75
257.574	88.75
258.043	108.75
258.513	92.75
258.982	87.75
259.451	88.75
259.92	101.75
260.389	86.75
260.859	99.75
261.328	110.75
261.797	115.75
262.266	94.75
262.735	106.75
263.204	95.75
263.673	103.75
264.142	97.75
264.611	97.75
265.08	88.75
265.549	99.75
266.018	101.75
266.487	103.75
266.955	113.75
267.424	77.75
267.893	89.75
268.362	97.75
268.83	90.75
269.299	107.75
269.768	73.75
270.236	101.75
270.705	106.75
271.174	103.75
271.642	81.75
272.111	107.75
272.579	120.75
273.048	102.75
273.516	110.75
273.985	107.75
274.453	96.75
274.922	116.75
275.39	98.75
275.858	115.75
276.327	106.75
276.795	93.75
277.263	102.75
277.731	101.75
278.2	111.75
278.668	103.75
279.136	113.75
279.604	103.75
280.072	106.75
280.54	124.75
281.008	105.75
281.477	123.75
281.945	94.75
282.413	108.75
282.881	115.75
283.348	107.75
283.816	109.75
284.284	115.75
284.752	104.75
285.22	110.75
285.688	129.75
286.156	105.75
286.623	117.75
287.091	119.75
287.559	118.75
288.026	122.75
288.494	132.75
288.962	116.75
289.429	98.75
289.897	113.75
290.364	118.75
290.832	116.75
291.3	98.75
291.767	104.75
292.234	117.75
292.702	110.75
293.169	119.75
293.637	114.75
294.104	113.75
294.571	133.75
295.039	139.75
295.506	121.75
295.973	115.75
296.44	117.75
296.908	107.75
297.375	125.75
297.842	119.75
298.309	130.75
298.776	121.75
299.243	116.75
299.71	122.75
300.177	112.75
300.644	126.75
301.111	128.75
301.578	134.75
302.045	112.75
302.512	140.75
302.979	122.75
303.446	126.75
303.913	134.75
304.379	153.75
304.846	137.75
305.313	121.75
305.78	136.75
306.246	128.75
306.713	135.75
307.18	144.75
307.646	144.75
308.113	145.75
308.579	135.75
309.046	124.75
309.512	140.75
309.979	118.75
310.445	153.75
310.912	118.75
311.378	143.75
311.845	133.75
312.311	136.75
312.777	137.75
313.244	154.75
313.71	132.75
314.176	136.75
314.642	146.75
315.109	160.75
315.575	145.75
316.041	141.75
316.507	150.75
316.973	155.75
317.439	155.75
317.905	164.75
318.371	140.75
318.837	143.75
319.303	157.75
319.769	172.75
320.235	142.75
320.701	142.75
321.167	140.75
321.633	150.75
322.099	154.75
322.564	146.75
323.03	179.75
323.496	152.75
323.962	166.75
324.427	153.75
324.893	153.75
325.359	167.75
325.824	137.75
326.29	158.75
326.755	149.75
327.221	175.75
327.686	155.75
328.152	160.75
328.617	161.75
329.083	157.75
329.548	161.75
330.014	155.75
330.479	159.75
330.944	178.75
331.41	190.75
331.875	167.75
332.34	157.75
332.805	154.75
333.271	166.75
333.736	180.75
334.201	176.75
334.666	174.75
335.131	173.75
335.596	175.75
336.061	172.75
336.526	158.75
336.991	174.75
337.456	178.75
337.921	193.75
338.386	189.75
338.851	167.75
339.316	189.75
339.781	174.75
340.246	193.75
340.711	179.75
341.175	181.75
341.64	195.75
342.105	191.75
342.569	171.75
343.034	194.75
343.499	201.75
343.963	192.75
344.428	161.75
344.893	181.75
345.357	189.75
345.822	198.75
346.286	193.75
346.751	191.75
347.215	227.75
347.679	221.75
348.144	191.75
348.608	200.75
349.073	215.75
349.537	223.75
350.001	193.75
350.465	207.75
350.93	215.75
351.394	214.75
351.858	221.75
352.322	199.75
352.786	222.75
353.25	237.75
353.715	215.75
354.179	225.75
354.643	203.75
355.107	225.75
355.571	218.75
356.035	230.75
356.498	226.75
356.962	239.75
357.426	214.75
357.89	219.75
358.354	212.75
358.818	238.75
359.281	237.75
359.745	216.75
360.209	233.75
360.673	209.75
361.136	218.75
361.6	247.75
362.064	224.75
362.527	230.75
362.991	236.75
363.454	240.75
363.918	211.75
364.381	233.75
364.845	228.75
365.308	257.75
365.772	253.75
366.235	230.75
366.698	259.75
367.162	245.75
367.625	269.75
368.088	233.75
368.552	237.75
369.015	254.75
369.478	236.75
369.941	243.75
370.404	245.75
370.867	263.75
371.331	246.75
371.794	258.75
372.257	256.75
372.72	272.75
373.183	257.75
373.646	278.75
374.109	268.75
374.572	285.75
375.035	271.75
375.497	279.75
375.96	272.75
376.423	267.75
376.886	245.75
377.349	276.75
377.811	282.75
378.274	289.75
378.737	272.75
379.199	279.75
379.662	301.75
380.125	271.75
380.587	285.75
381.05	268.75
381.512	303.75
381.975	289.75
382.437	298.75
382.9	309.75
383.362	293.75
383.825	292.75
384.287	313.75
384.75	293.75
385.212	277.75
385.674	315.75
386.136	321.75
386.599	307.75
387.061	328.75
387.523	321.75
387.985	321.75
388.447	294.75
388.91	315.75
389.372	321.75
389.834	318.75
390.296	310.75
390.758	313.75
391.22	302.75
391.682	319.75
392.144	328.75
392.606	321.75
393.068	331.75
393.529	339.75
393.991	338.75
394.453	310.75
394.915	310.75
395.377	314.75
395.838	329.75
396.3	327.75
396.762	353.75
397.224	319.75
397.685	330.75
398.147	340.75
398.608	319.75
399.07	337.75
399.531	327.75
399.993	336.75
400.454	357.75
400.916	354.75
401.377	358.75
401.839	342.75
402.3	355.75
402.762	358.75
403.223	396.75
403.684	374.75
404.145	373.75
404.607	374.75
405.068	368.75
405.529	385.75
405.99	373.75
406.451	385.75
406.913	358.75
407.374	374.75
407.835	384.75
408.296	399.75
408.757	373.75
409.218	388.75
409.679	419.75
410.14	393.75
410.601	391.75
411.062	425.75
411.522	429.75
411.983	391.75
412.444	400.75
412.905	390.75
413.366	419.75
413.826	447.75
414.287	473.75
414.748	551.75
415.208	600.75
415.669	488.75
416.13	461.75
416.59	456.75
417.051	466.75
417.511	485.75
417.972	522.75
418.432	578.75
418.893	581.75
419.353	561.75
419.814	453.75
420.274	421.75
420.734	439.75
421.195	447.75
421.655	413.75
422.115	427.75
422.576	450.75
423.036	441.75
423.496	438.75
423.956	475.75
424.416	498.75
424.876	545.75
425.336	549.75
425.797	527.75
426.257	528.75
426.717	507.75
427.177	469.75
427.637	465.75
428.097	490.75
428.556	510.75
429.016	550.75
429.476	525.75
429.936	527.75
430.396	519.75
430.856	528.75
431.315	557.75
431.775	597.75
432.235	655.75
432.694	597.75
433.154	591.75
433.614	567.75
434.073	575.75
434.533	519.75
434.993	509.75
435.452	513.75
435.912	493.75
436.371	491.75
436.83	476.75
437.29	499.75
437.749	492.75
438.209	478.75
438.668	477.75
439.127	501.75
439.587	495.75
440.046	481.75
440.505	477.75
440.964	477.75
441.424	518.75
441.883	492.75
442.342	462.75
442.801	457.75
443.26	450.75
443.719	472.75
444.178	463.75
444.637	463.75
445.096	485.75
445.555	473.75
446.014	464.75
446.473	471.75
446.932	489.75
447.391	492.75
447.849	508.75
448.308	492.75
448.767	497.75
449.226	490.75
449.685	488.75
450.143	529.75
450.602	525.75
451.061	506.75
451.519	496.75
451.978	500.75
452.436	482.75
452.895	486.75
453.353	497.75
453.812	481.75
454.27	499.75
454.729	501.75
455.187	505.75
455.646	484.75
456.104	484.75
456.562	510.75
457.021	496.75
457.479	493.75
457.937	529.75
458.395	503.75
458.854	535.75
459.312	505.75
459.77	511.75
460.228	493.75
460.686	526.75
461.144	509.75
461.602	520.75
462.06	507.75
462.518	529.75
462.976	532.75
463.434	535.75
463.892	539.75
464.35	550.75
464.808	589.75
465.266	566.75
465.724	542.75
466.181	567.75
466.639	559.75
467.097	577.75
467.555	599.75
468.012	615.75
468.47	629.75
468.928	599.75
469.385	629.75
469.843	637.75
470.3	659.75
470.758	660.75
471.215	657.75
471.673	692.75
472.13	657.75
472.588	700.75
473.045	701.75
473.503	703.75
473.96	752.75
474.417	747.75
474.875	765.75
475.332	758.75
475.789	801.75
476.246	833.75
476.704	860.75
477.161	865.75
477.618	911.75
478.075	959.75
478.532	971.75
478.989	1049.75
479.446	1164.75
479.903	1203.75
480.36	1295.75
480.817	1396.75
481.274	1469.75
481.731	1573.75
482.188	1645.75
482.645	1798.75
483.102	1887.75
483.558	1985.75
484.015	2091.75
484.472	2133.75
484.929	2036.75
485.385	1977.75
485.842	1963.75
486.299	1851.75
486.755	1726.75
487.212	1594.75
487.668	1443.75
488.125	1379.75
488.582	1204.75
489.038	1207.75
489.494	1201.75
489.951	1169.75
490.407	1106.75
490.864	1113.75
491.32	1064.75
491.776	1098.75
492.233	1076.75
492.689	1103.75
493.145	1029.75
493.602	1028.75
494.058	1050.75
494.514	1051.75
494.97	1058.75
495.426	1070.75
495.882	1077.75
496.338	1060.75
496.794	1061.75
497.251	1103.75
497.707	1089.75
498.163	1110.75
498.618	1072.75
499.074	1083.75
499.53	1083.75
499.986	1101.75
500.442	1096.75
500.898	1059.75
501.354	1082.75
501.809	1086.75
502.265	1098.75
502.721	1115.75
503.177	1105.75
503.632	1075.75
504.088	1091.75
504.543	1090.75
504.999	1105.75
505.455	1145.75
505.91	1152.75
506.366	1124.75
506.821	1133.75
507.277	1105.75
507.732	1120.75
508.187	1121.75
508.643	1127.75
509.098	1157.75
509.553	1121.75
510.009	1174.75
510.464	1200.75
510.919	1215.75
511.375	1227.75
511.83	1204.75
512.285	1209.75
512.74	1263.75
513.195	1259.75
513.65	1298.75
514.105	1342.75
514.56	1307.75
515.015	1324.75
515.47	1328.75
515.925	1309.75
516.38	1321.75
516.835	1353.75
517.29	1292.75
517.745	1334.75
518.2	1302.75
518.655	1260.75
519.109	1273.75
519.564	1279.75
520.019	1228.75
520.474	1233.75
520.928	1219.75
521.383	1221.75
521.838	1225.75
522.292	1151.75
522.747	1174.75
523.201	1171.75
523.656	1221.75
524.11	1202.75
524.565	1151.75
525.019	1192.75
525.474	1185.75
525.928	1161.75
526.382	1179.75
526.837	1192.75
527.291	1152.75
527.745	1147.75
528.2	1195.75
528.654	1174.75
529.108	1186.75
529.562	1179.75
530.016	1157.75
530.47	1161.75
530.925	1152.75
531.379	1180.75
531.833	1221.75
532.287	1181.75
532.741	1204.75
533.195	1142.75
533.649	1198.75
534.103	1176.75
534.556	1151.75
535.01	1169.75
535.464	1149.75
535.918	1185.75
536.372	1189.75
536.826	1196.75
537.279	1159.75
537.733	1178.75
538.187	1204.75
538.64	1185.75
539.094	1177.75
539.548	1205.75
540.001	1212.75
540.455	1234.75
540.908	1207.75
541.362	1205.75
541.815	1235.75
542.269	1249.75
542.722	1234.75
543.175	1223.75
543.629	1261.75
544.082	1313.75
544.536	1281.75
544.989	1271.75
545.442	1330.75
545.895	1297.75
546.349	1293.75
546.802	1295.75
547.255	1283.75
547.708	1335.75
548.161	1299.75
548.614	1319.75
549.067	1374.75
549.52	1369.75
549.973	1308.75
550.426	1289.75
550.879	1321.75
551.332	1296.75
551.785	1303.75
552.238	1327.75
552.691	1321.75
553.144	1350.75
553.596	1389.75
554.049	1362.75
554.502	1433.75
554.955	1435.75
555.407	1429.75
555.86	1413.75
556.313	1418.75
556.765	1389.75
557.218	1407.75
557.67	1404.75
558.123	1387.75
558.576	1386.75
559.028	1382.75
559.48	1351.75
559.933	1347.75
560.385	1330.75
560.838	1272.75
561.29	1273.75
561.742	1258.75
562.195	1240.75
562.647	1204.75
563.099	1191.75
563.551	1188.75
564.004	1215.75
564.456	1186.75
564.908	1220.75
565.36	1166.75
565.812	1171.75
566.264	1150.75
566.716	1113.75
567.168	1131.75
567.62	1106.75
568.072	1073.75
568.524	1093.75
568.976	1083.75
569.428	1076.75
569.88	1085.75
570.332	1058.75
570.784	1086.75
571.235	1085.75
571.687	1088.75
572.139	1100.75
572.59	1089.75
573.042	1101.75
573.494	1103.75
573.945	1123.75
574.397	1111.75
574.849	1057.75
575.3	1102.75
575.752	1101.75
576.203	1051.75
576.655	1046.75
577.106	1047.75
577.557	1009.75
578.009	1026.75
578.46	1051.75
578.912	1042.75
579.363	1037.75
579.814	1011.75
580.265	1035.75
580.717	1033.75
581.168	1014.75
581.619	1051.75
582.07	1058.75
582.521	1057.75
582.972	1070.75
583.423	1038.75
583.875	1047.75
584.326	1019.75
584.777	1083.75
585.227	1080.75
585.678	1103.75
586.129	1159.75
586.58	1159.75
587.031	1169.75
587.482	1151.75
587.933	1267.75
588.384	1213.75
588.834	1201.75
589.285	1120.75
589.736	1179.75
590.186	1162.75
590.637	1160.75
591.088	1121.75
591.538	1113.75
591.989	1073.75
592.439	1088.75
592.89	1067.75
593.34	1028.75
593.791	1033.75
594.241	1063.75
594.692	1069.75
595.142	1071.75
595.593	1051.75
596.043	1060.75
596.493	1067.75
596.943	1103.75
597.394	1115.75
597.844	1063.75
598.294	1111.75
598.744	1117.75
599.195	1179.75
599.645	1261.75
600.095	1315.75
600.545	1390.75
600.995	1395.75
601.445	1470.75
601.895	1535.75
602.345	1637.75
602.795	1617.75
603.245	1556.75
603.695	1498.75
604.145	1429.75
604.594	1360.75
605.044	1244.75
605.494	1199.75
605.944	1112.75
606.393	1109.75
606.843	1097.75
607.293	1098.75
607.743	1040.75
608.192	1056.75
608.642	1084.75
609.091	1066.75
609.541	1058.75
609.99	1061.75
610.44	1096.75
610.889	1047.75
611.339	1017.75
611.788	999.75
612.238	1022.75
612.687	1043.75
613.136	1029.75
613.586	1038.75
614.035	1031.75
614.484	1045.75
614.933	1055.75
615.383	1025.75
615.832	985.75
616.281	990.75
616.73	986.75
617.179	946.75
617.628	951.75
618.077	921.75
618.526	917.75
618.975	929.75
619.424	893.75
619.873	895.75
620.322	861.75
620.771	897.75
621.22	878.75
621.669	852.75
622.118	865.75
622.567	844.75
623.015	820.75
623.464	849.75
623.913	809.75
624.361	805.75
624.81	807.75
625.259	804.75
625.707	819.75
626.156	816.75
626.604	817.75
627.053	822.75
627.501	809.75
627.95	841.75
628.398	844.75
628.847	850.75
629.295	822.75
629.744	802.75
630.192	807.75
630.64	781.75
631.089	786.75
631.537	776.75
631.985	767.75
632.433	797.75
632.881	747.75
633.33	788.75
633.778	755.75
634.226	775.75
634.674	794.75
635.122	786.75
635.57	815.75
636.018	808.75
636.466	791.75
636.914	824.75
637.362	813.75
637.81	800.75
638.258	843.75
638.705	853.75
639.153	897.75
639.601	864.75
640.049	909.75
640.497	908.75
640.944	914.75
641.392	916.75
641.84	908.75
642.287	834.75
642.735	817.75
643.182	825.75
643.63	812.75
644.078	825.75
644.525	787.75
644.973	827.75
645.42	843.75
645.867	866.75
646.315	845.75
646.762	908.75
647.21	915.75
647.657	993.75
648.104	1010.75
648.551	1015.75
648.999	1056.75
649.446	1170.75
649.893	1255.75
650.34	1431.75
650.787	1652.75
651.234	2083.75
651.682	2745.75
652.129	3787.75
652.576	5307.75
653.023	7203.75
653.47	8951.75
653.917	9813.75
654.363	10451.75
654.81	11153.75
655.257	11620.75
655.704	8817.75
656.151	5407.75
656.598	3451.75
657.044	2455.75
657.491	1935.75
657.938	1591.75
658.385	1358.75
658.831	1211.75
659.278	1091.75
659.724	1012.75
660.171	936.75
660.618	888.75
661.064	859.75
661.511	805.75
661.957	795.75
662.404	769.75
662.85	788.75
663.296	728.75
663.743	724.75
664.189	773.75
664.635	763.75
665.082	753.75
665.528	713.75
665.974	715.75
666.42	696.75
666.867	685.75
667.313	682.75
667.759	670.75
668.205	667.75
668.651	663.75
669.097	648.75
669.543	663.75
669.989	667.75
670.435	640.75
670.881	654.75
671.327	681.75
671.773	728.75
672.219	753.75
672.665	825.75
673.11	811.75
673.556	871.75
674.002	845.75
674.448	876.75
674.893	803.75
675.339	715.75
675.785	647.75
676.23	607.75
676.676	588.75
677.122	558.75
677.567	573.75
678.013	562.75
678.458	556.75
678.904	543.75
679.349	533.75
679.794	521.75
680.24	518.75
680.685	523.75
681.131	524.75
681.576	529.75
682.021	531.75
682.466	542.75
682.912	559.75
683.357	549.75
683.802	589.75
684.247	617.75
684.692	684.75
685.137	704.75
685.583	730.75
686.028	755.75
686.473	749.75
686.918	675.75
687.363	608.75
687.807	581.75
688.252	550.75
688.697	541.75
689.142	511.75
689.587	502.75
690.032	540.75
690.477	545.75
690.921	517.75
691.366	575.75
691.811	589.75
692.255	630.75
692.7	729.75
693.145	901.75
693.589	1379.75
694.034	1833.75
694.478	2015.75
694.923	1833.75
695.367	2251.75
695.812	2115.75
696.256	884.75
696.701	618.75
697.145	535.75
697.59	488.75
698.034	539.75
698.478	492.75
698.922	474.75
699.367	492.75
699.811	519.75
700.255	537.75
700.699	590.75
701.143	645.75
701.588	687.75
702.032	696.75
702.476	746.75
702.92	747.75
703.364	877.75
703.808	1232.75
704.252	1708.75
704.696	1873.75
705.14	1723.75
705.584	2211.75
706.027	1831.75
706.471	871.75
706.915	643.75
707.359	498.75
707.803	505.75
708.246	484.75
708.69	479.75
709.134	481.75
709.577	476.75
710.021	468.75
710.465	461.75
710.908	459.75
711.352	486.75
711.795	523.75
712.239	574.75
712.682	592.75
713.126	561.75
713.569	594.75
714.012	569.75
714.456	493.75
714.899	471.75
715.342	430.75
715.786	428.75
716.229	395.75
716.672	395.75
717.115	413.75
717.558	409.75
718.002	409.75
718.445	436.75
718.888	425.75
719.331	477.75
719.774	481.75
720.217	493.75
720.66	436.75
721.103	425.75
721.546	385.75
721.989	404.75
722.432	397.75
722.874	378.75
723.317	406.75
723.76	378.75
724.203	468.75
724.645	590.75
725.088	712.75
725.531	745.75
725.974	710.75
726.416	773.75
726.859	524.75
727.301	404.75
727.744	385.75
728.187	378.75
728.629	394.75
729.071	397.75
729.514	420.75
729.956	439.75
730.399	424.75
730.841	472.75
731.283	441.75
731.726	409.75
732.168	410.75
732.61	425.75
733.053	452.75
733.495	493.75
733.937	523.75
734.379	627.75
734.821	741.75
735.263	956.75
735.705	1645.75
736.148	2651.75
736.59	3029.75
737.032	2974.75
737.474	3180.75
737.916	1589.75
738.357	759.75
738.799	545.75
739.241	481.75
739.683	454.75
740.125	479.75
740.567	495.75
741.008	495.75
741.45	516.75
741.892	527.75
742.334	546.75
742.775	547.75
743.217	553.75
743.658	485.75
744.1	463.75
744.542	508.75
744.983	537.75
745.425	538.75
745.866	589.75
746.307	479.75
746.749	485.75
