Data from 20170802-ORNL-NYSim-Air_HRD10391_10-37-11-629.txt Node
Date: Wed Aug 02 10:37:11 EDT 2017
User: Ender
Spectrometer: HR+D1039
Trigger mode: 0
Integration Time (sec): 1.510000E-3
Scans to average: 1
Electric dark correction enabled: true
Nonlinearity correction enabled: false
Boxcar width: 0
XAxis mode: Wavelengths
Number of Pixels in Spectrum: 2048
>>>>>Begin Spectral Data<<<<<
187.836	12.69
188.309	12.69
188.782	12.69
189.255	-2.31
189.728	0.69
190.201	-6.31
190.674	-7.31
191.147	-4.31
191.619	-4.31
192.092	-23.31
192.565	4.69
193.038	-13.31
193.511	6.69
193.984	-11.31
194.456	2.69
194.929	8.69
195.402	16.69
195.874	19.69
196.347	15.69
196.82	19.69
197.292	41.69
197.765	12.69
198.237	29.69
198.71	42.69
199.182	37.69
199.655	56.69
200.127	56.69
200.6	49.69
201.072	71.69
201.544	63.69
202.017	43.69
202.489	71.69
202.961	53.69
203.433	70.69
203.906	68.69
204.378	90.69
204.85	77.69
205.322	76.69
205.794	70.69
206.266	85.69
206.739	64.69
207.211	77.69
207.683	82.69
208.155	75.69
208.627	69.69
209.099	80.69
209.57	81.69
210.042	73.69
210.514	81.69
210.986	87.69
211.458	94.69
211.93	96.69
212.402	80.69
212.873	74.69
213.345	80.69
213.817	90.69
214.288	95.69
214.76	83.69
215.232	93.69
215.703	77.69
216.175	88.69
216.646	74.69
217.118	66.69
217.589	87.69
218.061	88.69
218.532	70.69
219.004	90.69
219.475	67.69
219.946	69.69
220.418	74.69
220.889	85.69
221.36	74.69
221.832	77.69
222.303	79.69
222.774	60.69
223.245	85.69
223.717	78.69
224.188	78.69
224.659	83.69
225.13	71.69
225.601	64.69
226.072	82.69
226.543	75.69
227.014	70.69
227.485	74.69
227.956	72.69
228.427	78.69
228.898	76.69
229.369	92.69
229.839	75.69
230.31	74.69
230.781	71.69
231.252	76.69
231.722	79.69
232.193	76.69
232.664	72.69
233.135	74.69
233.605	76.69
234.076	79.69
234.546	67.69
235.017	82.69
235.487	73.69
235.958	92.69
236.428	89.69
236.899	70.69
237.369	65.69
237.84	80.69
238.31	68.69
238.78	70.69
239.251	97.69
239.721	88.69
240.191	69.69
240.662	62.69
241.132	82.69
241.602	82.69
242.072	69.69
242.542	78.69
243.013	94.69
243.483	84.69
243.953	78.69
244.423	87.69
244.893	78.69
245.363	89.69
245.833	95.69
246.303	83.69
246.773	74.69
247.243	90.69
247.712	91.69
248.182	70.69
248.652	88.69
249.122	81.69
249.592	70.69
250.061	86.69
250.531	97.69
251.001	101.69
251.471	78.69
251.94	90.69
252.41	92.69
252.879	84.69
253.349	77.69
253.818	92.69
254.288	89.69
254.757	95.69
255.227	92.69
255.696	100.69
256.166	100.69
256.635	88.69
257.105	88.69
257.574	94.69
258.043	90.69
258.513	94.69
258.982	100.69
259.451	90.69
259.92	96.69
260.389	98.69
260.859	89.69
261.328	81.69
261.797	98.69
262.266	84.69
262.735	97.69
263.204	88.69
263.673	101.69
264.142	103.69
264.611	104.69
265.08	94.69
265.549	96.69
266.018	110.69
266.487	87.69
266.955	103.69
267.424	100.69
267.893	102.69
268.362	92.69
268.83	93.69
269.299	87.69
269.768	98.69
270.236	95.69
270.705	110.69
271.174	92.69
271.642	106.69
272.111	91.69
272.579	88.69
273.048	103.69
273.516	106.69
273.985	102.69
274.453	105.69
274.922	98.69
275.39	113.69
275.858	118.69
276.327	95.69
276.795	102.69
277.263	97.69
277.731	94.69
278.2	118.69
278.668	118.69
279.136	106.69
279.604	90.69
280.072	101.69
280.54	103.69
281.008	82.69
281.477	97.69
281.945	103.69
282.413	106.69
282.881	98.69
283.348	97.69
283.816	108.69
284.284	110.69
284.752	108.69
285.22	105.69
285.688	110.69
286.156	117.69
286.623	118.69
287.091	104.69
287.559	101.69
288.026	120.69
288.494	120.69
288.962	112.69
289.429	112.69
289.897	103.69
290.364	112.69
290.832	120.69
291.3	113.69
291.767	119.69
292.234	110.69
292.702	94.69
293.169	118.69
293.637	114.69
294.104	116.69
294.571	122.69
295.039	103.69
295.506	130.69
295.973	128.69
296.44	110.69
296.908	114.69
297.375	130.69
297.842	116.69
298.309	130.69
298.776	129.69
299.243	110.69
299.71	113.69
300.177	102.69
300.644	113.69
301.111	104.69
301.578	135.69
302.045	117.69
302.512	124.69
302.979	107.69
303.446	116.69
303.913	129.69
304.379	136.69
304.846	134.69
305.313	129.69
305.78	135.69
306.246	148.69
306.713	127.69
307.18	138.69
307.646	123.69
308.113	138.69
308.579	120.69
309.046	140.69
309.512	142.69
309.979	128.69
310.445	120.69
310.912	135.69
311.378	151.69
311.845	146.69
312.311	141.69
312.777	141.69
313.244	112.69
313.71	148.69
314.176	126.69
314.642	164.69
315.109	144.69
315.575	150.69
316.041	150.69
316.507	136.69
316.973	145.69
317.439	145.69
317.905	143.69
318.371	144.69
318.837	157.69
319.303	140.69
319.769	160.69
320.235	150.69
320.701	154.69
321.167	168.69
321.633	158.69
322.099	142.69
322.564	160.69
323.03	151.69
323.496	154.69
323.962	162.69
324.427	168.69
324.893	161.69
325.359	142.69
325.824	154.69
326.29	162.69
326.755	187.69
327.221	172.69
327.686	157.69
328.152	167.69
328.617	184.69
329.083	148.69
329.548	167.69
330.014	150.69
330.479	159.69
330.944	148.69
331.41	167.69
331.875	173.69
332.34	160.69
332.805	146.69
333.271	178.69
333.736	189.69
334.201	186.69
334.666	182.69
335.131	185.69
335.596	185.69
336.061	188.69
336.526	158.69
336.991	172.69
337.456	155.69
337.921	164.69
338.386	185.69
338.851	166.69
339.316	160.69
339.781	166.69
340.246	184.69
340.711	173.69
341.175	165.69
341.64	162.69
342.105	175.69
342.569	183.69
343.034	185.69
343.499	196.69
343.963	184.69
344.428	193.69
344.893	199.69
345.357	194.69
345.822	176.69
346.286	207.69
346.751	196.69
347.215	207.69
347.679	207.69
348.144	183.69
348.608	230.69
349.073	220.69
349.537	217.69
350.001	220.69
350.465	197.69
350.93	207.69
351.394	227.69
351.858	231.69
352.322	228.69
352.786	214.69
353.25	198.69
353.715	212.69
354.179	236.69
354.643	219.69
355.107	224.69
355.571	230.69
356.035	240.69
356.498	222.69
356.962	232.69
357.426	243.69
357.89	218.69
358.354	234.69
358.818	229.69
359.281	216.69
359.745	219.69
360.209	227.69
360.673	246.69
361.136	213.69
361.6	206.69
362.064	227.69
362.527	241.69
362.991	212.69
363.454	234.69
363.918	241.69
364.381	248.69
364.845	231.69
365.308	230.69
365.772	233.69
366.235	241.69
366.698	245.69
367.162	246.69
367.625	245.69
368.088	250.69
368.552	228.69
369.015	251.69
369.478	248.69
369.941	241.69
370.404	261.69
370.867	254.69
371.331	232.69
371.794	246.69
372.257	255.69
372.72	267.69
373.183	279.69
373.646	251.69
374.109	263.69
374.572	258.69
375.035	258.69
375.497	288.69
375.96	270.69
376.423	268.69
376.886	267.69
377.349	291.69
377.811	262.69
378.274	282.69
378.737	291.69
379.199	286.69
379.662	288.69
380.125	283.69
380.587	301.69
381.05	304.69
381.512	306.69
381.975	330.69
382.437	305.69
382.9	295.69
383.362	309.69
383.825	304.69
384.287	307.69
384.75	295.69
385.212	291.69
385.674	310.69
386.136	333.69
386.599	322.69
387.061	297.69
387.523	298.69
387.985	325.69
388.447	323.69
388.91	324.69
389.372	328.69
389.834	346.69
390.296	316.69
390.758	320.69
391.22	314.69
391.682	318.69
392.144	339.69
392.606	335.69
393.068	329.69
393.529	342.69
393.991	335.69
394.453	332.69
394.915	315.69
395.377	324.69
395.838	320.69
396.3	332.69
396.762	330.69
397.224	316.69
397.685	354.69
398.147	328.69
398.608	348.69
399.07	354.69
399.531	350.69
399.993	342.69
400.454	350.69
400.916	369.69
401.377	357.69
401.839	360.69
402.3	366.69
402.762	380.69
403.223	379.69
403.684	406.69
404.145	386.69
404.607	374.69
405.068	373.69
405.529	375.69
405.99	397.69
406.451	385.69
406.913	366.69
407.374	380.69
407.835	380.69
408.296	392.69
408.757	402.69
409.218	406.69
409.679	368.69
410.14	406.69
410.601	415.69
411.062	408.69
411.522	439.69
411.983	437.69
412.444	400.69
412.905	406.69
413.366	424.69
413.826	452.69
414.287	494.69
414.748	561.69
415.208	587.69
415.669	479.69
416.13	460.69
416.59	508.69
417.051	498.69
417.511	476.69
417.972	521.69
418.432	553.69
418.893	598.69
419.353	605.69
419.814	470.69
420.274	408.69
420.734	416.69
421.195	448.69
421.655	446.69
422.115	436.69
422.576	459.69
423.036	432.69
423.496	452.69
423.956	470.69
424.416	510.69
424.876	537.69
425.336	544.69
425.797	548.69
426.257	536.69
426.717	504.69
427.177	450.69
427.637	478.69
428.097	514.69
428.556	536.69
429.016	550.69
429.476	570.69
429.936	549.69
430.396	520.69
430.856	550.69
431.315	577.69
431.775	577.69
432.235	625.69
432.694	640.69
433.154	607.69
433.614	591.69
434.073	598.69
434.533	558.69
434.993	517.69
435.452	504.69
435.912	512.69
436.371	498.69
436.83	518.69
437.29	490.69
437.749	487.69
438.209	474.69
438.668	466.69
439.127	475.69
439.587	497.69
440.046	499.69
440.505	491.69
440.964	475.69
441.424	510.69
441.883	535.69
442.342	484.69
442.801	473.69
443.26	449.69
443.719	498.69
444.178	453.69
444.637	475.69
445.096	488.69
445.555	481.69
446.014	478.69
446.473	464.69
446.932	469.69
447.391	486.69
447.849	499.69
448.308	488.69
448.767	477.69
449.226	513.69
449.685	485.69
450.143	526.69
450.602	501.69
451.061	494.69
451.519	492.69
451.978	517.69
452.436	508.69
452.895	518.69
453.353	486.69
453.812	482.69
454.27	490.69
454.729	484.69
455.187	508.69
455.646	493.69
456.104	495.69
456.562	490.69
457.021	486.69
457.479	503.69
457.937	500.69
458.395	534.69
458.854	526.69
459.312	522.69
459.77	511.69
460.228	521.69
460.686	512.69
461.144	523.69
461.602	516.69
462.06	544.69
462.518	520.69
462.976	526.69
463.434	522.69
463.892	542.69
464.35	555.69
464.808	563.69
465.266	557.69
465.724	562.69
466.181	571.69
466.639	558.69
467.097	595.69
467.555	625.69
468.012	620.69
468.47	569.69
468.928	633.69
469.385	657.69
469.843	633.69
470.3	638.69
470.758	644.69
471.215	658.69
471.673	682.69
472.13	711.69
472.588	695.69
473.045	696.69
473.503	695.69
473.96	744.69
474.417	758.69
474.875	766.69
475.332	771.69
475.789	813.69
476.246	837.69
476.704	859.69
477.161	910.69
477.618	936.69
478.075	975.69
478.532	1015.69
478.989	1086.69
479.446	1157.69
479.903	1202.69
480.36	1347.69
480.817	1382.69
481.274	1442.69
481.731	1604.69
482.188	1698.69
482.645	1786.69
483.102	1948.69
483.558	2018.69
484.015	2181.69
484.472	2180.69
484.929	2106.69
485.385	2044.69
485.842	1998.69
486.299	1919.69
486.755	1770.69
487.212	1641.69
487.668	1480.69
488.125	1378.69
488.582	1263.69
489.038	1241.69
489.494	1201.69
489.951	1157.69
490.407	1162.69
490.864	1152.69
491.32	1121.69
491.776	1095.69
492.233	1092.69
492.689	1066.69
493.145	1065.69
493.602	1060.69
494.058	1100.69
494.514	1061.69
494.97	1033.69
495.426	1067.69
495.882	1066.69
496.338	1069.69
496.794	1052.69
497.251	1086.69
497.707	1096.69
498.163	1076.69
498.618	1091.69
499.074	1056.69
499.53	1112.69
499.986	1100.69
500.442	1093.69
500.898	1079.69
501.354	1081.69
501.809	1091.69
502.265	1072.69
502.721	1122.69
503.177	1101.69
503.632	1104.69
504.088	1126.69
504.543	1106.69
504.999	1141.69
505.455	1111.69
505.91	1078.69
506.366	1138.69
506.821	1118.69
507.277	1125.69
507.732	1106.69
508.187	1128.69
508.643	1136.69
509.098	1126.69
509.553	1134.69
510.009	1139.69
510.464	1177.69
510.919	1179.69
511.375	1178.69
511.83	1198.69
512.285	1221.69
512.74	1213.69
513.195	1266.69
513.65	1281.69
514.105	1330.69
514.56	1337.69
515.015	1313.69
515.47	1345.69
515.925	1344.69
516.38	1290.69
516.835	1289.69
517.29	1327.69
517.745	1329.69
518.2	1305.69
518.655	1268.69
519.109	1262.69
519.564	1232.69
520.019	1199.69
520.474	1218.69
520.928	1226.69
521.383	1196.69
521.838	1174.69
522.292	1205.69
522.747	1209.69
523.201	1174.69
523.656	1172.69
524.11	1179.69
524.565	1179.69
525.019	1173.69
525.474	1174.69
525.928	1166.69
526.382	1203.69
526.837	1182.69
527.291	1153.69
527.745	1140.69
528.2	1144.69
528.654	1154.69
529.108	1146.69
529.562	1134.69
530.016	1138.69
530.47	1155.69
530.925	1182.69
531.379	1150.69
531.833	1141.69
532.287	1149.69
532.741	1135.69
533.195	1152.69
533.649	1169.69
534.103	1172.69
534.556	1192.69
535.01	1144.69
535.464	1154.69
535.918	1196.69
536.372	1184.69
536.826	1179.69
537.279	1191.69
537.733	1173.69
538.187	1157.69
538.64	1142.69
539.094	1140.69
539.548	1196.69
540.001	1183.69
540.455	1186.69
540.908	1195.69
541.362	1189.69
541.815	1232.69
542.269	1237.69
542.722	1266.69
543.175	1294.69
543.629	1242.69
544.082	1269.69
544.536	1278.69
544.989	1280.69
545.442	1288.69
545.895	1277.69
546.349	1302.69
546.802	1265.69
547.255	1307.69
547.708	1286.69
548.161	1284.69
548.614	1316.69
549.067	1297.69
549.52	1327.69
549.973	1272.69
550.426	1302.69
550.879	1275.69
551.332	1285.69
551.785	1308.69
552.238	1286.69
552.691	1303.69
553.144	1320.69
553.596	1367.69
554.049	1391.69
554.502	1350.69
554.955	1447.69
555.407	1424.69
555.86	1410.69
556.313	1410.69
556.765	1359.69
557.218	1316.69
557.67	1367.69
558.123	1359.69
558.576	1355.69
559.028	1382.69
559.48	1350.69
559.933	1323.69
560.385	1357.69
560.838	1325.69
561.29	1272.69
561.742	1259.69
562.195	1214.69
562.647	1232.69
563.099	1190.69
563.551	1206.69
564.004	1179.69
564.456	1200.69
564.908	1158.69
565.36	1192.69
565.812	1145.69
566.264	1126.69
566.716	1138.69
567.168	1105.69
567.62	1098.69
568.072	1101.69
568.524	1078.69
568.976	1060.69
569.428	1080.69
569.88	1074.69
570.332	1066.69
570.784	1093.69
571.235	1081.69
571.687	1073.69
572.139	1078.69
572.59	1074.69
573.042	1109.69
573.494	1074.69
573.945	1076.69
574.397	1083.69
574.849	1073.69
575.3	1058.69
575.752	1050.69
576.203	1084.69
576.655	1068.69
577.106	1032.69
577.557	1031.69
578.009	1040.69
578.46	1038.69
578.912	1027.69
579.363	1006.69
579.814	1024.69
580.265	1040.69
580.717	1054.69
581.168	999.69
581.619	1024.69
582.07	996.69
582.521	1034.69
582.972	1015.69
583.423	1020.69
583.875	1044.69
584.326	1053.69
584.777	1057.69
585.227	1061.69
585.678	1056.69
586.129	1076.69
586.58	1083.69
587.031	1101.69
587.482	1134.69
587.933	1182.69
588.384	1166.69
588.834	1130.69
589.285	1134.69
589.736	1148.69
590.186	1148.69
590.637	1147.69
591.088	1143.69
591.538	1081.69
591.989	1081.69
592.439	1062.69
592.89	1070.69
593.34	1040.69
593.791	1046.69
594.241	1029.69
594.692	1040.69
595.142	1040.69
595.593	1015.69
596.043	1088.69
596.493	1071.69
596.943	1039.69
597.394	1066.69
597.844	1089.69
598.294	1089.69
598.744	1133.69
599.195	1186.69
599.645	1250.69
600.095	1275.69
600.545	1332.69
600.995	1408.69
601.445	1438.69
601.895	1524.69
602.345	1553.69
602.795	1556.69
603.245	1534.69
603.695	1410.69
604.145	1375.69
604.594	1329.69
605.044	1240.69
605.494	1170.69
605.944	1098.69
606.393	1104.69
606.843	1043.69
607.293	1026.69
607.743	1056.69
608.192	1052.69
608.642	1084.69
609.091	1064.69
609.541	1034.69
609.99	1049.69
610.44	1058.69
610.889	1068.69
611.339	1015.69
611.788	986.69
612.238	1000.69
612.687	993.69
613.136	1000.69
613.586	1018.69
614.035	1028.69
614.484	1006.69
614.933	1028.69
615.383	1014.69
615.832	978.69
616.281	972.69
616.73	955.69
617.179	929.69
617.628	892.69
618.077	929.69
618.526	877.69
618.975	908.69
619.424	895.69
619.873	883.69
620.322	861.69
620.771	879.69
621.22	866.69
621.669	848.69
622.118	832.69
622.567	844.69
623.015	828.69
623.464	837.69
623.913	810.69
624.361	815.69
624.81	827.69
625.259	790.69
625.707	791.69
626.156	796.69
626.604	833.69
627.053	833.69
627.501	813.69
627.95	836.69
628.398	830.69
628.847	834.69
629.295	823.69
629.744	814.69
630.192	786.69
630.64	787.69
631.089	795.69
631.537	766.69
631.985	776.69
632.433	758.69
632.881	748.69
633.33	774.69
633.778	754.69
634.226	737.69
634.674	766.69
635.122	797.69
635.57	790.69
636.018	785.69
636.466	780.69
636.914	785.69
637.362	810.69
637.81	828.69
638.258	829.69
638.705	834.69
639.153	860.69
639.601	849.69
640.049	879.69
640.497	914.69
640.944	931.69
641.392	928.69
641.84	866.69
642.287	825.69
642.735	816.69
643.182	810.69
643.63	808.69
644.078	807.69
644.525	820.69
644.973	849.69
645.42	809.69
645.867	868.69
646.315	878.69
646.762	930.69
647.21	951.69
647.657	992.69
648.104	1004.69
648.551	1035.69
648.999	1109.69
649.446	1161.69
649.893	1258.69
650.34	1450.69
650.787	1742.69
651.234	2133.69
651.682	2848.69
652.129	3917.69
652.576	5552.69
653.023	7595.69
653.47	9362.69
653.917	10416.69
654.363	11134.69
654.81	11653.69
655.257	12097.69
655.704	9196.69
656.151	5575.69
656.598	3608.69
657.044	2549.69
657.491	2020.69
657.938	1667.69
658.385	1402.69
658.831	1244.69
659.278	1152.69
659.724	1028.69
660.171	943.69
660.618	897.69
661.064	868.69
661.511	808.69
661.957	794.69
662.404	814.69
662.85	774.69
663.296	750.69
663.743	759.69
664.189	754.69
664.635	769.69
665.082	754.69
665.528	719.69
665.974	707.69
666.42	673.69
666.867	672.69
667.313	675.69
667.759	654.69
668.205	630.69
668.651	638.69
669.097	646.69
669.543	664.69
669.989	657.69
670.435	650.69
670.881	678.69
671.327	658.69
671.773	706.69
672.219	774.69
672.665	795.69
673.11	828.69
673.556	840.69
674.002	861.69
674.448	876.69
674.893	811.69
675.339	667.69
675.785	651.69
676.23	607.69
676.676	576.69
677.122	586.69
677.567	534.69
678.013	559.69
678.458	558.69
678.904	515.69
679.349	512.69
679.794	498.69
680.24	517.69
680.685	519.69
681.131	520.69
681.576	510.69
682.021	534.69
682.466	529.69
682.912	531.69
683.357	535.69
683.802	581.69
684.247	632.69
684.692	664.69
685.137	686.69
685.583	733.69
686.028	713.69
686.473	740.69
686.918	624.69
687.363	585.69
687.807	578.69
688.252	532.69
688.697	524.69
689.142	529.69
689.587	533.69
690.032	506.69
690.477	543.69
690.921	533.69
691.366	580.69
691.811	584.69
692.255	618.69
692.7	684.69
693.145	868.69
693.589	1317.69
694.034	1737.69
694.478	1902.69
694.923	1790.69
695.367	2218.69
695.812	2019.69
696.256	860.69
696.701	569.69
697.145	531.69
697.59	514.69
698.034	493.69
698.478	500.69
698.922	488.69
699.367	508.69
699.811	514.69
700.255	561.69
700.699	561.69
701.143	644.69
701.588	669.69
702.032	700.69
702.476	714.69
702.92	738.69
703.364	839.69
703.808	1227.69
704.252	1658.69
704.696	1836.69
705.14	1692.69
705.584	2174.69
706.027	1786.69
706.471	868.69
706.915	615.69
707.359	536.69
707.803	535.69
708.246	484.69
708.69	490.69
709.134	480.69
709.577	456.69
710.021	476.69
710.465	456.69
710.908	456.69
711.352	464.69
711.795	498.69
712.239	546.69
712.682	576.69
713.126	594.69
713.569	586.69
714.012	560.69
714.456	472.69
714.899	484.69
715.342	429.69
715.786	409.69
716.229	399.69
716.672	406.69
717.115	389.69
717.558	392.69
718.002	416.69
718.445	412.69
718.888	438.69
719.331	433.69
719.774	437.69
720.217	451.69
720.66	414.69
721.103	439.69
721.546	390.69
721.989	394.69
722.432	378.69
722.874	367.69
723.317	386.69
723.76	390.69
724.203	440.69
724.645	566.69
725.088	700.69
725.531	723.69
725.974	731.69
726.416	754.69
726.859	518.69
727.301	413.69
727.744	378.69
728.187	358.69
728.629	381.69
729.071	376.69
729.514	384.69
729.956	396.69
730.399	436.69
730.841	451.69
731.283	396.69
731.726	417.69
732.168	422.69
732.61	431.69
733.053	453.69
733.495	503.69
733.937	542.69
734.379	596.69
734.821	700.69
735.263	918.69
735.705	1567.69
736.148	2644.69
736.59	3096.69
737.032	2842.69
737.474	3068.69
737.916	1516.69
738.357	770.69
738.799	511.69
739.241	488.69
739.683	445.69
740.125	478.69
740.567	480.69
741.008	487.69
741.45	510.69
741.892	517.69
742.334	574.69
742.775	542.69
743.217	543.69
743.658	486.69
744.1	449.69
744.542	511.69
744.983	573.69
745.425	520.69
745.866	583.69
746.307	520.69
746.749	477.69
