Data from 20170802-ORNL-NYSim-Air_HRD10391_10-36-46-619.txt Node
Date: Wed Aug 02 10:36:46 EDT 2017
User: Ender
Spectrometer: HR+D1039
Trigger mode: 0
Integration Time (sec): 1.510000E-3
Scans to average: 1
Electric dark correction enabled: true
Nonlinearity correction enabled: false
Boxcar width: 0
XAxis mode: Wavelengths
Number of Pixels in Spectrum: 2048
>>>>>Begin Spectral Data<<<<<
187.836	-9.31
188.309	-9.31
188.782	-9.31
189.255	6.69
189.728	3.69
190.201	-6.31
190.674	-12.31
191.147	-2.31
191.619	-11.31
192.092	-12.31
192.565	-1.31
193.038	13.69
193.511	6.69
193.984	3.69
194.456	2.69
194.929	2.69
195.402	1.69
195.874	13.69
196.347	31.69
196.82	27.69
197.292	33.69
197.765	35.69
198.237	51.69
198.71	39.69
199.182	60.69
199.655	52.69
200.127	52.69
200.6	48.69
201.072	61.69
201.544	80.69
202.017	88.69
202.489	79.69
202.961	65.69
203.433	63.69
203.906	66.69
204.378	75.69
204.85	69.69
205.322	77.69
205.794	91.69
206.266	73.69
206.739	77.69
207.211	66.69
207.683	77.69
208.155	77.69
208.627	109.69
209.099	81.69
209.57	97.69
210.042	85.69
210.514	85.69
210.986	91.69
211.458	90.69
211.93	70.69
212.402	90.69
212.873	66.69
213.345	81.69
213.817	80.69
214.288	93.69
214.76	81.69
215.232	83.69
215.703	83.69
216.175	100.69
216.646	91.69
217.118	80.69
217.589	89.69
218.061	91.69
218.532	82.69
219.004	93.69
219.475	74.69
219.946	84.69
220.418	77.69
220.889	71.69
221.36	82.69
221.832	81.69
222.303	94.69
222.774	76.69
223.245	90.69
223.717	95.69
224.188	82.69
224.659	55.69
225.13	76.69
225.601	84.69
226.072	79.69
226.543	93.69
227.014	75.69
227.485	76.69
227.956	83.69
228.427	70.69
228.898	81.69
229.369	73.69
229.839	68.69
230.31	103.69
230.781	78.69
231.252	81.69
231.722	68.69
232.193	82.69
232.664	70.69
233.135	96.69
233.605	78.69
234.076	78.69
234.546	101.69
235.017	83.69
235.487	87.69
235.958	81.69
236.428	77.69
236.899	88.69
237.369	85.69
237.84	86.69
238.31	81.69
238.78	69.69
239.251	90.69
239.721	85.69
240.191	88.69
240.662	76.69
241.132	93.69
241.602	79.69
242.072	88.69
242.542	82.69
243.013	76.69
243.483	80.69
243.953	87.69
244.423	74.69
244.893	77.69
245.363	92.69
245.833	79.69
246.303	80.69
246.773	97.69
247.243	96.69
247.712	97.69
248.182	85.69
248.652	100.69
249.122	94.69
249.592	83.69
250.061	101.69
250.531	87.69
251.001	92.69
251.471	84.69
251.94	96.69
252.41	89.69
252.879	93.69
253.349	107.69
253.818	95.69
254.288	93.69
254.757	86.69
255.227	103.69
255.696	89.69
256.166	106.69
256.635	102.69
257.105	96.69
257.574	93.69
258.043	96.69
258.513	85.69
258.982	96.69
259.451	76.69
259.92	98.69
260.389	82.69
260.859	97.69
261.328	84.69
261.797	87.69
262.266	101.69
262.735	91.69
263.204	109.69
263.673	97.69
264.142	103.69
264.611	102.69
265.08	107.69
265.549	105.69
266.018	105.69
266.487	105.69
266.955	104.69
267.424	90.69
267.893	92.69
268.362	96.69
268.83	99.69
269.299	104.69
269.768	100.69
270.236	122.69
270.705	92.69
271.174	107.69
271.642	106.69
272.111	113.69
272.579	101.69
273.048	108.69
273.516	101.69
273.985	112.69
274.453	123.69
274.922	118.69
275.39	113.69
275.858	96.69
276.327	113.69
276.795	110.69
277.263	115.69
277.731	119.69
278.2	105.69
278.668	117.69
279.136	112.69
279.604	113.69
280.072	104.69
280.54	109.69
281.008	105.69
281.477	104.69
281.945	95.69
282.413	106.69
282.881	105.69
283.348	110.69
283.816	110.69
284.284	84.69
284.752	115.69
285.22	109.69
285.688	109.69
286.156	124.69
286.623	115.69
287.091	105.69
287.559	112.69
288.026	97.69
288.494	108.69
288.962	119.69
289.429	134.69
289.897	101.69
290.364	117.69
290.832	106.69
291.3	126.69
291.767	119.69
292.234	107.69
292.702	126.69
293.169	105.69
293.637	124.69
294.104	135.69
294.571	116.69
295.039	107.69
295.506	123.69
295.973	112.69
296.44	125.69
296.908	126.69
297.375	131.69
297.842	117.69
298.309	127.69
298.776	107.69
299.243	121.69
299.71	131.69
300.177	110.69
300.644	129.69
301.111	126.69
301.578	121.69
302.045	133.69
302.512	122.69
302.979	139.69
303.446	134.69
303.913	127.69
304.379	133.69
304.846	127.69
305.313	121.69
305.78	132.69
306.246	147.69
306.713	130.69
307.18	129.69
307.646	145.69
308.113	140.69
308.579	135.69
309.046	145.69
309.512	137.69
309.979	146.69
310.445	141.69
310.912	147.69
311.378	162.69
311.845	142.69
312.311	139.69
312.777	151.69
313.244	153.69
313.71	154.69
314.176	133.69
314.642	155.69
315.109	131.69
315.575	150.69
316.041	138.69
316.507	139.69
316.973	139.69
317.439	145.69
317.905	158.69
318.371	123.69
318.837	164.69
319.303	153.69
319.769	143.69
320.235	183.69
320.701	165.69
321.167	166.69
321.633	149.69
322.099	142.69
322.564	164.69
323.03	165.69
323.496	168.69
323.962	159.69
324.427	174.69
324.893	162.69
325.359	144.69
325.824	153.69
326.29	164.69
326.755	169.69
327.221	168.69
327.686	147.69
328.152	167.69
328.617	163.69
329.083	181.69
329.548	172.69
330.014	164.69
330.479	180.69
330.944	169.69
331.41	161.69
331.875	161.69
332.34	181.69
332.805	167.69
333.271	161.69
333.736	168.69
334.201	175.69
334.666	184.69
335.131	187.69
335.596	204.69
336.061	199.69
336.526	197.69
336.991	172.69
337.456	196.69
337.921	179.69
338.386	180.69
338.851	181.69
339.316	173.69
339.781	199.69
340.246	180.69
340.711	189.69
341.175	177.69
341.64	164.69
342.105	182.69
342.569	191.69
343.034	198.69
343.499	184.69
343.963	182.69
344.428	197.69
344.893	191.69
345.357	181.69
345.822	184.69
346.286	202.69
346.751	213.69
347.215	204.69
347.679	201.69
348.144	208.69
348.608	216.69
349.073	220.69
349.537	214.69
350.001	220.69
350.465	240.69
350.93	223.69
351.394	209.69
351.858	235.69
352.322	199.69
352.786	249.69
353.25	223.69
353.715	226.69
354.179	227.69
354.643	238.69
355.107	239.69
355.571	236.69
356.035	224.69
356.498	211.69
356.962	248.69
357.426	224.69
357.89	233.69
358.354	237.69
358.818	204.69
359.281	241.69
359.745	220.69
360.209	245.69
360.673	229.69
361.136	244.69
361.6	222.69
362.064	240.69
362.527	257.69
362.991	261.69
363.454	254.69
363.918	241.69
364.381	239.69
364.845	262.69
365.308	254.69
365.772	243.69
366.235	234.69
366.698	251.69
367.162	243.69
367.625	247.69
368.088	231.69
368.552	247.69
369.015	249.69
369.478	246.69
369.941	267.69
370.404	258.69
370.867	257.69
371.331	289.69
371.794	259.69
372.257	268.69
372.72	254.69
373.183	241.69
373.646	241.69
374.109	270.69
374.572	279.69
375.035	281.69
375.497	273.69
375.96	297.69
376.423	298.69
376.886	291.69
377.349	302.69
377.811	305.69
378.274	295.69
378.737	281.69
379.199	281.69
379.662	289.69
380.125	317.69
380.587	300.69
381.05	315.69
381.512	319.69
381.975	317.69
382.437	297.69
382.9	309.69
383.362	308.69
383.825	311.69
384.287	327.69
384.75	326.69
385.212	309.69
385.674	305.69
386.136	320.69
386.599	335.69
387.061	309.69
387.523	325.69
387.985	319.69
388.447	354.69
388.91	333.69
389.372	325.69
389.834	332.69
390.296	358.69
390.758	339.69
391.22	329.69
391.682	328.69
392.144	329.69
392.606	346.69
393.068	348.69
393.529	332.69
393.991	366.69
394.453	341.69
394.915	346.69
395.377	329.69
395.838	345.69
396.3	344.69
396.762	342.69
397.224	350.69
397.685	356.69
398.147	346.69
398.608	355.69
399.07	336.69
399.531	353.69
399.993	372.69
400.454	384.69
400.916	352.69
401.377	379.69
401.839	363.69
402.3	400.69
402.762	381.69
403.223	404.69
403.684	409.69
404.145	391.69
404.607	365.69
405.068	377.69
405.529	377.69
405.99	396.69
406.451	400.69
406.913	398.69
407.374	413.69
407.835	402.69
408.296	405.69
408.757	393.69
409.218	444.69
409.679	399.69
410.14	423.69
410.601	434.69
411.062	436.69
411.522	428.69
411.983	416.69
412.444	450.69
412.905	463.69
413.366	441.69
413.826	461.69
414.287	496.69
414.748	590.69
415.208	596.69
415.669	511.69
416.13	474.69
416.59	467.69
417.051	474.69
417.511	498.69
417.972	517.69
418.432	588.69
418.893	604.69
419.353	604.69
419.814	494.69
420.274	469.69
420.734	441.69
421.195	466.69
421.655	441.69
422.115	462.69
422.576	470.69
423.036	460.69
423.496	452.69
423.956	471.69
424.416	514.69
424.876	578.69
425.336	543.69
425.797	551.69
426.257	558.69
426.717	561.69
427.177	512.69
427.637	537.69
428.097	539.69
428.556	537.69
429.016	597.69
429.476	594.69
429.936	608.69
430.396	582.69
430.856	614.69
431.315	637.69
431.775	643.69
432.235	658.69
432.694	681.69
433.154	656.69
433.614	633.69
434.073	624.69
434.533	589.69
434.993	557.69
435.452	544.69
435.912	518.69
436.371	553.69
436.83	531.69
437.29	535.69
437.749	505.69
438.209	499.69
438.668	513.69
439.127	507.69
439.587	503.69
440.046	489.69
440.505	507.69
440.964	514.69
441.424	523.69
441.883	551.69
442.342	493.69
442.801	506.69
443.26	498.69
443.719	499.69
444.178	483.69
444.637	492.69
445.096	488.69
445.555	503.69
446.014	487.69
446.473	494.69
446.932	503.69
447.391	495.69
447.849	513.69
448.308	497.69
448.767	503.69
449.226	511.69
449.685	507.69
450.143	549.69
450.602	529.69
451.061	499.69
451.519	514.69
451.978	511.69
452.436	505.69
452.895	490.69
453.353	489.69
453.812	492.69
454.27	535.69
454.729	515.69
455.187	513.69
455.646	510.69
456.104	506.69
456.562	519.69
457.021	517.69
457.479	514.69
457.937	502.69
458.395	536.69
458.854	533.69
459.312	516.69
459.77	557.69
460.228	541.69
460.686	534.69
461.144	548.69
461.602	553.69
462.06	554.69
462.518	522.69
462.976	538.69
463.434	555.69
463.892	583.69
464.35	544.69
464.808	574.69
465.266	546.69
465.724	607.69
466.181	598.69
466.639	586.69
467.097	615.69
467.555	633.69
468.012	590.69
468.47	629.69
468.928	624.69
469.385	655.69
469.843	668.69
470.3	656.69
470.758	681.69
471.215	679.69
471.673	683.69
472.13	733.69
472.588	732.69
473.045	733.69
473.503	727.69
473.96	767.69
474.417	770.69
474.875	795.69
475.332	829.69
475.789	875.69
476.246	893.69
476.704	912.69
477.161	937.69
477.618	952.69
478.075	1052.69
478.532	1126.69
478.989	1156.69
479.446	1245.69
479.903	1364.69
480.36	1415.69
480.817	1517.69
481.274	1626.69
481.731	1789.69
482.188	1901.69
482.645	2035.69
483.102	2162.69
483.558	2336.69
484.015	2479.69
484.472	2519.69
484.929	2387.69
485.385	2262.69
485.842	2191.69
486.299	2108.69
486.755	2015.69
487.212	1776.69
487.668	1589.69
488.125	1487.69
488.582	1376.69
489.038	1337.69
489.494	1326.69
489.951	1241.69
490.407	1164.69
490.864	1164.69
491.32	1129.69
491.776	1139.69
492.233	1161.69
492.689	1136.69
493.145	1115.69
493.602	1047.69
494.058	1071.69
494.514	1070.69
494.97	1107.69
495.426	1165.69
495.882	1104.69
496.338	1111.69
496.794	1103.69
497.251	1113.69
497.707	1146.69
498.163	1130.69
498.618	1107.69
499.074	1133.69
499.53	1139.69
499.986	1133.69
500.442	1142.69
500.898	1122.69
501.354	1104.69
501.809	1124.69
502.265	1125.69
502.721	1135.69
503.177	1113.69
503.632	1153.69
504.088	1114.69
504.543	1143.69
504.999	1142.69
505.455	1162.69
505.91	1163.69
506.366	1144.69
506.821	1143.69
507.277	1161.69
507.732	1181.69
508.187	1163.69
508.643	1165.69
509.098	1166.69
509.553	1168.69
510.009	1189.69
510.464	1217.69
510.919	1178.69
511.375	1195.69
511.83	1231.69
512.285	1269.69
512.74	1291.69
513.195	1297.69
513.65	1302.69
514.105	1312.69
514.56	1325.69
515.015	1406.69
515.47	1343.69
515.925	1351.69
516.38	1361.69
516.835	1345.69
517.29	1356.69
517.745	1383.69
518.2	1358.69
518.655	1317.69
519.109	1311.69
519.564	1288.69
520.019	1289.69
520.474	1235.69
520.928	1226.69
521.383	1258.69
521.838	1207.69
522.292	1205.69
522.747	1203.69
523.201	1220.69
523.656	1230.69
524.11	1236.69
524.565	1231.69
525.019	1199.69
525.474	1192.69
525.928	1171.69
526.382	1197.69
526.837	1191.69
527.291	1204.69
527.745	1212.69
528.2	1179.69
528.654	1197.69
529.108	1148.69
529.562	1222.69
530.016	1196.69
530.47	1209.69
530.925	1193.69
531.379	1204.69
531.833	1213.69
532.287	1166.69
532.741	1213.69
533.195	1189.69
533.649	1211.69
534.103	1177.69
534.556	1177.69
535.01	1174.69
535.464	1202.69
535.918	1196.69
536.372	1212.69
536.826	1196.69
537.279	1199.69
537.733	1184.69
538.187	1182.69
538.64	1176.69
539.094	1214.69
539.548	1216.69
540.001	1240.69
540.455	1235.69
540.908	1236.69
541.362	1230.69
541.815	1224.69
542.269	1304.69
542.722	1279.69
543.175	1286.69
543.629	1311.69
544.082	1289.69
544.536	1305.69
544.989	1302.69
545.442	1324.69
545.895	1309.69
546.349	1301.69
546.802	1342.69
547.255	1312.69
547.708	1325.69
548.161	1353.69
548.614	1345.69
549.067	1335.69
549.52	1329.69
549.973	1311.69
550.426	1313.69
550.879	1335.69
551.332	1326.69
551.785	1311.69
552.238	1368.69
552.691	1342.69
553.144	1372.69
553.596	1358.69
554.049	1428.69
554.502	1423.69
554.955	1475.69
555.407	1474.69
555.86	1388.69
556.313	1432.69
556.765	1431.69
557.218	1400.69
557.67	1431.69
558.123	1396.69
558.576	1376.69
559.028	1361.69
559.48	1385.69
559.933	1342.69
560.385	1341.69
560.838	1336.69
561.29	1284.69
561.742	1293.69
562.195	1218.69
562.647	1204.69
563.099	1284.69
563.551	1208.69
564.004	1250.69
564.456	1235.69
564.908	1236.69
565.36	1200.69
565.812	1147.69
566.264	1141.69
566.716	1147.69
567.168	1123.69
567.62	1106.69
568.072	1107.69
568.524	1122.69
568.976	1116.69
569.428	1133.69
569.88	1113.69
570.332	1101.69
570.784	1085.69
571.235	1124.69
571.687	1107.69
572.139	1101.69
572.59	1117.69
573.042	1095.69
573.494	1107.69
573.945	1112.69
574.397	1085.69
574.849	1061.69
575.3	1102.69
575.752	1047.69
576.203	1077.69
576.655	1064.69
577.106	1068.69
577.557	1086.69
578.009	1029.69
578.46	1073.69
578.912	1027.69
579.363	1055.69
579.814	1049.69
580.265	1054.69
580.717	1065.69
581.168	1035.69
581.619	1052.69
582.07	1063.69
582.521	1053.69
582.972	1055.69
583.423	1043.69
583.875	1075.69
584.326	1096.69
584.777	1081.69
585.227	1079.69
585.678	1090.69
586.129	1115.69
586.58	1135.69
587.031	1132.69
587.482	1161.69
587.933	1194.69
588.384	1166.69
588.834	1181.69
589.285	1192.69
589.736	1196.69
590.186	1182.69
590.637	1182.69
591.088	1158.69
591.538	1137.69
591.989	1118.69
592.439	1079.69
592.89	1088.69
593.34	1044.69
593.791	1027.69
594.241	1066.69
594.692	1062.69
595.142	1066.69
595.593	1057.69
596.043	1075.69
596.493	1071.69
596.943	1062.69
597.394	1108.69
597.844	1103.69
598.294	1127.69
598.744	1166.69
599.195	1234.69
599.645	1234.69
600.095	1367.69
600.545	1402.69
600.995	1444.69
601.445	1449.69
601.895	1555.69
602.345	1585.69
602.795	1613.69
603.245	1531.69
603.695	1471.69
604.145	1376.69
604.594	1323.69
605.044	1297.69
605.494	1212.69
605.944	1129.69
606.393	1104.69
606.843	1113.69
607.293	1061.69
607.743	1066.69
608.192	1066.69
608.642	1085.69
609.091	1054.69
609.541	1104.69
609.99	1086.69
610.44	1069.69
610.889	1049.69
611.339	1031.69
611.788	1026.69
612.238	1049.69
612.687	1035.69
613.136	1025.69
613.586	1049.69
614.035	1057.69
614.484	1045.69
614.933	1040.69
615.383	1057.69
615.832	1011.69
616.281	1023.69
616.73	979.69
617.179	982.69
617.628	959.69
618.077	937.69
618.526	921.69
618.975	908.69
619.424	905.69
619.873	921.69
620.322	889.69
620.771	893.69
621.22	885.69
621.669	892.69
622.118	870.69
622.567	864.69
623.015	850.69
623.464	829.69
623.913	850.69
624.361	812.69
624.81	813.69
625.259	837.69
625.707	839.69
626.156	857.69
626.604	850.69
627.053	842.69
627.501	829.69
627.95	860.69
628.398	846.69
628.847	847.69
629.295	881.69
629.744	833.69
630.192	835.69
630.64	848.69
631.089	831.69
631.537	807.69
631.985	764.69
632.433	775.69
632.881	766.69
633.33	773.69
633.778	777.69
634.226	801.69
634.674	817.69
635.122	818.69
635.57	796.69
636.018	815.69
636.466	831.69
636.914	818.69
637.362	837.69
637.81	834.69
638.258	867.69
638.705	901.69
639.153	890.69
639.601	911.69
640.049	968.69
640.497	955.69
640.944	982.69
641.392	942.69
641.84	908.69
642.287	873.69
642.735	858.69
643.182	880.69
643.63	821.69
644.078	857.69
644.525	845.69
644.973	883.69
645.42	905.69
645.867	920.69
646.315	929.69
646.762	935.69
647.21	997.69
647.657	1081.69
648.104	1067.69
648.551	1137.69
648.999	1197.69
649.446	1317.69
649.893	1446.69
650.34	1647.69
650.787	1952.69
651.234	2514.69
651.682	3348.69
652.129	4636.69
652.576	6697.69
653.023	9139.69
653.47	11217.69
653.917	12407.69
654.363	13349.69
654.81	13948.69
655.257	14481.69
655.704	11348.69
656.151	6759.69
656.598	4298.69
657.044	3055.69
657.491	2379.69
657.938	1879.69
658.385	1583.69
658.831	1391.69
659.278	1267.69
659.724	1125.69
660.171	1047.69
660.618	1002.69
661.064	893.69
661.511	879.69
661.957	885.69
662.404	862.69
662.85	825.69
663.296	810.69
663.743	809.69
664.189	781.69
664.635	778.69
665.082	783.69
665.528	773.69
665.974	759.69
666.42	713.69
666.867	729.69
667.313	710.69
667.759	685.69
668.205	684.69
668.651	671.69
669.097	653.69
669.543	671.69
669.989	679.69
670.435	659.69
670.881	683.69
671.327	697.69
671.773	753.69
672.219	790.69
672.665	847.69
673.11	876.69
673.556	865.69
674.002	893.69
674.448	892.69
674.893	859.69
675.339	686.69
675.785	645.69
676.23	612.69
676.676	591.69
677.122	598.69
677.567	569.69
678.013	561.69
678.458	547.69
678.904	535.69
679.349	539.69
679.794	541.69
680.24	563.69
680.685	512.69
681.131	535.69
681.576	516.69
682.021	569.69
682.466	542.69
682.912	545.69
683.357	574.69
683.802	617.69
684.247	641.69
684.692	669.69
685.137	702.69
685.583	737.69
686.028	745.69
686.473	771.69
686.918	664.69
687.363	617.69
687.807	569.69
688.252	544.69
688.697	553.69
689.142	547.69
689.587	517.69
690.032	536.69
690.477	515.69
690.921	525.69
691.366	588.69
691.811	608.69
692.255	621.69
692.7	716.69
693.145	895.69
693.589	1353.69
694.034	1767.69
694.478	1983.69
694.923	1805.69
695.367	2217.69
695.812	2053.69
696.256	858.69
696.701	605.69
697.145	535.69
697.59	504.69
698.034	503.69
698.478	542.69
698.922	490.69
699.367	500.69
699.811	513.69
700.255	557.69
700.699	617.69
701.143	631.69
701.588	691.69
702.032	705.69
702.476	747.69
702.92	759.69
703.364	879.69
703.808	1234.69
704.252	1648.69
704.696	1873.69
705.14	1729.69
705.584	2185.69
706.027	1816.69
706.471	860.69
706.915	631.69
707.359	550.69
707.803	513.69
708.246	526.69
708.69	465.69
709.134	464.69
709.577	473.69
710.021	467.69
710.465	473.69
710.908	461.69
711.352	459.69
711.795	489.69
712.239	541.69
712.682	599.69
713.126	583.69
713.569	614.69
714.012	561.69
714.456	489.69
714.899	463.69
715.342	450.69
715.786	431.69
716.229	436.69
716.672	429.69
717.115	418.69
717.558	408.69
718.002	427.69
718.445	437.69
718.888	451.69
719.331	448.69
719.774	471.69
720.217	461.69
720.66	451.69
721.103	435.69
721.546	391.69
721.989	407.69
722.432	401.69
722.874	372.69
723.317	370.69
723.76	411.69
724.203	443.69
724.645	566.69
725.088	667.69
725.531	738.69
725.974	708.69
726.416	759.69
726.859	546.69
727.301	411.69
727.744	394.69
728.187	378.69
728.629	386.69
729.071	412.69
729.514	422.69
729.956	427.69
730.399	446.69
730.841	418.69
731.283	450.69
731.726	427.69
732.168	437.69
732.61	431.69
733.053	485.69
733.495	511.69
733.937	551.69
734.379	605.69
734.821	708.69
735.263	982.69
735.705	1609.69
736.148	2702.69
736.59	3049.69
737.032	2857.69
737.474	3118.69
737.916	1579.69
738.357	753.69
738.799	529.69
739.241	508.69
739.683	473.69
740.125	508.69
740.567	491.69
741.008	513.69
741.45	512.69
741.892	529.69
742.334	580.69
742.775	569.69
743.217	547.69
743.658	503.69
744.1	471.69
744.542	528.69
744.983	585.69
745.425	580.69
745.866	631.69
746.307	514.69
