Data from 20170802-ORNL-NYSim-Air_HRD10391_10-37-28-639.txt Node
Date: Wed Aug 02 10:37:28 EDT 2017
User: Ender
Spectrometer: HR+D1039
Trigger mode: 0
Integration Time (sec): 1.510000E-3
Scans to average: 1
Electric dark correction enabled: true
Nonlinearity correction enabled: false
Boxcar width: 0
XAxis mode: Wavelengths
Number of Pixels in Spectrum: 2048
>>>>>Begin Spectral Data<<<<<
187.836	2.44
188.309	2.44
188.782	2.44
189.255	-4.56
189.728	0.44
190.201	-3.56
190.674	-11.56
191.147	-3.56
191.619	6.44
192.092	-6.56
192.565	-3.56
193.038	-10.56
193.511	3.44
193.984	-2.56
194.456	-0.56
194.929	9.44
195.402	16.44
195.874	8.44
196.347	28.44
196.82	14.44
197.292	37.44
197.765	43.44
198.237	35.44
198.71	28.44
199.182	36.44
199.655	49.44
200.127	46.44
200.6	62.44
201.072	62.44
201.544	53.44
202.017	66.44
202.489	65.44
202.961	70.44
203.433	78.44
203.906	75.44
204.378	85.44
204.85	78.44
205.322	97.44
205.794	91.44
206.266	74.44
206.739	81.44
207.211	96.44
207.683	91.44
208.155	77.44
208.627	69.44
209.099	70.44
209.57	76.44
210.042	86.44
210.514	79.44
210.986	64.44
211.458	94.44
211.93	85.44
212.402	80.44
212.873	82.44
213.345	77.44
213.817	93.44
214.288	86.44
214.76	102.44
215.232	66.44
215.703	78.44
216.175	81.44
216.646	95.44
217.118	95.44
217.589	88.44
218.061	74.44
218.532	58.44
219.004	74.44
219.475	86.44
219.946	65.44
220.418	85.44
220.889	73.44
221.36	94.44
221.832	89.44
222.303	93.44
222.774	80.44
223.245	83.44
223.717	66.44
224.188	82.44
224.659	74.44
225.13	71.44
225.601	90.44
226.072	85.44
226.543	93.44
227.014	67.44
227.485	56.44
227.956	84.44
228.427	83.44
228.898	84.44
229.369	86.44
229.839	80.44
230.31	68.44
230.781	73.44
231.252	87.44
231.722	84.44
232.193	77.44
232.664	67.44
233.135	104.44
233.605	66.44
234.076	89.44
234.546	86.44
235.017	96.44
235.487	72.44
235.958	92.44
236.428	67.44
236.899	79.44
237.369	89.44
237.84	102.44
238.31	86.44
238.78	89.44
239.251	88.44
239.721	86.44
240.191	78.44
240.662	86.44
241.132	69.44
241.602	85.44
242.072	78.44
242.542	93.44
243.013	96.44
243.483	96.44
243.953	87.44
244.423	94.44
244.893	90.44
245.363	94.44
245.833	88.44
246.303	92.44
246.773	80.44
247.243	108.44
247.712	81.44
248.182	102.44
248.652	69.44
249.122	86.44
249.592	96.44
250.061	88.44
250.531	96.44
251.001	96.44
251.471	96.44
251.94	89.44
252.41	98.44
252.879	103.44
253.349	92.44
253.818	84.44
254.288	78.44
254.757	99.44
255.227	88.44
255.696	85.44
256.166	116.44
256.635	85.44
257.105	76.44
257.574	90.44
258.043	87.44
258.513	88.44
258.982	83.44
259.451	94.44
259.92	102.44
260.389	104.44
260.859	99.44
261.328	79.44
261.797	92.44
262.266	91.44
262.735	91.44
263.204	89.44
263.673	100.44
264.142	92.44
264.611	81.44
265.08	94.44
265.549	106.44
266.018	93.44
266.487	107.44
266.955	109.44
267.424	104.44
267.893	100.44
268.362	98.44
268.83	114.44
269.299	90.44
269.768	106.44
270.236	106.44
270.705	106.44
271.174	99.44
271.642	104.44
272.111	94.44
272.579	88.44
273.048	105.44
273.516	114.44
273.985	96.44
274.453	92.44
274.922	113.44
275.39	114.44
275.858	92.44
276.327	112.44
276.795	105.44
277.263	120.44
277.731	82.44
278.2	81.44
278.668	94.44
279.136	123.44
279.604	115.44
280.072	92.44
280.54	109.44
281.008	97.44
281.477	110.44
281.945	101.44
282.413	102.44
282.881	102.44
283.348	98.44
283.816	108.44
284.284	107.44
284.752	101.44
285.22	106.44
285.688	105.44
286.156	96.44
286.623	126.44
287.091	127.44
287.559	100.44
288.026	118.44
288.494	125.44
288.962	121.44
289.429	112.44
289.897	122.44
290.364	110.44
290.832	120.44
291.3	91.44
291.767	113.44
292.234	120.44
292.702	118.44
293.169	128.44
293.637	126.44
294.104	118.44
294.571	129.44
295.039	100.44
295.506	128.44
295.973	112.44
296.44	122.44
296.908	123.44
297.375	123.44
297.842	113.44
298.309	120.44
298.776	130.44
299.243	126.44
299.71	126.44
300.177	129.44
300.644	124.44
301.111	120.44
301.578	140.44
302.045	130.44
302.512	116.44
302.979	126.44
303.446	132.44
303.913	132.44
304.379	122.44
304.846	124.44
305.313	143.44
305.78	139.44
306.246	128.44
306.713	130.44
307.18	150.44
307.646	129.44
308.113	145.44
308.579	122.44
309.046	147.44
309.512	126.44
309.979	129.44
310.445	141.44
310.912	151.44
311.378	135.44
311.845	136.44
312.311	150.44
312.777	134.44
313.244	131.44
313.71	134.44
314.176	144.44
314.642	152.44
315.109	134.44
315.575	126.44
316.041	148.44
316.507	144.44
316.973	147.44
317.439	156.44
317.905	153.44
318.371	142.44
318.837	147.44
319.303	139.44
319.769	152.44
320.235	152.44
320.701	160.44
321.167	151.44
321.633	154.44
322.099	164.44
322.564	145.44
323.03	156.44
323.496	140.44
323.962	144.44
324.427	152.44
324.893	154.44
325.359	148.44
325.824	136.44
326.29	161.44
326.755	154.44
327.221	178.44
327.686	167.44
328.152	177.44
328.617	164.44
329.083	158.44
329.548	171.44
330.014	154.44
330.479	156.44
330.944	165.44
331.41	154.44
331.875	173.44
332.34	162.44
332.805	173.44
333.271	165.44
333.736	183.44
334.201	182.44
334.666	170.44
335.131	170.44
335.596	170.44
336.061	178.44
336.526	167.44
336.991	152.44
337.456	164.44
337.921	184.44
338.386	194.44
338.851	164.44
339.316	170.44
339.781	178.44
340.246	172.44
340.711	178.44
341.175	169.44
341.64	174.44
342.105	178.44
342.569	178.44
343.034	183.44
343.499	188.44
343.963	189.44
344.428	176.44
344.893	194.44
345.357	201.44
345.822	204.44
346.286	192.44
346.751	204.44
347.215	182.44
347.679	191.44
348.144	205.44
348.608	204.44
349.073	180.44
349.537	201.44
350.001	236.44
350.465	214.44
350.93	224.44
351.394	217.44
351.858	230.44
352.322	224.44
352.786	210.44
353.25	214.44
353.715	190.44
354.179	217.44
354.643	230.44
355.107	224.44
355.571	246.44
356.035	240.44
356.498	236.44
356.962	225.44
357.426	224.44
357.89	253.44
358.354	234.44
358.818	216.44
359.281	215.44
359.745	234.44
360.209	210.44
360.673	225.44
361.136	221.44
361.6	218.44
362.064	238.44
362.527	222.44
362.991	223.44
363.454	202.44
363.918	212.44
364.381	226.44
364.845	230.44
365.308	248.44
365.772	255.44
366.235	232.44
366.698	260.44
367.162	256.44
367.625	246.44
368.088	250.44
368.552	239.44
369.015	239.44
369.478	252.44
369.941	246.44
370.404	252.44
370.867	248.44
371.331	243.44
371.794	246.44
372.257	242.44
372.72	258.44
373.183	247.44
373.646	267.44
374.109	245.44
374.572	281.44
375.035	257.44
375.497	284.44
375.96	270.44
376.423	262.44
376.886	264.44
377.349	247.44
377.811	260.44
378.274	253.44
378.737	263.44
379.199	273.44
379.662	258.44
380.125	261.44
380.587	272.44
381.05	281.44
381.512	303.44
381.975	303.44
382.437	306.44
382.9	301.44
383.362	294.44
383.825	283.44
384.287	293.44
384.75	294.44
385.212	298.44
385.674	280.44
386.136	302.44
386.599	293.44
387.061	322.44
387.523	297.44
387.985	300.44
388.447	296.44
388.91	307.44
389.372	314.44
389.834	315.44
390.296	305.44
390.758	310.44
391.22	321.44
391.682	326.44
392.144	320.44
392.606	328.44
393.068	318.44
393.529	344.44
393.991	344.44
394.453	341.44
394.915	324.44
395.377	321.44
395.838	350.44
396.3	319.44
396.762	314.44
397.224	334.44
397.685	333.44
398.147	317.44
398.608	331.44
399.07	335.44
399.531	339.44
399.993	350.44
400.454	332.44
400.916	364.44
401.377	366.44
401.839	363.44
402.3	343.44
402.762	368.44
403.223	398.44
403.684	369.44
404.145	376.44
404.607	365.44
405.068	334.44
405.529	338.44
405.99	390.44
406.451	364.44
406.913	379.44
407.374	365.44
407.835	349.44
408.296	380.44
408.757	422.44
409.218	383.44
409.679	392.44
410.14	380.44
410.601	395.44
411.062	403.44
411.522	401.44
411.983	393.44
412.444	403.44
412.905	410.44
413.366	445.44
413.826	449.44
414.287	491.44
414.748	525.44
415.208	564.44
415.669	493.44
416.13	409.44
416.59	447.44
417.051	466.44
417.511	501.44
417.972	531.44
418.432	510.44
418.893	596.44
419.353	562.44
419.814	450.44
420.274	433.44
420.734	420.44
421.195	422.44
421.655	390.44
422.115	405.44
422.576	443.44
423.036	435.44
423.496	436.44
423.956	435.44
424.416	496.44
424.876	530.44
425.336	540.44
425.797	516.44
426.257	535.44
426.717	471.44
427.177	462.44
427.637	474.44
428.097	482.44
428.556	474.44
429.016	528.44
429.476	537.44
429.936	546.44
430.396	551.44
430.856	546.44
431.315	536.44
431.775	584.44
432.235	627.44
432.694	634.44
433.154	582.44
433.614	593.44
434.073	557.44
434.533	533.44
434.993	512.44
435.452	528.44
435.912	515.44
436.371	504.44
436.83	500.44
437.29	498.44
437.749	455.44
438.209	470.44
438.668	477.44
439.127	513.44
439.587	451.44
440.046	478.44
440.505	458.44
440.964	474.44
441.424	512.44
441.883	493.44
442.342	484.44
442.801	463.44
443.26	457.44
443.719	482.44
444.178	487.44
444.637	468.44
445.096	469.44
445.555	454.44
446.014	453.44
446.473	472.44
446.932	484.44
447.391	475.44
447.849	468.44
448.308	460.44
448.767	476.44
449.226	495.44
449.685	518.44
450.143	528.44
450.602	504.44
451.061	489.44
451.519	489.44
451.978	471.44
452.436	459.44
452.895	466.44
453.353	481.44
453.812	460.44
454.27	479.44
454.729	482.44
455.187	474.44
455.646	476.44
456.104	504.44
456.562	498.44
457.021	518.44
457.479	475.44
457.937	494.44
458.395	507.44
458.854	487.44
459.312	504.44
459.77	504.44
460.228	491.44
460.686	502.44
461.144	484.44
461.602	497.44
462.06	520.44
462.518	502.44
462.976	522.44
463.434	534.44
463.892	536.44
464.35	551.44
464.808	517.44
465.266	532.44
465.724	552.44
466.181	561.44
466.639	550.44
467.097	576.44
467.555	610.44
468.012	587.44
468.47	602.44
468.928	590.44
469.385	648.44
469.843	616.44
470.3	607.44
470.758	653.44
471.215	675.44
471.673	658.44
472.13	671.44
472.588	674.44
473.045	687.44
473.503	714.44
473.96	766.44
474.417	731.44
474.875	768.44
475.332	794.44
475.789	828.44
476.246	814.44
476.704	828.44
477.161	859.44
477.618	886.44
478.075	929.44
478.532	983.44
478.989	1057.44
479.446	1118.44
479.903	1236.44
480.36	1282.44
480.817	1415.44
481.274	1502.44
481.731	1589.44
482.188	1727.44
482.645	1853.44
483.102	1953.44
483.558	2064.44
484.015	2181.44
484.472	2174.44
484.929	2095.44
485.385	2073.44
485.842	1977.44
486.299	1903.44
486.755	1734.44
487.212	1602.44
487.668	1455.44
488.125	1350.44
488.582	1227.44
489.038	1220.44
489.494	1200.44
489.951	1157.44
490.407	1112.44
490.864	1098.44
491.32	1052.44
491.776	1095.44
492.233	1067.44
492.689	1051.44
493.145	1004.44
493.602	1014.44
494.058	1026.44
494.514	1064.44
494.97	1030.44
495.426	1015.44
495.882	1038.44
496.338	1040.44
496.794	1076.44
497.251	1053.44
497.707	1094.44
498.163	1056.44
498.618	1052.44
499.074	1100.44
499.53	1100.44
499.986	1110.44
500.442	1104.44
500.898	1093.44
501.354	1070.44
501.809	1070.44
502.265	1053.44
502.721	1075.44
503.177	1073.44
503.632	1100.44
504.088	1100.44
504.543	1096.44
504.999	1124.44
505.455	1110.44
505.91	1101.44
506.366	1100.44
506.821	1110.44
507.277	1094.44
507.732	1103.44
508.187	1090.44
508.643	1100.44
509.098	1118.44
509.553	1117.44
510.009	1116.44
510.464	1156.44
510.919	1173.44
511.375	1184.44
511.83	1150.44
512.285	1164.44
512.74	1201.44
513.195	1267.44
513.65	1249.44
514.105	1276.44
514.56	1274.44
515.015	1302.44
515.47	1309.44
515.925	1268.44
516.38	1332.44
516.835	1292.44
517.29	1287.44
517.745	1296.44
518.2	1272.44
518.655	1281.44
519.109	1230.44
519.564	1236.44
520.019	1246.44
520.474	1239.44
520.928	1218.44
521.383	1206.44
521.838	1195.44
522.292	1158.44
522.747	1189.44
523.201	1172.44
523.656	1185.44
524.11	1158.44
524.565	1170.44
525.019	1198.44
525.474	1152.44
525.928	1138.44
526.382	1140.44
526.837	1158.44
527.291	1173.44
527.745	1161.44
528.2	1178.44
528.654	1158.44
529.108	1115.44
529.562	1140.44
530.016	1146.44
530.47	1166.44
530.925	1124.44
531.379	1165.44
531.833	1162.44
532.287	1163.44
532.741	1145.44
533.195	1182.44
533.649	1167.44
534.103	1136.44
534.556	1132.44
535.01	1164.44
535.464	1162.44
535.918	1160.44
536.372	1179.44
536.826	1164.44
537.279	1140.44
537.733	1128.44
538.187	1123.44
538.64	1139.44
539.094	1181.44
539.548	1183.44
540.001	1171.44
540.455	1188.44
540.908	1208.44
541.362	1213.44
541.815	1225.44
542.269	1225.44
542.722	1216.44
543.175	1220.44
543.629	1231.44
544.082	1275.44
544.536	1262.44
544.989	1231.44
545.442	1254.44
545.895	1289.44
546.349	1237.44
546.802	1245.44
547.255	1255.44
547.708	1278.44
548.161	1273.44
548.614	1300.44
549.067	1323.44
549.52	1282.44
549.973	1309.44
550.426	1257.44
550.879	1324.44
551.332	1306.44
551.785	1287.44
552.238	1283.44
552.691	1290.44
553.144	1338.44
553.596	1354.44
554.049	1383.44
554.502	1394.44
554.955	1419.44
555.407	1442.44
555.86	1417.44
556.313	1409.44
556.765	1379.44
557.218	1357.44
557.67	1346.44
558.123	1370.44
558.576	1347.44
559.028	1333.44
559.48	1347.44
559.933	1344.44
560.385	1317.44
560.838	1250.44
561.29	1226.44
561.742	1237.44
562.195	1203.44
562.647	1210.44
563.099	1200.44
563.551	1197.44
564.004	1214.44
564.456	1206.44
564.908	1182.44
565.36	1146.44
565.812	1110.44
566.264	1095.44
566.716	1121.44
567.168	1104.44
567.62	1107.44
568.072	1075.44
568.524	1081.44
568.976	1058.44
569.428	1062.44
569.88	1071.44
570.332	1063.44
570.784	1072.44
571.235	1076.44
571.687	1097.44
572.139	1089.44
572.59	1051.44
573.042	1088.44
573.494	1108.44
573.945	1079.44
574.397	1069.44
574.849	1068.44
575.3	1050.44
575.752	1029.44
576.203	1011.44
576.655	1041.44
577.106	1011.44
577.557	1002.44
578.009	1011.44
578.46	999.44
578.912	999.44
579.363	986.44
579.814	1011.44
580.265	999.44
580.717	1008.44
581.168	1020.44
581.619	1035.44
582.07	1039.44
582.521	1025.44
582.972	1016.44
583.423	1034.44
583.875	1015.44
584.326	1008.44
584.777	1029.44
585.227	1082.44
585.678	1059.44
586.129	1069.44
586.58	1083.44
587.031	1095.44
587.482	1114.44
587.933	1145.44
588.384	1110.44
588.834	1123.44
589.285	1139.44
589.736	1136.44
590.186	1175.44
590.637	1125.44
591.088	1121.44
591.538	1108.44
591.989	1096.44
592.439	1072.44
592.89	1048.44
593.34	1038.44
593.791	1050.44
594.241	1072.44
594.692	1040.44
595.142	1034.44
595.593	1008.44
596.043	976.44
596.493	1048.44
596.943	1014.44
597.394	1062.44
597.844	1070.44
598.294	1069.44
598.744	1134.44
599.195	1184.44
599.645	1236.44
600.095	1314.44
600.545	1338.44
600.995	1363.44
601.445	1449.44
601.895	1496.44
602.345	1523.44
602.795	1564.44
603.245	1526.44
603.695	1436.44
604.145	1372.44
604.594	1287.44
605.044	1234.44
605.494	1184.44
605.944	1122.44
606.393	1106.44
606.843	1034.44
607.293	1051.44
607.743	1041.44
608.192	1044.44
608.642	1041.44
609.091	1038.44
609.541	1068.44
609.99	1036.44
610.44	1031.44
610.889	1015.44
611.339	1027.44
611.788	997.44
612.238	998.44
612.687	990.44
613.136	984.44
613.586	1016.44
614.035	1016.44
614.484	1027.44
614.933	1053.44
615.383	1023.44
615.832	982.44
616.281	974.44
616.73	980.44
617.179	950.44
617.628	928.44
618.077	904.44
618.526	897.44
618.975	893.44
619.424	896.44
619.873	897.44
620.322	887.44
620.771	879.44
621.22	849.44
621.669	824.44
622.118	837.44
622.567	794.44
623.015	808.44
623.464	819.44
623.913	837.44
624.361	816.44
624.81	785.44
625.259	785.44
625.707	821.44
626.156	834.44
626.604	836.44
627.053	843.44
627.501	818.44
627.95	820.44
628.398	822.44
628.847	821.44
629.295	812.44
629.744	796.44
630.192	813.44
630.64	778.44
631.089	786.44
631.537	774.44
631.985	753.44
632.433	760.44
632.881	764.44
633.33	757.44
633.778	764.44
634.226	772.44
634.674	768.44
635.122	785.44
635.57	763.44
636.018	803.44
636.466	776.44
636.914	791.44
637.362	809.44
637.81	792.44
638.258	821.44
638.705	862.44
639.153	882.44
639.601	873.44
640.049	872.44
640.497	905.44
640.944	924.44
641.392	916.44
641.84	871.44
642.287	861.44
642.735	820.44
643.182	810.44
643.63	801.44
644.078	781.44
644.525	820.44
644.973	852.44
645.42	818.44
645.867	865.44
646.315	878.44
646.762	885.44
647.21	953.44
647.657	985.44
648.104	1062.44
648.551	1018.44
648.999	1073.44
649.446	1198.44
649.893	1321.44
650.34	1508.44
650.787	1772.44
651.234	2202.44
651.682	2904.44
652.129	4098.44
652.576	5646.44
653.023	7836.44
653.47	9589.44
653.917	10734.44
654.363	11196.44
654.81	11964.44
655.257	12489.44
655.704	9715.44
656.151	5738.44
656.598	3728.44
657.044	2649.44
657.491	2052.44
657.938	1705.44
658.385	1402.44
658.831	1229.44
659.278	1150.44
659.724	1006.44
660.171	969.44
660.618	905.44
661.064	874.44
661.511	841.44
661.957	822.44
662.404	795.44
662.85	761.44
663.296	768.44
663.743	744.44
664.189	752.44
664.635	735.44
665.082	732.44
665.528	768.44
665.974	729.44
666.42	704.44
666.867	690.44
667.313	678.44
667.759	663.44
668.205	644.44
668.651	632.44
669.097	650.44
669.543	642.44
669.989	689.44
670.435	666.44
670.881	653.44
671.327	664.44
671.773	685.44
672.219	710.44
672.665	804.44
673.11	828.44
673.556	838.44
674.002	845.44
674.448	882.44
674.893	805.44
675.339	683.44
675.785	659.44
676.23	608.44
676.676	584.44
677.122	570.44
677.567	543.44
678.013	517.44
678.458	528.44
678.904	520.44
679.349	506.44
679.794	522.44
680.24	524.44
680.685	522.44
681.131	519.44
681.576	512.44
682.021	536.44
682.466	542.44
682.912	516.44
683.357	511.44
683.802	601.44
684.247	636.44
684.692	669.44
685.137	680.44
685.583	714.44
686.028	763.44
686.473	718.44
686.918	653.44
687.363	563.44
687.807	545.44
688.252	557.44
688.697	526.44
689.142	505.44
689.587	517.44
690.032	515.44
690.477	554.44
690.921	554.44
691.366	560.44
691.811	581.44
692.255	611.44
692.7	690.44
693.145	904.44
693.589	1341.44
694.034	1755.44
694.478	1945.44
694.923	1786.44
695.367	2159.44
695.812	2052.44
696.256	887.44
696.701	600.44
697.145	527.44
697.59	498.44
698.034	500.44
698.478	498.44
698.922	478.44
699.367	516.44
699.811	496.44
700.255	538.44
700.699	589.44
701.143	610.44
701.588	625.44
702.032	704.44
702.476	715.44
702.92	751.44
703.364	839.44
703.808	1218.44
704.252	1642.44
704.696	1830.44
705.14	1708.44
705.584	2152.44
706.027	1753.44
706.471	868.44
706.915	594.44
707.359	511.44
707.803	489.44
708.246	483.44
708.69	451.44
709.134	454.44
709.577	440.44
710.021	469.44
710.465	450.44
710.908	450.44
711.352	466.44
711.795	506.44
712.239	543.44
712.682	538.44
713.126	572.44
713.569	586.44
714.012	549.44
714.456	460.44
714.899	460.44
715.342	435.44
715.786	426.44
716.229	402.44
716.672	388.44
717.115	382.44
717.558	378.44
718.002	404.44
718.445	427.44
718.888	439.44
719.331	448.44
719.774	470.44
720.217	446.44
720.66	442.44
721.103	420.44
721.546	399.44
721.989	393.44
722.432	352.44
722.874	386.44
723.317	389.44
723.76	390.44
724.203	438.44
724.645	560.44
725.088	657.44
725.531	703.44
725.974	687.44
726.416	734.44
726.859	499.44
727.301	384.44
727.744	373.44
728.187	342.44
728.629	372.44
729.071	401.44
729.514	420.44
729.956	432.44
730.399	445.44
730.841	428.44
731.283	414.44
731.726	422.44
732.168	402.44
732.61	440.44
733.053	455.44
733.495	516.44
733.937	528.44
734.379	582.44
734.821	690.44
735.263	946.44
735.705	1584.44
736.148	2530.44
736.59	3000.44
737.032	2774.44
737.474	3057.44
737.916	1528.44
738.357	741.44
738.799	529.44
739.241	476.44
739.683	463.44
740.125	482.44
740.567	482.44
741.008	478.44
741.45	489.44
741.892	526.44
742.334	545.44
742.775	541.44
743.217	546.44
743.658	498.44
744.1	465.44
744.542	512.44
744.983	555.44
745.425	545.44
745.866	587.44
746.307	494.44
746.749	472.44
747.19	562.44
