Data from 20170802-ORNL-NYSim-Air_HRD10391_10-36-42-615.txt Node
Date: Wed Aug 02 10:36:42 EDT 2017
User: Ender
Spectrometer: HR+D1039
Trigger mode: 0
Integration Time (sec): 1.510000E-3
Scans to average: 1
Electric dark correction enabled: true
Nonlinearity correction enabled: false
Boxcar width: 0
XAxis mode: Wavelengths
Number of Pixels in Spectrum: 2048
>>>>>Begin Spectral Data<<<<<
187.836	-1.31
188.309	-1.31
188.782	-1.31
189.255	-0.31
189.728	-12.31
190.201	-14.31
190.674	-10.31
191.147	-18.31
191.619	-0.31
192.092	-0.31
192.565	1.69
193.038	4.69
193.511	4.69
193.984	5.69
194.456	6.69
194.929	12.69
195.402	2.69
195.874	18.69
196.347	16.69
196.82	31.69
197.292	37.69
197.765	35.69
198.237	34.69
198.71	44.69
199.182	40.69
199.655	54.69
200.127	52.69
200.6	56.69
201.072	50.69
201.544	54.69
202.017	50.69
202.489	68.69
202.961	67.69
203.433	56.69
203.906	63.69
204.378	59.69
204.85	71.69
205.322	67.69
205.794	90.69
206.266	81.69
206.739	75.69
207.211	69.69
207.683	63.69
208.155	86.69
208.627	95.69
209.099	80.69
209.57	66.69
210.042	83.69
210.514	79.69
210.986	82.69
211.458	88.69
211.93	66.69
212.402	79.69
212.873	88.69
213.345	87.69
213.817	82.69
214.288	86.69
214.76	76.69
215.232	78.69
215.703	74.69
216.175	70.69
216.646	85.69
217.118	95.69
217.589	88.69
218.061	76.69
218.532	81.69
219.004	81.69
219.475	79.69
219.946	73.69
220.418	75.69
220.889	100.69
221.36	68.69
221.832	74.69
222.303	72.69
222.774	76.69
223.245	95.69
223.717	80.69
224.188	85.69
224.659	87.69
225.13	77.69
225.601	74.69
226.072	78.69
226.543	78.69
227.014	80.69
227.485	61.69
227.956	67.69
228.427	72.69
228.898	83.69
229.369	83.69
229.839	66.69
230.31	67.69
230.781	75.69
231.252	65.69
231.722	87.69
232.193	84.69
232.664	83.69
233.135	86.69
233.605	86.69
234.076	70.69
234.546	87.69
235.017	88.69
235.487	71.69
235.958	67.69
236.428	79.69
236.899	77.69
237.369	97.69
237.84	79.69
238.31	81.69
238.78	81.69
239.251	96.69
239.721	84.69
240.191	94.69
240.662	82.69
241.132	73.69
241.602	85.69
242.072	71.69
242.542	83.69
243.013	90.69
243.483	102.69
243.953	77.69
244.423	87.69
244.893	93.69
245.363	62.69
245.833	84.69
246.303	87.69
246.773	81.69
247.243	85.69
247.712	71.69
248.182	82.69
248.652	67.69
249.122	84.69
249.592	77.69
250.061	99.69
250.531	94.69
251.001	93.69
251.471	87.69
251.94	86.69
252.41	98.69
252.879	76.69
253.349	89.69
253.818	78.69
254.288	89.69
254.757	76.69
255.227	83.69
255.696	85.69
256.166	103.69
256.635	107.69
257.105	84.69
257.574	77.69
258.043	87.69
258.513	93.69
258.982	105.69
259.451	94.69
259.92	93.69
260.389	89.69
260.859	94.69
261.328	96.69
261.797	103.69
262.266	82.69
262.735	107.69
263.204	95.69
263.673	102.69
264.142	95.69
264.611	98.69
265.08	100.69
265.549	102.69
266.018	113.69
266.487	98.69
266.955	87.69
267.424	97.69
267.893	97.69
268.362	110.69
268.83	103.69
269.299	113.69
269.768	107.69
270.236	102.69
270.705	119.69
271.174	96.69
271.642	121.69
272.111	94.69
272.579	83.69
273.048	115.69
273.516	113.69
273.985	111.69
274.453	102.69
274.922	113.69
275.39	77.69
275.858	103.69
276.327	117.69
276.795	100.69
277.263	103.69
277.731	108.69
278.2	121.69
278.668	95.69
279.136	129.69
279.604	105.69
280.072	107.69
280.54	115.69
281.008	114.69
281.477	109.69
281.945	105.69
282.413	105.69
282.881	101.69
283.348	101.69
283.816	128.69
284.284	119.69
284.752	92.69
285.22	82.69
285.688	132.69
286.156	107.69
286.623	111.69
287.091	88.69
287.559	107.69
288.026	116.69
288.494	95.69
288.962	105.69
289.429	123.69
289.897	132.69
290.364	101.69
290.832	111.69
291.3	133.69
291.767	125.69
292.234	111.69
292.702	115.69
293.169	111.69
293.637	99.69
294.104	111.69
294.571	125.69
295.039	108.69
295.506	104.69
295.973	130.69
296.44	126.69
296.908	103.69
297.375	116.69
297.842	148.69
298.309	123.69
298.776	131.69
299.243	115.69
299.71	107.69
300.177	128.69
300.644	125.69
301.111	119.69
301.578	150.69
302.045	122.69
302.512	132.69
302.979	122.69
303.446	114.69
303.913	123.69
304.379	136.69
304.846	128.69
305.313	109.69
305.78	147.69
306.246	139.69
306.713	142.69
307.18	148.69
307.646	135.69
308.113	161.69
308.579	141.69
309.046	143.69
309.512	138.69
309.979	141.69
310.445	155.69
310.912	129.69
311.378	141.69
311.845	154.69
312.311	148.69
312.777	166.69
313.244	160.69
313.71	144.69
314.176	151.69
314.642	143.69
315.109	149.69
315.575	163.69
316.041	157.69
316.507	148.69
316.973	162.69
317.439	155.69
317.905	142.69
318.371	138.69
318.837	161.69
319.303	157.69
319.769	144.69
320.235	157.69
320.701	167.69
321.167	163.69
321.633	160.69
322.099	171.69
322.564	179.69
323.03	169.69
323.496	174.69
323.962	153.69
324.427	159.69
324.893	155.69
325.359	175.69
325.824	165.69
326.29	188.69
326.755	165.69
327.221	155.69
327.686	159.69
328.152	191.69
328.617	186.69
329.083	173.69
329.548	180.69
330.014	139.69
330.479	163.69
330.944	175.69
331.41	174.69
331.875	200.69
332.34	166.69
332.805	184.69
333.271	189.69
333.736	172.69
334.201	184.69
334.666	175.69
335.131	174.69
335.596	180.69
336.061	189.69
336.526	166.69
336.991	179.69
337.456	199.69
337.921	201.69
338.386	168.69
338.851	199.69
339.316	209.69
339.781	205.69
340.246	193.69
340.711	184.69
341.175	187.69
341.64	198.69
342.105	204.69
342.569	205.69
343.034	188.69
343.499	220.69
343.963	189.69
344.428	196.69
344.893	186.69
345.357	203.69
345.822	179.69
346.286	200.69
346.751	229.69
347.215	234.69
347.679	221.69
348.144	208.69
348.608	203.69
349.073	243.69
349.537	225.69
350.001	221.69
350.465	248.69
350.93	228.69
351.394	226.69
351.858	234.69
352.322	224.69
352.786	246.69
353.25	221.69
353.715	217.69
354.179	241.69
354.643	258.69
355.107	246.69
355.571	258.69
356.035	267.69
356.498	263.69
356.962	240.69
357.426	238.69
357.89	246.69
358.354	250.69
358.818	218.69
359.281	262.69
359.745	250.69
360.209	245.69
360.673	245.69
361.136	250.69
361.6	237.69
362.064	254.69
362.527	254.69
362.991	239.69
363.454	264.69
363.918	265.69
364.381	257.69
364.845	253.69
365.308	249.69
365.772	261.69
366.235	262.69
366.698	243.69
367.162	247.69
367.625	268.69
368.088	269.69
368.552	270.69
369.015	265.69
369.478	264.69
369.941	267.69
370.404	276.69
370.867	271.69
371.331	265.69
371.794	284.69
372.257	283.69
372.72	262.69
373.183	280.69
373.646	293.69
374.109	280.69
374.572	271.69
375.035	281.69
375.497	315.69
375.96	265.69
376.423	285.69
376.886	272.69
377.349	318.69
377.811	311.69
378.274	310.69
378.737	301.69
379.199	291.69
379.662	303.69
380.125	293.69
380.587	291.69
381.05	303.69
381.512	312.69
381.975	319.69
382.437	325.69
382.9	327.69
383.362	304.69
383.825	325.69
384.287	340.69
384.75	336.69
385.212	330.69
385.674	333.69
386.136	300.69
386.599	335.69
387.061	335.69
387.523	344.69
387.985	341.69
388.447	349.69
388.91	350.69
389.372	367.69
389.834	334.69
390.296	344.69
390.758	353.69
391.22	342.69
391.682	329.69
392.144	361.69
392.606	341.69
393.068	362.69
393.529	396.69
393.991	379.69
394.453	379.69
394.915	340.69
395.377	342.69
395.838	358.69
396.3	319.69
396.762	357.69
397.224	338.69
397.685	358.69
398.147	348.69
398.608	365.69
399.07	380.69
399.531	387.69
399.993	389.69
400.454	372.69
400.916	385.69
401.377	400.69
401.839	385.69
402.3	385.69
402.762	380.69
403.223	412.69
403.684	402.69
404.145	400.69
404.607	401.69
405.068	394.69
405.529	390.69
405.99	422.69
406.451	417.69
406.913	390.69
407.374	409.69
407.835	417.69
408.296	419.69
408.757	412.69
409.218	426.69
409.679	441.69
410.14	442.69
410.601	431.69
411.062	450.69
411.522	480.69
411.983	445.69
412.444	465.69
412.905	459.69
413.366	465.69
413.826	498.69
414.287	535.69
414.748	625.69
415.208	652.69
415.669	548.69
416.13	521.69
416.59	497.69
417.051	511.69
417.511	547.69
417.972	555.69
418.432	604.69
418.893	642.69
419.353	643.69
419.814	504.69
420.274	485.69
420.734	473.69
421.195	481.69
421.655	450.69
422.115	475.69
422.576	475.69
423.036	471.69
423.496	507.69
423.956	537.69
424.416	538.69
424.876	605.69
425.336	581.69
425.797	571.69
426.257	589.69
426.717	557.69
427.177	485.69
427.637	533.69
428.097	537.69
428.556	556.69
429.016	599.69
429.476	607.69
429.936	602.69
430.396	586.69
430.856	602.69
431.315	628.69
431.775	647.69
432.235	705.69
432.694	705.69
433.154	675.69
433.614	671.69
434.073	646.69
434.533	561.69
434.993	541.69
435.452	584.69
435.912	576.69
436.371	556.69
436.83	565.69
437.29	533.69
437.749	558.69
438.209	524.69
438.668	545.69
439.127	541.69
439.587	543.69
440.046	514.69
440.505	520.69
440.964	529.69
441.424	549.69
441.883	572.69
442.342	525.69
442.801	514.69
443.26	545.69
443.719	521.69
444.178	529.69
444.637	513.69
445.096	536.69
445.555	507.69
446.014	545.69
446.473	528.69
446.932	545.69
447.391	532.69
447.849	566.69
448.308	521.69
448.767	517.69
449.226	561.69
449.685	566.69
450.143	566.69
450.602	567.69
451.061	537.69
451.519	543.69
451.978	550.69
452.436	512.69
452.895	552.69
453.353	524.69
453.812	551.69
454.27	513.69
454.729	519.69
455.187	531.69
455.646	538.69
456.104	550.69
456.562	559.69
457.021	537.69
457.479	526.69
457.937	541.69
458.395	575.69
458.854	573.69
459.312	533.69
459.77	579.69
460.228	581.69
460.686	564.69
461.144	579.69
461.602	589.69
462.06	576.69
462.518	589.69
462.976	598.69
463.434	602.69
463.892	604.69
464.35	610.69
464.808	611.69
465.266	617.69
465.724	617.69
466.181	635.69
466.639	629.69
467.097	635.69
467.555	653.69
468.012	695.69
468.47	676.69
468.928	692.69
469.385	707.69
469.843	714.69
470.3	699.69
470.758	731.69
471.215	739.69
471.673	762.69
472.13	775.69
472.588	801.69
473.045	786.69
473.503	795.69
473.96	822.69
474.417	837.69
474.875	895.69
475.332	894.69
475.789	931.69
476.246	891.69
476.704	946.69
477.161	987.69
477.618	1010.69
478.075	1023.69
478.532	1121.69
478.989	1155.69
479.446	1298.69
479.903	1323.69
480.36	1451.69
480.817	1535.69
481.274	1642.69
481.731	1787.69
482.188	1875.69
482.645	1979.69
483.102	2080.69
483.558	2233.69
484.015	2304.69
484.472	2330.69
484.929	2303.69
485.385	2233.69
485.842	2146.69
486.299	2051.69
486.755	1938.69
487.212	1782.69
487.668	1590.69
488.125	1495.69
488.582	1427.69
489.038	1345.69
489.494	1324.69
489.951	1318.69
490.407	1242.69
490.864	1243.69
491.32	1189.69
491.776	1178.69
492.233	1207.69
492.689	1161.69
493.145	1182.69
493.602	1155.69
494.058	1199.69
494.514	1181.69
494.97	1197.69
495.426	1192.69
495.882	1213.69
496.338	1228.69
496.794	1198.69
497.251	1198.69
497.707	1229.69
498.163	1194.69
498.618	1220.69
499.074	1210.69
499.53	1206.69
499.986	1240.69
500.442	1213.69
500.898	1203.69
501.354	1181.69
501.809	1208.69
502.265	1203.69
502.721	1207.69
503.177	1244.69
503.632	1258.69
504.088	1219.69
504.543	1256.69
504.999	1271.69
505.455	1285.69
505.91	1265.69
506.366	1266.69
506.821	1254.69
507.277	1221.69
507.732	1253.69
508.187	1248.69
508.643	1207.69
509.098	1262.69
509.553	1273.69
510.009	1275.69
510.464	1303.69
510.919	1315.69
511.375	1333.69
511.83	1345.69
512.285	1349.69
512.74	1381.69
513.195	1395.69
513.65	1388.69
514.105	1458.69
514.56	1443.69
515.015	1445.69
515.47	1440.69
515.925	1448.69
516.38	1425.69
516.835	1479.69
517.29	1460.69
517.745	1429.69
518.2	1439.69
518.655	1403.69
519.109	1417.69
519.564	1376.69
520.019	1383.69
520.474	1390.69
520.928	1397.69
521.383	1342.69
521.838	1342.69
522.292	1334.69
522.747	1345.69
523.201	1328.69
523.656	1315.69
524.11	1293.69
524.565	1324.69
525.019	1349.69
525.474	1303.69
525.928	1290.69
526.382	1261.69
526.837	1275.69
527.291	1329.69
527.745	1304.69
528.2	1330.69
528.654	1303.69
529.108	1315.69
529.562	1289.69
530.016	1287.69
530.47	1263.69
530.925	1308.69
531.379	1285.69
531.833	1326.69
532.287	1293.69
532.741	1291.69
533.195	1308.69
533.649	1328.69
534.103	1325.69
534.556	1303.69
535.01	1299.69
535.464	1286.69
535.918	1289.69
536.372	1305.69
536.826	1309.69
537.279	1286.69
537.733	1285.69
538.187	1323.69
538.64	1309.69
539.094	1346.69
539.548	1320.69
540.001	1331.69
540.455	1287.69
540.908	1315.69
541.362	1333.69
541.815	1371.69
542.269	1387.69
542.722	1380.69
543.175	1403.69
543.629	1407.69
544.082	1442.69
544.536	1434.69
544.989	1414.69
545.442	1426.69
545.895	1429.69
546.349	1460.69
546.802	1456.69
547.255	1461.69
547.708	1489.69
548.161	1435.69
548.614	1455.69
549.067	1447.69
549.52	1438.69
549.973	1427.69
550.426	1410.69
550.879	1428.69
551.332	1477.69
551.785	1401.69
552.238	1439.69
552.691	1459.69
553.144	1452.69
553.596	1508.69
554.049	1498.69
554.502	1518.69
554.955	1566.69
555.407	1612.69
555.86	1597.69
556.313	1537.69
556.765	1517.69
557.218	1569.69
557.67	1508.69
558.123	1517.69
558.576	1499.69
559.028	1502.69
559.48	1525.69
559.933	1515.69
560.385	1474.69
560.838	1431.69
561.29	1401.69
561.742	1414.69
562.195	1383.69
562.647	1304.69
563.099	1338.69
563.551	1361.69
564.004	1324.69
564.456	1379.69
564.908	1333.69
565.36	1326.69
565.812	1276.69
566.264	1271.69
566.716	1245.69
567.168	1207.69
567.62	1199.69
568.072	1212.69
568.524	1193.69
568.976	1216.69
569.428	1173.69
569.88	1219.69
570.332	1233.69
570.784	1171.69
571.235	1211.69
571.687	1186.69
572.139	1180.69
572.59	1201.69
573.042	1226.69
573.494	1229.69
573.945	1190.69
574.397	1165.69
574.849	1186.69
575.3	1200.69
575.752	1162.69
576.203	1137.69
576.655	1177.69
577.106	1169.69
577.557	1161.69
578.009	1117.69
578.46	1171.69
578.912	1107.69
579.363	1164.69
579.814	1156.69
580.265	1134.69
580.717	1152.69
581.168	1146.69
581.619	1142.69
582.07	1163.69
582.521	1163.69
582.972	1146.69
583.423	1164.69
583.875	1137.69
584.326	1160.69
584.777	1161.69
585.227	1220.69
585.678	1265.69
586.129	1220.69
586.58	1226.69
587.031	1251.69
587.482	1269.69
587.933	1311.69
588.384	1305.69
588.834	1271.69
589.285	1264.69
589.736	1293.69
590.186	1281.69
590.637	1284.69
591.088	1221.69
591.538	1211.69
591.989	1221.69
592.439	1203.69
592.89	1202.69
593.34	1204.69
593.791	1177.69
594.241	1152.69
594.692	1151.69
595.142	1162.69
595.593	1153.69
596.043	1191.69
596.493	1171.69
596.943	1151.69
597.394	1206.69
597.844	1211.69
598.294	1261.69
598.744	1257.69
599.195	1288.69
599.645	1357.69
600.095	1460.69
600.545	1507.69
600.995	1540.69
601.445	1598.69
601.895	1661.69
602.345	1727.69
602.795	1743.69
603.245	1700.69
603.695	1575.69
604.145	1514.69
604.594	1465.69
605.044	1401.69
605.494	1342.69
605.944	1243.69
606.393	1248.69
606.843	1151.69
607.293	1184.69
607.743	1166.69
608.192	1172.69
608.642	1169.69
609.091	1183.69
609.541	1172.69
609.99	1190.69
610.44	1182.69
610.889	1128.69
611.339	1116.69
611.788	1120.69
612.238	1136.69
612.687	1122.69
613.136	1150.69
613.586	1151.69
614.035	1141.69
614.484	1140.69
614.933	1199.69
615.383	1155.69
615.832	1101.69
616.281	1050.69
616.73	1119.69
617.179	1020.69
617.628	1032.69
618.077	1004.69
618.526	966.69
618.975	1031.69
619.424	987.69
619.873	1032.69
620.322	1003.69
620.771	997.69
621.22	975.69
621.669	942.69
622.118	923.69
622.567	933.69
623.015	883.69
623.464	895.69
623.913	881.69
624.361	901.69
624.81	884.69
625.259	871.69
625.707	894.69
626.156	919.69
626.604	917.69
627.053	949.69
627.501	916.69
627.95	907.69
628.398	926.69
628.847	909.69
629.295	923.69
629.744	901.69
630.192	913.69
630.64	885.69
631.089	858.69
631.537	858.69
631.985	849.69
632.433	862.69
632.881	830.69
633.33	859.69
633.778	815.69
634.226	845.69
634.674	861.69
635.122	841.69
635.57	866.69
636.018	868.69
636.466	894.69
636.914	868.69
637.362	887.69
637.81	898.69
638.258	917.69
638.705	953.69
639.153	942.69
639.601	949.69
640.049	963.69
640.497	1014.69
640.944	1052.69
641.392	983.69
641.84	961.69
642.287	925.69
642.735	904.69
643.182	875.69
643.63	868.69
644.078	885.69
644.525	895.69
644.973	932.69
645.42	948.69
645.867	962.69
646.315	967.69
646.762	1036.69
647.21	1017.69
647.657	1089.69
648.104	1089.69
648.551	1136.69
648.999	1237.69
649.446	1270.69
649.893	1430.69
650.34	1575.69
650.787	1913.69
651.234	2327.69
651.682	3061.69
652.129	4218.69
652.576	5971.69
653.023	8207.69
653.47	9932.69
653.917	10983.69
654.363	11781.69
654.81	12425.69
655.257	12940.69
655.704	10021.69
656.151	6097.69
656.598	3966.69
657.044	2809.69
657.491	2206.69
657.938	1783.69
658.385	1563.69
658.831	1355.69
659.278	1251.69
659.724	1136.69
660.171	1057.69
660.618	1007.69
661.064	979.69
661.511	911.69
661.957	903.69
662.404	856.69
662.85	885.69
663.296	861.69
663.743	864.69
664.189	836.69
664.635	836.69
665.082	790.69
665.528	789.69
665.974	790.69
666.42	772.69
666.867	791.69
667.313	763.69
667.759	708.69
668.205	726.69
668.651	696.69
669.097	740.69
669.543	718.69
669.989	737.69
670.435	725.69
670.881	754.69
671.327	750.69
671.773	757.69
672.219	823.69
672.665	911.69
673.11	922.69
673.556	945.69
674.002	950.69
674.448	956.69
674.893	898.69
675.339	752.69
675.785	733.69
676.23	636.69
676.676	668.69
677.122	616.69
677.567	611.69
678.013	599.69
678.458	579.69
678.904	581.69
679.349	585.69
679.794	575.69
680.24	554.69
680.685	582.69
681.131	557.69
681.576	571.69
682.021	572.69
682.466	571.69
682.912	567.69
683.357	611.69
683.802	634.69
684.247	692.69
684.692	757.69
685.137	766.69
685.583	773.69
686.028	810.69
686.473	808.69
686.918	720.69
687.363	653.69
687.807	648.69
688.252	589.69
688.697	580.69
689.142	579.69
689.587	548.69
690.032	571.69
690.477	607.69
690.921	591.69
691.366	642.69
691.811	676.69
692.255	675.69
692.7	784.69
693.145	984.69
693.589	1482.69
694.034	1939.69
694.478	2212.69
694.923	2001.69
695.367	2453.69
695.812	2278.69
696.256	961.69
696.701	667.69
697.145	569.69
697.59	535.69
698.034	536.69
698.478	542.69
698.922	515.69
699.367	558.69
699.811	560.69
700.255	597.69
700.699	667.69
701.143	673.69
701.588	745.69
702.032	796.69
702.476	777.69
702.92	819.69
703.364	941.69
703.808	1321.69
704.252	1813.69
704.696	2048.69
705.14	1901.69
705.584	2405.69
706.027	1993.69
706.471	937.69
706.915	640.69
707.359	570.69
707.803	527.69
708.246	545.69
708.69	536.69
709.134	515.69
709.577	507.69
710.021	517.69
710.465	545.69
710.908	531.69
711.352	497.69
711.795	558.69
712.239	581.69
712.682	651.69
713.126	603.69
713.569	628.69
714.012	613.69
714.456	513.69
714.899	481.69
715.342	489.69
715.786	443.69
716.229	442.69
716.672	413.69
717.115	417.69
717.558	435.69
718.002	439.69
718.445	460.69
718.888	462.69
719.331	458.69
719.774	493.69
720.217	511.69
720.66	452.69
721.103	466.69
721.546	442.69
721.989	439.69
722.432	391.69
722.874	400.69
723.317	417.69
723.76	434.69
724.203	499.69
724.645	620.69
725.088	759.69
725.531	785.69
725.974	779.69
726.416	817.69
726.859	548.69
727.301	436.69
727.744	407.69
728.187	401.69
728.629	406.69
729.071	438.69
729.514	432.69
729.956	461.69
730.399	491.69
730.841	485.69
731.283	475.69
731.726	459.69
732.168	477.69
732.61	472.69
733.053	489.69
733.495	524.69
733.937	587.69
734.379	669.69
734.821	775.69
735.263	1059.69
735.705	1753.69
736.148	2885.69
736.59	3364.69
737.032	3113.69
737.474	3431.69
737.916	1703.69
738.357	827.69
738.799	569.69
739.241	516.69
739.683	531.69
740.125	512.69
740.567	523.69
741.008	554.69
741.45	584.69
741.892	606.69
742.334	633.69
742.775	591.69
743.217	629.69
743.658	540.69
744.1	509.69
744.542	591.69
744.983	587.69
745.425	644.69
745.866	669.69
