Data from 20170802-ORNL-NYSim-Air_HRD10391_10-36-41-616.txt Node
Date: Wed Aug 02 10:36:41 EDT 2017
User: Ender
Spectrometer: HR+D1039
Trigger mode: 0
Integration Time (sec): 1.510000E-3
Scans to average: 1
Electric dark correction enabled: true
Nonlinearity correction enabled: false
Boxcar width: 0
XAxis mode: Wavelengths
Number of Pixels in Spectrum: 2048
>>>>>Begin Spectral Data<<<<<
187.836	2.31
188.309	2.31
188.782	2.31
189.255	4.31
189.728	-6.69
190.201	-8.69
190.674	5.31
191.147	-2.69
191.619	-9.69
192.092	-13.69
192.565	-11.69
193.038	2.31
193.511	6.31
193.984	5.31
194.456	2.31
194.929	5.31
195.402	10.31
195.874	9.31
196.347	23.31
196.82	21.31
197.292	28.31
197.765	29.31
198.237	30.31
198.71	32.31
199.182	43.31
199.655	39.31
200.127	49.31
200.6	51.31
201.072	53.31
201.544	62.31
202.017	71.31
202.489	63.31
202.961	52.31
203.433	91.31
203.906	69.31
204.378	67.31
204.85	68.31
205.322	75.31
205.794	68.31
206.266	71.31
206.739	83.31
207.211	69.31
207.683	81.31
208.155	75.31
208.627	87.31
209.099	90.31
209.57	75.31
210.042	86.31
210.514	90.31
210.986	95.31
211.458	87.31
211.93	83.31
212.402	81.31
212.873	76.31
213.345	68.31
213.817	75.31
214.288	96.31
214.76	76.31
215.232	67.31
215.703	76.31
216.175	71.31
216.646	80.31
217.118	88.31
217.589	90.31
218.061	67.31
218.532	70.31
219.004	75.31
219.475	83.31
219.946	87.31
220.418	76.31
220.889	83.31
221.36	58.31
221.832	74.31
222.303	73.31
222.774	75.31
223.245	69.31
223.717	65.31
224.188	79.31
224.659	81.31
225.13	73.31
225.601	65.31
226.072	66.31
226.543	68.31
227.014	60.31
227.485	77.31
227.956	87.31
228.427	84.31
228.898	77.31
229.369	82.31
229.839	84.31
230.31	80.31
230.781	73.31
231.252	95.31
231.722	80.31
232.193	64.31
232.664	91.31
233.135	71.31
233.605	74.31
234.076	81.31
234.546	78.31
235.017	90.31
235.487	73.31
235.958	72.31
236.428	76.31
236.899	62.31
237.369	73.31
237.84	82.31
238.31	92.31
238.78	77.31
239.251	82.31
239.721	67.31
240.191	65.31
240.662	76.31
241.132	71.31
241.602	83.31
242.072	104.31
242.542	95.31
243.013	84.31
243.483	94.31
243.953	82.31
244.423	103.31
244.893	76.31
245.363	64.31
245.833	83.31
246.303	92.31
246.773	87.31
247.243	103.31
247.712	93.31
248.182	76.31
248.652	86.31
249.122	85.31
249.592	85.31
250.061	99.31
250.531	87.31
251.001	91.31
251.471	99.31
251.94	103.31
252.41	104.31
252.879	87.31
253.349	99.31
253.818	87.31
254.288	77.31
254.757	81.31
255.227	100.31
255.696	91.31
256.166	84.31
256.635	81.31
257.105	97.31
257.574	107.31
258.043	91.31
258.513	85.31
258.982	102.31
259.451	103.31
259.92	84.31
260.389	89.31
260.859	92.31
261.328	97.31
261.797	96.31
262.266	94.31
262.735	95.31
263.204	120.31
263.673	87.31
264.142	88.31
264.611	91.31
265.08	104.31
265.549	90.31
266.018	103.31
266.487	94.31
266.955	104.31
267.424	100.31
267.893	101.31
268.362	99.31
268.83	91.31
269.299	110.31
269.768	100.31
270.236	101.31
270.705	101.31
271.174	98.31
271.642	93.31
272.111	110.31
272.579	107.31
273.048	117.31
273.516	97.31
273.985	119.31
274.453	112.31
274.922	102.31
275.39	99.31
275.858	123.31
276.327	131.31
276.795	91.31
277.263	87.31
277.731	98.31
278.2	103.31
278.668	98.31
279.136	121.31
279.604	107.31
280.072	109.31
280.54	110.31
281.008	117.31
281.477	114.31
281.945	110.31
282.413	98.31
282.881	127.31
283.348	96.31
283.816	122.31
284.284	119.31
284.752	110.31
285.22	109.31
285.688	111.31
286.156	100.31
286.623	113.31
287.091	97.31
287.559	125.31
288.026	107.31
288.494	117.31
288.962	107.31
289.429	109.31
289.897	126.31
290.364	125.31
290.832	126.31
291.3	116.31
291.767	110.31
292.234	121.31
292.702	115.31
293.169	122.31
293.637	120.31
294.104	130.31
294.571	101.31
295.039	102.31
295.506	117.31
295.973	119.31
296.44	104.31
296.908	124.31
297.375	119.31
297.842	110.31
298.309	133.31
298.776	129.31
299.243	142.31
299.71	127.31
300.177	122.31
300.644	101.31
301.111	121.31
301.578	124.31
302.045	135.31
302.512	111.31
302.979	126.31
303.446	125.31
303.913	121.31
304.379	130.31
304.846	125.31
305.313	120.31
305.78	138.31
306.246	145.31
306.713	128.31
307.18	120.31
307.646	147.31
308.113	131.31
308.579	131.31
309.046	153.31
309.512	162.31
309.979	161.31
310.445	130.31
310.912	145.31
311.378	151.31
311.845	128.31
312.311	139.31
312.777	135.31
313.244	146.31
313.71	139.31
314.176	153.31
314.642	137.31
315.109	158.31
315.575	149.31
316.041	158.31
316.507	176.31
316.973	139.31
317.439	141.31
317.905	178.31
318.371	154.31
318.837	145.31
319.303	158.31
319.769	162.31
320.235	163.31
320.701	161.31
321.167	157.31
321.633	168.31
322.099	150.31
322.564	166.31
323.03	170.31
323.496	144.31
323.962	161.31
324.427	163.31
324.893	159.31
325.359	159.31
325.824	172.31
326.29	161.31
326.755	170.31
327.221	152.31
327.686	179.31
328.152	208.31
328.617	180.31
329.083	178.31
329.548	160.31
330.014	173.31
330.479	179.31
330.944	171.31
331.41	176.31
331.875	190.31
332.34	185.31
332.805	167.31
333.271	169.31
333.736	179.31
334.201	183.31
334.666	197.31
335.131	181.31
335.596	184.31
336.061	221.31
336.526	186.31
336.991	173.31
337.456	188.31
337.921	175.31
338.386	173.31
338.851	181.31
339.316	173.31
339.781	186.31
340.246	192.31
340.711	186.31
341.175	192.31
341.64	196.31
342.105	206.31
342.569	193.31
343.034	175.31
343.499	192.31
343.963	197.31
344.428	196.31
344.893	211.31
345.357	219.31
345.822	225.31
346.286	222.31
346.751	225.31
347.215	213.31
347.679	220.31
348.144	204.31
348.608	223.31
349.073	233.31
349.537	209.31
350.001	223.31
350.465	225.31
350.93	209.31
351.394	230.31
351.858	227.31
352.322	222.31
352.786	220.31
353.25	235.31
353.715	236.31
354.179	250.31
354.643	241.31
355.107	271.31
355.571	259.31
356.035	231.31
356.498	260.31
356.962	240.31
357.426	237.31
357.89	251.31
358.354	241.31
358.818	227.31
359.281	249.31
359.745	246.31
360.209	257.31
360.673	248.31
361.136	253.31
361.6	247.31
362.064	248.31
362.527	252.31
362.991	265.31
363.454	247.31
363.918	269.31
364.381	281.31
364.845	250.31
365.308	237.31
365.772	268.31
366.235	273.31
366.698	258.31
367.162	272.31
367.625	265.31
368.088	252.31
368.552	277.31
369.015	261.31
369.478	260.31
369.941	269.31
370.404	267.31
370.867	281.31
371.331	267.31
371.794	282.31
372.257	276.31
372.72	261.31
373.183	289.31
373.646	305.31
374.109	297.31
374.572	295.31
375.035	293.31
375.497	265.31
375.96	287.31
376.423	305.31
376.886	276.31
377.349	307.31
377.811	297.31
378.274	322.31
378.737	307.31
379.199	329.31
379.662	293.31
380.125	297.31
380.587	292.31
381.05	305.31
381.512	326.31
381.975	331.31
382.437	337.31
382.9	321.31
383.362	328.31
383.825	343.31
384.287	354.31
384.75	340.31
385.212	319.31
385.674	343.31
386.136	317.31
386.599	339.31
387.061	321.31
387.523	332.31
387.985	329.31
388.447	336.31
388.91	355.31
389.372	336.31
389.834	337.31
390.296	356.31
390.758	345.31
391.22	346.31
391.682	344.31
392.144	361.31
392.606	361.31
393.068	346.31
393.529	366.31
393.991	362.31
394.453	357.31
394.915	355.31
395.377	352.31
395.838	344.31
396.3	353.31
396.762	352.31
397.224	353.31
397.685	336.31
398.147	382.31
398.608	369.31
399.07	393.31
399.531	362.31
399.993	383.31
400.454	369.31
400.916	362.31
401.377	401.31
401.839	372.31
402.3	396.31
402.762	432.31
403.223	436.31
403.684	431.31
404.145	414.31
404.607	408.31
405.068	421.31
405.529	409.31
405.99	409.31
406.451	407.31
406.913	417.31
407.374	410.31
407.835	432.31
408.296	404.31
408.757	390.31
409.218	431.31
409.679	397.31
410.14	427.31
410.601	441.31
411.062	422.31
411.522	457.31
411.983	463.31
412.444	464.31
412.905	477.31
413.366	493.31
413.826	509.31
414.287	515.31
414.748	623.31
415.208	640.31
415.669	545.31
416.13	513.31
416.59	532.31
417.051	519.31
417.511	558.31
417.972	582.31
418.432	628.31
418.893	657.31
419.353	651.31
419.814	531.31
420.274	469.31
420.734	467.31
421.195	461.31
421.655	456.31
422.115	457.31
422.576	485.31
423.036	471.31
423.496	525.31
423.956	527.31
424.416	557.31
424.876	589.31
425.336	585.31
425.797	576.31
426.257	583.31
426.717	546.31
427.177	527.31
427.637	525.31
428.097	545.31
428.556	562.31
429.016	605.31
429.476	581.31
429.936	596.31
430.396	615.31
430.856	622.31
431.315	621.31
431.775	651.31
432.235	731.31
432.694	691.31
433.154	677.31
433.614	663.31
434.073	661.31
434.533	605.31
434.993	563.31
435.452	584.31
435.912	545.31
436.371	541.31
436.83	548.31
437.29	530.31
437.749	538.31
438.209	524.31
438.668	501.31
439.127	560.31
439.587	547.31
440.046	527.31
440.505	547.31
440.964	545.31
441.424	557.31
441.883	548.31
442.342	531.31
442.801	524.31
443.26	529.31
443.719	499.31
444.178	502.31
444.637	521.31
445.096	529.31
445.555	539.31
446.014	538.31
446.473	522.31
446.932	534.31
447.391	520.31
447.849	561.31
448.308	547.31
448.767	529.31
449.226	539.31
449.685	554.31
450.143	567.31
450.602	561.31
451.061	527.31
451.519	536.31
451.978	532.31
452.436	541.31
452.895	564.31
453.353	559.31
453.812	527.31
454.27	544.31
454.729	540.31
455.187	548.31
455.646	516.31
456.104	541.31
456.562	569.31
457.021	543.31
457.479	560.31
457.937	558.31
458.395	576.31
458.854	562.31
459.312	566.31
459.77	595.31
460.228	567.31
460.686	589.31
461.144	557.31
461.602	560.31
462.06	562.31
462.518	583.31
462.976	604.31
463.434	582.31
463.892	576.31
464.35	590.31
464.808	615.31
465.266	623.31
465.724	621.31
466.181	610.31
466.639	627.31
467.097	627.31
467.555	646.31
468.012	655.31
468.47	649.31
468.928	683.31
469.385	671.31
469.843	691.31
470.3	704.31
470.758	719.31
471.215	741.31
471.673	739.31
472.13	772.31
472.588	784.31
473.045	770.31
473.503	799.31
473.96	842.31
474.417	815.31
474.875	869.31
475.332	886.31
475.789	890.31
476.246	912.31
476.704	920.31
477.161	995.31
477.618	1001.31
478.075	1020.31
478.532	1149.31
478.989	1175.31
479.446	1313.31
479.903	1353.31
480.36	1478.31
480.817	1553.31
481.274	1670.31
481.731	1763.31
482.188	1888.31
482.645	2035.31
483.102	2167.31
483.558	2296.31
484.015	2366.31
484.472	2393.31
484.929	2253.31
485.385	2204.31
485.842	2156.31
486.299	2134.31
486.755	2002.31
487.212	1836.31
487.668	1670.31
488.125	1541.31
488.582	1417.31
489.038	1343.31
489.494	1308.31
489.951	1293.31
490.407	1232.31
490.864	1252.31
491.32	1219.31
491.776	1158.31
492.233	1217.31
492.689	1199.31
493.145	1151.31
493.602	1149.31
494.058	1202.31
494.514	1171.31
494.97	1205.31
495.426	1199.31
495.882	1187.31
496.338	1173.31
496.794	1197.31
497.251	1162.31
497.707	1208.31
498.163	1210.31
498.618	1218.31
499.074	1207.31
499.53	1197.31
499.986	1218.31
500.442	1189.31
500.898	1217.31
501.354	1215.31
501.809	1202.31
502.265	1193.31
502.721	1220.31
503.177	1201.31
503.632	1230.31
504.088	1230.31
504.543	1255.31
504.999	1261.31
505.455	1220.31
505.91	1219.31
506.366	1246.31
506.821	1231.31
507.277	1217.31
507.732	1291.31
508.187	1209.31
508.643	1275.31
509.098	1261.31
509.553	1221.31
510.009	1252.31
510.464	1299.31
510.919	1293.31
511.375	1270.31
511.83	1327.31
512.285	1331.31
512.74	1385.31
513.195	1362.31
513.65	1425.31
514.105	1384.31
514.56	1417.31
515.015	1419.31
515.47	1441.31
515.925	1459.31
516.38	1451.31
516.835	1463.31
517.29	1459.31
517.745	1486.31
518.2	1400.31
518.655	1377.31
519.109	1382.31
519.564	1380.31
520.019	1356.31
520.474	1361.31
520.928	1367.31
521.383	1340.31
521.838	1323.31
522.292	1342.31
522.747	1307.31
523.201	1297.31
523.656	1308.31
524.11	1291.31
524.565	1320.31
525.019	1314.31
525.474	1303.31
525.928	1262.31
526.382	1294.31
526.837	1294.31
527.291	1283.31
527.745	1264.31
528.2	1263.31
528.654	1285.31
529.108	1282.31
529.562	1282.31
530.016	1343.31
530.47	1269.31
530.925	1311.31
531.379	1307.31
531.833	1260.31
532.287	1293.31
532.741	1297.31
533.195	1275.31
533.649	1297.31
534.103	1285.31
534.556	1271.31
535.01	1271.31
535.464	1268.31
535.918	1265.31
536.372	1255.31
536.826	1279.31
537.279	1261.31
537.733	1263.31
538.187	1337.31
538.64	1279.31
539.094	1283.31
539.548	1336.31
540.001	1297.31
540.455	1310.31
540.908	1336.31
541.362	1337.31
541.815	1347.31
542.269	1352.31
542.722	1351.31
543.175	1371.31
543.629	1387.31
544.082	1393.31
544.536	1379.31
544.989	1397.31
545.442	1472.31
545.895	1391.31
546.349	1428.31
546.802	1411.31
547.255	1409.31
547.708	1410.31
548.161	1426.31
548.614	1430.31
549.067	1445.31
549.52	1430.31
549.973	1404.31
550.426	1400.31
550.879	1415.31
551.332	1403.31
551.785	1431.31
552.238	1407.31
552.691	1451.31
553.144	1445.31
553.596	1455.31
554.049	1502.31
554.502	1500.31
554.955	1530.31
555.407	1584.31
555.86	1563.31
556.313	1524.31
556.765	1545.31
557.218	1491.31
557.67	1515.31
558.123	1464.31
558.576	1484.31
559.028	1489.31
559.48	1508.31
559.933	1449.31
560.385	1458.31
560.838	1385.31
561.29	1376.31
561.742	1359.31
562.195	1371.31
562.647	1327.31
563.099	1328.31
563.551	1363.31
564.004	1331.31
564.456	1309.31
564.908	1314.31
565.36	1270.31
565.812	1267.31
566.264	1256.31
566.716	1249.31
567.168	1203.31
567.62	1194.31
568.072	1189.31
568.524	1177.31
568.976	1184.31
569.428	1176.31
569.88	1149.31
570.332	1175.31
570.784	1197.31
571.235	1194.31
571.687	1209.31
572.139	1176.31
572.59	1201.31
573.042	1242.31
573.494	1173.31
573.945	1156.31
574.397	1177.31
574.849	1169.31
575.3	1136.31
575.752	1109.31
576.203	1132.31
576.655	1125.31
577.106	1128.31
577.557	1109.31
578.009	1121.31
578.46	1126.31
578.912	1127.31
579.363	1114.31
579.814	1088.31
580.265	1147.31
580.717	1106.31
581.168	1131.31
581.619	1140.31
582.07	1133.31
582.521	1164.31
582.972	1129.31
583.423	1111.31
583.875	1144.31
584.326	1145.31
584.777	1137.31
585.227	1134.31
585.678	1215.31
586.129	1189.31
586.58	1234.31
587.031	1219.31
587.482	1255.31
587.933	1268.31
588.384	1273.31
588.834	1211.31
589.285	1281.31
589.736	1241.31
590.186	1198.31
590.637	1269.31
591.088	1219.31
591.538	1217.31
591.989	1193.31
592.439	1153.31
592.89	1164.31
593.34	1167.31
593.791	1145.31
594.241	1139.31
594.692	1156.31
595.142	1122.31
595.593	1125.31
596.043	1171.31
596.493	1147.31
596.943	1135.31
597.394	1179.31
597.844	1153.31
598.294	1185.31
598.744	1226.31
599.195	1280.31
599.645	1327.31
600.095	1395.31
600.545	1487.31
600.995	1482.31
601.445	1556.31
601.895	1651.31
602.345	1731.31
602.795	1709.31
603.245	1648.31
603.695	1589.31
604.145	1515.31
604.594	1443.31
605.044	1389.31
605.494	1275.31
605.944	1257.31
606.393	1176.31
606.843	1204.31
607.293	1169.31
607.743	1148.31
608.192	1187.31
608.642	1171.31
609.091	1167.31
609.541	1162.31
609.99	1179.31
610.44	1117.31
610.889	1132.31
611.339	1124.31
611.788	1100.31
612.238	1086.31
612.687	1101.31
613.136	1103.31
613.586	1134.31
614.035	1101.31
614.484	1150.31
614.933	1163.31
615.383	1122.31
615.832	1091.31
616.281	1091.31
616.73	1064.31
617.179	1024.31
617.628	1011.31
618.077	981.31
618.526	1001.31
618.975	996.31
619.424	963.31
619.873	965.31
620.322	933.31
620.771	982.31
621.22	959.31
621.669	904.31
622.118	948.31
622.567	917.31
623.015	893.31
623.464	880.31
623.913	883.31
624.361	867.31
624.81	875.31
625.259	885.31
625.707	892.31
626.156	848.31
626.604	880.31
627.053	909.31
627.501	900.31
627.95	902.31
628.398	914.31
628.847	903.31
629.295	897.31
629.744	889.31
630.192	905.31
630.64	889.31
631.089	828.31
631.537	840.31
631.985	829.31
632.433	853.31
632.881	845.31
633.33	836.31
633.778	802.31
634.226	841.31
634.674	825.31
635.122	821.31
635.57	859.31
636.018	886.31
636.466	859.31
636.914	870.31
637.362	858.31
637.81	913.31
638.258	898.31
638.705	928.31
639.153	917.31
639.601	951.31
640.049	961.31
640.497	989.31
640.944	1049.31
641.392	984.31
641.84	935.31
642.287	911.31
642.735	912.31
643.182	908.31
643.63	876.31
644.078	871.31
644.525	896.31
644.973	938.31
645.42	928.31
645.867	968.31
646.315	966.31
646.762	1016.31
647.21	1022.31
647.657	1085.31
648.104	1125.31
648.551	1137.31
648.999	1193.31
649.446	1286.31
649.893	1403.31
650.34	1627.31
650.787	1931.31
651.234	2347.31
651.682	3142.31
652.129	4290.31
652.576	6199.31
653.023	8466.31
653.47	10352.31
653.917	11518.31
654.363	12284.31
654.81	12824.31
655.257	13439.31
655.704	10406.31
656.151	6277.31
656.598	4025.31
657.044	2862.31
657.491	2274.31
657.938	1816.31
658.385	1595.31
658.831	1379.31
659.278	1213.31
659.724	1154.31
660.171	1041.31
660.618	969.31
661.064	928.31
661.511	907.31
661.957	893.31
662.404	868.31
662.85	870.31
663.296	845.31
663.743	825.31
664.189	816.31
664.635	806.31
665.082	811.31
665.528	806.31
665.974	791.31
666.42	748.31
666.867	765.31
667.313	724.31
667.759	707.31
668.205	709.31
668.651	717.31
669.097	720.31
669.543	711.31
669.989	711.31
670.435	695.31
670.881	718.31
671.327	722.31
671.773	780.31
672.219	826.31
672.665	867.31
673.11	896.31
673.556	915.31
674.002	943.31
674.448	957.31
674.893	880.31
675.339	775.31
675.785	704.31
676.23	641.31
676.676	640.31
677.122	621.31
677.567	595.31
678.013	599.31
678.458	610.31
678.904	564.31
679.349	564.31
679.794	582.31
680.24	595.31
680.685	567.31
681.131	569.31
681.576	594.31
682.021	561.31
682.466	546.31
682.912	555.31
683.357	605.31
683.802	619.31
684.247	678.31
684.692	709.31
685.137	747.31
685.583	770.31
686.028	787.31
686.473	795.31
686.918	693.31
687.363	645.31
687.807	605.31
688.252	595.31
688.697	594.31
689.142	558.31
689.587	543.31
690.032	531.31
690.477	572.31
690.921	587.31
691.366	619.31
691.811	639.31
692.255	689.31
692.7	783.31
693.145	989.31
693.589	1483.31
694.034	1879.31
694.478	2070.31
694.923	1929.31
695.367	2366.31
695.812	2221.31
696.256	965.31
696.701	615.31
697.145	566.31
697.59	531.31
698.034	555.31
698.478	551.31
698.922	510.31
699.367	541.31
699.811	552.31
700.255	586.31
700.699	647.31
701.143	673.31
701.588	720.31
702.032	755.31
702.476	760.31
702.92	806.31
703.364	889.31
703.808	1315.31
704.252	1797.31
704.696	1992.31
705.14	1866.31
705.584	2331.31
706.027	1952.31
706.471	950.31
706.915	647.31
707.359	560.31
707.803	547.31
708.246	517.31
708.69	487.31
709.134	496.31
709.577	500.31
710.021	487.31
710.465	481.31
710.908	499.31
711.352	496.31
711.795	548.31
712.239	590.31
712.682	612.31
713.126	617.31
713.569	634.31
714.012	614.31
714.456	509.31
714.899	498.31
715.342	469.31
715.786	445.31
716.229	445.31
716.672	430.31
717.115	435.31
717.558	411.31
718.002	436.31
718.445	448.31
718.888	464.31
719.331	478.31
719.774	495.31
720.217	477.31
720.66	456.31
721.103	460.31
721.546	429.31
721.989	407.31
722.432	415.31
722.874	418.31
723.317	420.31
723.76	438.31
724.203	460.31
724.645	604.31
725.088	737.31
725.531	735.31
725.974	750.31
726.416	817.31
726.859	577.31
727.301	414.31
727.744	408.31
728.187	405.31
728.629	407.31
729.071	406.31
729.514	397.31
729.956	472.31
730.399	474.31
730.841	485.31
731.283	452.31
731.726	465.31
732.168	479.31
732.61	468.31
733.053	477.31
733.495	546.31
733.937	594.31
734.379	673.31
734.821	747.31
735.263	1042.31
735.705	1723.31
736.148	2820.31
736.59	3254.31
737.032	3036.31
737.474	3339.31
737.916	1659.31
738.357	815.31
738.799	589.31
739.241	516.31
739.683	516.31
740.125	518.31
740.567	556.31
741.008	538.31
741.45	551.31
741.892	598.31
742.334	621.31
742.775	577.31
743.217	607.31
743.658	521.31
744.1	511.31
744.542	579.31
744.983	587.31
745.425	617.31
745.866	626.31
746.307	545.31
