Data from 20170802-ORNL-NYSim-Air_HRD10391_10-37-34-641.txt Node
Date: Wed Aug 02 10:37:34 EDT 2017
User: Ender
Spectrometer: HR+D1039
Trigger mode: 0
Integration Time (sec): 1.510000E-3
Scans to average: 1
Electric dark correction enabled: true
Nonlinearity correction enabled: false
Boxcar width: 0
XAxis mode: Wavelengths
Number of Pixels in Spectrum: 2048
>>>>>Begin Spectral Data<<<<<
187.836	-7.5
188.309	-7.5
188.782	-7.5
189.255	-0.5
189.728	-11.5
190.201	-12.5
190.674	-6.5
191.147	-6.5
191.619	-8.5
192.092	-7.5
192.565	-24.5
193.038	4.5
193.511	13.5
193.984	-5.5
194.456	2.5
194.929	4.5
195.402	41.5
195.874	24.5
196.347	16.5
196.82	22.5
197.292	36.5
197.765	35.5
198.237	30.5
198.71	27.5
199.182	31.5
199.655	55.5
200.127	54.5
200.6	52.5
201.072	45.5
201.544	66.5
202.017	65.5
202.489	70.5
202.961	81.5
203.433	48.5
203.906	80.5
204.378	86.5
204.85	86.5
205.322	79.5
205.794	74.5
206.266	85.5
206.739	88.5
207.211	84.5
207.683	94.5
208.155	85.5
208.627	100.5
209.099	76.5
209.57	85.5
210.042	73.5
210.514	74.5
210.986	78.5
211.458	69.5
211.93	79.5
212.402	73.5
212.873	75.5
213.345	73.5
213.817	77.5
214.288	84.5
214.76	86.5
215.232	77.5
215.703	79.5
216.175	94.5
216.646	76.5
217.118	93.5
217.589	85.5
218.061	84.5
218.532	84.5
219.004	79.5
219.475	86.5
219.946	70.5
220.418	74.5
220.889	71.5
221.36	83.5
221.832	93.5
222.303	88.5
222.774	70.5
223.245	70.5
223.717	87.5
224.188	76.5
224.659	86.5
225.13	90.5
225.601	74.5
226.072	65.5
226.543	68.5
227.014	76.5
227.485	74.5
227.956	81.5
228.427	72.5
228.898	74.5
229.369	86.5
229.839	82.5
230.31	78.5
230.781	77.5
231.252	83.5
231.722	67.5
232.193	80.5
232.664	88.5
233.135	73.5
233.605	75.5
234.076	84.5
234.546	70.5
235.017	73.5
235.487	62.5
235.958	77.5
236.428	92.5
236.899	100.5
237.369	92.5
237.84	88.5
238.31	89.5
238.78	73.5
239.251	86.5
239.721	80.5
240.191	88.5
240.662	89.5
241.132	90.5
241.602	74.5
242.072	93.5
242.542	88.5
243.013	92.5
243.483	80.5
243.953	89.5
244.423	95.5
244.893	102.5
245.363	78.5
245.833	87.5
246.303	96.5
246.773	82.5
247.243	102.5
247.712	90.5
248.182	86.5
248.652	83.5
249.122	90.5
249.592	89.5
250.061	95.5
250.531	88.5
251.001	99.5
251.471	84.5
251.94	94.5
252.41	95.5
252.879	93.5
253.349	83.5
253.818	102.5
254.288	91.5
254.757	81.5
255.227	93.5
255.696	78.5
256.166	103.5
256.635	76.5
257.105	93.5
257.574	96.5
258.043	81.5
258.513	93.5
258.982	95.5
259.451	80.5
259.92	103.5
260.389	96.5
260.859	83.5
261.328	104.5
261.797	80.5
262.266	98.5
262.735	89.5
263.204	95.5
263.673	84.5
264.142	105.5
264.611	110.5
265.08	96.5
265.549	120.5
266.018	96.5
266.487	110.5
266.955	106.5
267.424	95.5
267.893	94.5
268.362	85.5
268.83	92.5
269.299	104.5
269.768	112.5
270.236	109.5
270.705	106.5
271.174	107.5
271.642	100.5
272.111	104.5
272.579	88.5
273.048	104.5
273.516	96.5
273.985	103.5
274.453	102.5
274.922	101.5
275.39	95.5
275.858	114.5
276.327	103.5
276.795	102.5
277.263	122.5
277.731	105.5
278.2	82.5
278.668	103.5
279.136	110.5
279.604	114.5
280.072	107.5
280.54	111.5
281.008	96.5
281.477	114.5
281.945	107.5
282.413	105.5
282.881	102.5
283.348	104.5
283.816	112.5
284.284	99.5
284.752	115.5
285.22	100.5
285.688	113.5
286.156	107.5
286.623	115.5
287.091	110.5
287.559	104.5
288.026	107.5
288.494	95.5
288.962	129.5
289.429	105.5
289.897	100.5
290.364	127.5
290.832	117.5
291.3	124.5
291.767	122.5
292.234	113.5
292.702	122.5
293.169	116.5
293.637	126.5
294.104	106.5
294.571	145.5
295.039	118.5
295.506	122.5
295.973	122.5
296.44	125.5
296.908	117.5
297.375	143.5
297.842	123.5
298.309	126.5
298.776	119.5
299.243	114.5
299.71	108.5
300.177	115.5
300.644	130.5
301.111	138.5
301.578	120.5
302.045	117.5
302.512	114.5
302.979	136.5
303.446	122.5
303.913	127.5
304.379	133.5
304.846	109.5
305.313	141.5
305.78	126.5
306.246	131.5
306.713	138.5
307.18	137.5
307.646	132.5
308.113	148.5
308.579	147.5
309.046	145.5
309.512	144.5
309.979	146.5
310.445	149.5
310.912	133.5
311.378	139.5
311.845	133.5
312.311	124.5
312.777	146.5
313.244	138.5
313.71	158.5
314.176	141.5
314.642	150.5
315.109	144.5
315.575	156.5
316.041	142.5
316.507	139.5
316.973	141.5
317.439	132.5
317.905	140.5
318.371	145.5
318.837	166.5
319.303	150.5
319.769	139.5
320.235	162.5
320.701	143.5
321.167	142.5
321.633	158.5
322.099	131.5
322.564	154.5
323.03	134.5
323.496	147.5
323.962	158.5
324.427	159.5
324.893	165.5
325.359	157.5
325.824	156.5
326.29	143.5
326.755	158.5
327.221	140.5
327.686	156.5
328.152	180.5
328.617	177.5
329.083	164.5
329.548	177.5
330.014	163.5
330.479	173.5
330.944	166.5
331.41	167.5
331.875	171.5
332.34	176.5
332.805	175.5
333.271	175.5
333.736	153.5
334.201	176.5
334.666	175.5
335.131	198.5
335.596	161.5
336.061	183.5
336.526	177.5
336.991	195.5
337.456	169.5
337.921	180.5
338.386	177.5
338.851	182.5
339.316	160.5
339.781	175.5
340.246	188.5
340.711	205.5
341.175	174.5
341.64	183.5
342.105	198.5
342.569	186.5
343.034	185.5
343.499	170.5
343.963	200.5
344.428	171.5
344.893	189.5
345.357	197.5
345.822	208.5
346.286	188.5
346.751	200.5
347.215	202.5
347.679	202.5
348.144	209.5
348.608	206.5
349.073	204.5
349.537	210.5
350.001	200.5
350.465	204.5
350.93	218.5
351.394	218.5
351.858	235.5
352.322	233.5
352.786	213.5
353.25	213.5
353.715	239.5
354.179	225.5
354.643	231.5
355.107	236.5
355.571	211.5
356.035	232.5
356.498	225.5
356.962	236.5
357.426	212.5
357.89	225.5
358.354	213.5
358.818	237.5
359.281	226.5
359.745	234.5
360.209	216.5
360.673	225.5
361.136	228.5
361.6	238.5
362.064	234.5
362.527	224.5
362.991	242.5
363.454	248.5
363.918	240.5
364.381	240.5
364.845	251.5
365.308	233.5
365.772	232.5
366.235	240.5
366.698	235.5
367.162	242.5
367.625	237.5
368.088	240.5
368.552	250.5
369.015	243.5
369.478	251.5
369.941	242.5
370.404	244.5
370.867	259.5
371.331	249.5
371.794	248.5
372.257	268.5
372.72	264.5
373.183	269.5
373.646	266.5
374.109	251.5
374.572	252.5
375.035	284.5
375.497	264.5
375.96	262.5
376.423	272.5
376.886	265.5
377.349	278.5
377.811	279.5
378.274	281.5
378.737	278.5
379.199	293.5
379.662	286.5
380.125	281.5
380.587	276.5
381.05	312.5
381.512	309.5
381.975	313.5
382.437	297.5
382.9	299.5
383.362	301.5
383.825	325.5
384.287	312.5
384.75	304.5
385.212	325.5
385.674	328.5
386.136	290.5
386.599	302.5
387.061	322.5
387.523	319.5
387.985	299.5
388.447	330.5
388.91	302.5
389.372	310.5
389.834	304.5
390.296	318.5
390.758	320.5
391.22	316.5
391.682	317.5
392.144	320.5
392.606	309.5
393.068	333.5
393.529	323.5
393.991	358.5
394.453	330.5
394.915	335.5
395.377	333.5
395.838	316.5
396.3	323.5
396.762	344.5
397.224	317.5
397.685	354.5
398.147	323.5
398.608	312.5
399.07	352.5
399.531	339.5
399.993	337.5
400.454	351.5
400.916	372.5
401.377	371.5
401.839	354.5
402.3	374.5
402.762	369.5
403.223	408.5
403.684	405.5
404.145	375.5
404.607	397.5
405.068	367.5
405.529	379.5
405.99	381.5
406.451	378.5
406.913	390.5
407.374	365.5
407.835	359.5
408.296	392.5
408.757	378.5
409.218	406.5
409.679	400.5
410.14	398.5
410.601	406.5
411.062	390.5
411.522	423.5
411.983	417.5
412.444	429.5
412.905	424.5
413.366	444.5
413.826	448.5
414.287	496.5
414.748	584.5
415.208	588.5
415.669	494.5
416.13	480.5
416.59	454.5
417.051	469.5
417.511	482.5
417.972	507.5
418.432	523.5
418.893	595.5
419.353	598.5
419.814	486.5
420.274	421.5
420.734	437.5
421.195	445.5
421.655	452.5
422.115	443.5
422.576	440.5
423.036	449.5
423.496	471.5
423.956	468.5
424.416	513.5
424.876	532.5
425.336	535.5
425.797	534.5
426.257	526.5
426.717	508.5
427.177	462.5
427.637	489.5
428.097	479.5
428.556	484.5
429.016	546.5
429.476	552.5
429.936	544.5
430.396	558.5
430.856	556.5
431.315	587.5
431.775	602.5
432.235	625.5
432.694	626.5
433.154	601.5
433.614	606.5
434.073	579.5
434.533	521.5
434.993	506.5
435.452	533.5
435.912	511.5
436.371	533.5
436.83	510.5
437.29	490.5
437.749	510.5
438.209	470.5
438.668	499.5
439.127	500.5
439.587	502.5
440.046	477.5
440.505	479.5
440.964	459.5
441.424	517.5
441.883	520.5
442.342	475.5
442.801	473.5
443.26	488.5
443.719	488.5
444.178	465.5
444.637	468.5
445.096	454.5
445.555	494.5
446.014	489.5
446.473	472.5
446.932	478.5
447.391	490.5
447.849	468.5
448.308	493.5
448.767	486.5
449.226	483.5
449.685	501.5
450.143	555.5
450.602	523.5
451.061	504.5
451.519	494.5
451.978	477.5
452.436	498.5
452.895	487.5
453.353	489.5
453.812	467.5
454.27	500.5
454.729	489.5
455.187	498.5
455.646	489.5
456.104	495.5
456.562	477.5
457.021	516.5
457.479	480.5
457.937	509.5
458.395	529.5
458.854	521.5
459.312	511.5
459.77	515.5
460.228	526.5
460.686	538.5
461.144	537.5
461.602	526.5
462.06	533.5
462.518	539.5
462.976	535.5
463.434	532.5
463.892	520.5
464.35	546.5
464.808	540.5
465.266	553.5
465.724	585.5
466.181	555.5
466.639	565.5
467.097	588.5
467.555	594.5
468.012	594.5
468.47	591.5
468.928	638.5
469.385	628.5
469.843	647.5
470.3	627.5
470.758	648.5
471.215	653.5
471.673	688.5
472.13	674.5
472.588	701.5
473.045	704.5
473.503	690.5
473.96	722.5
474.417	750.5
474.875	769.5
475.332	792.5
475.789	812.5
476.246	818.5
476.704	868.5
477.161	905.5
477.618	894.5
478.075	937.5
478.532	1027.5
478.989	1066.5
479.446	1151.5
479.903	1237.5
480.36	1304.5
480.817	1413.5
481.274	1433.5
481.731	1593.5
482.188	1745.5
482.645	1788.5
483.102	1947.5
483.558	2080.5
484.015	2109.5
484.472	2172.5
484.929	2101.5
485.385	2010.5
485.842	1973.5
486.299	1886.5
486.755	1774.5
487.212	1606.5
487.668	1475.5
488.125	1410.5
488.582	1303.5
489.038	1212.5
489.494	1184.5
489.951	1197.5
490.407	1142.5
490.864	1146.5
491.32	1103.5
491.776	1109.5
492.233	1080.5
492.689	1112.5
493.145	1086.5
493.602	1038.5
494.058	1032.5
494.514	1082.5
494.97	1052.5
495.426	1057.5
495.882	1051.5
496.338	1087.5
496.794	1099.5
497.251	1061.5
497.707	1129.5
498.163	1102.5
498.618	1094.5
499.074	1084.5
499.53	1071.5
499.986	1088.5
500.442	1065.5
500.898	1084.5
501.354	1073.5
501.809	1067.5
502.265	1134.5
502.721	1094.5
503.177	1083.5
503.632	1090.5
504.088	1131.5
504.543	1110.5
504.999	1095.5
505.455	1126.5
505.91	1086.5
506.366	1118.5
506.821	1122.5
507.277	1128.5
507.732	1093.5
508.187	1156.5
508.643	1127.5
509.098	1151.5
509.553	1178.5
510.009	1141.5
510.464	1142.5
510.919	1163.5
511.375	1202.5
511.83	1182.5
512.285	1197.5
512.74	1266.5
513.195	1249.5
513.65	1285.5
514.105	1264.5
514.56	1308.5
515.015	1300.5
515.47	1332.5
515.925	1323.5
516.38	1322.5
516.835	1292.5
517.29	1286.5
517.745	1317.5
518.2	1320.5
518.655	1269.5
519.109	1229.5
519.564	1257.5
520.019	1216.5
520.474	1217.5
520.928	1194.5
521.383	1237.5
521.838	1215.5
522.292	1178.5
522.747	1176.5
523.201	1194.5
523.656	1176.5
524.11	1170.5
524.565	1156.5
525.019	1164.5
525.474	1182.5
525.928	1185.5
526.382	1180.5
526.837	1153.5
527.291	1160.5
527.745	1144.5
528.2	1187.5
528.654	1138.5
529.108	1149.5
529.562	1135.5
530.016	1153.5
530.47	1144.5
530.925	1142.5
531.379	1167.5
531.833	1194.5
532.287	1190.5
532.741	1172.5
533.195	1156.5
533.649	1159.5
534.103	1156.5
534.556	1177.5
535.01	1157.5
535.464	1161.5
535.918	1173.5
536.372	1169.5
536.826	1152.5
537.279	1142.5
537.733	1149.5
538.187	1169.5
538.64	1181.5
539.094	1166.5
539.548	1211.5
540.001	1208.5
540.455	1197.5
540.908	1171.5
541.362	1195.5
541.815	1220.5
542.269	1222.5
542.722	1223.5
543.175	1192.5
543.629	1279.5
544.082	1274.5
544.536	1296.5
544.989	1291.5
545.442	1285.5
545.895	1309.5
546.349	1251.5
546.802	1284.5
547.255	1328.5
547.708	1286.5
548.161	1313.5
548.614	1300.5
549.067	1329.5
549.52	1313.5
549.973	1300.5
550.426	1261.5
550.879	1296.5
551.332	1297.5
551.785	1292.5
552.238	1310.5
552.691	1284.5
553.144	1314.5
553.596	1348.5
554.049	1380.5
554.502	1401.5
554.955	1413.5
555.407	1394.5
555.86	1429.5
556.313	1442.5
556.765	1405.5
557.218	1383.5
557.67	1374.5
558.123	1365.5
558.576	1340.5
559.028	1366.5
559.48	1384.5
559.933	1397.5
560.385	1363.5
560.838	1247.5
561.29	1259.5
561.742	1220.5
562.195	1204.5
562.647	1199.5
563.099	1177.5
563.551	1172.5
564.004	1177.5
564.456	1186.5
564.908	1218.5
565.36	1145.5
565.812	1134.5
566.264	1114.5
566.716	1098.5
567.168	1095.5
567.62	1081.5
568.072	1092.5
568.524	1112.5
568.976	1085.5
569.428	1048.5
569.88	1042.5
570.332	1092.5
570.784	1081.5
571.235	1088.5
571.687	1109.5
572.139	1075.5
572.59	1084.5
573.042	1066.5
573.494	1068.5
573.945	1096.5
574.397	1070.5
574.849	1040.5
575.3	1064.5
575.752	1077.5
576.203	1053.5
576.655	1058.5
577.106	1066.5
577.557	984.5
578.009	1034.5
578.46	1037.5
578.912	1024.5
579.363	1026.5
579.814	1030.5
580.265	1029.5
580.717	1009.5
581.168	1040.5
581.619	1004.5
582.07	1035.5
582.521	1002.5
582.972	1037.5
583.423	1044.5
583.875	1027.5
584.326	1049.5
584.777	1056.5
585.227	1044.5
585.678	1101.5
586.129	1119.5
586.58	1102.5
587.031	1124.5
587.482	1156.5
587.933	1184.5
588.384	1200.5
588.834	1184.5
589.285	1168.5
589.736	1128.5
590.186	1166.5
590.637	1140.5
591.088	1096.5
591.538	1113.5
591.989	1112.5
592.439	1074.5
592.89	1040.5
593.34	1048.5
593.791	1048.5
594.241	1021.5
594.692	1050.5
595.142	1043.5
595.593	1032.5
596.043	1022.5
596.493	1052.5
596.943	1052.5
597.394	1057.5
597.844	1099.5
598.294	1120.5
598.744	1125.5
599.195	1138.5
599.645	1221.5
600.095	1274.5
600.545	1317.5
600.995	1406.5
601.445	1468.5
601.895	1515.5
602.345	1614.5
602.795	1580.5
603.245	1515.5
603.695	1435.5
604.145	1338.5
604.594	1328.5
605.044	1250.5
605.494	1152.5
605.944	1118.5
606.393	1051.5
606.843	1037.5
607.293	1066.5
607.743	1042.5
608.192	1066.5
608.642	1054.5
609.091	1075.5
609.541	1063.5
609.99	1040.5
610.44	1059.5
610.889	1004.5
611.339	1031.5
611.788	996.5
612.238	983.5
612.687	999.5
613.136	1026.5
613.586	1064.5
614.035	1014.5
614.484	1005.5
614.933	1038.5
615.383	1032.5
615.832	1024.5
616.281	994.5
616.73	953.5
617.179	925.5
617.628	928.5
618.077	913.5
618.526	901.5
618.975	903.5
619.424	875.5
619.873	875.5
620.322	870.5
620.771	883.5
621.22	831.5
621.669	847.5
622.118	825.5
622.567	849.5
623.015	798.5
623.464	815.5
623.913	808.5
624.361	831.5
624.81	788.5
625.259	820.5
625.707	830.5
626.156	816.5
626.604	810.5
627.053	811.5
627.501	824.5
627.95	814.5
628.398	855.5
628.847	832.5
629.295	836.5
629.744	846.5
630.192	831.5
630.64	797.5
631.089	789.5
631.537	755.5
631.985	756.5
632.433	737.5
632.881	773.5
633.33	768.5
633.778	780.5
634.226	734.5
634.674	776.5
635.122	768.5
635.57	765.5
636.018	818.5
636.466	791.5
636.914	768.5
637.362	806.5
637.81	809.5
638.258	855.5
638.705	860.5
639.153	860.5
639.601	895.5
640.049	906.5
640.497	898.5
640.944	949.5
641.392	919.5
641.84	871.5
642.287	816.5
642.735	808.5
643.182	788.5
643.63	809.5
644.078	804.5
644.525	784.5
644.973	843.5
645.42	861.5
645.867	863.5
646.315	876.5
646.762	888.5
647.21	927.5
647.657	967.5
648.104	1001.5
648.551	1030.5
648.999	1106.5
649.446	1124.5
649.893	1252.5
650.34	1445.5
650.787	1748.5
651.234	2132.5
651.682	2828.5
652.129	3847.5
652.576	5550.5
653.023	7594.5
653.47	9376.5
653.917	10490.5
654.363	10926.5
654.81	11726.5
655.257	12309.5
655.704	9382.5
656.151	5638.5
656.598	3625.5
657.044	2587.5
657.491	2039.5
657.938	1643.5
658.385	1384.5
658.831	1254.5
659.278	1105.5
659.724	1014.5
660.171	956.5
660.618	913.5
661.064	860.5
661.511	845.5
661.957	836.5
662.404	785.5
662.85	772.5
663.296	772.5
663.743	741.5
664.189	770.5
664.635	731.5
665.082	751.5
665.528	709.5
665.974	746.5
666.42	700.5
666.867	671.5
667.313	659.5
667.759	670.5
668.205	624.5
668.651	652.5
669.097	642.5
669.543	647.5
669.989	626.5
670.435	662.5
670.881	661.5
671.327	669.5
671.773	737.5
672.219	766.5
672.665	820.5
673.11	835.5
673.556	861.5
674.002	830.5
674.448	874.5
674.893	798.5
675.339	677.5
675.785	665.5
676.23	612.5
676.676	607.5
677.122	565.5
677.567	554.5
678.013	564.5
678.458	546.5
678.904	542.5
679.349	526.5
679.794	513.5
680.24	521.5
680.685	511.5
681.131	518.5
681.576	522.5
682.021	543.5
682.466	540.5
682.912	534.5
683.357	522.5
683.802	568.5
684.247	623.5
684.692	642.5
685.137	692.5
685.583	718.5
686.028	734.5
686.473	722.5
686.918	660.5
687.363	600.5
687.807	580.5
688.252	550.5
688.697	506.5
689.142	539.5
689.587	495.5
690.032	538.5
690.477	541.5
690.921	560.5
691.366	559.5
691.811	626.5
692.255	620.5
692.7	694.5
693.145	918.5
693.589	1381.5
694.034	1751.5
694.478	1979.5
694.923	1828.5
695.367	2236.5
695.812	2024.5
696.256	898.5
696.701	578.5
697.145	521.5
697.59	526.5
698.034	500.5
698.478	487.5
698.922	496.5
699.367	489.5
699.811	535.5
700.255	540.5
700.699	571.5
701.143	667.5
701.588	680.5
702.032	696.5
702.476	745.5
702.92	726.5
703.364	858.5
703.808	1227.5
704.252	1698.5
704.696	1910.5
705.14	1721.5
705.584	2188.5
706.027	1836.5
706.471	881.5
706.915	622.5
707.359	548.5
707.803	512.5
708.246	466.5
708.69	480.5
709.134	479.5
709.577	470.5
710.021	464.5
710.465	473.5
710.908	452.5
711.352	478.5
711.795	519.5
712.239	562.5
712.682	571.5
713.126	584.5
713.569	604.5
714.012	584.5
714.456	469.5
714.899	438.5
715.342	428.5
715.786	414.5
716.229	404.5
716.672	395.5
717.115	406.5
717.558	418.5
718.002	390.5
718.445	391.5
718.888	435.5
719.331	426.5
719.774	445.5
720.217	452.5
720.66	442.5
721.103	408.5
721.546	402.5
721.989	392.5
722.432	409.5
722.874	393.5
723.317	377.5
723.76	411.5
724.203	416.5
724.645	569.5
725.088	668.5
725.531	729.5
725.974	728.5
726.416	770.5
726.859	523.5
727.301	401.5
727.744	397.5
728.187	378.5
728.629	378.5
729.071	394.5
729.514	390.5
729.956	413.5
730.399	431.5
730.841	446.5
731.283	428.5
731.726	416.5
732.168	427.5
732.61	418.5
733.053	466.5
733.495	461.5
733.937	560.5
734.379	593.5
734.821	705.5
735.263	972.5
735.705	1600.5
736.148	2643.5
736.59	3102.5
737.032	2890.5
737.474	3118.5
737.916	1548.5
738.357	752.5
738.799	524.5
739.241	484.5
739.683	451.5
740.125	478.5
740.567	460.5
741.008	499.5
741.45	525.5
741.892	523.5
742.334	579.5
742.775	546.5
743.217	556.5
743.658	488.5
744.1	453.5
744.542	490.5
744.983	551.5
745.425	545.5
745.866	578.5
746.307	505.5
746.749	496.5
747.19	596.5
747.632	954.5
748.073	1804.5
748.514	2716.5
748.956	3412.5
749.397	4648.5
749.838	3730.5
750.279	3073.5
750.72	2274.5
751.162	1075.5
751.603	592.5
752.044	422.5
752.485	369.5
752.926	351.5
753.367	358.5
753.808	345.5
754.249	335.5
754.69	337.5
755.131	332.5
755.572	319.5
756.013	314.5
756.453	336.5
756.894	333.5
757.335	322.5
757.776	329.5
758.216	336.5
758.657	359.5
759.098	358.5
759.538	396.5
759.979	500.5
760.42	800.5
760.86	1734.5
761.301	3992.5
761.741	5934.5
762.182	6249.5
762.622	5862.5
763.063	2754.5
763.503	1113.5
763.943	592.5
764.384	426.5
764.824	418.5
765.264	380.5
765.705	350.5
766.145	328.5
766.585	307.5
767.025	304.5
767.465	307.5
767.906	300.5
768.346	315.5
768.786	344.5
769.226	428.5
769.666	667.5
770.106	1393.5
770.546	2432.5
770.986	2639.5
771.426	2615.5
771.866	1467.5
772.306	671.5
772.745	408.5
773.185	303.5
773.625	298.5
774.065	300.5
774.505	358.5
774.944	507.5
775.384	808.5
775.824	896.5
776.263	893.5
776.703	668.5
777.142	406.5
777.582	291.5
778.021	254.5
778.461	232.5
778.9	222.5
779.34	270.5
779.779	240.5
780.219	223.5
780.658	241.5
781.097	227.5
781.537	214.5
781.976	236.5
