Data from 20170802-ORNL-NYSim-Air_HRD10391_10-36-50-621.txt Node
Date: Wed Aug 02 10:36:50 EDT 2017
User: Ender
Spectrometer: HR+D1039
Trigger mode: 0
Integration Time (sec): 1.510000E-3
Scans to average: 1
Electric dark correction enabled: true
Nonlinearity correction enabled: false
Boxcar width: 0
XAxis mode: Wavelengths
Number of Pixels in Spectrum: 2048
>>>>>Begin Spectral Data<<<<<
187.836	2.12
188.309	2.12
188.782	2.12
189.255	16.12
189.728	-5.88
190.201	-14.88
190.674	-5.88
191.147	-11.88
191.619	-16.88
192.092	0.12
192.565	6.12
193.038	2.12
193.511	-4.88
193.984	20.12
194.456	-3.88
194.929	-9.88
195.402	15.12
195.874	12.12
196.347	24.12
196.82	50.12
197.292	42.12
197.765	47.12
198.237	54.12
198.71	39.12
199.182	47.12
199.655	57.12
200.127	56.12
200.6	48.12
201.072	60.12
201.544	62.12
202.017	59.12
202.489	72.12
202.961	83.12
203.433	64.12
203.906	79.12
204.378	78.12
204.85	72.12
205.322	101.12
205.794	90.12
206.266	87.12
206.739	80.12
207.211	78.12
207.683	84.12
208.155	84.12
208.627	65.12
209.099	92.12
209.57	84.12
210.042	91.12
210.514	97.12
210.986	91.12
211.458	73.12
211.93	72.12
212.402	84.12
212.873	97.12
213.345	89.12
213.817	76.12
214.288	81.12
214.76	99.12
215.232	81.12
215.703	95.12
216.175	94.12
216.646	90.12
217.118	80.12
217.589	91.12
218.061	85.12
218.532	79.12
219.004	88.12
219.475	105.12
219.946	85.12
220.418	74.12
220.889	80.12
221.36	83.12
221.832	79.12
222.303	82.12
222.774	83.12
223.245	83.12
223.717	74.12
224.188	66.12
224.659	87.12
225.13	78.12
225.601	86.12
226.072	80.12
226.543	78.12
227.014	74.12
227.485	86.12
227.956	72.12
228.427	70.12
228.898	80.12
229.369	78.12
229.839	90.12
230.31	74.12
230.781	89.12
231.252	94.12
231.722	65.12
232.193	99.12
232.664	75.12
233.135	81.12
233.605	86.12
234.076	78.12
234.546	79.12
235.017	95.12
235.487	89.12
235.958	92.12
236.428	97.12
236.899	67.12
237.369	91.12
237.84	77.12
238.31	72.12
238.78	83.12
239.251	71.12
239.721	97.12
240.191	83.12
240.662	103.12
241.132	93.12
241.602	88.12
242.072	90.12
242.542	82.12
243.013	86.12
243.483	93.12
243.953	90.12
244.423	80.12
244.893	85.12
245.363	86.12
245.833	80.12
246.303	92.12
246.773	89.12
247.243	90.12
247.712	87.12
248.182	80.12
248.652	82.12
249.122	102.12
249.592	94.12
250.061	64.12
250.531	104.12
251.001	101.12
251.471	101.12
251.94	111.12
252.41	101.12
252.879	92.12
253.349	98.12
253.818	85.12
254.288	85.12
254.757	114.12
255.227	97.12
255.696	100.12
256.166	95.12
256.635	98.12
257.105	105.12
257.574	103.12
258.043	87.12
258.513	99.12
258.982	99.12
259.451	95.12
259.92	111.12
260.389	89.12
260.859	83.12
261.328	94.12
261.797	88.12
262.266	103.12
262.735	84.12
263.204	104.12
263.673	97.12
264.142	92.12
264.611	108.12
265.08	114.12
265.549	119.12
266.018	114.12
266.487	109.12
266.955	109.12
267.424	101.12
267.893	107.12
268.362	88.12
268.83	118.12
269.299	92.12
269.768	104.12
270.236	98.12
270.705	104.12
271.174	96.12
271.642	94.12
272.111	111.12
272.579	114.12
273.048	99.12
273.516	93.12
273.985	106.12
274.453	105.12
274.922	96.12
275.39	115.12
275.858	115.12
276.327	109.12
276.795	114.12
277.263	105.12
277.731	103.12
278.2	98.12
278.668	94.12
279.136	111.12
279.604	114.12
280.072	102.12
280.54	116.12
281.008	97.12
281.477	111.12
281.945	121.12
282.413	117.12
282.881	109.12
283.348	109.12
283.816	99.12
284.284	115.12
284.752	114.12
285.22	125.12
285.688	94.12
286.156	114.12
286.623	114.12
287.091	122.12
287.559	115.12
288.026	136.12
288.494	128.12
288.962	120.12
289.429	116.12
289.897	126.12
290.364	125.12
290.832	109.12
291.3	124.12
291.767	125.12
292.234	135.12
292.702	120.12
293.169	132.12
293.637	126.12
294.104	125.12
294.571	118.12
295.039	111.12
295.506	122.12
295.973	110.12
296.44	128.12
296.908	120.12
297.375	125.12
297.842	129.12
298.309	105.12
298.776	114.12
299.243	115.12
299.71	133.12
300.177	121.12
300.644	130.12
301.111	127.12
301.578	131.12
302.045	110.12
302.512	130.12
302.979	136.12
303.446	115.12
303.913	124.12
304.379	141.12
304.846	150.12
305.313	128.12
305.78	144.12
306.246	137.12
306.713	135.12
307.18	138.12
307.646	151.12
308.113	141.12
308.579	141.12
309.046	137.12
309.512	154.12
309.979	153.12
310.445	159.12
310.912	144.12
311.378	142.12
311.845	162.12
312.311	154.12
312.777	145.12
313.244	149.12
313.71	167.12
314.176	160.12
314.642	160.12
315.109	155.12
315.575	168.12
316.041	159.12
316.507	135.12
316.973	145.12
317.439	154.12
317.905	170.12
318.371	155.12
318.837	154.12
319.303	156.12
319.769	153.12
320.235	154.12
320.701	156.12
321.167	156.12
321.633	151.12
322.099	155.12
322.564	164.12
323.03	158.12
323.496	164.12
323.962	174.12
324.427	167.12
324.893	170.12
325.359	170.12
325.824	174.12
326.29	156.12
326.755	168.12
327.221	166.12
327.686	171.12
328.152	176.12
328.617	173.12
329.083	169.12
329.548	172.12
330.014	183.12
330.479	174.12
330.944	186.12
331.41	178.12
331.875	176.12
332.34	182.12
332.805	169.12
333.271	180.12
333.736	162.12
334.201	186.12
334.666	181.12
335.131	194.12
335.596	176.12
336.061	194.12
336.526	186.12
336.991	179.12
337.456	188.12
337.921	177.12
338.386	165.12
338.851	182.12
339.316	190.12
339.781	178.12
340.246	165.12
340.711	180.12
341.175	189.12
341.64	207.12
342.105	190.12
342.569	183.12
343.034	193.12
343.499	186.12
343.963	203.12
344.428	203.12
344.893	190.12
345.357	218.12
345.822	194.12
346.286	184.12
346.751	209.12
347.215	223.12
347.679	213.12
348.144	223.12
348.608	221.12
349.073	235.12
349.537	212.12
350.001	213.12
350.465	220.12
350.93	218.12
351.394	229.12
351.858	222.12
352.322	241.12
352.786	203.12
353.25	238.12
353.715	238.12
354.179	236.12
354.643	246.12
355.107	245.12
355.571	270.12
356.035	240.12
356.498	234.12
356.962	249.12
357.426	254.12
357.89	247.12
358.354	240.12
358.818	234.12
359.281	238.12
359.745	242.12
360.209	251.12
360.673	219.12
361.136	232.12
361.6	252.12
362.064	240.12
362.527	266.12
362.991	250.12
363.454	232.12
363.918	242.12
364.381	261.12
364.845	279.12
365.308	258.12
365.772	250.12
366.235	259.12
366.698	244.12
367.162	244.12
367.625	248.12
368.088	278.12
368.552	259.12
369.015	284.12
369.478	243.12
369.941	256.12
370.404	266.12
370.867	260.12
371.331	256.12
371.794	268.12
372.257	271.12
372.72	262.12
373.183	258.12
373.646	278.12
374.109	286.12
374.572	292.12
375.035	274.12
375.497	287.12
375.96	284.12
376.423	312.12
376.886	281.12
377.349	309.12
377.811	306.12
378.274	300.12
378.737	309.12
379.199	318.12
379.662	302.12
380.125	303.12
380.587	323.12
381.05	316.12
381.512	303.12
381.975	306.12
382.437	323.12
382.9	324.12
383.362	323.12
383.825	329.12
384.287	347.12
384.75	349.12
385.212	344.12
385.674	312.12
386.136	336.12
386.599	335.12
387.061	332.12
387.523	311.12
387.985	340.12
388.447	345.12
388.91	326.12
389.372	339.12
389.834	334.12
390.296	334.12
390.758	348.12
391.22	332.12
391.682	364.12
392.144	330.12
392.606	335.12
393.068	351.12
393.529	364.12
393.991	377.12
394.453	350.12
394.915	346.12
395.377	349.12
395.838	356.12
396.3	359.12
396.762	357.12
397.224	370.12
397.685	352.12
398.147	349.12
398.608	353.12
399.07	347.12
399.531	360.12
399.993	358.12
400.454	370.12
400.916	399.12
401.377	385.12
401.839	392.12
402.3	380.12
402.762	388.12
403.223	419.12
403.684	410.12
404.145	419.12
404.607	373.12
405.068	410.12
405.529	414.12
405.99	397.12
406.451	405.12
406.913	412.12
407.374	397.12
407.835	402.12
408.296	400.12
408.757	419.12
409.218	420.12
409.679	437.12
410.14	434.12
410.601	434.12
411.062	435.12
411.522	426.12
411.983	436.12
412.444	452.12
412.905	432.12
413.366	453.12
413.826	499.12
414.287	549.12
414.748	613.12
415.208	597.12
415.669	542.12
416.13	516.12
416.59	483.12
417.051	503.12
417.511	508.12
417.972	588.12
418.432	592.12
418.893	653.12
419.353	608.12
419.814	476.12
420.274	472.12
420.734	458.12
421.195	464.12
421.655	478.12
422.115	465.12
422.576	470.12
423.036	476.12
423.496	494.12
423.956	531.12
424.416	521.12
424.876	592.12
425.336	594.12
425.797	558.12
426.257	592.12
426.717	552.12
427.177	519.12
427.637	538.12
428.097	532.12
428.556	536.12
429.016	585.12
429.476	596.12
429.936	570.12
430.396	606.12
430.856	556.12
431.315	607.12
431.775	639.12
432.235	668.12
432.694	707.12
433.154	668.12
433.614	658.12
434.073	621.12
434.533	546.12
434.993	556.12
435.452	537.12
435.912	551.12
436.371	537.12
436.83	527.12
437.29	548.12
437.749	504.12
438.209	528.12
438.668	522.12
439.127	518.12
439.587	537.12
440.046	510.12
440.505	530.12
440.964	516.12
441.424	551.12
441.883	550.12
442.342	532.12
442.801	528.12
443.26	516.12
443.719	509.12
444.178	496.12
444.637	485.12
445.096	506.12
445.555	510.12
446.014	500.12
446.473	502.12
446.932	524.12
447.391	545.12
447.849	524.12
448.308	520.12
448.767	546.12
449.226	537.12
449.685	529.12
450.143	531.12
450.602	541.12
451.061	528.12
451.519	533.12
451.978	536.12
452.436	516.12
452.895	520.12
453.353	508.12
453.812	512.12
454.27	527.12
454.729	509.12
455.187	525.12
455.646	511.12
456.104	515.12
456.562	548.12
457.021	546.12
457.479	527.12
457.937	510.12
458.395	518.12
458.854	550.12
459.312	528.12
459.77	546.12
460.228	529.12
460.686	526.12
461.144	586.12
461.602	566.12
462.06	538.12
462.518	550.12
462.976	555.12
463.434	575.12
463.892	565.12
464.35	590.12
464.808	603.12
465.266	608.12
465.724	589.12
466.181	618.12
466.639	629.12
467.097	625.12
467.555	622.12
468.012	636.12
468.47	655.12
468.928	656.12
469.385	660.12
469.843	671.12
470.3	658.12
470.758	706.12
471.215	717.12
471.673	734.12
472.13	744.12
472.588	758.12
473.045	747.12
473.503	787.12
473.96	801.12
474.417	772.12
474.875	804.12
475.332	866.12
475.789	864.12
476.246	866.12
476.704	930.12
477.161	922.12
477.618	966.12
478.075	1034.12
478.532	1094.12
478.989	1138.12
479.446	1262.12
479.903	1288.12
480.36	1410.12
480.817	1452.12
481.274	1580.12
481.731	1726.12
482.188	1829.12
482.645	1968.12
483.102	2076.12
483.558	2185.12
484.015	2287.12
484.472	2271.12
484.929	2228.12
485.385	2137.12
485.842	2036.12
486.299	1974.12
486.755	1897.12
487.212	1693.12
487.668	1556.12
488.125	1447.12
488.582	1388.12
489.038	1333.12
489.494	1288.12
489.951	1256.12
490.407	1208.12
490.864	1173.12
491.32	1166.12
491.776	1146.12
492.233	1169.12
492.689	1104.12
493.145	1119.12
493.602	1093.12
494.058	1140.12
494.514	1130.12
494.97	1106.12
495.426	1087.12
495.882	1158.12
496.338	1128.12
496.794	1130.12
497.251	1114.12
497.707	1159.12
498.163	1144.12
498.618	1132.12
499.074	1138.12
499.53	1175.12
499.986	1174.12
500.442	1171.12
500.898	1172.12
501.354	1166.12
501.809	1210.12
502.265	1152.12
502.721	1172.12
503.177	1185.12
503.632	1191.12
504.088	1166.12
504.543	1209.12
504.999	1219.12
505.455	1190.12
505.91	1184.12
506.366	1202.12
506.821	1190.12
507.277	1160.12
507.732	1165.12
508.187	1223.12
508.643	1246.12
509.098	1190.12
509.553	1260.12
510.009	1230.12
510.464	1268.12
510.919	1262.12
511.375	1260.12
511.83	1270.12
512.285	1300.12
512.74	1286.12
513.195	1350.12
513.65	1398.12
514.105	1397.12
514.56	1387.12
515.015	1386.12
515.47	1386.12
515.925	1370.12
516.38	1399.12
516.835	1401.12
517.29	1405.12
517.745	1389.12
518.2	1382.12
518.655	1397.12
519.109	1334.12
519.564	1307.12
520.019	1330.12
520.474	1318.12
520.928	1311.12
521.383	1256.12
521.838	1288.12
522.292	1261.12
522.747	1232.12
523.201	1262.12
523.656	1283.12
524.11	1266.12
524.565	1236.12
525.019	1245.12
525.474	1236.12
525.928	1211.12
526.382	1248.12
526.837	1250.12
527.291	1229.12
527.745	1237.12
528.2	1265.12
528.654	1221.12
529.108	1218.12
529.562	1228.12
530.016	1225.12
530.47	1227.12
530.925	1244.12
531.379	1237.12
531.833	1230.12
532.287	1216.12
532.741	1243.12
533.195	1227.12
533.649	1237.12
534.103	1262.12
534.556	1248.12
535.01	1247.12
535.464	1208.12
535.918	1234.12
536.372	1240.12
536.826	1224.12
537.279	1248.12
537.733	1196.12
538.187	1260.12
538.64	1234.12
539.094	1242.12
539.548	1257.12
540.001	1254.12
540.455	1282.12
540.908	1266.12
541.362	1237.12
541.815	1290.12
542.269	1328.12
542.722	1327.12
543.175	1262.12
543.629	1324.12
544.082	1333.12
544.536	1382.12
544.989	1380.12
545.442	1373.12
545.895	1370.12
546.349	1354.12
546.802	1358.12
547.255	1368.12
547.708	1366.12
548.161	1401.12
548.614	1380.12
549.067	1396.12
549.52	1375.12
549.973	1369.12
550.426	1353.12
550.879	1360.12
551.332	1379.12
551.785	1389.12
552.238	1408.12
552.691	1411.12
553.144	1434.12
553.596	1410.12
554.049	1463.12
554.502	1480.12
554.955	1503.12
555.407	1510.12
555.86	1491.12
556.313	1487.12
556.765	1487.12
557.218	1451.12
557.67	1432.12
558.123	1456.12
558.576	1413.12
559.028	1433.12
559.48	1440.12
559.933	1453.12
560.385	1426.12
560.838	1364.12
561.29	1342.12
561.742	1357.12
562.195	1298.12
562.647	1318.12
563.099	1293.12
563.551	1262.12
564.004	1282.12
564.456	1306.12
564.908	1282.12
565.36	1256.12
565.812	1190.12
566.264	1206.12
566.716	1179.12
567.168	1150.12
567.62	1192.12
568.072	1168.12
568.524	1139.12
568.976	1152.12
569.428	1138.12
569.88	1147.12
570.332	1126.12
570.784	1168.12
571.235	1155.12
571.687	1166.12
572.139	1140.12
572.59	1143.12
573.042	1154.12
573.494	1140.12
573.945	1148.12
574.397	1134.12
574.849	1108.12
575.3	1135.12
575.752	1133.12
576.203	1100.12
576.655	1107.12
577.106	1096.12
577.557	1126.12
578.009	1060.12
578.46	1062.12
578.912	1066.12
579.363	1060.12
579.814	1081.12
580.265	1075.12
580.717	1046.12
581.168	1087.12
581.619	1086.12
582.07	1102.12
582.521	1117.12
582.972	1128.12
583.423	1089.12
583.875	1102.12
584.326	1114.12
584.777	1144.12
585.227	1136.12
585.678	1154.12
586.129	1123.12
586.58	1157.12
587.031	1133.12
587.482	1198.12
587.933	1228.12
588.384	1234.12
588.834	1205.12
589.285	1232.12
589.736	1195.12
590.186	1256.12
590.637	1211.12
591.088	1167.12
591.538	1165.12
591.989	1132.12
592.439	1146.12
592.89	1170.12
593.34	1107.12
593.791	1107.12
594.241	1106.12
594.692	1084.12
595.142	1071.12
595.593	1092.12
596.043	1089.12
596.493	1137.12
596.943	1119.12
597.394	1136.12
597.844	1143.12
598.294	1155.12
598.744	1212.12
599.195	1236.12
599.645	1288.12
600.095	1347.12
600.545	1425.12
600.995	1462.12
601.445	1544.12
601.895	1616.12
602.345	1660.12
602.795	1682.12
603.245	1632.12
603.695	1562.12
604.145	1459.12
604.594	1384.12
605.044	1317.12
605.494	1243.12
605.944	1218.12
606.393	1136.12
606.843	1138.12
607.293	1104.12
607.743	1145.12
608.192	1132.12
608.642	1116.12
609.091	1142.12
609.541	1117.12
609.99	1147.12
610.44	1126.12
610.889	1108.12
611.339	1083.12
611.788	1075.12
612.238	1066.12
612.687	1036.12
613.136	1071.12
613.586	1054.12
614.035	1109.12
614.484	1104.12
614.933	1089.12
615.383	1057.12
615.832	1059.12
616.281	1056.12
616.73	1029.12
617.179	1002.12
617.628	978.12
618.077	951.12
618.526	961.12
618.975	965.12
619.424	945.12
619.873	927.12
620.322	931.12
620.771	952.12
621.22	906.12
621.669	907.12
622.118	906.12
622.567	908.12
623.015	872.12
623.464	848.12
623.913	843.12
624.361	873.12
624.81	856.12
625.259	880.12
625.707	857.12
626.156	890.12
626.604	848.12
627.053	868.12
627.501	840.12
627.95	908.12
628.398	902.12
628.847	891.12
629.295	872.12
629.744	856.12
630.192	865.12
630.64	850.12
631.089	822.12
631.537	829.12
631.985	820.12
632.433	787.12
632.881	802.12
633.33	793.12
633.778	802.12
634.226	797.12
634.674	823.12
635.122	835.12
635.57	830.12
636.018	849.12
636.466	836.12
636.914	844.12
637.362	845.12
637.81	882.12
638.258	866.12
638.705	912.12
639.153	933.12
639.601	922.12
640.049	941.12
640.497	953.12
640.944	1009.12
641.392	962.12
641.84	914.12
642.287	891.12
642.735	849.12
643.182	856.12
643.63	864.12
644.078	859.12
644.525	852.12
644.973	886.12
645.42	892.12
645.867	938.12
646.315	942.12
646.762	962.12
647.21	986.12
647.657	1034.12
648.104	1053.12
648.551	1059.12
648.999	1144.12
649.446	1232.12
649.893	1347.12
650.34	1584.12
650.787	1808.12
651.234	2251.12
651.682	2950.12
652.129	4185.12
652.576	5866.12
653.023	8090.12
653.47	9820.12
653.917	11080.12
654.363	11780.12
654.81	12282.12
655.257	12742.12
655.704	9862.12
656.151	6031.12
656.598	3883.12
657.044	2714.12
657.491	2114.12
657.938	1714.12
658.385	1500.12
658.831	1310.12
659.278	1197.12
659.724	1126.12
660.171	1013.12
660.618	976.12
661.064	913.12
661.511	877.12
661.957	858.12
662.404	848.12
662.85	841.12
663.296	827.12
663.743	821.12
664.189	790.12
664.635	782.12
665.082	778.12
665.528	762.12
665.974	726.12
666.42	711.12
666.867	734.12
667.313	710.12
667.759	682.12
668.205	676.12
668.651	663.12
669.097	692.12
669.543	696.12
669.989	689.12
670.435	698.12
670.881	702.12
671.327	749.12
671.773	771.12
672.219	802.12
672.665	845.12
673.11	872.12
673.556	898.12
674.002	888.12
674.448	907.12
674.893	843.12
675.339	726.12
675.785	694.12
676.23	634.12
676.676	613.12
677.122	570.12
677.567	563.12
678.013	566.12
678.458	573.12
678.904	584.12
679.349	580.12
679.794	607.12
680.24	550.12
680.685	557.12
681.131	524.12
681.576	554.12
682.021	546.12
682.466	541.12
682.912	565.12
683.357	573.12
683.802	611.12
684.247	649.12
684.692	705.12
685.137	729.12
685.583	758.12
686.028	784.12
686.473	771.12
686.918	698.12
687.363	645.12
687.807	592.12
688.252	574.12
688.697	561.12
689.142	536.12
689.587	528.12
690.032	534.12
690.477	579.12
690.921	563.12
691.366	610.12
691.811	611.12
692.255	642.12
692.7	721.12
693.145	945.12
693.589	1385.12
694.034	1814.12
694.478	2084.12
694.923	1883.12
695.367	2355.12
695.812	2169.12
696.256	904.12
696.701	625.12
697.145	565.12
697.59	532.12
698.034	508.12
698.478	519.12
698.922	514.12
699.367	518.12
699.811	540.12
700.255	570.12
700.699	612.12
701.143	682.12
701.588	692.12
702.032	711.12
702.476	746.12
702.92	770.12
703.364	876.12
703.808	1264.12
704.252	1701.12
704.696	1909.12
705.14	1791.12
705.584	2301.12
706.027	1896.12
706.471	916.12
706.915	650.12
707.359	549.12
707.803	548.12
708.246	509.12
708.69	495.12
709.134	501.12
709.577	514.12
710.021	505.12
710.465	466.12
710.908	486.12
711.352	498.12
711.795	532.12
712.239	562.12
712.682	574.12
713.126	602.12
713.569	627.12
714.012	580.12
714.456	496.12
714.899	495.12
715.342	467.12
715.786	422.12
716.229	446.12
716.672	390.12
717.115	412.12
717.558	406.12
718.002	422.12
718.445	442.12
718.888	455.12
719.331	455.12
719.774	472.12
720.217	477.12
720.66	456.12
721.103	442.12
721.546	409.12
721.989	384.12
722.432	397.12
722.874	395.12
723.317	401.12
723.76	417.12
724.203	447.12
724.645	595.12
725.088	705.12
725.531	753.12
725.974	770.12
726.416	794.12
726.859	554.12
727.301	411.12
727.744	410.12
728.187	400.12
728.629	415.12
729.071	399.12
729.514	433.12
729.956	426.12
730.399	454.12
730.841	438.12
731.283	462.12
731.726	444.12
732.168	435.12
732.61	430.12
733.053	485.12
733.495	540.12
733.937	555.12
734.379	616.12
734.821	750.12
735.263	995.12
735.705	1631.12
736.148	2746.12
736.59	3201.12
737.032	3014.12
737.474	3260.12
737.916	1612.12
738.357	800.12
738.799	552.12
739.241	506.12
739.683	519.12
740.125	478.12
740.567	500.12
741.008	510.12
741.45	539.12
741.892	553.12
742.334	575.12
742.775	580.12
743.217	598.12
743.658	506.12
744.1	490.12
744.542	539.12
744.983	569.12
745.425	584.12
745.866	611.12
746.307	540.12
