Data from 20170802-ORNL-NYSim-Air_HRD10391_10-37-25-637.txt Node
Date: Wed Aug 02 10:37:25 EDT 2017
User: Ender
Spectrometer: HR+D1039
Trigger mode: 0
Integration Time (sec): 1.510000E-3
Scans to average: 1
Electric dark correction enabled: true
Nonlinearity correction enabled: false
Boxcar width: 0
XAxis mode: Wavelengths
Number of Pixels in Spectrum: 2048
>>>>>Begin Spectral Data<<<<<
187.836	-0.56
188.309	-0.56
188.782	-0.56
189.255	-10.56
189.728	-1.56
190.201	-10.56
190.674	-10.56
191.147	-12.56
191.619	1.44
192.092	-5.56
192.565	-2.56
193.038	-4.56
193.511	-4.56
193.984	9.44
194.456	13.44
194.929	11.44
195.402	11.44
195.874	16.44
196.347	12.44
196.82	4.44
197.292	15.44
197.765	42.44
198.237	33.44
198.71	51.44
199.182	46.44
199.655	41.44
200.127	39.44
200.6	38.44
201.072	74.44
201.544	49.44
202.017	70.44
202.489	56.44
202.961	61.44
203.433	73.44
203.906	73.44
204.378	71.44
204.85	62.44
205.322	82.44
205.794	73.44
206.266	84.44
206.739	71.44
207.211	70.44
207.683	81.44
208.155	84.44
208.627	73.44
209.099	71.44
209.57	95.44
210.042	85.44
210.514	82.44
210.986	87.44
211.458	89.44
211.93	85.44
212.402	97.44
212.873	83.44
213.345	73.44
213.817	87.44
214.288	75.44
214.76	83.44
215.232	83.44
215.703	86.44
216.175	84.44
216.646	69.44
217.118	81.44
217.589	81.44
218.061	88.44
218.532	80.44
219.004	78.44
219.475	87.44
219.946	78.44
220.418	85.44
220.889	69.44
221.36	77.44
221.832	76.44
222.303	74.44
222.774	72.44
223.245	63.44
223.717	68.44
224.188	76.44
224.659	74.44
225.13	72.44
225.601	87.44
226.072	98.44
226.543	71.44
227.014	85.44
227.485	71.44
227.956	79.44
228.427	75.44
228.898	78.44
229.369	83.44
229.839	72.44
230.31	77.44
230.781	81.44
231.252	71.44
231.722	75.44
232.193	78.44
232.664	95.44
233.135	92.44
233.605	91.44
234.076	77.44
234.546	81.44
235.017	70.44
235.487	91.44
235.958	80.44
236.428	87.44
236.899	97.44
237.369	93.44
237.84	76.44
238.31	80.44
238.78	73.44
239.251	79.44
239.721	91.44
240.191	66.44
240.662	93.44
241.132	84.44
241.602	81.44
242.072	104.44
242.542	82.44
243.013	70.44
243.483	92.44
243.953	95.44
244.423	73.44
244.893	91.44
245.363	89.44
245.833	102.44
246.303	92.44
246.773	91.44
247.243	60.44
247.712	80.44
248.182	99.44
248.652	94.44
249.122	77.44
249.592	87.44
250.061	76.44
250.531	93.44
251.001	96.44
251.471	76.44
251.94	92.44
252.41	93.44
252.879	92.44
253.349	77.44
253.818	95.44
254.288	83.44
254.757	92.44
255.227	93.44
255.696	86.44
256.166	97.44
256.635	87.44
257.105	85.44
257.574	96.44
258.043	85.44
258.513	99.44
258.982	95.44
259.451	90.44
259.92	74.44
260.389	101.44
260.859	77.44
261.328	80.44
261.797	79.44
262.266	102.44
262.735	93.44
263.204	82.44
263.673	89.44
264.142	81.44
264.611	98.44
265.08	93.44
265.549	104.44
266.018	90.44
266.487	103.44
266.955	111.44
267.424	115.44
267.893	88.44
268.362	88.44
268.83	103.44
269.299	97.44
269.768	96.44
270.236	109.44
270.705	94.44
271.174	95.44
271.642	91.44
272.111	114.44
272.579	112.44
273.048	102.44
273.516	104.44
273.985	99.44
274.453	99.44
274.922	103.44
275.39	116.44
275.858	111.44
276.327	99.44
276.795	97.44
277.263	101.44
277.731	102.44
278.2	98.44
278.668	102.44
279.136	107.44
279.604	94.44
280.072	109.44
280.54	111.44
281.008	101.44
281.477	98.44
281.945	113.44
282.413	111.44
282.881	119.44
283.348	124.44
283.816	95.44
284.284	105.44
284.752	94.44
285.22	105.44
285.688	91.44
286.156	86.44
286.623	117.44
287.091	115.44
287.559	107.44
288.026	110.44
288.494	124.44
288.962	111.44
289.429	106.44
289.897	109.44
290.364	120.44
290.832	126.44
291.3	115.44
291.767	103.44
292.234	119.44
292.702	98.44
293.169	112.44
293.637	111.44
294.104	127.44
294.571	107.44
295.039	134.44
295.506	123.44
295.973	130.44
296.44	112.44
296.908	119.44
297.375	115.44
297.842	120.44
298.309	122.44
298.776	122.44
299.243	119.44
299.71	126.44
300.177	120.44
300.644	111.44
301.111	121.44
301.578	131.44
302.045	131.44
302.512	135.44
302.979	123.44
303.446	133.44
303.913	121.44
304.379	116.44
304.846	107.44
305.313	126.44
305.78	130.44
306.246	128.44
306.713	135.44
307.18	137.44
307.646	147.44
308.113	139.44
308.579	151.44
309.046	125.44
309.512	144.44
309.979	128.44
310.445	125.44
310.912	138.44
311.378	133.44
311.845	121.44
312.311	149.44
312.777	157.44
313.244	152.44
313.71	134.44
314.176	130.44
314.642	145.44
315.109	152.44
315.575	151.44
316.041	136.44
316.507	139.44
316.973	144.44
317.439	116.44
317.905	151.44
318.371	147.44
318.837	143.44
319.303	146.44
319.769	145.44
320.235	147.44
320.701	152.44
321.167	146.44
321.633	147.44
322.099	174.44
322.564	153.44
323.03	142.44
323.496	162.44
323.962	145.44
324.427	163.44
324.893	140.44
325.359	162.44
325.824	148.44
326.29	160.44
326.755	144.44
327.221	150.44
327.686	145.44
328.152	157.44
328.617	171.44
329.083	152.44
329.548	168.44
330.014	164.44
330.479	162.44
330.944	167.44
331.41	164.44
331.875	153.44
332.34	183.44
332.805	148.44
333.271	155.44
333.736	163.44
334.201	169.44
334.666	175.44
335.131	174.44
335.596	203.44
336.061	178.44
336.526	169.44
336.991	162.44
337.456	174.44
337.921	177.44
338.386	160.44
338.851	169.44
339.316	175.44
339.781	174.44
340.246	184.44
340.711	176.44
341.175	173.44
341.64	192.44
342.105	170.44
342.569	178.44
343.034	175.44
343.499	174.44
343.963	185.44
344.428	195.44
344.893	191.44
345.357	179.44
345.822	193.44
346.286	207.44
346.751	178.44
347.215	176.44
347.679	215.44
348.144	216.44
348.608	218.44
349.073	199.44
349.537	195.44
350.001	234.44
350.465	197.44
350.93	199.44
351.394	203.44
351.858	205.44
352.322	202.44
352.786	207.44
353.25	219.44
353.715	212.44
354.179	224.44
354.643	253.44
355.107	242.44
355.571	233.44
356.035	226.44
356.498	206.44
356.962	222.44
357.426	211.44
357.89	223.44
358.354	204.44
358.818	222.44
359.281	198.44
359.745	199.44
360.209	214.44
360.673	202.44
361.136	219.44
361.6	231.44
362.064	226.44
362.527	210.44
362.991	237.44
363.454	225.44
363.918	232.44
364.381	218.44
364.845	247.44
365.308	243.44
365.772	236.44
366.235	229.44
366.698	229.44
367.162	251.44
367.625	225.44
368.088	236.44
368.552	242.44
369.015	235.44
369.478	270.44
369.941	254.44
370.404	251.44
370.867	267.44
371.331	241.44
371.794	252.44
372.257	248.44
372.72	270.44
373.183	231.44
373.646	273.44
374.109	265.44
374.572	257.44
375.035	258.44
375.497	248.44
375.96	265.44
376.423	239.44
376.886	257.44
377.349	271.44
377.811	264.44
378.274	277.44
378.737	281.44
379.199	295.44
379.662	275.44
380.125	289.44
380.587	279.44
381.05	296.44
381.512	293.44
381.975	293.44
382.437	301.44
382.9	305.44
383.362	277.44
383.825	306.44
384.287	309.44
384.75	281.44
385.212	299.44
385.674	297.44
386.136	301.44
386.599	312.44
387.061	283.44
387.523	304.44
387.985	305.44
388.447	292.44
388.91	295.44
389.372	289.44
389.834	300.44
390.296	297.44
390.758	328.44
391.22	299.44
391.682	315.44
392.144	333.44
392.606	311.44
393.068	307.44
393.529	347.44
393.991	342.44
394.453	317.44
394.915	330.44
395.377	313.44
395.838	315.44
396.3	324.44
396.762	328.44
397.224	313.44
397.685	300.44
398.147	321.44
398.608	331.44
399.07	340.44
399.531	332.44
399.993	330.44
400.454	357.44
400.916	342.44
401.377	352.44
401.839	352.44
402.3	355.44
402.762	363.44
403.223	375.44
403.684	379.44
404.145	359.44
404.607	367.44
405.068	337.44
405.529	383.44
405.99	395.44
406.451	401.44
406.913	365.44
407.374	375.44
407.835	379.44
408.296	375.44
408.757	387.44
409.218	391.44
409.679	406.44
410.14	395.44
410.601	389.44
411.062	386.44
411.522	409.44
411.983	413.44
412.444	406.44
412.905	384.44
413.366	407.44
413.826	435.44
414.287	468.44
414.748	545.44
415.208	544.44
415.669	494.44
416.13	449.44
416.59	451.44
417.051	458.44
417.511	472.44
417.972	493.44
418.432	552.44
418.893	582.44
419.353	582.44
419.814	471.44
420.274	427.44
420.734	380.44
421.195	410.44
421.655	399.44
422.115	424.44
422.576	433.44
423.036	414.44
423.496	450.44
423.956	457.44
424.416	477.44
424.876	543.44
425.336	542.44
425.797	510.44
426.257	540.44
426.717	511.44
427.177	463.44
427.637	470.44
428.097	466.44
428.556	521.44
429.016	542.44
429.476	518.44
429.936	525.44
430.396	537.44
430.856	544.44
431.315	547.44
431.775	575.44
432.235	637.44
432.694	629.44
433.154	602.44
433.614	583.44
434.073	589.44
434.533	495.44
434.993	504.44
435.452	505.44
435.912	505.44
436.371	498.44
436.83	494.44
437.29	486.44
437.749	436.44
438.209	459.44
438.668	465.44
439.127	472.44
439.587	473.44
440.046	474.44
440.505	451.44
440.964	447.44
441.424	501.44
441.883	513.44
442.342	497.44
442.801	456.44
443.26	441.44
443.719	434.44
444.178	481.44
444.637	448.44
445.096	437.44
445.555	461.44
446.014	457.44
446.473	468.44
446.932	462.44
447.391	457.44
447.849	491.44
448.308	484.44
448.767	483.44
449.226	464.44
449.685	473.44
450.143	479.44
450.602	496.44
451.061	460.44
451.519	481.44
451.978	456.44
452.436	463.44
452.895	481.44
453.353	460.44
453.812	481.44
454.27	469.44
454.729	457.44
455.187	486.44
455.646	501.44
456.104	506.44
456.562	497.44
457.021	503.44
457.479	490.44
457.937	501.44
458.395	508.44
458.854	488.44
459.312	495.44
459.77	507.44
460.228	490.44
460.686	533.44
461.144	507.44
461.602	501.44
462.06	517.44
462.518	544.44
462.976	496.44
463.434	519.44
463.892	513.44
464.35	556.44
464.808	546.44
465.266	559.44
465.724	525.44
466.181	563.44
466.639	549.44
467.097	592.44
467.555	580.44
468.012	562.44
468.47	587.44
468.928	609.44
469.385	597.44
469.843	634.44
470.3	605.44
470.758	642.44
471.215	650.44
471.673	651.44
472.13	657.44
472.588	720.44
473.045	688.44
473.503	674.44
473.96	727.44
474.417	703.44
474.875	753.44
475.332	763.44
475.789	772.44
476.246	825.44
476.704	861.44
477.161	877.44
477.618	889.44
478.075	953.44
478.532	976.44
478.989	1023.44
479.446	1143.44
479.903	1199.44
480.36	1273.44
480.817	1394.44
481.274	1477.44
481.731	1585.44
482.188	1690.44
482.645	1799.44
483.102	1865.44
483.558	2030.44
484.015	2117.44
484.472	2157.44
484.929	2075.44
485.385	1994.44
485.842	1944.44
486.299	1875.44
486.755	1735.44
487.212	1569.44
487.668	1431.44
488.125	1325.44
488.582	1257.44
489.038	1219.44
489.494	1157.44
489.951	1126.44
490.407	1095.44
490.864	1061.44
491.32	1072.44
491.776	1096.44
492.233	1058.44
492.689	1029.44
493.145	1031.44
493.602	1029.44
494.058	1006.44
494.514	1016.44
494.97	1027.44
495.426	1054.44
495.882	1042.44
496.338	1054.44
496.794	1058.44
497.251	1027.44
497.707	1061.44
498.163	1072.44
498.618	1081.44
499.074	1079.44
499.53	1049.44
499.986	1051.44
500.442	1049.44
500.898	1039.44
501.354	1039.44
501.809	1095.44
502.265	1063.44
502.721	1048.44
503.177	1070.44
503.632	1055.44
504.088	1082.44
504.543	1099.44
504.999	1113.44
505.455	1107.44
505.91	1090.44
506.366	1095.44
506.821	1079.44
507.277	1077.44
507.732	1075.44
508.187	1078.44
508.643	1083.44
509.098	1099.44
509.553	1122.44
510.009	1146.44
510.464	1150.44
510.919	1119.44
511.375	1163.44
511.83	1185.44
512.285	1164.44
512.74	1235.44
513.195	1271.44
513.65	1237.44
514.105	1246.44
514.56	1253.44
515.015	1267.44
515.47	1278.44
515.925	1266.44
516.38	1269.44
516.835	1294.44
517.29	1253.44
517.745	1258.44
518.2	1266.44
518.655	1221.44
519.109	1177.44
519.564	1205.44
520.019	1193.44
520.474	1202.44
520.928	1184.44
521.383	1181.44
521.838	1168.44
522.292	1165.44
522.747	1138.44
523.201	1157.44
523.656	1109.44
524.11	1140.44
524.565	1145.44
525.019	1140.44
525.474	1144.44
525.928	1156.44
526.382	1141.44
526.837	1104.44
527.291	1110.44
527.745	1107.44
528.2	1149.44
528.654	1145.44
529.108	1100.44
529.562	1128.44
530.016	1119.44
530.47	1148.44
530.925	1106.44
531.379	1117.44
531.833	1125.44
532.287	1133.44
532.741	1157.44
533.195	1099.44
533.649	1141.44
534.103	1141.44
534.556	1137.44
535.01	1090.44
535.464	1100.44
535.918	1122.44
536.372	1155.44
536.826	1108.44
537.279	1111.44
537.733	1139.44
538.187	1118.44
538.64	1133.44
539.094	1141.44
539.548	1162.44
540.001	1157.44
540.455	1189.44
540.908	1155.44
541.362	1151.44
541.815	1168.44
542.269	1215.44
542.722	1259.44
543.175	1206.44
543.629	1199.44
544.082	1201.44
544.536	1230.44
544.989	1230.44
545.442	1231.44
545.895	1244.44
546.349	1223.44
546.802	1240.44
547.255	1237.44
547.708	1267.44
548.161	1255.44
548.614	1255.44
549.067	1283.44
549.52	1276.44
549.973	1269.44
550.426	1245.44
550.879	1259.44
551.332	1242.44
551.785	1239.44
552.238	1302.44
552.691	1247.44
553.144	1299.44
553.596	1309.44
554.049	1310.44
554.502	1333.44
554.955	1365.44
555.407	1358.44
555.86	1355.44
556.313	1359.44
556.765	1338.44
557.218	1339.44
557.67	1304.44
558.123	1307.44
558.576	1289.44
559.028	1311.44
559.48	1342.44
559.933	1327.44
560.385	1281.44
560.838	1249.44
561.29	1197.44
561.742	1223.44
562.195	1179.44
562.647	1181.44
563.099	1180.44
563.551	1195.44
564.004	1178.44
564.456	1163.44
564.908	1160.44
565.36	1110.44
565.812	1131.44
566.264	1112.44
566.716	1091.44
567.168	1054.44
567.62	1067.44
568.072	1068.44
568.524	1073.44
568.976	1052.44
569.428	1019.44
569.88	1035.44
570.332	1007.44
570.784	1010.44
571.235	1019.44
571.687	1094.44
572.139	1060.44
572.59	1056.44
573.042	1049.44
573.494	1079.44
573.945	1006.44
574.397	1036.44
574.849	1015.44
575.3	1018.44
575.752	1008.44
576.203	1011.44
576.655	1019.44
577.106	1009.44
577.557	1010.44
578.009	962.44
578.46	1008.44
578.912	995.44
579.363	1007.44
579.814	974.44
580.265	1007.44
580.717	1025.44
581.168	986.44
581.619	958.44
582.07	1029.44
582.521	991.44
582.972	1013.44
583.423	1021.44
583.875	1005.44
584.326	1054.44
584.777	1003.44
585.227	1009.44
585.678	1055.44
586.129	1076.44
586.58	1048.44
587.031	1067.44
587.482	1095.44
587.933	1119.44
588.384	1170.44
588.834	1089.44
589.285	1100.44
589.736	1091.44
590.186	1097.44
590.637	1094.44
591.088	1104.44
591.538	1093.44
591.989	1049.44
592.439	1063.44
592.89	1039.44
593.34	1018.44
593.791	1023.44
594.241	1015.44
594.692	1006.44
595.142	1023.44
595.593	993.44
596.043	1019.44
596.493	1019.44
596.943	1061.44
597.394	1039.44
597.844	1044.44
598.294	1059.44
598.744	1098.44
599.195	1147.44
599.645	1159.44
600.095	1241.44
600.545	1309.44
600.995	1344.44
601.445	1440.44
601.895	1522.44
602.345	1550.44
602.795	1543.44
603.245	1463.44
603.695	1404.44
604.145	1346.44
604.594	1302.44
605.044	1231.44
605.494	1161.44
605.944	1097.44
606.393	1049.44
606.843	1065.44
607.293	1047.44
607.743	1034.44
608.192	1045.44
608.642	1023.44
609.091	1002.44
609.541	1033.44
609.99	1033.44
610.44	1009.44
610.889	986.44
611.339	983.44
611.788	1004.44
612.238	979.44
612.687	1039.44
613.136	1002.44
613.586	1019.44
614.035	977.44
614.484	997.44
614.933	1024.44
615.383	991.44
615.832	963.44
616.281	953.44
616.73	952.44
617.179	917.44
617.628	917.44
618.077	909.44
618.526	881.44
618.975	867.44
619.424	895.44
619.873	875.44
620.322	868.44
620.771	823.44
621.22	837.44
621.669	798.44
622.118	807.44
622.567	826.44
623.015	764.44
623.464	818.44
623.913	778.44
624.361	798.44
624.81	777.44
625.259	759.44
625.707	795.44
626.156	787.44
626.604	809.44
627.053	800.44
627.501	807.44
627.95	813.44
628.398	841.44
628.847	816.44
629.295	811.44
629.744	852.44
630.192	784.44
630.64	791.44
631.089	736.44
631.537	767.44
631.985	747.44
632.433	745.44
632.881	760.44
633.33	749.44
633.778	751.44
634.226	756.44
634.674	761.44
635.122	750.44
635.57	753.44
636.018	766.44
636.466	782.44
636.914	760.44
637.362	779.44
637.81	792.44
638.258	799.44
638.705	825.44
639.153	849.44
639.601	858.44
640.049	882.44
640.497	883.44
640.944	928.44
641.392	871.44
641.84	845.44
642.287	814.44
642.735	815.44
643.182	793.44
643.63	764.44
644.078	801.44
644.525	784.44
644.973	814.44
645.42	815.44
645.867	855.44
646.315	867.44
646.762	881.44
647.21	895.44
647.657	941.44
648.104	964.44
648.551	970.44
648.999	1064.44
649.446	1161.44
649.893	1237.44
650.34	1431.44
650.787	1698.44
651.234	2145.44
651.682	2802.44
652.129	3923.44
652.576	5607.44
653.023	7666.44
653.47	9399.44
653.917	10462.44
654.363	11180.44
654.81	11578.44
655.257	12199.44
655.704	9276.44
656.151	5649.44
656.598	3609.44
657.044	2629.44
657.491	2024.44
657.938	1637.44
658.385	1395.44
658.831	1256.44
659.278	1135.44
659.724	1021.44
660.171	958.44
660.618	901.44
661.064	860.44
661.511	833.44
661.957	793.44
662.404	782.44
662.85	768.44
663.296	743.44
663.743	763.44
664.189	716.44
664.635	711.44
665.082	706.44
665.528	701.44
665.974	699.44
666.42	658.44
666.867	671.44
667.313	680.44
667.759	638.44
668.205	651.44
668.651	633.44
669.097	620.44
669.543	618.44
669.989	671.44
670.435	645.44
670.881	631.44
671.327	648.44
671.773	688.44
672.219	724.44
672.665	783.44
673.11	822.44
673.556	848.44
674.002	818.44
674.448	866.44
674.893	775.44
675.339	684.44
675.785	648.44
676.23	605.44
676.676	566.44
677.122	580.44
677.567	548.44
678.013	554.44
678.458	553.44
678.904	524.44
679.349	543.44
679.794	533.44
680.24	503.44
680.685	517.44
681.131	517.44
681.576	527.44
682.021	545.44
682.466	528.44
682.912	507.44
683.357	541.44
683.802	590.44
684.247	596.44
684.692	658.44
685.137	668.44
685.583	720.44
686.028	706.44
686.473	704.44
686.918	627.44
687.363	585.44
687.807	567.44
688.252	526.44
688.697	514.44
689.142	486.44
689.587	514.44
690.032	519.44
690.477	516.44
690.921	539.44
691.366	563.44
691.811	589.44
692.255	627.44
692.7	671.44
693.145	909.44
693.589	1312.44
694.034	1714.44
694.478	1837.44
694.923	1787.44
695.367	2129.44
695.812	1986.44
696.256	873.44
696.701	559.44
697.145	475.44
697.59	496.44
698.034	487.44
698.478	473.44
698.922	459.44
699.367	505.44
699.811	479.44
700.255	552.44
700.699	579.44
701.143	612.44
701.588	639.44
702.032	684.44
702.476	698.44
702.92	715.44
703.364	804.44
703.808	1177.44
704.252	1609.44
704.696	1758.44
705.14	1707.44
705.584	2071.44
706.027	1757.44
706.471	843.44
706.915	606.44
707.359	533.44
707.803	490.44
708.246	457.44
708.69	474.44
709.134	455.44
709.577	435.44
710.021	426.44
710.465	455.44
710.908	458.44
711.352	451.44
711.795	507.44
712.239	535.44
712.682	569.44
713.126	541.44
713.569	611.44
714.012	534.44
714.456	467.44
714.899	420.44
715.342	403.44
715.786	403.44
716.229	381.44
716.672	395.44
717.115	375.44
717.558	381.44
718.002	409.44
718.445	433.44
718.888	414.44
719.331	437.44
719.774	456.44
720.217	424.44
720.66	444.44
721.103	398.44
721.546	379.44
721.989	375.44
722.432	383.44
722.874	380.44
723.317	356.44
723.76	387.44
724.203	448.44
724.645	555.44
725.088	695.44
725.531	719.44
725.974	690.44
726.416	734.44
726.859	514.44
727.301	392.44
727.744	373.44
728.187	348.44
728.629	364.44
729.071	375.44
729.514	381.44
729.956	411.44
730.399	435.44
730.841	397.44
731.283	421.44
731.726	394.44
732.168	437.44
732.61	429.44
733.053	440.44
733.495	462.44
733.937	557.44
734.379	576.44
734.821	708.44
735.263	918.44
735.705	1589.44
736.148	2553.44
736.59	2947.44
737.032	2784.44
737.474	3000.44
737.916	1497.44
738.357	717.44
738.799	505.44
739.241	474.44
739.683	441.44
740.125	459.44
740.567	489.44
741.008	460.44
741.45	511.44
741.892	536.44
742.334	500.44
742.775	537.44
743.217	555.44
743.658	515.44
744.1	446.44
744.542	483.44
744.983	534.44
745.425	538.44
745.866	555.44
746.307	489.44
746.749	455.44
747.19	576.44
