Data from 20170802-ORNL-NYSim-Air_HRD10391_10-36-38-614.txt Node
Date: Wed Aug 02 10:36:38 EDT 2017
User: Ender
Spectrometer: HR+D1039
Trigger mode: 0
Integration Time (sec): 1.510000E-3
Scans to average: 1
Electric dark correction enabled: true
Nonlinearity correction enabled: false
Boxcar width: 0
XAxis mode: Wavelengths
Number of Pixels in Spectrum: 2048
>>>>>Begin Spectral Data<<<<<
187.836	0.94
188.309	0.94
188.782	0.94
189.255	-7.06
189.728	-4.06
190.201	-10.06
190.674	-2.06
191.147	-14.06
191.619	3.94
192.092	-17.06
192.565	6.94
193.038	0.94
193.511	3.94
193.984	-5.06
194.456	-5.06
194.929	4.94
195.402	10.94
195.874	31.94
196.347	24.94
196.82	22.94
197.292	24.94
197.765	34.94
198.237	45.94
198.71	32.94
199.182	39.94
199.655	34.94
200.127	44.94
200.6	48.94
201.072	51.94
201.544	67.94
202.017	46.94
202.489	66.94
202.961	84.94
203.433	87.94
203.906	69.94
204.378	84.94
204.85	68.94
205.322	86.94
205.794	88.94
206.266	107.94
206.739	80.94
207.211	96.94
207.683	86.94
208.155	87.94
208.627	83.94
209.099	98.94
209.57	75.94
210.042	85.94
210.514	92.94
210.986	79.94
211.458	83.94
211.93	77.94
212.402	87.94
212.873	85.94
213.345	99.94
213.817	74.94
214.288	87.94
214.76	85.94
215.232	82.94
215.703	73.94
216.175	62.94
216.646	77.94
217.118	75.94
217.589	83.94
218.061	78.94
218.532	94.94
219.004	95.94
219.475	80.94
219.946	78.94
220.418	83.94
220.889	86.94
221.36	73.94
221.832	92.94
222.303	94.94
222.774	70.94
223.245	82.94
223.717	75.94
224.188	81.94
224.659	82.94
225.13	90.94
225.601	64.94
226.072	69.94
226.543	79.94
227.014	71.94
227.485	72.94
227.956	85.94
228.427	88.94
228.898	72.94
229.369	64.94
229.839	67.94
230.31	83.94
230.781	81.94
231.252	71.94
231.722	62.94
232.193	81.94
232.664	99.94
233.135	66.94
233.605	93.94
234.076	77.94
234.546	82.94
235.017	84.94
235.487	71.94
235.958	94.94
236.428	83.94
236.899	88.94
237.369	88.94
237.84	82.94
238.31	95.94
238.78	86.94
239.251	88.94
239.721	89.94
240.191	104.94
240.662	85.94
241.132	84.94
241.602	87.94
242.072	86.94
242.542	70.94
243.013	81.94
243.483	75.94
243.953	72.94
244.423	83.94
244.893	86.94
245.363	94.94
245.833	81.94
246.303	70.94
246.773	80.94
247.243	77.94
247.712	91.94
248.182	90.94
248.652	90.94
249.122	85.94
249.592	94.94
250.061	98.94
250.531	97.94
251.001	95.94
251.471	92.94
251.94	78.94
252.41	78.94
252.879	89.94
253.349	81.94
253.818	84.94
254.288	97.94
254.757	88.94
255.227	98.94
255.696	99.94
256.166	103.94
256.635	98.94
257.105	94.94
257.574	90.94
258.043	77.94
258.513	92.94
258.982	98.94
259.451	84.94
259.92	109.94
260.389	86.94
260.859	92.94
261.328	87.94
261.797	96.94
262.266	94.94
262.735	97.94
263.204	101.94
263.673	78.94
264.142	96.94
264.611	102.94
265.08	98.94
265.549	104.94
266.018	100.94
266.487	97.94
266.955	78.94
267.424	98.94
267.893	100.94
268.362	91.94
268.83	112.94
269.299	97.94
269.768	99.94
270.236	100.94
270.705	110.94
271.174	94.94
271.642	103.94
272.111	117.94
272.579	110.94
273.048	77.94
273.516	112.94
273.985	85.94
274.453	106.94
274.922	103.94
275.39	108.94
275.858	95.94
276.327	94.94
276.795	123.94
277.263	101.94
277.731	87.94
278.2	103.94
278.668	113.94
279.136	103.94
279.604	115.94
280.072	124.94
280.54	101.94
281.008	114.94
281.477	110.94
281.945	76.94
282.413	102.94
282.881	122.94
283.348	108.94
283.816	108.94
284.284	124.94
284.752	125.94
285.22	111.94
285.688	126.94
286.156	115.94
286.623	128.94
287.091	132.94
287.559	115.94
288.026	119.94
288.494	111.94
288.962	111.94
289.429	112.94
289.897	143.94
290.364	116.94
290.832	128.94
291.3	107.94
291.767	126.94
292.234	110.94
292.702	118.94
293.169	114.94
293.637	124.94
294.104	130.94
294.571	108.94
295.039	119.94
295.506	121.94
295.973	126.94
296.44	120.94
296.908	126.94
297.375	115.94
297.842	116.94
298.309	141.94
298.776	126.94
299.243	140.94
299.71	136.94
300.177	124.94
300.644	132.94
301.111	127.94
301.578	127.94
302.045	117.94
302.512	137.94
302.979	121.94
303.446	136.94
303.913	138.94
304.379	119.94
304.846	123.94
305.313	130.94
305.78	136.94
306.246	136.94
306.713	144.94
307.18	146.94
307.646	142.94
308.113	157.94
308.579	158.94
309.046	154.94
309.512	140.94
309.979	138.94
310.445	140.94
310.912	129.94
311.378	140.94
311.845	153.94
312.311	140.94
312.777	127.94
313.244	161.94
313.71	152.94
314.176	134.94
314.642	146.94
315.109	164.94
315.575	154.94
316.041	152.94
316.507	152.94
316.973	141.94
317.439	138.94
317.905	156.94
318.371	156.94
318.837	159.94
319.303	157.94
319.769	154.94
320.235	140.94
320.701	146.94
321.167	156.94
321.633	154.94
322.099	157.94
322.564	171.94
323.03	155.94
323.496	154.94
323.962	158.94
324.427	150.94
324.893	160.94
325.359	145.94
325.824	168.94
326.29	157.94
326.755	172.94
327.221	183.94
327.686	176.94
328.152	168.94
328.617	170.94
329.083	173.94
329.548	166.94
330.014	186.94
330.479	190.94
330.944	182.94
331.41	187.94
331.875	170.94
332.34	172.94
332.805	173.94
333.271	168.94
333.736	165.94
334.201	176.94
334.666	191.94
335.131	174.94
335.596	190.94
336.061	164.94
336.526	165.94
336.991	168.94
337.456	175.94
337.921	184.94
338.386	164.94
338.851	204.94
339.316	189.94
339.781	182.94
340.246	182.94
340.711	167.94
341.175	178.94
341.64	188.94
342.105	192.94
342.569	186.94
343.034	210.94
343.499	195.94
343.963	195.94
344.428	203.94
344.893	206.94
345.357	214.94
345.822	219.94
346.286	208.94
346.751	196.94
347.215	216.94
347.679	221.94
348.144	203.94
348.608	227.94
349.073	230.94
349.537	206.94
350.001	207.94
350.465	219.94
350.93	224.94
351.394	225.94
351.858	215.94
352.322	234.94
352.786	232.94
353.25	231.94
353.715	230.94
354.179	232.94
354.643	239.94
355.107	254.94
355.571	224.94
356.035	242.94
356.498	232.94
356.962	243.94
357.426	249.94
357.89	247.94
358.354	221.94
358.818	246.94
359.281	251.94
359.745	236.94
360.209	265.94
360.673	234.94
361.136	250.94
361.6	230.94
362.064	248.94
362.527	253.94
362.991	253.94
363.454	252.94
363.918	254.94
364.381	253.94
364.845	248.94
365.308	266.94
365.772	249.94
366.235	256.94
366.698	264.94
367.162	238.94
367.625	268.94
368.088	261.94
368.552	265.94
369.015	271.94
369.478	281.94
369.941	265.94
370.404	257.94
370.867	280.94
371.331	271.94
371.794	273.94
372.257	288.94
372.72	276.94
373.183	256.94
373.646	270.94
374.109	294.94
374.572	282.94
375.035	304.94
375.497	277.94
375.96	281.94
376.423	283.94
376.886	304.94
377.349	289.94
377.811	298.94
378.274	314.94
378.737	289.94
379.199	311.94
379.662	301.94
380.125	315.94
380.587	312.94
381.05	295.94
381.512	329.94
381.975	312.94
382.437	318.94
382.9	310.94
383.362	320.94
383.825	327.94
384.287	326.94
384.75	307.94
385.212	326.94
385.674	320.94
386.136	330.94
386.599	328.94
387.061	336.94
387.523	317.94
387.985	344.94
388.447	340.94
388.91	325.94
389.372	334.94
389.834	343.94
390.296	321.94
390.758	341.94
391.22	337.94
391.682	361.94
392.144	342.94
392.606	349.94
393.068	382.94
393.529	382.94
393.991	362.94
394.453	350.94
394.915	356.94
395.377	360.94
395.838	363.94
396.3	353.94
396.762	357.94
397.224	360.94
397.685	351.94
398.147	360.94
398.608	343.94
399.07	383.94
399.531	363.94
399.993	376.94
400.454	403.94
400.916	347.94
401.377	374.94
401.839	394.94
402.3	390.94
402.762	386.94
403.223	419.94
403.684	420.94
404.145	390.94
404.607	417.94
405.068	378.94
405.529	412.94
405.99	390.94
406.451	421.94
406.913	411.94
407.374	383.94
407.835	382.94
408.296	411.94
408.757	401.94
409.218	424.94
409.679	434.94
410.14	440.94
410.601	446.94
411.062	422.94
411.522	460.94
411.983	447.94
412.444	444.94
412.905	466.94
413.366	471.94
413.826	471.94
414.287	531.94
414.748	599.94
415.208	618.94
415.669	537.94
416.13	520.94
416.59	495.94
417.051	493.94
417.511	525.94
417.972	563.94
418.432	583.94
418.893	613.94
419.353	612.94
419.814	507.94
420.274	469.94
420.734	455.94
421.195	446.94
421.655	459.94
422.115	459.94
422.576	497.94
423.036	461.94
423.496	525.94
423.956	517.94
424.416	508.94
424.876	609.94
425.336	596.94
425.797	569.94
426.257	557.94
426.717	540.94
427.177	511.94
427.637	522.94
428.097	555.94
428.556	563.94
429.016	580.94
429.476	593.94
429.936	585.94
430.396	564.94
430.856	600.94
431.315	623.94
431.775	670.94
432.235	681.94
432.694	717.94
433.154	677.94
433.614	646.94
434.073	656.94
434.533	596.94
434.993	578.94
435.452	561.94
435.912	572.94
436.371	558.94
436.83	557.94
437.29	541.94
437.749	524.94
438.209	532.94
438.668	525.94
439.127	527.94
439.587	551.94
440.046	520.94
440.505	528.94
440.964	533.94
441.424	558.94
441.883	560.94
442.342	520.94
442.801	510.94
443.26	499.94
443.719	516.94
444.178	522.94
444.637	496.94
445.096	501.94
445.555	521.94
446.014	513.94
446.473	505.94
446.932	517.94
447.391	538.94
447.849	507.94
448.308	510.94
448.767	531.94
449.226	502.94
449.685	522.94
450.143	558.94
450.602	569.94
451.061	527.94
451.519	536.94
451.978	551.94
452.436	530.94
452.895	522.94
453.353	503.94
453.812	530.94
454.27	532.94
454.729	523.94
455.187	538.94
455.646	542.94
456.104	561.94
456.562	555.94
457.021	543.94
457.479	539.94
457.937	544.94
458.395	584.94
458.854	561.94
459.312	542.94
459.77	536.94
460.228	525.94
460.686	569.94
461.144	561.94
461.602	552.94
462.06	575.94
462.518	563.94
462.976	562.94
463.434	594.94
463.892	564.94
464.35	600.94
464.808	595.94
465.266	582.94
465.724	600.94
466.181	608.94
466.639	616.94
467.097	614.94
467.555	624.94
468.012	648.94
468.47	629.94
468.928	670.94
469.385	660.94
469.843	689.94
470.3	675.94
470.758	707.94
471.215	727.94
471.673	719.94
472.13	764.94
472.588	780.94
473.045	771.94
473.503	770.94
473.96	786.94
474.417	798.94
474.875	864.94
475.332	865.94
475.789	870.94
476.246	899.94
476.704	964.94
477.161	970.94
477.618	1000.94
478.075	1021.94
478.532	1088.94
478.989	1186.94
479.446	1317.94
479.903	1371.94
480.36	1476.94
480.817	1544.94
481.274	1647.94
481.731	1778.94
482.188	1934.94
482.645	2096.94
483.102	2149.94
483.558	2345.94
484.015	2393.94
484.472	2410.94
484.929	2351.94
485.385	2244.94
485.842	2204.94
486.299	2152.94
486.755	1999.94
487.212	1782.94
487.668	1648.94
488.125	1501.94
488.582	1406.94
489.038	1358.94
489.494	1322.94
489.951	1266.94
490.407	1231.94
490.864	1202.94
491.32	1167.94
491.776	1180.94
492.233	1202.94
492.689	1183.94
493.145	1190.94
493.602	1089.94
494.058	1133.94
494.514	1147.94
494.97	1148.94
495.426	1174.94
495.882	1171.94
496.338	1146.94
496.794	1136.94
497.251	1156.94
497.707	1176.94
498.163	1180.94
498.618	1160.94
499.074	1172.94
499.53	1156.94
499.986	1149.94
500.442	1142.94
500.898	1191.94
501.354	1193.94
501.809	1184.94
502.265	1178.94
502.721	1189.94
503.177	1199.94
503.632	1176.94
504.088	1176.94
504.543	1209.94
504.999	1201.94
505.455	1243.94
505.91	1168.94
506.366	1214.94
506.821	1202.94
507.277	1235.94
507.732	1215.94
508.187	1236.94
508.643	1240.94
509.098	1208.94
509.553	1210.94
510.009	1240.94
510.464	1288.94
510.919	1277.94
511.375	1289.94
511.83	1334.94
512.285	1320.94
512.74	1382.94
513.195	1393.94
513.65	1357.94
514.105	1354.94
514.56	1410.94
515.015	1466.94
515.47	1434.94
515.925	1398.94
516.38	1407.94
516.835	1400.94
517.29	1415.94
517.745	1426.94
518.2	1392.94
518.655	1357.94
519.109	1404.94
519.564	1354.94
520.019	1321.94
520.474	1344.94
520.928	1340.94
521.383	1301.94
521.838	1328.94
522.292	1338.94
522.747	1284.94
523.201	1274.94
523.656	1281.94
524.11	1253.94
524.565	1263.94
525.019	1307.94
525.474	1271.94
525.928	1258.94
526.382	1267.94
526.837	1253.94
527.291	1265.94
527.745	1244.94
528.2	1292.94
528.654	1242.94
529.108	1228.94
529.562	1280.94
530.016	1221.94
530.47	1247.94
530.925	1272.94
531.379	1266.94
531.833	1247.94
532.287	1255.94
532.741	1260.94
533.195	1289.94
533.649	1267.94
534.103	1265.94
534.556	1236.94
535.01	1244.94
535.464	1231.94
535.918	1240.94
536.372	1241.94
536.826	1269.94
537.279	1269.94
537.733	1265.94
538.187	1264.94
538.64	1231.94
539.094	1252.94
539.548	1272.94
540.001	1245.94
540.455	1262.94
540.908	1290.94
541.362	1285.94
541.815	1290.94
542.269	1390.94
542.722	1327.94
543.175	1358.94
543.629	1342.94
544.082	1342.94
544.536	1365.94
544.989	1413.94
545.442	1398.94
545.895	1357.94
546.349	1388.94
546.802	1406.94
547.255	1442.94
547.708	1406.94
548.161	1447.94
548.614	1400.94
549.067	1387.94
549.52	1421.94
549.973	1411.94
550.426	1411.94
550.879	1369.94
551.332	1390.94
551.785	1393.94
552.238	1396.94
552.691	1439.94
553.144	1464.94
553.596	1439.94
554.049	1452.94
554.502	1512.94
554.955	1496.94
555.407	1544.94
555.86	1545.94
556.313	1555.94
556.765	1498.94
557.218	1458.94
557.67	1470.94
558.123	1450.94
558.576	1473.94
559.028	1444.94
559.48	1473.94
559.933	1464.94
560.385	1462.94
560.838	1406.94
561.29	1368.94
561.742	1335.94
562.195	1330.94
562.647	1311.94
563.099	1297.94
563.551	1310.94
564.004	1304.94
564.456	1338.94
564.908	1271.94
565.36	1266.94
565.812	1230.94
566.264	1205.94
566.716	1210.94
567.168	1192.94
567.62	1184.94
568.072	1230.94
568.524	1161.94
568.976	1137.94
569.428	1168.94
569.88	1155.94
570.332	1188.94
570.784	1127.94
571.235	1134.94
571.687	1163.94
572.139	1160.94
572.59	1158.94
573.042	1188.94
573.494	1165.94
573.945	1167.94
574.397	1153.94
574.849	1157.94
575.3	1148.94
575.752	1127.94
576.203	1130.94
576.655	1094.94
577.106	1126.94
577.557	1101.94
578.009	1105.94
578.46	1121.94
578.912	1118.94
579.363	1124.94
579.814	1100.94
580.265	1112.94
580.717	1108.94
581.168	1094.94
581.619	1146.94
582.07	1140.94
582.521	1124.94
582.972	1126.94
583.423	1097.94
583.875	1141.94
584.326	1111.94
584.777	1113.94
585.227	1181.94
585.678	1166.94
586.129	1173.94
586.58	1206.94
587.031	1199.94
587.482	1238.94
587.933	1245.94
588.384	1228.94
588.834	1224.94
589.285	1265.94
589.736	1220.94
590.186	1204.94
590.637	1219.94
591.088	1228.94
591.538	1200.94
591.989	1169.94
592.439	1153.94
592.89	1130.94
593.34	1121.94
593.791	1120.94
594.241	1106.94
594.692	1128.94
595.142	1103.94
595.593	1110.94
596.043	1091.94
596.493	1152.94
596.943	1148.94
597.394	1176.94
597.844	1142.94
598.294	1145.94
598.744	1211.94
599.195	1227.94
599.645	1341.94
600.095	1407.94
600.545	1453.94
600.995	1487.94
601.445	1558.94
601.895	1638.94
602.345	1668.94
602.795	1694.94
603.245	1649.94
603.695	1574.94
604.145	1461.94
604.594	1404.94
605.044	1395.94
605.494	1291.94
605.944	1260.94
606.393	1147.94
606.843	1160.94
607.293	1160.94
607.743	1131.94
608.192	1156.94
608.642	1119.94
609.091	1121.94
609.541	1128.94
609.99	1122.94
610.44	1116.94
610.889	1098.94
611.339	1100.94
611.788	1100.94
612.238	1102.94
612.687	1087.94
613.136	1123.94
613.586	1107.94
614.035	1119.94
614.484	1138.94
614.933	1115.94
615.383	1103.94
615.832	1068.94
616.281	1043.94
616.73	1026.94
617.179	998.94
617.628	1022.94
618.077	980.94
618.526	1003.94
618.975	974.94
619.424	960.94
619.873	964.94
620.322	944.94
620.771	975.94
621.22	926.94
621.669	930.94
622.118	896.94
622.567	904.94
623.015	898.94
623.464	891.94
623.913	883.94
624.361	869.94
624.81	868.94
625.259	871.94
625.707	861.94
626.156	882.94
626.604	894.94
627.053	893.94
627.501	874.94
627.95	896.94
628.398	883.94
628.847	917.94
629.295	904.94
629.744	876.94
630.192	884.94
630.64	871.94
631.089	868.94
631.537	832.94
631.985	789.94
632.433	824.94
632.881	829.94
633.33	824.94
633.778	812.94
634.226	847.94
634.674	838.94
635.122	829.94
635.57	851.94
636.018	859.94
636.466	876.94
636.914	852.94
637.362	882.94
637.81	879.94
638.258	925.94
638.705	905.94
639.153	929.94
639.601	959.94
640.049	960.94
640.497	982.94
640.944	1039.94
641.392	981.94
641.84	949.94
642.287	891.94
642.735	869.94
643.182	888.94
643.63	865.94
644.078	895.94
644.525	882.94
644.973	883.94
645.42	935.94
645.867	943.94
646.315	993.94
646.762	976.94
647.21	1022.94
647.657	1076.94
648.104	1108.94
648.551	1129.94
648.999	1208.94
649.446	1282.94
649.893	1416.94
650.34	1652.94
650.787	1909.94
651.234	2415.94
651.682	3246.94
652.129	4458.94
652.576	6371.94
653.023	8722.94
653.47	10736.94
653.917	11963.94
654.363	12640.94
654.81	13312.94
655.257	14010.94
655.704	10648.94
656.151	6446.94
656.598	4163.94
657.044	2963.94
657.491	2313.94
657.938	1863.94
658.385	1576.94
658.831	1420.94
659.278	1282.94
659.724	1150.94
660.171	1079.94
660.618	1018.94
661.064	920.94
661.511	908.94
661.957	881.94
662.404	865.94
662.85	857.94
663.296	846.94
663.743	834.94
664.189	830.94
664.635	831.94
665.082	771.94
665.528	791.94
665.974	740.94
666.42	738.94
666.867	743.94
667.313	708.94
667.759	726.94
668.205	708.94
668.651	689.94
669.097	745.94
669.543	712.94
669.989	705.94
670.435	706.94
670.881	730.94
671.327	752.94
671.773	763.94
672.219	788.94
672.665	872.94
673.11	914.94
673.556	919.94
674.002	929.94
674.448	972.94
674.893	862.94
675.339	762.94
675.785	697.94
676.23	657.94
676.676	628.94
677.122	617.94
677.567	595.94
678.013	586.94
678.458	589.94
678.904	580.94
679.349	556.94
679.794	564.94
680.24	558.94
680.685	577.94
681.131	557.94
681.576	570.94
682.021	552.94
682.466	545.94
682.912	601.94
683.357	581.94
683.802	614.94
684.247	676.94
684.692	697.94
685.137	773.94
685.583	754.94
686.028	778.94
686.473	784.94
686.918	697.94
687.363	627.94
687.807	635.94
688.252	576.94
688.697	566.94
689.142	542.94
689.587	511.94
690.032	558.94
690.477	572.94
690.921	582.94
691.366	630.94
691.811	618.94
692.255	691.94
692.7	735.94
693.145	958.94
693.589	1403.94
694.034	1912.94
694.478	2073.94
694.923	1946.94
695.367	2387.94
695.812	2186.94
696.256	932.94
696.701	616.94
697.145	563.94
697.59	554.94
698.034	528.94
698.478	514.94
698.922	526.94
699.367	541.94
699.811	531.94
700.255	613.94
700.699	622.94
701.143	683.94
701.588	717.94
702.032	721.94
702.476	780.94
702.92	796.94
703.364	915.94
703.808	1294.94
704.252	1742.94
704.696	1974.94
705.14	1884.94
705.584	2349.94
706.027	1885.94
706.471	910.94
706.915	652.94
707.359	576.94
707.803	522.94
708.246	484.94
708.69	496.94
709.134	486.94
709.577	477.94
710.021	501.94
710.465	500.94
710.908	499.94
711.352	522.94
711.795	534.94
712.239	599.94
712.682	623.94
713.126	593.94
713.569	647.94
714.012	600.94
714.456	503.94
714.899	484.94
715.342	462.94
715.786	441.94
716.229	414.94
716.672	412.94
717.115	428.94
717.558	422.94
718.002	414.94
718.445	448.94
718.888	474.94
719.331	473.94
719.774	462.94
720.217	481.94
720.66	495.94
721.103	435.94
721.546	426.94
721.989	409.94
722.432	404.94
722.874	396.94
723.317	423.94
723.76	422.94
724.203	476.94
724.645	583.94
725.088	757.94
725.531	750.94
725.974	769.94
726.416	861.94
726.859	568.94
727.301	438.94
727.744	434.94
728.187	394.94
728.629	385.94
729.071	415.94
729.514	410.94
729.956	450.94
730.399	449.94
730.841	456.94
731.283	427.94
731.726	449.94
732.168	452.94
732.61	464.94
733.053	494.94
733.495	510.94
733.937	554.94
734.379	642.94
734.821	762.94
735.263	1008.94
735.705	1713.94
736.148	2745.94
736.59	3260.94
737.032	3017.94
737.474	3260.94
737.916	1626.94
738.357	821.94
738.799	554.94
739.241	490.94
739.683	502.94
740.125	501.94
740.567	524.94
741.008	516.94
741.45	574.94
741.892	598.94
742.334	600.94
742.775	593.94
743.217	601.94
743.658	515.94
744.1	502.94
744.542	531.94
744.983	612.94
745.425	593.94
745.866	634.94
746.307	523.94
