Data from 20170802-ORNL-NYSim-Air_HRD10391_10-37-20-634.txt Node
Date: Wed Aug 02 10:37:20 EDT 2017
User: Ender
Spectrometer: HR+D1039
Trigger mode: 0
Integration Time (sec): 1.510000E-3
Scans to average: 1
Electric dark correction enabled: true
Nonlinearity correction enabled: false
Boxcar width: 0
XAxis mode: Wavelengths
Number of Pixels in Spectrum: 2048
>>>>>Begin Spectral Data<<<<<
187.836	-0.75
188.309	-0.75
188.782	-0.75
189.255	2.25
189.728	-10.75
190.201	-4.75
190.674	-12.75
191.147	-14.75
191.619	6.25
192.092	4.25
192.565	6.25
193.038	4.25
193.511	-13.75
193.984	19.25
194.456	3.25
194.929	1.25
195.402	-4.75
195.874	15.25
196.347	26.25
196.82	30.25
197.292	29.25
197.765	38.25
198.237	50.25
198.71	43.25
199.182	46.25
199.655	49.25
200.127	58.25
200.6	43.25
201.072	70.25
201.544	49.25
202.017	64.25
202.489	77.25
202.961	66.25
203.433	72.25
203.906	69.25
204.378	75.25
204.85	85.25
205.322	81.25
205.794	78.25
206.266	69.25
206.739	79.25
207.211	78.25
207.683	97.25
208.155	100.25
208.627	110.25
209.099	88.25
209.57	77.25
210.042	77.25
210.514	84.25
210.986	65.25
211.458	95.25
211.93	87.25
212.402	84.25
212.873	86.25
213.345	88.25
213.817	55.25
214.288	91.25
214.76	73.25
215.232	99.25
215.703	90.25
216.175	73.25
216.646	70.25
217.118	78.25
217.589	92.25
218.061	91.25
218.532	80.25
219.004	93.25
219.475	90.25
219.946	76.25
220.418	76.25
220.889	93.25
221.36	84.25
221.832	89.25
222.303	75.25
222.774	83.25
223.245	80.25
223.717	70.25
224.188	80.25
224.659	82.25
225.13	85.25
225.601	62.25
226.072	75.25
226.543	87.25
227.014	81.25
227.485	73.25
227.956	65.25
228.427	75.25
228.898	82.25
229.369	72.25
229.839	85.25
230.31	82.25
230.781	84.25
231.252	80.25
231.722	99.25
232.193	63.25
232.664	74.25
233.135	71.25
233.605	80.25
234.076	73.25
234.546	88.25
235.017	100.25
235.487	79.25
235.958	70.25
236.428	88.25
236.899	99.25
237.369	85.25
237.84	71.25
238.31	85.25
238.78	80.25
239.251	99.25
239.721	73.25
240.191	89.25
240.662	102.25
241.132	91.25
241.602	95.25
242.072	92.25
242.542	84.25
243.013	91.25
243.483	85.25
243.953	79.25
244.423	95.25
244.893	78.25
245.363	82.25
245.833	88.25
246.303	77.25
246.773	93.25
247.243	91.25
247.712	81.25
248.182	92.25
248.652	93.25
249.122	87.25
249.592	81.25
250.061	104.25
250.531	80.25
251.001	67.25
251.471	97.25
251.94	93.25
252.41	105.25
252.879	100.25
253.349	89.25
253.818	91.25
254.288	91.25
254.757	83.25
255.227	105.25
255.696	100.25
256.166	105.25
256.635	100.25
257.105	103.25
257.574	89.25
258.043	108.25
258.513	104.25
258.982	82.25
259.451	90.25
259.92	98.25
260.389	99.25
260.859	104.25
261.328	95.25
261.797	98.25
262.266	72.25
262.735	97.25
263.204	102.25
263.673	95.25
264.142	90.25
264.611	102.25
265.08	89.25
265.549	101.25
266.018	112.25
266.487	101.25
266.955	103.25
267.424	110.25
267.893	106.25
268.362	101.25
268.83	103.25
269.299	100.25
269.768	105.25
270.236	108.25
270.705	98.25
271.174	102.25
271.642	109.25
272.111	108.25
272.579	93.25
273.048	105.25
273.516	107.25
273.985	95.25
274.453	102.25
274.922	110.25
275.39	108.25
275.858	119.25
276.327	81.25
276.795	96.25
277.263	95.25
277.731	119.25
278.2	107.25
278.668	102.25
279.136	101.25
279.604	108.25
280.072	105.25
280.54	91.25
281.008	115.25
281.477	105.25
281.945	110.25
282.413	108.25
282.881	93.25
283.348	123.25
283.816	101.25
284.284	89.25
284.752	107.25
285.22	107.25
285.688	98.25
286.156	107.25
286.623	107.25
287.091	106.25
287.559	106.25
288.026	119.25
288.494	131.25
288.962	124.25
289.429	118.25
289.897	123.25
290.364	132.25
290.832	129.25
291.3	103.25
291.767	116.25
292.234	108.25
292.702	119.25
293.169	118.25
293.637	112.25
294.104	129.25
294.571	119.25
295.039	117.25
295.506	123.25
295.973	109.25
296.44	120.25
296.908	129.25
297.375	119.25
297.842	138.25
298.309	139.25
298.776	134.25
299.243	121.25
299.71	118.25
300.177	127.25
300.644	120.25
301.111	124.25
301.578	127.25
302.045	117.25
302.512	129.25
302.979	135.25
303.446	125.25
303.913	124.25
304.379	124.25
304.846	158.25
305.313	117.25
305.78	137.25
306.246	132.25
306.713	123.25
307.18	123.25
307.646	128.25
308.113	139.25
308.579	136.25
309.046	126.25
309.512	138.25
309.979	167.25
310.445	127.25
310.912	140.25
311.378	167.25
311.845	146.25
312.311	157.25
312.777	153.25
313.244	140.25
313.71	137.25
314.176	144.25
314.642	152.25
315.109	166.25
315.575	149.25
316.041	154.25
316.507	148.25
316.973	124.25
317.439	159.25
317.905	147.25
318.371	145.25
318.837	144.25
319.303	153.25
319.769	164.25
320.235	127.25
320.701	153.25
321.167	161.25
321.633	157.25
322.099	159.25
322.564	163.25
323.03	167.25
323.496	130.25
323.962	159.25
324.427	173.25
324.893	159.25
325.359	143.25
325.824	149.25
326.29	169.25
326.755	147.25
327.221	159.25
327.686	159.25
328.152	175.25
328.617	178.25
329.083	179.25
329.548	161.25
330.014	180.25
330.479	180.25
330.944	171.25
331.41	182.25
331.875	152.25
332.34	194.25
332.805	186.25
333.271	172.25
333.736	178.25
334.201	178.25
334.666	177.25
335.131	163.25
335.596	151.25
336.061	169.25
336.526	173.25
336.991	164.25
337.456	167.25
337.921	164.25
338.386	166.25
338.851	164.25
339.316	170.25
339.781	187.25
340.246	161.25
340.711	173.25
341.175	173.25
341.64	180.25
342.105	195.25
342.569	175.25
343.034	170.25
343.499	179.25
343.963	180.25
344.428	196.25
344.893	195.25
345.357	193.25
345.822	192.25
346.286	197.25
346.751	191.25
347.215	192.25
347.679	206.25
348.144	213.25
348.608	223.25
349.073	193.25
349.537	210.25
350.001	226.25
350.465	223.25
350.93	208.25
351.394	209.25
351.858	219.25
352.322	214.25
352.786	236.25
353.25	203.25
353.715	222.25
354.179	241.25
354.643	254.25
355.107	238.25
355.571	225.25
356.035	212.25
356.498	242.25
356.962	256.25
357.426	232.25
357.89	235.25
358.354	238.25
358.818	205.25
359.281	228.25
359.745	253.25
360.209	232.25
360.673	213.25
361.136	220.25
361.6	230.25
362.064	237.25
362.527	255.25
362.991	249.25
363.454	243.25
363.918	241.25
364.381	258.25
364.845	229.25
365.308	244.25
365.772	229.25
366.235	241.25
366.698	263.25
367.162	243.25
367.625	240.25
368.088	236.25
368.552	275.25
369.015	261.25
369.478	244.25
369.941	239.25
370.404	242.25
370.867	238.25
371.331	233.25
371.794	259.25
372.257	261.25
372.72	267.25
373.183	258.25
373.646	259.25
374.109	273.25
374.572	272.25
375.035	253.25
375.497	272.25
375.96	249.25
376.423	259.25
376.886	294.25
377.349	295.25
377.811	265.25
378.274	288.25
378.737	266.25
379.199	278.25
379.662	273.25
380.125	271.25
380.587	280.25
381.05	295.25
381.512	289.25
381.975	297.25
382.437	294.25
382.9	288.25
383.362	320.25
383.825	298.25
384.287	291.25
384.75	303.25
385.212	304.25
385.674	313.25
386.136	296.25
386.599	291.25
387.061	310.25
387.523	320.25
387.985	293.25
388.447	321.25
388.91	321.25
389.372	307.25
389.834	321.25
390.296	312.25
390.758	313.25
391.22	330.25
391.682	316.25
392.144	337.25
392.606	318.25
393.068	345.25
393.529	330.25
393.991	349.25
394.453	351.25
394.915	331.25
395.377	329.25
395.838	351.25
396.3	346.25
396.762	326.25
397.224	350.25
397.685	328.25
398.147	321.25
398.608	369.25
399.07	344.25
399.531	353.25
399.993	335.25
400.454	341.25
400.916	335.25
401.377	364.25
401.839	352.25
402.3	365.25
402.762	368.25
403.223	397.25
403.684	361.25
404.145	386.25
404.607	373.25
405.068	369.25
405.529	370.25
405.99	377.25
406.451	375.25
406.913	347.25
407.374	358.25
407.835	363.25
408.296	393.25
408.757	383.25
409.218	382.25
409.679	402.25
410.14	409.25
410.601	410.25
411.062	413.25
411.522	400.25
411.983	391.25
412.444	422.25
412.905	417.25
413.366	424.25
413.826	449.25
414.287	477.25
414.748	544.25
415.208	591.25
415.669	501.25
416.13	441.25
416.59	437.25
417.051	472.25
417.511	476.25
417.972	536.25
418.432	514.25
418.893	588.25
419.353	572.25
419.814	464.25
420.274	421.25
420.734	404.25
421.195	408.25
421.655	417.25
422.115	467.25
422.576	434.25
423.036	453.25
423.496	429.25
423.956	488.25
424.416	476.25
424.876	550.25
425.336	515.25
425.797	505.25
426.257	543.25
426.717	499.25
427.177	482.25
427.637	462.25
428.097	481.25
428.556	498.25
429.016	540.25
429.476	553.25
429.936	527.25
430.396	537.25
430.856	535.25
431.315	560.25
431.775	609.25
432.235	643.25
432.694	593.25
433.154	600.25
433.614	599.25
434.073	567.25
434.533	525.25
434.993	500.25
435.452	507.25
435.912	497.25
436.371	493.25
436.83	522.25
437.29	485.25
437.749	466.25
438.209	472.25
438.668	479.25
439.127	471.25
439.587	476.25
440.046	459.25
440.505	471.25
440.964	457.25
441.424	499.25
441.883	517.25
442.342	468.25
442.801	471.25
443.26	458.25
443.719	482.25
444.178	468.25
444.637	460.25
445.096	457.25
445.555	474.25
446.014	477.25
446.473	459.25
446.932	475.25
447.391	474.25
447.849	472.25
448.308	469.25
448.767	502.25
449.226	506.25
449.685	500.25
450.143	497.25
450.602	522.25
451.061	504.25
451.519	505.25
451.978	478.25
452.436	483.25
452.895	474.25
453.353	489.25
453.812	479.25
454.27	487.25
454.729	465.25
455.187	485.25
455.646	503.25
456.104	499.25
456.562	493.25
457.021	489.25
457.479	487.25
457.937	475.25
458.395	503.25
458.854	479.25
459.312	478.25
459.77	523.25
460.228	483.25
460.686	523.25
461.144	521.25
461.602	513.25
462.06	493.25
462.518	533.25
462.976	519.25
463.434	529.25
463.892	526.25
464.35	529.25
464.808	535.25
465.266	541.25
465.724	572.25
466.181	568.25
466.639	581.25
467.097	558.25
467.555	604.25
468.012	583.25
468.47	605.25
468.928	629.25
469.385	615.25
469.843	636.25
470.3	616.25
470.758	665.25
471.215	649.25
471.673	660.25
472.13	687.25
472.588	684.25
473.045	683.25
473.503	697.25
473.96	701.25
474.417	749.25
474.875	778.25
475.332	802.25
475.789	823.25
476.246	828.25
476.704	844.25
477.161	861.25
477.618	873.25
478.075	919.25
478.532	948.25
478.989	1035.25
479.446	1104.25
479.903	1196.25
480.36	1292.25
480.817	1369.25
481.274	1473.25
481.731	1505.25
482.188	1688.25
482.645	1819.25
483.102	1898.25
483.558	2013.25
484.015	2104.25
484.472	2119.25
484.929	2121.25
485.385	1979.25
485.842	1936.25
486.299	1865.25
486.755	1741.25
487.212	1553.25
487.668	1418.25
488.125	1336.25
488.582	1275.25
489.038	1215.25
489.494	1175.25
489.951	1171.25
490.407	1108.25
490.864	1100.25
491.32	1075.25
491.776	1073.25
492.233	1057.25
492.689	1054.25
493.145	1024.25
493.602	1032.25
494.058	1025.25
494.514	1041.25
494.97	1047.25
495.426	1083.25
495.882	1063.25
496.338	1049.25
496.794	1035.25
497.251	1067.25
497.707	1044.25
498.163	1061.25
498.618	1078.25
499.074	1068.25
499.53	1078.25
499.986	1076.25
500.442	1086.25
500.898	1069.25
501.354	1063.25
501.809	1074.25
502.265	1071.25
502.721	1099.25
503.177	1086.25
503.632	1071.25
504.088	1066.25
504.543	1087.25
504.999	1094.25
505.455	1087.25
505.91	1098.25
506.366	1093.25
506.821	1125.25
507.277	1051.25
507.732	1070.25
508.187	1125.25
508.643	1119.25
509.098	1127.25
509.553	1109.25
510.009	1131.25
510.464	1155.25
510.919	1161.25
511.375	1171.25
511.83	1179.25
512.285	1193.25
512.74	1209.25
513.195	1230.25
513.65	1239.25
514.105	1275.25
514.56	1281.25
515.015	1302.25
515.47	1274.25
515.925	1289.25
516.38	1277.25
516.835	1308.25
517.29	1297.25
517.745	1263.25
518.2	1251.25
518.655	1255.25
519.109	1241.25
519.564	1207.25
520.019	1222.25
520.474	1199.25
520.928	1192.25
521.383	1218.25
521.838	1167.25
522.292	1173.25
522.747	1150.25
523.201	1161.25
523.656	1165.25
524.11	1157.25
524.565	1157.25
525.019	1108.25
525.474	1135.25
525.928	1142.25
526.382	1161.25
526.837	1153.25
527.291	1159.25
527.745	1147.25
528.2	1145.25
528.654	1137.25
529.108	1138.25
529.562	1104.25
530.016	1147.25
530.47	1147.25
530.925	1121.25
531.379	1156.25
531.833	1172.25
532.287	1149.25
532.741	1111.25
533.195	1115.25
533.649	1128.25
534.103	1173.25
534.556	1155.25
535.01	1150.25
535.464	1155.25
535.918	1147.25
536.372	1135.25
536.826	1141.25
537.279	1136.25
537.733	1135.25
538.187	1139.25
538.64	1122.25
539.094	1151.25
539.548	1177.25
540.001	1166.25
540.455	1143.25
540.908	1165.25
541.362	1161.25
541.815	1173.25
542.269	1212.25
542.722	1195.25
543.175	1235.25
543.629	1235.25
544.082	1213.25
544.536	1231.25
544.989	1261.25
545.442	1259.25
545.895	1272.25
546.349	1251.25
546.802	1281.25
547.255	1259.25
547.708	1277.25
548.161	1239.25
548.614	1297.25
549.067	1313.25
549.52	1311.25
549.973	1295.25
550.426	1267.25
550.879	1271.25
551.332	1227.25
551.785	1275.25
552.238	1317.25
552.691	1279.25
553.144	1324.25
553.596	1327.25
554.049	1317.25
554.502	1336.25
554.955	1393.25
555.407	1351.25
555.86	1401.25
556.313	1388.25
556.765	1412.25
557.218	1343.25
557.67	1358.25
558.123	1322.25
558.576	1340.25
559.028	1324.25
559.48	1329.25
559.933	1389.25
560.385	1301.25
560.838	1271.25
561.29	1214.25
561.742	1231.25
562.195	1165.25
562.647	1145.25
563.099	1184.25
563.551	1187.25
564.004	1193.25
564.456	1199.25
564.908	1146.25
565.36	1130.25
565.812	1124.25
566.264	1111.25
566.716	1097.25
567.168	1085.25
567.62	1077.25
568.072	1079.25
568.524	1075.25
568.976	1075.25
569.428	1065.25
569.88	1043.25
570.332	1071.25
570.784	1067.25
571.235	1065.25
571.687	1084.25
572.139	1103.25
572.59	1029.25
573.042	1077.25
573.494	1087.25
573.945	1075.25
574.397	1054.25
574.849	1069.25
575.3	1025.25
575.752	1023.25
576.203	1026.25
576.655	1054.25
577.106	1001.25
577.557	1024.25
578.009	1008.25
578.46	1031.25
578.912	1004.25
579.363	996.25
579.814	970.25
580.265	1025.25
580.717	1021.25
581.168	1019.25
581.619	1016.25
582.07	990.25
582.521	986.25
582.972	1016.25
583.423	1010.25
583.875	1018.25
584.326	1021.25
584.777	1075.25
585.227	1079.25
585.678	1057.25
586.129	1070.25
586.58	1075.25
587.031	1115.25
587.482	1117.25
587.933	1153.25
588.384	1115.25
588.834	1122.25
589.285	1141.25
589.736	1128.25
590.186	1100.25
590.637	1121.25
591.088	1081.25
591.538	1086.25
591.989	1053.25
592.439	1049.25
592.89	1055.25
593.34	1071.25
593.791	1043.25
594.241	1040.25
594.692	1021.25
595.142	1038.25
595.593	1019.25
596.043	1033.25
596.493	1046.25
596.943	1049.25
597.394	1059.25
597.844	1056.25
598.294	1083.25
598.744	1148.25
599.195	1158.25
599.645	1192.25
600.095	1270.25
600.545	1326.25
600.995	1405.25
601.445	1439.25
601.895	1476.25
602.345	1532.25
602.795	1516.25
603.245	1485.25
603.695	1420.25
604.145	1382.25
604.594	1269.25
605.044	1219.25
605.494	1127.25
605.944	1086.25
606.393	1053.25
606.843	1057.25
607.293	1040.25
607.743	1023.25
608.192	1057.25
608.642	1048.25
609.091	1056.25
609.541	1007.25
609.99	1025.25
610.44	1000.25
610.889	1011.25
611.339	1017.25
611.788	988.25
612.238	998.25
612.687	992.25
613.136	987.25
613.586	997.25
614.035	992.25
614.484	974.25
614.933	981.25
615.383	1004.25
615.832	991.25
616.281	977.25
616.73	938.25
617.179	914.25
617.628	913.25
618.077	928.25
618.526	872.25
618.975	873.25
619.424	866.25
619.873	873.25
620.322	886.25
620.771	880.25
621.22	801.25
621.669	822.25
622.118	810.25
622.567	843.25
623.015	789.25
623.464	839.25
623.913	804.25
624.361	801.25
624.81	791.25
625.259	764.25
625.707	789.25
626.156	822.25
626.604	798.25
627.053	798.25
627.501	821.25
627.95	794.25
628.398	814.25
628.847	795.25
629.295	809.25
629.744	788.25
630.192	803.25
630.64	800.25
631.089	770.25
631.537	749.25
631.985	763.25
632.433	769.25
632.881	756.25
633.33	752.25
633.778	744.25
634.226	743.25
634.674	742.25
635.122	747.25
635.57	788.25
636.018	762.25
636.466	770.25
636.914	776.25
637.362	799.25
637.81	801.25
638.258	814.25
638.705	849.25
639.153	837.25
639.601	838.25
640.049	866.25
640.497	893.25
640.944	942.25
641.392	906.25
641.84	841.25
642.287	825.25
642.735	807.25
643.182	768.25
643.63	795.25
644.078	781.25
644.525	815.25
644.973	795.25
645.42	845.25
645.867	863.25
646.315	899.25
646.762	897.25
647.21	930.25
647.657	960.25
648.104	1003.25
648.551	1021.25
648.999	1034.25
649.446	1155.25
649.893	1238.25
650.34	1447.25
650.787	1707.25
651.234	2064.25
651.682	2729.25
652.129	3809.25
652.576	5446.25
653.023	7465.25
653.47	9240.25
653.917	10224.25
654.363	10952.25
654.81	11483.25
655.257	12079.25
655.704	9196.25
656.151	5511.25
656.598	3542.25
657.044	2537.25
657.491	1964.25
657.938	1605.25
658.385	1346.25
658.831	1205.25
659.278	1094.25
659.724	1023.25
660.171	949.25
660.618	911.25
661.064	861.25
661.511	793.25
661.957	809.25
662.404	778.25
662.85	762.25
663.296	757.25
663.743	768.25
664.189	733.25
664.635	708.25
665.082	724.25
665.528	694.25
665.974	693.25
666.42	674.25
666.867	685.25
667.313	637.25
667.759	649.25
668.205	636.25
668.651	632.25
669.097	646.25
669.543	639.25
669.989	639.25
670.435	683.25
670.881	667.25
671.327	694.25
671.773	683.25
672.219	742.25
672.665	767.25
673.11	841.25
673.556	843.25
674.002	840.25
674.448	845.25
674.893	749.25
675.339	684.25
675.785	619.25
676.23	609.25
676.676	579.25
677.122	573.25
677.567	521.25
678.013	577.25
678.458	519.25
678.904	548.25
679.349	535.25
679.794	508.25
680.24	506.25
680.685	501.25
681.131	512.25
681.576	511.25
682.021	513.25
682.466	510.25
682.912	526.25
683.357	539.25
683.802	546.25
684.247	640.25
684.692	667.25
685.137	682.25
685.583	706.25
686.028	723.25
686.473	727.25
686.918	638.25
687.363	574.25
687.807	538.25
688.252	556.25
688.697	521.25
689.142	524.25
689.587	514.25
690.032	509.25
690.477	536.25
690.921	544.25
691.366	566.25
691.811	599.25
692.255	611.25
692.7	724.25
693.145	910.25
693.589	1269.25
694.034	1699.25
694.478	1938.25
694.923	1808.25
695.367	2175.25
695.812	1992.25
696.256	853.25
696.701	590.25
697.145	519.25
697.59	495.25
698.034	523.25
698.478	482.25
698.922	475.25
699.367	479.25
699.811	515.25
700.255	551.25
700.699	545.25
701.143	612.25
701.588	667.25
702.032	627.25
702.476	689.25
702.92	706.25
703.364	821.25
703.808	1172.25
704.252	1602.25
704.696	1797.25
705.14	1723.25
705.584	2132.25
706.027	1785.25
706.471	840.25
706.915	613.25
707.359	531.25
707.803	495.25
708.246	468.25
708.69	500.25
709.134	467.25
709.577	493.25
710.021	468.25
710.465	457.25
710.908	474.25
711.352	469.25
711.795	498.25
712.239	527.25
712.682	562.25
713.126	561.25
713.569	594.25
714.012	547.25
714.456	474.25
714.899	443.25
715.342	417.25
715.786	431.25
716.229	397.25
716.672	386.25
717.115	398.25
717.558	380.25
718.002	404.25
718.445	408.25
718.888	430.25
719.331	428.25
719.774	435.25
720.217	425.25
720.66	429.25
721.103	407.25
721.546	392.25
721.989	379.25
722.432	387.25
722.874	380.25
723.317	385.25
723.76	389.25
724.203	431.25
724.645	553.25
725.088	676.25
725.531	711.25
725.974	711.25
726.416	770.25
726.859	512.25
727.301	405.25
727.744	363.25
728.187	374.25
728.629	375.25
729.071	413.25
729.514	417.25
729.956	429.25
730.399	432.25
730.841	452.25
731.283	430.25
731.726	400.25
732.168	414.25
732.61	438.25
733.053	458.25
733.495	507.25
733.937	506.25
734.379	625.25
734.821	709.25
735.263	932.25
735.705	1587.25
736.148	2575.25
736.59	2969.25
737.032	2785.25
737.474	3073.25
737.916	1515.25
738.357	765.25
738.799	523.25
739.241	456.25
739.683	439.25
740.125	494.25
740.567	479.25
741.008	480.25
741.45	501.25
741.892	541.25
742.334	561.25
742.775	536.25
743.217	552.25
743.658	477.25
744.1	455.25
744.542	489.25
744.983	551.25
745.425	541.25
745.866	562.25
746.307	521.25
746.749	463.25
