Data from 20170802-ORNL-NYSim-Air_HRD10391_10-37-01-626.txt Node
Date: Wed Aug 02 10:37:01 EDT 2017
User: Ender
Spectrometer: HR+D1039
Trigger mode: 0
Integration Time (sec): 1.510000E-3
Scans to average: 1
Electric dark correction enabled: true
Nonlinearity correction enabled: false
Boxcar width: 0
XAxis mode: Wavelengths
Number of Pixels in Spectrum: 2048
>>>>>Begin Spectral Data<<<<<
187.836	8.88
188.309	8.88
188.782	8.88
189.255	10.88
189.728	-2.12
190.201	-11.12
190.674	0.88
191.147	-23.12
191.619	-4.12
192.092	-14.12
192.565	-5.12
193.038	-1.12
193.511	2.88
193.984	5.88
194.456	-3.12
194.929	2.88
195.402	5.88
195.874	25.88
196.347	-3.12
196.82	31.88
197.292	21.88
197.765	35.88
198.237	34.88
198.71	42.88
199.182	42.88
199.655	40.88
200.127	50.88
200.6	69.88
201.072	56.88
201.544	75.88
202.017	59.88
202.489	65.88
202.961	79.88
203.433	79.88
203.906	75.88
204.378	65.88
204.85	82.88
205.322	90.88
205.794	78.88
206.266	78.88
206.739	95.88
207.211	85.88
207.683	105.88
208.155	79.88
208.627	80.88
209.099	86.88
209.57	64.88
210.042	82.88
210.514	71.88
210.986	80.88
211.458	87.88
211.93	70.88
212.402	95.88
212.873	82.88
213.345	74.88
213.817	66.88
214.288	89.88
214.76	81.88
215.232	88.88
215.703	84.88
216.175	80.88
216.646	69.88
217.118	80.88
217.589	72.88
218.061	81.88
218.532	76.88
219.004	77.88
219.475	82.88
219.946	66.88
220.418	77.88
220.889	71.88
221.36	71.88
221.832	60.88
222.303	76.88
222.774	70.88
223.245	81.88
223.717	71.88
224.188	80.88
224.659	80.88
225.13	81.88
225.601	68.88
226.072	67.88
226.543	72.88
227.014	84.88
227.485	84.88
227.956	78.88
228.427	61.88
228.898	73.88
229.369	71.88
229.839	71.88
230.31	71.88
230.781	78.88
231.252	68.88
231.722	78.88
232.193	72.88
232.664	81.88
233.135	73.88
233.605	76.88
234.076	85.88
234.546	79.88
235.017	87.88
235.487	91.88
235.958	88.88
236.428	81.88
236.899	78.88
237.369	81.88
237.84	77.88
238.31	85.88
238.78	85.88
239.251	81.88
239.721	74.88
240.191	86.88
240.662	85.88
241.132	90.88
241.602	100.88
242.072	86.88
242.542	89.88
243.013	87.88
243.483	81.88
243.953	70.88
244.423	83.88
244.893	76.88
245.363	76.88
245.833	90.88
246.303	110.88
246.773	90.88
247.243	75.88
247.712	86.88
248.182	83.88
248.652	93.88
249.122	96.88
249.592	101.88
250.061	99.88
250.531	96.88
251.001	106.88
251.471	79.88
251.94	88.88
252.41	78.88
252.879	84.88
253.349	98.88
253.818	94.88
254.288	88.88
254.757	90.88
255.227	98.88
255.696	90.88
256.166	94.88
256.635	90.88
257.105	84.88
257.574	98.88
258.043	82.88
258.513	96.88
258.982	84.88
259.451	97.88
259.92	92.88
260.389	106.88
260.859	100.88
261.328	85.88
261.797	92.88
262.266	98.88
262.735	79.88
263.204	65.88
263.673	100.88
264.142	108.88
264.611	88.88
265.08	100.88
265.549	87.88
266.018	94.88
266.487	96.88
266.955	103.88
267.424	95.88
267.893	95.88
268.362	93.88
268.83	85.88
269.299	109.88
269.768	82.88
270.236	94.88
270.705	97.88
271.174	108.88
271.642	102.88
272.111	98.88
272.579	106.88
273.048	95.88
273.516	94.88
273.985	91.88
274.453	104.88
274.922	112.88
275.39	97.88
275.858	97.88
276.327	97.88
276.795	108.88
277.263	113.88
277.731	118.88
278.2	101.88
278.668	98.88
279.136	93.88
279.604	83.88
280.072	117.88
280.54	101.88
281.008	113.88
281.477	100.88
281.945	106.88
282.413	108.88
282.881	101.88
283.348	136.88
283.816	92.88
284.284	107.88
284.752	109.88
285.22	112.88
285.688	108.88
286.156	106.88
286.623	108.88
287.091	92.88
287.559	111.88
288.026	105.88
288.494	121.88
288.962	107.88
289.429	112.88
289.897	106.88
290.364	100.88
290.832	109.88
291.3	101.88
291.767	124.88
292.234	106.88
292.702	116.88
293.169	113.88
293.637	130.88
294.104	117.88
294.571	118.88
295.039	136.88
295.506	111.88
295.973	110.88
296.44	122.88
296.908	111.88
297.375	102.88
297.842	117.88
298.309	118.88
298.776	111.88
299.243	123.88
299.71	107.88
300.177	114.88
300.644	122.88
301.111	126.88
301.578	120.88
302.045	120.88
302.512	151.88
302.979	116.88
303.446	139.88
303.913	106.88
304.379	110.88
304.846	114.88
305.313	132.88
305.78	127.88
306.246	138.88
306.713	122.88
307.18	133.88
307.646	138.88
308.113	128.88
308.579	134.88
309.046	131.88
309.512	133.88
309.979	148.88
310.445	137.88
310.912	135.88
311.378	136.88
311.845	137.88
312.311	153.88
312.777	150.88
313.244	137.88
313.71	142.88
314.176	154.88
314.642	137.88
315.109	132.88
315.575	141.88
316.041	125.88
316.507	142.88
316.973	151.88
317.439	157.88
317.905	129.88
318.371	142.88
318.837	134.88
319.303	152.88
319.769	148.88
320.235	134.88
320.701	148.88
321.167	153.88
321.633	150.88
322.099	158.88
322.564	160.88
323.03	147.88
323.496	137.88
323.962	153.88
324.427	164.88
324.893	152.88
325.359	155.88
325.824	167.88
326.29	143.88
326.755	164.88
327.221	162.88
327.686	159.88
328.152	145.88
328.617	168.88
329.083	157.88
329.548	175.88
330.014	174.88
330.479	164.88
330.944	164.88
331.41	183.88
331.875	152.88
332.34	166.88
332.805	154.88
333.271	168.88
333.736	181.88
334.201	158.88
334.666	168.88
335.131	181.88
335.596	183.88
336.061	177.88
336.526	173.88
336.991	164.88
337.456	166.88
337.921	172.88
338.386	160.88
338.851	178.88
339.316	182.88
339.781	179.88
340.246	187.88
340.711	175.88
341.175	181.88
341.64	173.88
342.105	172.88
342.569	194.88
343.034	180.88
343.499	170.88
343.963	188.88
344.428	174.88
344.893	203.88
345.357	184.88
345.822	174.88
346.286	205.88
346.751	200.88
347.215	199.88
347.679	184.88
348.144	197.88
348.608	189.88
349.073	201.88
349.537	214.88
350.001	210.88
350.465	201.88
350.93	204.88
351.394	217.88
351.858	235.88
352.322	204.88
352.786	230.88
353.25	210.88
353.715	236.88
354.179	223.88
354.643	250.88
355.107	235.88
355.571	221.88
356.035	230.88
356.498	224.88
356.962	214.88
357.426	229.88
357.89	238.88
358.354	247.88
358.818	244.88
359.281	235.88
359.745	226.88
360.209	222.88
360.673	219.88
361.136	214.88
361.6	219.88
362.064	231.88
362.527	245.88
362.991	242.88
363.454	259.88
363.918	225.88
364.381	246.88
364.845	232.88
365.308	232.88
365.772	217.88
366.235	228.88
366.698	229.88
367.162	228.88
367.625	256.88
368.088	248.88
368.552	248.88
369.015	251.88
369.478	272.88
369.941	253.88
370.404	262.88
370.867	261.88
371.331	252.88
371.794	269.88
372.257	254.88
372.72	262.88
373.183	241.88
373.646	248.88
374.109	260.88
374.572	243.88
375.035	263.88
375.497	259.88
375.96	262.88
376.423	265.88
376.886	287.88
377.349	260.88
377.811	274.88
378.274	285.88
378.737	278.88
379.199	285.88
379.662	305.88
380.125	277.88
380.587	288.88
381.05	280.88
381.512	299.88
381.975	312.88
382.437	288.88
382.9	292.88
383.362	304.88
383.825	282.88
384.287	281.88
384.75	282.88
385.212	282.88
385.674	301.88
386.136	291.88
386.599	294.88
387.061	316.88
387.523	328.88
387.985	288.88
388.447	307.88
388.91	334.88
389.372	317.88
389.834	318.88
390.296	312.88
390.758	325.88
391.22	325.88
391.682	327.88
392.144	303.88
392.606	321.88
393.068	315.88
393.529	354.88
393.991	358.88
394.453	348.88
394.915	346.88
395.377	330.88
395.838	327.88
396.3	325.88
396.762	334.88
397.224	324.88
397.685	328.88
398.147	324.88
398.608	335.88
399.07	346.88
399.531	341.88
399.993	350.88
400.454	367.88
400.916	351.88
401.377	362.88
401.839	379.88
402.3	358.88
402.762	351.88
403.223	378.88
403.684	415.88
404.145	366.88
404.607	395.88
405.068	373.88
405.529	364.88
405.99	381.88
406.451	368.88
406.913	390.88
407.374	374.88
407.835	366.88
408.296	417.88
408.757	403.88
409.218	382.88
409.679	394.88
410.14	420.88
410.601	428.88
411.062	411.88
411.522	415.88
411.983	411.88
412.444	405.88
412.905	427.88
413.366	433.88
413.826	440.88
414.287	484.88
414.748	568.88
415.208	608.88
415.669	514.88
416.13	455.88
416.59	459.88
417.051	480.88
417.511	489.88
417.972	506.88
418.432	556.88
418.893	583.88
419.353	581.88
419.814	487.88
420.274	424.88
420.734	421.88
421.195	424.88
421.655	430.88
422.115	439.88
422.576	431.88
423.036	412.88
423.496	466.88
423.956	452.88
424.416	494.88
424.876	559.88
425.336	548.88
425.797	542.88
426.257	547.88
426.717	495.88
427.177	479.88
427.637	486.88
428.097	510.88
428.556	523.88
429.016	558.88
429.476	542.88
429.936	545.88
430.396	531.88
430.856	558.88
431.315	573.88
431.775	603.88
432.235	674.88
432.694	657.88
433.154	614.88
433.614	612.88
434.073	572.88
434.533	554.88
434.993	515.88
435.452	493.88
435.912	510.88
436.371	490.88
436.83	507.88
437.29	488.88
437.749	472.88
438.209	451.88
438.668	480.88
439.127	492.88
439.587	498.88
440.046	449.88
440.505	485.88
440.964	473.88
441.424	501.88
441.883	490.88
442.342	488.88
442.801	475.88
443.26	445.88
443.719	469.88
444.178	481.88
444.637	491.88
445.096	472.88
445.555	481.88
446.014	486.88
446.473	486.88
446.932	484.88
447.391	483.88
447.849	517.88
448.308	485.88
448.767	482.88
449.226	468.88
449.685	494.88
450.143	522.88
450.602	516.88
451.061	510.88
451.519	495.88
451.978	504.88
452.436	506.88
452.895	474.88
453.353	514.88
453.812	490.88
454.27	493.88
454.729	513.88
455.187	515.88
455.646	487.88
456.104	501.88
456.562	514.88
457.021	485.88
457.479	488.88
457.937	495.88
458.395	532.88
458.854	527.88
459.312	509.88
459.77	508.88
460.228	528.88
460.686	528.88
461.144	525.88
461.602	518.88
462.06	523.88
462.518	518.88
462.976	536.88
463.434	532.88
463.892	516.88
464.35	558.88
464.808	540.88
465.266	551.88
465.724	560.88
466.181	588.88
466.639	544.88
467.097	568.88
467.555	610.88
468.012	594.88
468.47	612.88
468.928	623.88
469.385	617.88
469.843	647.88
470.3	624.88
470.758	672.88
471.215	647.88
471.673	671.88
472.13	691.88
472.588	708.88
473.045	700.88
473.503	690.88
473.96	762.88
474.417	750.88
474.875	762.88
475.332	804.88
475.789	840.88
476.246	870.88
476.704	863.88
477.161	929.88
477.618	905.88
478.075	983.88
478.532	1044.88
478.989	1113.88
479.446	1222.88
479.903	1233.88
480.36	1326.88
480.817	1426.88
481.274	1528.88
481.731	1657.88
482.188	1743.88
482.645	1896.88
483.102	2024.88
483.558	2119.88
484.015	2206.88
484.472	2243.88
484.929	2149.88
485.385	2096.88
485.842	2020.88
486.299	1971.88
486.755	1844.88
487.212	1650.88
487.668	1485.88
488.125	1415.88
488.582	1298.88
489.038	1243.88
489.494	1193.88
489.951	1185.88
490.407	1164.88
490.864	1107.88
491.32	1115.88
491.776	1124.88
492.233	1122.88
492.689	1077.88
493.145	1063.88
493.602	1045.88
494.058	1059.88
494.514	1082.88
494.97	1052.88
495.426	1092.88
495.882	1090.88
496.338	1090.88
496.794	1094.88
497.251	1077.88
497.707	1097.88
498.163	1074.88
498.618	1079.88
499.074	1058.88
499.53	1064.88
499.986	1095.88
500.442	1140.88
500.898	1089.88
501.354	1095.88
501.809	1112.88
502.265	1078.88
502.721	1089.88
503.177	1129.88
503.632	1147.88
504.088	1117.88
504.543	1124.88
504.999	1145.88
505.455	1129.88
505.91	1135.88
506.366	1120.88
506.821	1116.88
507.277	1114.88
507.732	1124.88
508.187	1108.88
508.643	1115.88
509.098	1130.88
509.553	1128.88
510.009	1149.88
510.464	1181.88
510.919	1198.88
511.375	1183.88
511.83	1213.88
512.285	1207.88
512.74	1238.88
513.195	1275.88
513.65	1276.88
514.105	1296.88
514.56	1286.88
515.015	1311.88
515.47	1311.88
515.925	1336.88
516.38	1335.88
516.835	1308.88
517.29	1345.88
517.745	1316.88
518.2	1286.88
518.655	1278.88
519.109	1270.88
519.564	1239.88
520.019	1245.88
520.474	1239.88
520.928	1247.88
521.383	1278.88
521.838	1238.88
522.292	1222.88
522.747	1218.88
523.201	1189.88
523.656	1194.88
524.11	1172.88
524.565	1168.88
525.019	1190.88
525.474	1184.88
525.928	1192.88
526.382	1166.88
526.837	1152.88
527.291	1188.88
527.745	1176.88
528.2	1184.88
528.654	1184.88
529.108	1126.88
529.562	1135.88
530.016	1172.88
530.47	1170.88
530.925	1145.88
531.379	1168.88
531.833	1179.88
532.287	1180.88
532.741	1172.88
533.195	1197.88
533.649	1181.88
534.103	1205.88
534.556	1160.88
535.01	1146.88
535.464	1174.88
535.918	1151.88
536.372	1158.88
536.826	1214.88
537.279	1179.88
537.733	1178.88
538.187	1178.88
538.64	1163.88
539.094	1203.88
539.548	1194.88
540.001	1183.88
540.455	1192.88
540.908	1178.88
541.362	1181.88
541.815	1215.88
542.269	1275.88
542.722	1285.88
543.175	1244.88
543.629	1241.88
544.082	1300.88
544.536	1343.88
544.989	1265.88
545.442	1307.88
545.895	1304.88
546.349	1298.88
546.802	1285.88
547.255	1302.88
547.708	1340.88
548.161	1290.88
548.614	1303.88
549.067	1364.88
549.52	1285.88
549.973	1304.88
550.426	1309.88
550.879	1279.88
551.332	1272.88
551.785	1274.88
552.238	1327.88
552.691	1315.88
553.144	1369.88
553.596	1322.88
554.049	1380.88
554.502	1424.88
554.955	1403.88
555.407	1430.88
555.86	1404.88
556.313	1394.88
556.765	1390.88
557.218	1400.88
557.67	1396.88
558.123	1364.88
558.576	1362.88
559.028	1379.88
559.48	1337.88
559.933	1335.88
560.385	1297.88
560.838	1285.88
561.29	1290.88
561.742	1259.88
562.195	1227.88
562.647	1199.88
563.099	1207.88
563.551	1199.88
564.004	1242.88
564.456	1215.88
564.908	1184.88
565.36	1176.88
565.812	1168.88
566.264	1117.88
566.716	1127.88
567.168	1118.88
567.62	1124.88
568.072	1080.88
568.524	1074.88
568.976	1079.88
569.428	1056.88
569.88	1077.88
570.332	1111.88
570.784	1103.88
571.235	1089.88
571.687	1097.88
572.139	1089.88
572.59	1097.88
573.042	1099.88
573.494	1113.88
573.945	1101.88
574.397	1071.88
574.849	1054.88
575.3	1090.88
575.752	1037.88
576.203	1050.88
576.655	1038.88
577.106	1028.88
577.557	1020.88
578.009	1030.88
578.46	1023.88
578.912	1034.88
579.363	1012.88
579.814	1012.88
580.265	1022.88
580.717	1041.88
581.168	1028.88
581.619	1031.88
582.07	1026.88
582.521	1029.88
582.972	1022.88
583.423	1015.88
583.875	1032.88
584.326	1058.88
584.777	1044.88
585.227	1072.88
585.678	1103.88
586.129	1077.88
586.58	1122.88
587.031	1086.88
587.482	1154.88
587.933	1183.88
588.384	1164.88
588.834	1142.88
589.285	1160.88
589.736	1140.88
590.186	1142.88
590.637	1140.88
591.088	1122.88
591.538	1074.88
591.989	1072.88
592.439	1089.88
592.89	1025.88
593.34	1053.88
593.791	1044.88
594.241	1018.88
594.692	1046.88
595.142	1052.88
595.593	1028.88
596.043	1043.88
596.493	1067.88
596.943	1052.88
597.394	1088.88
597.844	1084.88
598.294	1092.88
598.744	1168.88
599.195	1175.88
599.645	1199.88
600.095	1285.88
600.545	1353.88
600.995	1412.88
601.445	1462.88
601.895	1510.88
602.345	1564.88
602.795	1562.88
603.245	1542.88
603.695	1447.88
604.145	1401.88
604.594	1337.88
605.044	1238.88
605.494	1160.88
605.944	1128.88
606.393	1068.88
606.843	1082.88
607.293	1058.88
607.743	1052.88
608.192	1077.88
608.642	1042.88
609.091	1045.88
609.541	1060.88
609.99	1081.88
610.44	1066.88
610.889	1042.88
611.339	1013.88
611.788	1020.88
612.238	1022.88
612.687	1003.88
613.136	1025.88
613.586	1024.88
614.035	1023.88
614.484	1029.88
614.933	1050.88
615.383	1006.88
615.832	996.88
616.281	999.88
616.73	985.88
617.179	942.88
617.628	953.88
618.077	955.88
618.526	916.88
618.975	908.88
619.424	873.88
619.873	898.88
620.322	900.88
620.771	888.88
621.22	855.88
621.669	866.88
622.118	825.88
622.567	831.88
623.015	796.88
623.464	824.88
623.913	812.88
624.361	794.88
624.81	807.88
625.259	768.88
625.707	804.88
626.156	804.88
626.604	788.88
627.053	819.88
627.501	815.88
627.95	805.88
628.398	840.88
628.847	823.88
629.295	820.88
629.744	823.88
630.192	798.88
630.64	807.88
631.089	806.88
631.537	792.88
631.985	782.88
632.433	773.88
632.881	760.88
633.33	766.88
633.778	759.88
634.226	756.88
634.674	767.88
635.122	789.88
635.57	784.88
636.018	808.88
636.466	775.88
636.914	786.88
637.362	790.88
637.81	807.88
638.258	846.88
638.705	824.88
639.153	892.88
639.601	888.88
640.049	868.88
640.497	921.88
640.944	965.88
641.392	953.88
641.84	873.88
642.287	820.88
642.735	821.88
643.182	816.88
643.63	772.88
644.078	803.88
644.525	858.88
644.973	852.88
645.42	828.88
645.867	868.88
646.315	883.88
646.762	945.88
647.21	964.88
647.657	994.88
648.104	998.88
648.551	1021.88
648.999	1126.88
649.446	1167.88
649.893	1333.88
650.34	1479.88
650.787	1822.88
651.234	2223.88
651.682	2899.88
652.129	3967.88
652.576	5758.88
653.023	7933.88
653.47	9626.88
653.917	10836.88
654.363	11434.88
654.81	12183.88
655.257	12778.88
655.704	9688.88
656.151	5937.88
656.598	3741.88
657.044	2704.88
657.491	2118.88
657.938	1732.88
658.385	1414.88
658.831	1278.88
659.278	1160.88
659.724	1062.88
660.171	1012.88
660.618	942.88
661.064	843.88
661.511	842.88
661.957	810.88
662.404	802.88
662.85	813.88
663.296	778.88
663.743	740.88
664.189	752.88
664.635	728.88
665.082	722.88
665.528	737.88
665.974	740.88
666.42	677.88
666.867	704.88
667.313	656.88
667.759	685.88
668.205	660.88
668.651	629.88
669.097	651.88
669.543	679.88
669.989	645.88
670.435	672.88
670.881	672.88
671.327	677.88
671.773	707.88
672.219	749.88
672.665	831.88
673.11	861.88
673.556	838.88
674.002	894.88
674.448	879.88
674.893	814.88
675.339	706.88
675.785	652.88
676.23	626.88
676.676	585.88
677.122	556.88
677.567	545.88
678.013	564.88
678.458	543.88
678.904	538.88
679.349	532.88
679.794	544.88
680.24	517.88
680.685	519.88
681.131	529.88
681.576	525.88
682.021	514.88
682.466	542.88
682.912	542.88
683.357	562.88
683.802	603.88
684.247	630.88
684.692	662.88
685.137	697.88
685.583	703.88
686.028	749.88
686.473	740.88
686.918	660.88
687.363	608.88
687.807	542.88
688.252	564.88
688.697	510.88
689.142	515.88
689.587	494.88
690.032	510.88
690.477	545.88
690.921	536.88
691.366	574.88
691.811	585.88
692.255	636.88
692.7	702.88
693.145	904.88
693.589	1334.88
694.034	1682.88
694.478	1939.88
694.923	1804.88
695.367	2123.88
695.812	2034.88
696.256	865.88
696.701	578.88
697.145	525.88
697.59	488.88
698.034	483.88
698.478	507.88
698.922	505.88
699.367	509.88
699.811	521.88
700.255	538.88
700.699	599.88
701.143	625.88
701.588	667.88
702.032	706.88
702.476	726.88
702.92	724.88
703.364	857.88
703.808	1224.88
704.252	1615.88
704.696	1867.88
705.14	1773.88
705.584	2140.88
706.027	1774.88
706.471	876.88
706.915	628.88
707.359	519.88
707.803	515.88
708.246	486.88
708.69	488.88
709.134	448.88
709.577	469.88
710.021	472.88
710.465	478.88
710.908	446.88
711.352	484.88
711.795	524.88
712.239	531.88
712.682	583.88
713.126	548.88
713.569	601.88
714.012	562.88
714.456	466.88
714.899	436.88
715.342	404.88
715.786	420.88
716.229	419.88
716.672	411.88
717.115	357.88
717.558	394.88
718.002	404.88
718.445	404.88
718.888	423.88
719.331	426.88
719.774	453.88
720.217	454.88
720.66	440.88
721.103	417.88
721.546	408.88
721.989	389.88
722.432	390.88
722.874	369.88
723.317	400.88
723.76	392.88
724.203	445.88
724.645	566.88
725.088	703.88
725.531	697.88
725.974	709.88
726.416	764.88
726.859	498.88
727.301	409.88
727.744	370.88
728.187	372.88
728.629	385.88
729.071	387.88
729.514	396.88
729.956	438.88
730.399	429.88
730.841	426.88
731.283	456.88
731.726	419.88
732.168	406.88
732.61	413.88
733.053	461.88
733.495	502.88
733.937	532.88
734.379	613.88
734.821	706.88
735.263	964.88
735.705	1602.88
736.148	2622.88
736.59	3038.88
737.032	2844.88
737.474	3104.88
737.916	1534.88
738.357	732.88
738.799	528.88
739.241	495.88
739.683	470.88
740.125	476.88
740.567	475.88
741.008	514.88
741.45	546.88
741.892	522.88
742.334	555.88
742.775	555.88
743.217	571.88
743.658	476.88
744.1	456.88
744.542	496.88
744.983	544.88
745.425	548.88
745.866	607.88
746.307	532.88
746.749	514.88
