Data from 20170802-ORNL-NYSim-Air_HRD10391_10-37-02-626.txt Node
Date: Wed Aug 02 10:37:02 EDT 2017
User: Ender
Spectrometer: HR+D1039
Trigger mode: 0
Integration Time (sec): 1.510000E-3
Scans to average: 1
Electric dark correction enabled: true
Nonlinearity correction enabled: false
Boxcar width: 0
XAxis mode: Wavelengths
Number of Pixels in Spectrum: 2048
>>>>>Begin Spectral Data<<<<<
187.836	6.19
188.309	6.19
188.782	6.19
189.255	-7.81
189.728	-4.81
190.201	-17.81
190.674	-1.81
191.147	-9.81
191.619	6.19
192.092	2.19
192.565	-3.81
193.038	-5.81
193.511	-6.81
193.984	-11.81
194.456	-2.81
194.929	16.19
195.402	23.19
195.874	19.19
196.347	12.19
196.82	25.19
197.292	20.19
197.765	18.19
198.237	26.19
198.71	32.19
199.182	50.19
199.655	58.19
200.127	34.19
200.6	52.19
201.072	43.19
201.544	48.19
202.017	66.19
202.489	66.19
202.961	79.19
203.433	66.19
203.906	72.19
204.378	59.19
204.85	83.19
205.322	70.19
205.794	63.19
206.266	81.19
206.739	78.19
207.211	87.19
207.683	89.19
208.155	71.19
208.627	76.19
209.099	68.19
209.57	76.19
210.042	91.19
210.514	81.19
210.986	84.19
211.458	106.19
211.93	85.19
212.402	85.19
212.873	80.19
213.345	87.19
213.817	90.19
214.288	88.19
214.76	72.19
215.232	68.19
215.703	75.19
216.175	89.19
216.646	79.19
217.118	80.19
217.589	70.19
218.061	75.19
218.532	89.19
219.004	95.19
219.475	82.19
219.946	90.19
220.418	75.19
220.889	79.19
221.36	62.19
221.832	91.19
222.303	78.19
222.774	79.19
223.245	88.19
223.717	54.19
224.188	73.19
224.659	79.19
225.13	63.19
225.601	74.19
226.072	74.19
226.543	74.19
227.014	89.19
227.485	77.19
227.956	68.19
228.427	81.19
228.898	106.19
229.369	91.19
229.839	86.19
230.31	65.19
230.781	78.19
231.252	69.19
231.722	100.19
232.193	72.19
232.664	79.19
233.135	85.19
233.605	69.19
234.076	92.19
234.546	68.19
235.017	70.19
235.487	76.19
235.958	80.19
236.428	81.19
236.899	77.19
237.369	73.19
237.84	73.19
238.31	90.19
238.78	84.19
239.251	80.19
239.721	87.19
240.191	80.19
240.662	87.19
241.132	94.19
241.602	86.19
242.072	85.19
242.542	90.19
243.013	84.19
243.483	87.19
243.953	75.19
244.423	87.19
244.893	65.19
245.363	63.19
245.833	96.19
246.303	79.19
246.773	80.19
247.243	79.19
247.712	88.19
248.182	82.19
248.652	77.19
249.122	84.19
249.592	82.19
250.061	76.19
250.531	73.19
251.001	92.19
251.471	94.19
251.94	93.19
252.41	86.19
252.879	90.19
253.349	91.19
253.818	80.19
254.288	101.19
254.757	88.19
255.227	91.19
255.696	100.19
256.166	95.19
256.635	106.19
257.105	80.19
257.574	94.19
258.043	79.19
258.513	94.19
258.982	106.19
259.451	99.19
259.92	90.19
260.389	78.19
260.859	80.19
261.328	95.19
261.797	87.19
262.266	86.19
262.735	106.19
263.204	112.19
263.673	101.19
264.142	96.19
264.611	103.19
265.08	94.19
265.549	92.19
266.018	100.19
266.487	107.19
266.955	97.19
267.424	94.19
267.893	100.19
268.362	97.19
268.83	94.19
269.299	103.19
269.768	100.19
270.236	104.19
270.705	99.19
271.174	92.19
271.642	110.19
272.111	98.19
272.579	94.19
273.048	111.19
273.516	105.19
273.985	113.19
274.453	108.19
274.922	112.19
275.39	110.19
275.858	107.19
276.327	106.19
276.795	111.19
277.263	98.19
277.731	96.19
278.2	109.19
278.668	101.19
279.136	118.19
279.604	110.19
280.072	100.19
280.54	99.19
281.008	94.19
281.477	123.19
281.945	97.19
282.413	102.19
282.881	116.19
283.348	115.19
283.816	116.19
284.284	100.19
284.752	112.19
285.22	104.19
285.688	100.19
286.156	107.19
286.623	134.19
287.091	120.19
287.559	112.19
288.026	110.19
288.494	127.19
288.962	120.19
289.429	109.19
289.897	124.19
290.364	110.19
290.832	120.19
291.3	115.19
291.767	110.19
292.234	122.19
292.702	112.19
293.169	128.19
293.637	99.19
294.104	118.19
294.571	106.19
295.039	112.19
295.506	120.19
295.973	122.19
296.44	129.19
296.908	106.19
297.375	115.19
297.842	118.19
298.309	121.19
298.776	146.19
299.243	138.19
299.71	118.19
300.177	106.19
300.644	144.19
301.111	115.19
301.578	129.19
302.045	140.19
302.512	118.19
302.979	147.19
303.446	128.19
303.913	135.19
304.379	122.19
304.846	119.19
305.313	110.19
305.78	130.19
306.246	132.19
306.713	137.19
307.18	130.19
307.646	143.19
308.113	139.19
308.579	144.19
309.046	148.19
309.512	134.19
309.979	127.19
310.445	147.19
310.912	165.19
311.378	132.19
311.845	153.19
312.311	137.19
312.777	140.19
313.244	132.19
313.71	132.19
314.176	146.19
314.642	157.19
315.109	134.19
315.575	153.19
316.041	148.19
316.507	160.19
316.973	142.19
317.439	162.19
317.905	150.19
318.371	147.19
318.837	140.19
319.303	152.19
319.769	159.19
320.235	140.19
320.701	153.19
321.167	150.19
321.633	140.19
322.099	166.19
322.564	174.19
323.03	178.19
323.496	169.19
323.962	170.19
324.427	164.19
324.893	169.19
325.359	161.19
325.824	154.19
326.29	162.19
326.755	148.19
327.221	156.19
327.686	171.19
328.152	168.19
328.617	165.19
329.083	171.19
329.548	184.19
330.014	182.19
330.479	162.19
330.944	184.19
331.41	173.19
331.875	176.19
332.34	170.19
332.805	174.19
333.271	175.19
333.736	176.19
334.201	171.19
334.666	174.19
335.131	173.19
335.596	187.19
336.061	197.19
336.526	185.19
336.991	190.19
337.456	162.19
337.921	171.19
338.386	175.19
338.851	173.19
339.316	189.19
339.781	144.19
340.246	172.19
340.711	178.19
341.175	193.19
341.64	190.19
342.105	195.19
342.569	184.19
343.034	200.19
343.499	197.19
343.963	190.19
344.428	216.19
344.893	186.19
345.357	202.19
345.822	189.19
346.286	204.19
346.751	194.19
347.215	220.19
347.679	214.19
348.144	207.19
348.608	214.19
349.073	227.19
349.537	204.19
350.001	219.19
350.465	223.19
350.93	225.19
351.394	220.19
351.858	214.19
352.322	232.19
352.786	232.19
353.25	220.19
353.715	224.19
354.179	228.19
354.643	246.19
355.107	244.19
355.571	213.19
356.035	226.19
356.498	239.19
356.962	232.19
357.426	244.19
357.89	236.19
358.354	226.19
358.818	251.19
359.281	250.19
359.745	231.19
360.209	247.19
360.673	221.19
361.136	243.19
361.6	243.19
362.064	251.19
362.527	253.19
362.991	218.19
363.454	250.19
363.918	261.19
364.381	268.19
364.845	255.19
365.308	234.19
365.772	264.19
366.235	274.19
366.698	269.19
367.162	268.19
367.625	242.19
368.088	254.19
368.552	235.19
369.015	262.19
369.478	264.19
369.941	275.19
370.404	259.19
370.867	264.19
371.331	284.19
371.794	258.19
372.257	269.19
372.72	283.19
373.183	263.19
373.646	262.19
374.109	262.19
374.572	286.19
375.035	268.19
375.497	309.19
375.96	278.19
376.423	292.19
376.886	293.19
377.349	295.19
377.811	274.19
378.274	280.19
378.737	276.19
379.199	308.19
379.662	299.19
380.125	300.19
380.587	324.19
381.05	302.19
381.512	315.19
381.975	314.19
382.437	323.19
382.9	307.19
383.362	324.19
383.825	319.19
384.287	324.19
384.75	322.19
385.212	316.19
385.674	324.19
386.136	336.19
386.599	341.19
387.061	341.19
387.523	336.19
387.985	324.19
388.447	326.19
388.91	343.19
389.372	326.19
389.834	342.19
390.296	340.19
390.758	353.19
391.22	353.19
391.682	354.19
392.144	332.19
392.606	331.19
393.068	349.19
393.529	340.19
393.991	386.19
394.453	365.19
394.915	331.19
395.377	328.19
395.838	338.19
396.3	368.19
396.762	360.19
397.224	345.19
397.685	365.19
398.147	356.19
398.608	361.19
399.07	350.19
399.531	386.19
399.993	366.19
400.454	380.19
400.916	379.19
401.377	390.19
401.839	383.19
402.3	406.19
402.762	408.19
403.223	423.19
403.684	416.19
404.145	385.19
404.607	358.19
405.068	410.19
405.529	369.19
405.99	416.19
406.451	419.19
406.913	423.19
407.374	401.19
407.835	406.19
408.296	394.19
408.757	423.19
409.218	412.19
409.679	406.19
410.14	425.19
410.601	423.19
411.062	415.19
411.522	442.19
411.983	434.19
412.444	434.19
412.905	456.19
413.366	444.19
413.826	480.19
414.287	534.19
414.748	599.19
415.208	630.19
415.669	527.19
416.13	492.19
416.59	489.19
417.051	487.19
417.511	506.19
417.972	545.19
418.432	598.19
418.893	621.19
419.353	596.19
419.814	500.19
420.274	428.19
420.734	444.19
421.195	453.19
421.655	458.19
422.115	486.19
422.576	472.19
423.036	448.19
423.496	461.19
423.956	494.19
424.416	521.19
424.876	573.19
425.336	585.19
425.797	591.19
426.257	578.19
426.717	528.19
427.177	505.19
427.637	529.19
428.097	551.19
428.556	559.19
429.016	610.19
429.476	588.19
429.936	572.19
430.396	589.19
430.856	581.19
431.315	603.19
431.775	632.19
432.235	682.19
432.694	670.19
433.154	671.19
433.614	650.19
434.073	596.19
434.533	601.19
434.993	551.19
435.452	561.19
435.912	536.19
436.371	565.19
436.83	540.19
437.29	528.19
437.749	489.19
438.209	502.19
438.668	529.19
439.127	552.19
439.587	518.19
440.046	536.19
440.505	504.19
440.964	530.19
441.424	515.19
441.883	529.19
442.342	516.19
442.801	504.19
443.26	508.19
443.719	485.19
444.178	510.19
444.637	500.19
445.096	505.19
445.555	494.19
446.014	508.19
446.473	492.19
446.932	495.19
447.391	498.19
447.849	511.19
448.308	510.19
448.767	516.19
449.226	537.19
449.685	548.19
450.143	553.19
450.602	556.19
451.061	516.19
451.519	538.19
451.978	514.19
452.436	503.19
452.895	511.19
453.353	520.19
453.812	500.19
454.27	507.19
454.729	516.19
455.187	522.19
455.646	543.19
456.104	518.19
456.562	520.19
457.021	551.19
457.479	527.19
457.937	534.19
458.395	563.19
458.854	524.19
459.312	535.19
459.77	550.19
460.228	556.19
460.686	542.19
461.144	542.19
461.602	564.19
462.06	548.19
462.518	556.19
462.976	549.19
463.434	561.19
463.892	557.19
464.35	594.19
464.808	599.19
465.266	581.19
465.724	578.19
466.181	609.19
466.639	601.19
467.097	613.19
467.555	636.19
468.012	618.19
468.47	652.19
468.928	648.19
469.385	665.19
469.843	671.19
470.3	673.19
470.758	699.19
471.215	678.19
471.673	727.19
472.13	729.19
472.588	718.19
473.045	735.19
473.503	766.19
473.96	790.19
474.417	803.19
474.875	828.19
475.332	864.19
475.789	876.19
476.246	871.19
476.704	908.19
477.161	927.19
477.618	957.19
478.075	1007.19
478.532	1041.19
478.989	1142.19
479.446	1268.19
479.903	1302.19
480.36	1396.19
480.817	1541.19
481.274	1567.19
481.731	1710.19
482.188	1812.19
482.645	1980.19
483.102	2118.19
483.558	2211.19
484.015	2323.19
484.472	2326.19
484.929	2234.19
485.385	2185.19
485.842	2166.19
486.299	2014.19
486.755	1925.19
487.212	1725.19
487.668	1568.19
488.125	1465.19
488.582	1347.19
489.038	1324.19
489.494	1251.19
489.951	1288.19
490.407	1202.19
490.864	1243.19
491.32	1153.19
491.776	1171.19
492.233	1158.19
492.689	1142.19
493.145	1131.19
493.602	1109.19
494.058	1136.19
494.514	1131.19
494.97	1120.19
495.426	1160.19
495.882	1137.19
496.338	1146.19
496.794	1155.19
497.251	1156.19
497.707	1158.19
498.163	1144.19
498.618	1134.19
499.074	1141.19
499.53	1166.19
499.986	1172.19
500.442	1134.19
500.898	1165.19
501.354	1166.19
501.809	1185.19
502.265	1172.19
502.721	1148.19
503.177	1177.19
503.632	1180.19
504.088	1200.19
504.543	1192.19
504.999	1238.19
505.455	1180.19
505.91	1183.19
506.366	1177.19
506.821	1196.19
507.277	1203.19
507.732	1223.19
508.187	1233.19
508.643	1221.19
509.098	1162.19
509.553	1209.19
510.009	1234.19
510.464	1257.19
510.919	1254.19
511.375	1264.19
511.83	1302.19
512.285	1341.19
512.74	1351.19
513.195	1366.19
513.65	1360.19
514.105	1370.19
514.56	1393.19
515.015	1380.19
515.47	1375.19
515.925	1392.19
516.38	1392.19
516.835	1408.19
517.29	1396.19
517.745	1420.19
518.2	1418.19
518.655	1363.19
519.109	1351.19
519.564	1354.19
520.019	1300.19
520.474	1307.19
520.928	1289.19
521.383	1274.19
521.838	1274.19
522.292	1258.19
522.747	1257.19
523.201	1275.19
523.656	1272.19
524.11	1254.19
524.565	1245.19
525.019	1252.19
525.474	1273.19
525.928	1195.19
526.382	1250.19
526.837	1243.19
527.291	1232.19
527.745	1236.19
528.2	1242.19
528.654	1240.19
529.108	1221.19
529.562	1261.19
530.016	1220.19
530.47	1258.19
530.925	1237.19
531.379	1236.19
531.833	1230.19
532.287	1240.19
532.741	1240.19
533.195	1262.19
533.649	1201.19
534.103	1216.19
534.556	1239.19
535.01	1247.19
535.464	1259.19
535.918	1266.19
536.372	1251.19
536.826	1268.19
537.279	1226.19
537.733	1236.19
538.187	1248.19
538.64	1255.19
539.094	1233.19
539.548	1254.19
540.001	1270.19
540.455	1281.19
540.908	1284.19
541.362	1316.19
541.815	1291.19
542.269	1340.19
542.722	1322.19
543.175	1326.19
543.629	1349.19
544.082	1330.19
544.536	1373.19
544.989	1364.19
545.442	1360.19
545.895	1393.19
546.349	1396.19
546.802	1351.19
547.255	1338.19
547.708	1375.19
548.161	1386.19
548.614	1388.19
549.067	1442.19
549.52	1404.19
549.973	1397.19
550.426	1355.19
550.879	1388.19
551.332	1346.19
551.785	1328.19
552.238	1379.19
552.691	1398.19
553.144	1393.19
553.596	1454.19
554.049	1477.19
554.502	1445.19
554.955	1516.19
555.407	1496.19
555.86	1470.19
556.313	1481.19
556.765	1471.19
557.218	1479.19
557.67	1464.19
558.123	1454.19
558.576	1429.19
559.028	1449.19
559.48	1439.19
559.933	1506.19
560.385	1378.19
560.838	1350.19
561.29	1357.19
561.742	1308.19
562.195	1267.19
562.647	1290.19
563.099	1246.19
563.551	1264.19
564.004	1298.19
564.456	1263.19
564.908	1234.19
565.36	1210.19
565.812	1182.19
566.264	1200.19
566.716	1199.19
567.168	1149.19
567.62	1177.19
568.072	1148.19
568.524	1143.19
568.976	1166.19
569.428	1102.19
569.88	1114.19
570.332	1121.19
570.784	1157.19
571.235	1154.19
571.687	1142.19
572.139	1148.19
572.59	1169.19
573.042	1165.19
573.494	1184.19
573.945	1167.19
574.397	1144.19
574.849	1114.19
575.3	1125.19
575.752	1091.19
576.203	1075.19
576.655	1109.19
577.106	1067.19
577.557	1067.19
578.009	1108.19
578.46	1105.19
578.912	1067.19
579.363	1072.19
579.814	1052.19
580.265	1088.19
580.717	1106.19
581.168	1123.19
581.619	1067.19
582.07	1080.19
582.521	1081.19
582.972	1068.19
583.423	1078.19
583.875	1102.19
584.326	1118.19
584.777	1113.19
585.227	1137.19
585.678	1144.19
586.129	1156.19
586.58	1195.19
587.031	1214.19
587.482	1198.19
587.933	1220.19
588.384	1206.19
588.834	1200.19
589.285	1230.19
589.736	1217.19
590.186	1193.19
590.637	1228.19
591.088	1201.19
591.538	1195.19
591.989	1193.19
592.439	1146.19
592.89	1118.19
593.34	1121.19
593.791	1112.19
594.241	1089.19
594.692	1082.19
595.142	1079.19
595.593	1072.19
596.043	1142.19
596.493	1111.19
596.943	1123.19
597.394	1123.19
597.844	1158.19
598.294	1139.19
598.744	1206.19
599.195	1287.19
599.645	1304.19
600.095	1378.19
600.545	1454.19
600.995	1489.19
601.445	1546.19
601.895	1638.19
602.345	1685.19
602.795	1673.19
603.245	1650.19
603.695	1501.19
604.145	1475.19
604.594	1415.19
605.044	1363.19
605.494	1254.19
605.944	1184.19
606.393	1138.19
606.843	1100.19
607.293	1111.19
607.743	1123.19
608.192	1159.19
608.642	1116.19
609.091	1150.19
609.541	1117.19
609.99	1128.19
610.44	1118.19
610.889	1103.19
611.339	1094.19
611.788	1090.19
612.238	1071.19
612.687	1054.19
613.136	1069.19
613.586	1090.19
614.035	1065.19
614.484	1092.19
614.933	1089.19
615.383	1048.19
615.832	1052.19
616.281	1042.19
616.73	1036.19
617.179	989.19
617.628	996.19
618.077	958.19
618.526	951.19
618.975	940.19
619.424	941.19
619.873	931.19
620.322	940.19
620.771	944.19
621.22	921.19
621.669	881.19
622.118	934.19
622.567	894.19
623.015	879.19
623.464	874.19
623.913	852.19
624.361	838.19
624.81	882.19
625.259	883.19
625.707	863.19
626.156	867.19
626.604	862.19
627.053	896.19
627.501	865.19
627.95	860.19
628.398	878.19
628.847	880.19
629.295	875.19
629.744	852.19
630.192	854.19
630.64	831.19
631.089	820.19
631.537	813.19
631.985	794.19
632.433	760.19
632.881	788.19
633.33	807.19
633.778	796.19
634.226	818.19
634.674	835.19
635.122	817.19
635.57	848.19
636.018	820.19
636.466	855.19
636.914	828.19
637.362	860.19
637.81	866.19
638.258	906.19
638.705	871.19
639.153	909.19
639.601	957.19
640.049	965.19
640.497	970.19
640.944	978.19
641.392	969.19
641.84	941.19
642.287	902.19
642.735	858.19
643.182	864.19
643.63	873.19
644.078	866.19
644.525	843.19
644.973	884.19
645.42	923.19
645.867	912.19
646.315	922.19
646.762	958.19
647.21	970.19
647.657	1067.19
648.104	1055.19
648.551	1093.19
648.999	1192.19
649.446	1217.19
649.893	1361.19
650.34	1518.19
650.787	1834.19
651.234	2282.19
651.682	3046.19
652.129	4195.19
652.576	5960.19
653.023	8226.19
653.47	10067.19
653.917	11166.19
654.363	11825.19
654.81	12495.19
655.257	13212.19
655.704	10156.19
656.151	6160.19
656.598	3959.19
657.044	2778.19
657.491	2180.19
657.938	1810.19
658.385	1520.19
658.831	1327.19
659.278	1211.19
659.724	1084.19
660.171	1026.19
660.618	990.19
661.064	923.19
661.511	878.19
661.957	837.19
662.404	834.19
662.85	853.19
663.296	798.19
663.743	816.19
664.189	791.19
664.635	774.19
665.082	804.19
665.528	753.19
665.974	726.19
666.42	742.19
666.867	768.19
667.313	683.19
667.759	678.19
668.205	677.19
668.651	708.19
669.097	682.19
669.543	705.19
669.989	690.19
670.435	687.19
670.881	684.19
671.327	730.19
671.773	755.19
672.219	790.19
672.665	868.19
673.11	899.19
673.556	919.19
674.002	889.19
674.448	935.19
674.893	823.19
675.339	753.19
675.785	642.19
676.23	640.19
676.676	620.19
677.122	601.19
677.567	574.19
678.013	567.19
678.458	569.19
678.904	559.19
679.349	554.19
679.794	543.19
680.24	546.19
680.685	546.19
681.131	560.19
681.576	545.19
682.021	523.19
682.466	550.19
682.912	557.19
683.357	580.19
683.802	611.19
684.247	646.19
684.692	732.19
685.137	750.19
685.583	734.19
686.028	770.19
686.473	784.19
686.918	679.19
687.363	641.19
687.807	598.19
688.252	553.19
688.697	564.19
689.142	526.19
689.587	541.19
690.032	546.19
690.477	536.19
690.921	574.19
691.366	579.19
691.811	617.19
692.255	644.19
692.7	731.19
693.145	940.19
693.589	1408.19
694.034	1887.19
694.478	2140.19
694.923	1894.19
695.367	2389.19
695.812	2194.19
696.256	921.19
696.701	622.19
697.145	542.19
697.59	530.19
698.034	534.19
698.478	507.19
698.922	513.19
699.367	506.19
699.811	534.19
700.255	561.19
700.699	603.19
701.143	686.19
701.588	700.19
702.032	725.19
702.476	758.19
702.92	770.19
703.364	897.19
703.808	1293.19
704.252	1772.19
704.696	1947.19
705.14	1859.19
705.584	2298.19
706.027	1914.19
706.471	949.19
706.915	660.19
707.359	556.19
707.803	503.19
708.246	518.19
708.69	515.19
709.134	502.19
709.577	500.19
710.021	517.19
710.465	492.19
710.908	492.19
711.352	499.19
711.795	542.19
712.239	561.19
712.682	598.19
713.126	584.19
713.569	632.19
714.012	579.19
714.456	476.19
714.899	461.19
715.342	419.19
715.786	431.19
716.229	446.19
716.672	429.19
717.115	412.19
717.558	440.19
718.002	412.19
718.445	452.19
718.888	442.19
719.331	477.19
719.774	465.19
720.217	454.19
720.66	458.19
721.103	442.19
721.546	431.19
721.989	395.19
722.432	410.19
722.874	371.19
723.317	416.19
723.76	408.19
724.203	454.19
724.645	563.19
725.088	717.19
725.531	761.19
725.974	773.19
726.416	803.19
726.859	563.19
727.301	423.19
727.744	392.19
728.187	393.19
728.629	411.19
729.071	424.19
729.514	438.19
729.956	438.19
730.399	456.19
730.841	461.19
731.283	453.19
731.726	438.19
732.168	430.19
732.61	437.19
733.053	480.19
733.495	510.19
733.937	562.19
734.379	626.19
734.821	752.19
735.263	1010.19
735.705	1716.19
736.148	2792.19
736.59	3248.19
737.032	2991.19
737.474	3246.19
737.916	1630.19
738.357	798.19
738.799	559.19
739.241	486.19
739.683	488.19
740.125	519.19
740.567	508.19
741.008	508.19
741.45	550.19
741.892	577.19
742.334	574.19
742.775	554.19
743.217	593.19
743.658	508.19
744.1	498.19
744.542	543.19
744.983	568.19
745.425	569.19
745.866	628.19
746.307	556.19
