Data from 20170802-ORNL-NYSim-Air_HRD10391_10-37-07-627.txt Node
Date: Wed Aug 02 10:37:07 EDT 2017
User: Ender
Spectrometer: HR+D1039
Trigger mode: 0
Integration Time (sec): 1.510000E-3
Scans to average: 1
Electric dark correction enabled: true
Nonlinearity correction enabled: false
Boxcar width: 0
XAxis mode: Wavelengths
Number of Pixels in Spectrum: 2048
>>>>>Begin Spectral Data<<<<<
187.836	-4.69
188.309	-4.69
188.782	-4.69
189.255	-0.69
189.728	-9.69
190.201	-10.69
190.674	-13.69
191.147	-10.69
191.619	-8.69
192.092	-4.69
192.565	-16.69
193.038	-12.69
193.511	8.31
193.984	16.31
194.456	14.31
194.929	14.31
195.402	20.31
195.874	19.31
196.347	21.31
196.82	17.31
197.292	39.31
197.765	30.31
198.237	32.31
198.71	54.31
199.182	54.31
199.655	54.31
200.127	52.31
200.6	49.31
201.072	64.31
201.544	60.31
202.017	52.31
202.489	81.31
202.961	69.31
203.433	70.31
203.906	79.31
204.378	68.31
204.85	73.31
205.322	69.31
205.794	75.31
206.266	71.31
206.739	85.31
207.211	100.31
207.683	74.31
208.155	80.31
208.627	83.31
209.099	90.31
209.57	90.31
210.042	86.31
210.514	86.31
210.986	95.31
211.458	83.31
211.93	85.31
212.402	85.31
212.873	68.31
213.345	90.31
213.817	77.31
214.288	81.31
214.76	71.31
215.232	90.31
215.703	87.31
216.175	76.31
216.646	59.31
217.118	73.31
217.589	78.31
218.061	69.31
218.532	85.31
219.004	59.31
219.475	85.31
219.946	74.31
220.418	70.31
220.889	88.31
221.36	67.31
221.832	71.31
222.303	64.31
222.774	86.31
223.245	73.31
223.717	68.31
224.188	90.31
224.659	79.31
225.13	91.31
225.601	87.31
226.072	84.31
226.543	76.31
227.014	84.31
227.485	93.31
227.956	62.31
228.427	95.31
228.898	89.31
229.369	91.31
229.839	83.31
230.31	57.31
230.781	69.31
231.252	58.31
231.722	95.31
232.193	97.31
232.664	70.31
233.135	87.31
233.605	85.31
234.076	93.31
234.546	87.31
235.017	92.31
235.487	86.31
235.958	98.31
236.428	87.31
236.899	88.31
237.369	87.31
237.84	96.31
238.31	95.31
238.78	74.31
239.251	87.31
239.721	82.31
240.191	99.31
240.662	81.31
241.132	86.31
241.602	78.31
242.072	77.31
242.542	68.31
243.013	80.31
243.483	75.31
243.953	85.31
244.423	79.31
244.893	80.31
245.363	67.31
245.833	91.31
246.303	76.31
246.773	85.31
247.243	68.31
247.712	102.31
248.182	83.31
248.652	83.31
249.122	93.31
249.592	88.31
250.061	102.31
250.531	88.31
251.001	87.31
251.471	93.31
251.94	94.31
252.41	93.31
252.879	94.31
253.349	90.31
253.818	67.31
254.288	72.31
254.757	99.31
255.227	88.31
255.696	105.31
256.166	83.31
256.635	75.31
257.105	81.31
257.574	102.31
258.043	91.31
258.513	98.31
258.982	100.31
259.451	90.31
259.92	103.31
260.389	97.31
260.859	103.31
261.328	101.31
261.797	105.31
262.266	101.31
262.735	96.31
263.204	98.31
263.673	113.31
264.142	107.31
264.611	93.31
265.08	73.31
265.549	83.31
266.018	96.31
266.487	98.31
266.955	84.31
267.424	78.31
267.893	101.31
268.362	107.31
268.83	85.31
269.299	87.31
269.768	102.31
270.236	103.31
270.705	101.31
271.174	87.31
271.642	101.31
272.111	101.31
272.579	91.31
273.048	98.31
273.516	111.31
273.985	103.31
274.453	119.31
274.922	97.31
275.39	104.31
275.858	108.31
276.327	101.31
276.795	118.31
277.263	121.31
277.731	113.31
278.2	116.31
278.668	99.31
279.136	101.31
279.604	112.31
280.072	103.31
280.54	105.31
281.008	97.31
281.477	101.31
281.945	94.31
282.413	114.31
282.881	117.31
283.348	113.31
283.816	117.31
284.284	121.31
284.752	103.31
285.22	102.31
285.688	112.31
286.156	106.31
286.623	129.31
287.091	113.31
287.559	141.31
288.026	127.31
288.494	115.31
288.962	129.31
289.429	126.31
289.897	111.31
290.364	115.31
290.832	117.31
291.3	121.31
291.767	117.31
292.234	112.31
292.702	106.31
293.169	131.31
293.637	119.31
294.104	118.31
294.571	111.31
295.039	110.31
295.506	99.31
295.973	105.31
296.44	113.31
296.908	117.31
297.375	125.31
297.842	100.31
298.309	110.31
298.776	127.31
299.243	110.31
299.71	140.31
300.177	130.31
300.644	140.31
301.111	147.31
301.578	133.31
302.045	126.31
302.512	112.31
302.979	118.31
303.446	148.31
303.913	143.31
304.379	136.31
304.846	126.31
305.313	123.31
305.78	125.31
306.246	129.31
306.713	127.31
307.18	141.31
307.646	136.31
308.113	131.31
308.579	139.31
309.046	136.31
309.512	126.31
309.979	138.31
310.445	112.31
310.912	138.31
311.378	133.31
311.845	134.31
312.311	150.31
312.777	150.31
313.244	148.31
313.71	140.31
314.176	141.31
314.642	160.31
315.109	147.31
315.575	153.31
316.041	136.31
316.507	143.31
316.973	137.31
317.439	137.31
317.905	163.31
318.371	141.31
318.837	148.31
319.303	151.31
319.769	165.31
320.235	160.31
320.701	151.31
321.167	155.31
321.633	145.31
322.099	169.31
322.564	156.31
323.03	161.31
323.496	148.31
323.962	160.31
324.427	173.31
324.893	165.31
325.359	166.31
325.824	160.31
326.29	153.31
326.755	157.31
327.221	196.31
327.686	169.31
328.152	169.31
328.617	167.31
329.083	170.31
329.548	156.31
330.014	148.31
330.479	180.31
330.944	166.31
331.41	181.31
331.875	170.31
332.34	170.31
332.805	172.31
333.271	162.31
333.736	157.31
334.201	179.31
334.666	164.31
335.131	183.31
335.596	184.31
336.061	168.31
336.526	177.31
336.991	168.31
337.456	183.31
337.921	144.31
338.386	169.31
338.851	176.31
339.316	169.31
339.781	163.31
340.246	194.31
340.711	178.31
341.175	172.31
341.64	189.31
342.105	173.31
342.569	178.31
343.034	191.31
343.499	198.31
343.963	226.31
344.428	208.31
344.893	201.31
345.357	191.31
345.822	189.31
346.286	200.31
346.751	202.31
347.215	197.31
347.679	208.31
348.144	221.31
348.608	203.31
349.073	215.31
349.537	219.31
350.001	225.31
350.465	217.31
350.93	213.31
351.394	237.31
351.858	231.31
352.322	227.31
352.786	234.31
353.25	213.31
353.715	220.31
354.179	227.31
354.643	215.31
355.107	231.31
355.571	239.31
356.035	236.31
356.498	216.31
356.962	223.31
357.426	227.31
357.89	242.31
358.354	233.31
358.818	203.31
359.281	201.31
359.745	222.31
360.209	227.31
360.673	223.31
361.136	242.31
361.6	248.31
362.064	231.31
362.527	251.31
362.991	243.31
363.454	233.31
363.918	232.31
364.381	245.31
364.845	265.31
365.308	244.31
365.772	239.31
366.235	219.31
366.698	231.31
367.162	267.31
367.625	242.31
368.088	243.31
368.552	249.31
369.015	226.31
369.478	255.31
369.941	267.31
370.404	257.31
370.867	263.31
371.331	257.31
371.794	259.31
372.257	265.31
372.72	266.31
373.183	283.31
373.646	269.31
374.109	286.31
374.572	259.31
375.035	280.31
375.497	284.31
375.96	271.31
376.423	279.31
376.886	264.31
377.349	259.31
377.811	282.31
378.274	295.31
378.737	291.31
379.199	309.31
379.662	295.31
380.125	282.31
380.587	305.31
381.05	288.31
381.512	295.31
381.975	288.31
382.437	299.31
382.9	299.31
383.362	294.31
383.825	315.31
384.287	321.31
384.75	307.31
385.212	314.31
385.674	312.31
386.136	326.31
386.599	307.31
387.061	324.31
387.523	325.31
387.985	303.31
388.447	312.31
388.91	326.31
389.372	310.31
389.834	292.31
390.296	312.31
390.758	336.31
391.22	349.31
391.682	315.31
392.144	339.31
392.606	316.31
393.068	339.31
393.529	349.31
393.991	344.31
394.453	323.31
394.915	298.31
395.377	335.31
395.838	327.31
396.3	330.31
396.762	325.31
397.224	317.31
397.685	330.31
398.147	341.31
398.608	348.31
399.07	360.31
399.531	332.31
399.993	330.31
400.454	352.31
400.916	362.31
401.377	380.31
401.839	371.31
402.3	355.31
402.762	366.31
403.223	394.31
403.684	398.31
404.145	395.31
404.607	362.31
405.068	384.31
405.529	388.31
405.99	375.31
406.451	375.31
406.913	377.31
407.374	407.31
407.835	381.31
408.296	417.31
408.757	405.31
409.218	409.31
409.679	406.31
410.14	408.31
410.601	395.31
411.062	398.31
411.522	427.31
411.983	421.31
412.444	421.31
412.905	431.31
413.366	436.31
413.826	453.31
414.287	491.31
414.748	582.31
415.208	601.31
415.669	516.31
416.13	478.31
416.59	446.31
417.051	479.31
417.511	509.31
417.972	503.31
418.432	565.31
418.893	611.31
419.353	587.31
419.814	469.31
420.274	415.31
420.734	428.31
421.195	446.31
421.655	462.31
422.115	455.31
422.576	451.31
423.036	456.31
423.496	455.31
423.956	462.31
424.416	493.31
424.876	573.31
425.336	556.31
425.797	541.31
426.257	527.31
426.717	532.31
427.177	503.31
427.637	496.31
428.097	485.31
428.556	509.31
429.016	537.31
429.476	541.31
429.936	544.31
430.396	541.31
430.856	563.31
431.315	564.31
431.775	578.31
432.235	659.31
432.694	631.31
433.154	619.31
433.614	636.31
434.073	591.31
434.533	563.31
434.993	527.31
435.452	536.31
435.912	531.31
436.371	533.31
436.83	510.31
437.29	510.31
437.749	513.31
438.209	497.31
438.668	509.31
439.127	530.31
439.587	508.31
440.046	495.31
440.505	485.31
440.964	502.31
441.424	508.31
441.883	499.31
442.342	487.31
442.801	465.31
443.26	471.31
443.719	480.31
444.178	491.31
444.637	492.31
445.096	475.31
445.555	495.31
446.014	502.31
446.473	489.31
446.932	464.31
447.391	468.31
447.849	518.31
448.308	503.31
448.767	505.31
449.226	496.31
449.685	513.31
450.143	528.31
450.602	541.31
451.061	505.31
451.519	489.31
451.978	506.31
452.436	512.31
452.895	507.31
453.353	507.31
453.812	485.31
454.27	481.31
454.729	503.31
455.187	532.31
455.646	470.31
456.104	502.31
456.562	471.31
457.021	516.31
457.479	512.31
457.937	486.31
458.395	523.31
458.854	505.31
459.312	519.31
459.77	490.31
460.228	512.31
460.686	505.31
461.144	531.31
461.602	505.31
462.06	516.31
462.518	538.31
462.976	552.31
463.434	542.31
463.892	545.31
464.35	542.31
464.808	560.31
465.266	582.31
465.724	565.31
466.181	575.31
466.639	562.31
467.097	596.31
467.555	613.31
468.012	608.31
468.47	611.31
468.928	634.31
469.385	666.31
469.843	653.31
470.3	636.31
470.758	647.31
471.215	666.31
471.673	677.31
472.13	693.31
472.588	713.31
473.045	718.31
473.503	746.31
473.96	752.31
474.417	756.31
474.875	824.31
475.332	813.31
475.789	843.31
476.246	862.31
476.704	859.31
477.161	922.31
477.618	939.31
478.075	955.31
478.532	1029.31
478.989	1076.31
479.446	1194.31
479.903	1227.31
480.36	1339.31
480.817	1451.31
481.274	1503.31
481.731	1666.31
482.188	1771.31
482.645	1890.31
483.102	1992.31
483.558	2146.31
484.015	2190.31
484.472	2188.31
484.929	2161.31
485.385	2062.31
485.842	1991.31
486.299	1969.31
486.755	1797.31
487.212	1623.31
487.668	1495.31
488.125	1431.31
488.582	1310.31
489.038	1266.31
489.494	1219.31
489.951	1179.31
490.407	1159.31
490.864	1186.31
491.32	1127.31
491.776	1063.31
492.233	1147.31
492.689	1092.31
493.145	1075.31
493.602	1052.31
494.058	1084.31
494.514	1066.31
494.97	1073.31
495.426	1102.31
495.882	1093.31
496.338	1118.31
496.794	1112.31
497.251	1096.31
497.707	1107.31
498.163	1117.31
498.618	1114.31
499.074	1080.31
499.53	1125.31
499.986	1111.31
500.442	1097.31
500.898	1118.31
501.354	1119.31
501.809	1117.31
502.265	1136.31
502.721	1133.31
503.177	1106.31
503.632	1089.31
504.088	1137.31
504.543	1145.31
504.999	1202.31
505.455	1135.31
505.91	1129.31
506.366	1159.31
506.821	1121.31
507.277	1134.31
507.732	1151.31
508.187	1135.31
508.643	1147.31
509.098	1127.31
509.553	1189.31
510.009	1173.31
510.464	1172.31
510.919	1206.31
511.375	1232.31
511.83	1241.31
512.285	1252.31
512.74	1279.31
513.195	1292.31
513.65	1316.31
514.105	1299.31
514.56	1331.31
515.015	1343.31
515.47	1342.31
515.925	1350.31
516.38	1366.31
516.835	1367.31
517.29	1346.31
517.745	1347.31
518.2	1296.31
518.655	1294.31
519.109	1301.31
519.564	1289.31
520.019	1259.31
520.474	1249.31
520.928	1252.31
521.383	1245.31
521.838	1223.31
522.292	1241.31
522.747	1238.31
523.201	1225.31
523.656	1219.31
524.11	1188.31
524.565	1198.31
525.019	1189.31
525.474	1213.31
525.928	1210.31
526.382	1195.31
526.837	1195.31
527.291	1217.31
527.745	1188.31
528.2	1200.31
528.654	1167.31
529.108	1159.31
529.562	1192.31
530.016	1200.31
530.47	1169.31
530.925	1182.31
531.379	1159.31
531.833	1215.31
532.287	1153.31
532.741	1203.31
533.195	1187.31
533.649	1201.31
534.103	1199.31
534.556	1184.31
535.01	1207.31
535.464	1180.31
535.918	1189.31
536.372	1187.31
536.826	1208.31
537.279	1179.31
537.733	1199.31
538.187	1199.31
538.64	1179.31
539.094	1223.31
539.548	1192.31
540.001	1243.31
540.455	1229.31
540.908	1227.31
541.362	1235.31
541.815	1260.31
542.269	1260.31
542.722	1260.31
543.175	1265.31
543.629	1313.31
544.082	1270.31
544.536	1322.31
544.989	1304.31
545.442	1347.31
545.895	1298.31
546.349	1327.31
546.802	1317.31
547.255	1321.31
547.708	1313.31
548.161	1364.31
548.614	1334.31
549.067	1353.31
549.52	1343.31
549.973	1359.31
550.426	1316.31
550.879	1339.31
551.332	1354.31
551.785	1353.31
552.238	1334.31
552.691	1326.31
553.144	1372.31
553.596	1375.31
554.049	1403.31
554.502	1436.31
554.955	1437.31
555.407	1475.31
555.86	1438.31
556.313	1413.31
556.765	1430.31
557.218	1370.31
557.67	1371.31
558.123	1423.31
558.576	1401.31
559.028	1374.31
559.48	1397.31
559.933	1426.31
560.385	1338.31
560.838	1342.31
561.29	1274.31
561.742	1266.31
562.195	1260.31
562.647	1195.31
563.099	1250.31
563.551	1198.31
564.004	1237.31
564.456	1245.31
564.908	1213.31
565.36	1187.31
565.812	1147.31
566.264	1155.31
566.716	1141.31
567.168	1116.31
567.62	1153.31
568.072	1127.31
568.524	1115.31
568.976	1123.31
569.428	1069.31
569.88	1097.31
570.332	1151.31
570.784	1077.31
571.235	1133.31
571.687	1092.31
572.139	1101.31
572.59	1137.31
573.042	1120.31
573.494	1133.31
573.945	1089.31
574.397	1091.31
574.849	1102.31
575.3	1088.31
575.752	1053.31
576.203	1081.31
576.655	1073.31
577.106	1109.31
577.557	1079.31
578.009	1064.31
578.46	1055.31
578.912	1056.31
579.363	1074.31
579.814	1042.31
580.265	1035.31
580.717	1050.31
581.168	1035.31
581.619	1061.31
582.07	1066.31
582.521	1056.31
582.972	1078.31
583.423	1071.31
583.875	1061.31
584.326	1054.31
584.777	1094.31
585.227	1088.31
585.678	1116.31
586.129	1135.31
586.58	1135.31
587.031	1129.31
587.482	1163.31
587.933	1183.31
588.384	1170.31
588.834	1175.31
589.285	1167.31
589.736	1159.31
590.186	1169.31
590.637	1147.31
591.088	1151.31
591.538	1115.31
591.989	1107.31
592.439	1120.31
592.89	1065.31
593.34	1085.31
593.791	1098.31
594.241	1077.31
594.692	1064.31
595.142	1060.31
595.593	1036.31
596.043	1036.31
596.493	1059.31
596.943	1075.31
597.394	1095.31
597.844	1109.31
598.294	1159.31
598.744	1185.31
599.195	1198.31
599.645	1273.31
600.095	1329.31
600.545	1350.31
600.995	1459.31
601.445	1457.31
601.895	1569.31
602.345	1588.31
602.795	1570.31
603.245	1599.31
603.695	1473.31
604.145	1399.31
604.594	1346.31
605.044	1316.31
605.494	1241.31
605.944	1122.31
606.393	1148.31
606.843	1124.31
607.293	1079.31
607.743	1063.31
608.192	1092.31
608.642	1100.31
609.091	1118.31
609.541	1079.31
609.99	1103.31
610.44	1028.31
610.889	1090.31
611.339	1045.31
611.788	996.31
612.238	1019.31
612.687	1040.31
613.136	1031.31
613.586	1097.31
614.035	1062.31
614.484	1067.31
614.933	1063.31
615.383	1035.31
615.832	1002.31
616.281	1001.31
616.73	1007.31
617.179	964.31
617.628	943.31
618.077	933.31
618.526	904.31
618.975	931.31
619.424	885.31
619.873	915.31
620.322	901.31
620.771	908.31
621.22	900.31
621.669	876.31
622.118	869.31
622.567	854.31
623.015	830.31
623.464	813.31
623.913	838.31
624.361	797.31
624.81	839.31
625.259	829.31
625.707	825.31
626.156	808.31
626.604	831.31
627.053	860.31
627.501	833.31
627.95	881.31
628.398	868.31
628.847	856.31
629.295	832.31
629.744	821.31
630.192	821.31
630.64	817.31
631.089	800.31
631.537	774.31
631.985	806.31
632.433	771.31
632.881	763.31
633.33	754.31
633.778	778.31
634.226	781.31
634.674	784.31
635.122	813.31
635.57	811.31
636.018	815.31
636.466	805.31
636.914	813.31
637.362	807.31
637.81	846.31
638.258	868.31
638.705	862.31
639.153	900.31
639.601	901.31
640.049	905.31
640.497	963.31
640.944	931.31
641.392	911.31
641.84	886.31
642.287	820.31
642.735	843.31
643.182	825.31
643.63	824.31
644.078	808.31
644.525	845.31
644.973	843.31
645.42	845.31
645.867	882.31
646.315	919.31
646.762	921.31
647.21	934.31
647.657	995.31
648.104	1035.31
648.551	1055.31
648.999	1129.31
649.446	1165.31
649.893	1348.31
650.34	1499.31
650.787	1817.31
651.234	2276.31
651.682	2878.31
652.129	4036.31
652.576	5819.31
653.023	7974.31
653.47	9836.31
653.917	10842.31
654.363	11551.31
654.81	12232.31
655.257	12731.31
655.704	9815.31
656.151	5921.31
656.598	3797.31
657.044	2735.31
657.491	2144.31
657.938	1690.31
658.385	1471.31
658.831	1279.31
659.278	1200.31
659.724	1109.31
660.171	999.31
660.618	924.31
661.064	881.31
661.511	819.31
661.957	825.31
662.404	820.31
662.85	837.31
663.296	779.31
663.743	764.31
664.189	755.31
664.635	743.31
665.082	713.31
665.528	717.31
665.974	731.31
666.42	692.31
666.867	726.31
667.313	669.31
667.759	679.31
668.205	651.31
668.651	675.31
669.097	656.31
669.543	672.31
669.989	659.31
670.435	672.31
670.881	674.31
671.327	696.31
671.773	736.31
672.219	783.31
672.665	828.31
673.11	880.31
673.556	861.31
674.002	891.31
674.448	911.31
674.893	836.31
675.339	706.31
675.785	674.31
676.23	625.31
676.676	609.31
677.122	591.31
677.567	563.31
678.013	535.31
678.458	561.31
678.904	494.31
679.349	535.31
679.794	548.31
680.24	526.31
680.685	514.31
681.131	545.31
681.576	543.31
682.021	532.31
682.466	548.31
682.912	553.31
683.357	537.31
683.802	599.31
684.247	646.31
684.692	685.31
685.137	721.31
685.583	743.31
686.028	755.31
686.473	730.31
686.918	644.31
687.363	601.31
687.807	567.31
688.252	581.31
688.697	537.31
689.142	528.31
689.587	527.31
690.032	484.31
690.477	559.31
690.921	576.31
691.366	585.31
691.811	633.31
692.255	625.31
692.7	747.31
693.145	917.31
693.589	1365.31
694.034	1778.31
694.478	2031.31
694.923	1829.31
695.367	2266.31
695.812	2078.31
696.256	879.31
696.701	631.31
697.145	537.31
697.59	498.31
698.034	487.31
698.478	514.31
698.922	474.31
699.367	515.31
699.811	544.31
700.255	577.31
700.699	591.31
701.143	660.31
701.588	700.31
702.032	732.31
702.476	732.31
702.92	765.31
703.364	842.31
703.808	1247.31
704.252	1702.31
704.696	1878.31
705.14	1749.31
705.584	2215.31
706.027	1825.31
706.471	888.31
706.915	636.31
707.359	531.31
707.803	510.31
708.246	486.31
708.69	495.31
709.134	491.31
709.577	494.31
710.021	485.31
710.465	485.31
710.908	481.31
711.352	481.31
711.795	511.31
712.239	569.31
712.682	601.31
713.126	585.31
713.569	601.31
714.012	575.31
714.456	466.31
714.899	455.31
715.342	441.31
715.786	429.31
716.229	427.31
716.672	396.31
717.115	409.31
717.558	392.31
718.002	413.31
718.445	435.31
718.888	440.31
719.331	463.31
719.774	455.31
720.217	480.31
720.66	441.31
721.103	419.31
721.546	391.31
721.989	410.31
722.432	391.31
722.874	379.31
723.317	381.31
723.76	396.31
724.203	423.31
724.645	559.31
725.088	706.31
725.531	711.31
725.974	752.31
726.416	757.31
726.859	513.31
727.301	403.31
727.744	378.31
728.187	377.31
728.629	412.31
729.071	406.31
729.514	425.31
729.956	418.31
730.399	449.31
730.841	439.31
731.283	446.31
731.726	426.31
732.168	423.31
732.61	462.31
733.053	491.31
733.495	509.31
733.937	539.31
734.379	569.31
734.821	714.31
735.263	990.31
735.705	1658.31
736.148	2647.31
736.59	3061.31
737.032	2881.31
737.474	3179.31
737.916	1561.31
738.357	772.31
738.799	541.31
739.241	481.31
739.683	455.31
740.125	479.31
740.567	498.31
741.008	497.31
741.45	529.31
741.892	555.31
742.334	570.31
742.775	560.31
743.217	593.31
743.658	517.31
744.1	463.31
744.542	521.31
744.983	549.31
745.425	561.31
745.866	609.31
746.307	504.31
