Data from 20170802-ORNL-NYSim-Air_HRD10391_10-37-35-641.txt Node
Date: Wed Aug 02 10:37:35 EDT 2017
User: Ender
Spectrometer: HR+D1039
Trigger mode: 0
Integration Time (sec): 1.510000E-3
Scans to average: 1
Electric dark correction enabled: true
Nonlinearity correction enabled: false
Boxcar width: 0
XAxis mode: Wavelengths
Number of Pixels in Spectrum: 2048
>>>>>Begin Spectral Data<<<<<
187.836	14.25
188.309	14.25
188.782	14.25
189.255	-6.75
189.728	5.25
190.201	-11.75
190.674	-3.75
191.147	-16.75
191.619	-2.75
192.092	-7.75
192.565	-11.75
193.038	-6.75
193.511	4.25
193.984	13.25
194.456	1.25
194.929	14.25
195.402	5.25
195.874	10.25
196.347	-3.75
196.82	18.25
197.292	26.25
197.765	26.25
198.237	34.25
198.71	40.25
199.182	44.25
199.655	50.25
200.127	57.25
200.6	52.25
201.072	37.25
201.544	67.25
202.017	62.25
202.489	78.25
202.961	54.25
203.433	64.25
203.906	86.25
204.378	102.25
204.85	94.25
205.322	64.25
205.794	58.25
206.266	66.25
206.739	79.25
207.211	79.25
207.683	95.25
208.155	90.25
208.627	81.25
209.099	100.25
209.57	88.25
210.042	86.25
210.514	89.25
210.986	76.25
211.458	83.25
211.93	74.25
212.402	82.25
212.873	96.25
213.345	86.25
213.817	109.25
214.288	83.25
214.76	79.25
215.232	81.25
215.703	86.25
216.175	73.25
216.646	77.25
217.118	78.25
217.589	72.25
218.061	85.25
218.532	75.25
219.004	76.25
219.475	74.25
219.946	81.25
220.418	78.25
220.889	89.25
221.36	69.25
221.832	75.25
222.303	82.25
222.774	74.25
223.245	74.25
223.717	83.25
224.188	69.25
224.659	66.25
225.13	78.25
225.601	93.25
226.072	81.25
226.543	80.25
227.014	72.25
227.485	71.25
227.956	80.25
228.427	59.25
228.898	93.25
229.369	86.25
229.839	85.25
230.31	97.25
230.781	86.25
231.252	75.25
231.722	86.25
232.193	84.25
232.664	67.25
233.135	68.25
233.605	73.25
234.076	75.25
234.546	70.25
235.017	95.25
235.487	78.25
235.958	78.25
236.428	91.25
236.899	61.25
237.369	88.25
237.84	63.25
238.31	99.25
238.78	70.25
239.251	73.25
239.721	82.25
240.191	73.25
240.662	82.25
241.132	78.25
241.602	93.25
242.072	82.25
242.542	82.25
243.013	63.25
243.483	77.25
243.953	79.25
244.423	85.25
244.893	91.25
245.363	80.25
245.833	86.25
246.303	85.25
246.773	88.25
247.243	87.25
247.712	89.25
248.182	83.25
248.652	76.25
249.122	100.25
249.592	75.25
250.061	111.25
250.531	106.25
251.001	94.25
251.471	77.25
251.94	79.25
252.41	102.25
252.879	78.25
253.349	86.25
253.818	77.25
254.288	65.25
254.757	86.25
255.227	91.25
255.696	87.25
256.166	67.25
256.635	70.25
257.105	95.25
257.574	96.25
258.043	85.25
258.513	96.25
258.982	82.25
259.451	92.25
259.92	100.25
260.389	77.25
260.859	94.25
261.328	97.25
261.797	85.25
262.266	105.25
262.735	111.25
263.204	87.25
263.673	95.25
264.142	95.25
264.611	99.25
265.08	86.25
265.549	106.25
266.018	92.25
266.487	92.25
266.955	87.25
267.424	96.25
267.893	78.25
268.362	98.25
268.83	87.25
269.299	101.25
269.768	94.25
270.236	95.25
270.705	101.25
271.174	104.25
271.642	102.25
272.111	101.25
272.579	100.25
273.048	98.25
273.516	109.25
273.985	101.25
274.453	83.25
274.922	94.25
275.39	103.25
275.858	103.25
276.327	84.25
276.795	102.25
277.263	99.25
277.731	103.25
278.2	106.25
278.668	80.25
279.136	120.25
279.604	97.25
280.072	108.25
280.54	113.25
281.008	109.25
281.477	117.25
281.945	115.25
282.413	102.25
282.881	107.25
283.348	114.25
283.816	116.25
284.284	103.25
284.752	114.25
285.22	104.25
285.688	99.25
286.156	98.25
286.623	113.25
287.091	135.25
287.559	109.25
288.026	125.25
288.494	110.25
288.962	104.25
289.429	98.25
289.897	125.25
290.364	116.25
290.832	107.25
291.3	110.25
291.767	121.25
292.234	119.25
292.702	100.25
293.169	128.25
293.637	108.25
294.104	113.25
294.571	96.25
295.039	111.25
295.506	101.25
295.973	133.25
296.44	119.25
296.908	119.25
297.375	134.25
297.842	116.25
298.309	117.25
298.776	118.25
299.243	130.25
299.71	121.25
300.177	126.25
300.644	128.25
301.111	106.25
301.578	108.25
302.045	107.25
302.512	114.25
302.979	118.25
303.446	121.25
303.913	112.25
304.379	129.25
304.846	121.25
305.313	139.25
305.78	146.25
306.246	132.25
306.713	128.25
307.18	126.25
307.646	147.25
308.113	155.25
308.579	135.25
309.046	118.25
309.512	121.25
309.979	136.25
310.445	150.25
310.912	138.25
311.378	127.25
311.845	146.25
312.311	139.25
312.777	146.25
313.244	133.25
313.71	148.25
314.176	140.25
314.642	155.25
315.109	136.25
315.575	161.25
316.041	150.25
316.507	157.25
316.973	155.25
317.439	155.25
317.905	150.25
318.371	149.25
318.837	157.25
319.303	154.25
319.769	155.25
320.235	162.25
320.701	152.25
321.167	136.25
321.633	158.25
322.099	120.25
322.564	139.25
323.03	147.25
323.496	171.25
323.962	181.25
324.427	134.25
324.893	146.25
325.359	162.25
325.824	158.25
326.29	161.25
326.755	153.25
327.221	168.25
327.686	161.25
328.152	169.25
328.617	166.25
329.083	134.25
329.548	168.25
330.014	163.25
330.479	160.25
330.944	170.25
331.41	179.25
331.875	184.25
332.34	167.25
332.805	174.25
333.271	154.25
333.736	183.25
334.201	163.25
334.666	173.25
335.131	180.25
335.596	176.25
336.061	191.25
336.526	167.25
336.991	185.25
337.456	157.25
337.921	184.25
338.386	180.25
338.851	198.25
339.316	166.25
339.781	179.25
340.246	172.25
340.711	181.25
341.175	184.25
341.64	187.25
342.105	189.25
342.569	201.25
343.034	179.25
343.499	190.25
343.963	198.25
344.428	189.25
344.893	174.25
345.357	197.25
345.822	188.25
346.286	180.25
346.751	177.25
347.215	191.25
347.679	208.25
348.144	220.25
348.608	213.25
349.073	216.25
349.537	222.25
350.001	214.25
350.465	196.25
350.93	230.25
351.394	222.25
351.858	236.25
352.322	233.25
352.786	214.25
353.25	215.25
353.715	225.25
354.179	227.25
354.643	227.25
355.107	239.25
355.571	234.25
356.035	236.25
356.498	238.25
356.962	216.25
357.426	247.25
357.89	241.25
358.354	224.25
358.818	230.25
359.281	247.25
359.745	258.25
360.209	234.25
360.673	226.25
361.136	234.25
361.6	223.25
362.064	220.25
362.527	225.25
362.991	234.25
363.454	266.25
363.918	239.25
364.381	249.25
364.845	249.25
365.308	270.25
365.772	233.25
366.235	242.25
366.698	252.25
367.162	265.25
367.625	234.25
368.088	250.25
368.552	255.25
369.015	244.25
369.478	251.25
369.941	262.25
370.404	260.25
370.867	249.25
371.331	247.25
371.794	261.25
372.257	256.25
372.72	256.25
373.183	255.25
373.646	250.25
374.109	263.25
374.572	268.25
375.035	270.25
375.497	256.25
375.96	260.25
376.423	283.25
376.886	278.25
377.349	284.25
377.811	285.25
378.274	283.25
378.737	290.25
379.199	281.25
379.662	288.25
380.125	291.25
380.587	299.25
381.05	313.25
381.512	304.25
381.975	299.25
382.437	296.25
382.9	317.25
383.362	309.25
383.825	305.25
384.287	301.25
384.75	289.25
385.212	300.25
385.674	319.25
386.136	313.25
386.599	311.25
387.061	316.25
387.523	331.25
387.985	326.25
388.447	297.25
388.91	323.25
389.372	320.25
389.834	326.25
390.296	313.25
390.758	327.25
391.22	326.25
391.682	316.25
392.144	348.25
392.606	307.25
393.068	317.25
393.529	347.25
393.991	353.25
394.453	347.25
394.915	341.25
395.377	326.25
395.838	333.25
396.3	330.25
396.762	333.25
397.224	337.25
397.685	331.25
398.147	334.25
398.608	339.25
399.07	329.25
399.531	337.25
399.993	331.25
400.454	361.25
400.916	345.25
401.377	356.25
401.839	374.25
402.3	358.25
402.762	367.25
403.223	410.25
403.684	406.25
404.145	410.25
404.607	361.25
405.068	381.25
405.529	385.25
405.99	377.25
406.451	390.25
406.913	372.25
407.374	343.25
407.835	381.25
408.296	388.25
408.757	396.25
409.218	410.25
409.679	405.25
410.14	389.25
410.601	388.25
411.062	407.25
411.522	410.25
411.983	417.25
412.444	432.25
412.905	425.25
413.366	451.25
413.826	460.25
414.287	493.25
414.748	597.25
415.208	558.25
415.669	505.25
416.13	471.25
416.59	471.25
417.051	480.25
417.511	500.25
417.972	528.25
418.432	564.25
418.893	624.25
419.353	573.25
419.814	479.25
420.274	441.25
420.734	418.25
421.195	456.25
421.655	412.25
422.115	442.25
422.576	437.25
423.036	456.25
423.496	477.25
423.956	480.25
424.416	522.25
424.876	577.25
425.336	569.25
425.797	554.25
426.257	546.25
426.717	504.25
427.177	523.25
427.637	502.25
428.097	483.25
428.556	511.25
429.016	583.25
429.476	560.25
429.936	538.25
430.396	586.25
430.856	579.25
431.315	585.25
431.775	598.25
432.235	640.25
432.694	619.25
433.154	635.25
433.614	613.25
434.073	596.25
434.533	566.25
434.993	534.25
435.452	540.25
435.912	519.25
436.371	516.25
436.83	505.25
437.29	499.25
437.749	499.25
438.209	479.25
438.668	512.25
439.127	503.25
439.587	529.25
440.046	513.25
440.505	473.25
440.964	496.25
441.424	512.25
441.883	536.25
442.342	481.25
442.801	505.25
443.26	494.25
443.719	487.25
444.178	481.25
444.637	484.25
445.096	501.25
445.555	487.25
446.014	508.25
446.473	466.25
446.932	489.25
447.391	511.25
447.849	478.25
448.308	474.25
448.767	473.25
449.226	522.25
449.685	521.25
450.143	535.25
450.602	541.25
451.061	502.25
451.519	508.25
451.978	502.25
452.436	488.25
452.895	504.25
453.353	488.25
453.812	457.25
454.27	514.25
454.729	477.25
455.187	486.25
455.646	511.25
456.104	494.25
456.562	497.25
457.021	501.25
457.479	497.25
457.937	494.25
458.395	509.25
458.854	521.25
459.312	507.25
459.77	526.25
460.228	522.25
460.686	554.25
461.144	557.25
461.602	519.25
462.06	533.25
462.518	520.25
462.976	521.25
463.434	526.25
463.892	539.25
464.35	527.25
464.808	545.25
465.266	554.25
465.724	561.25
466.181	586.25
466.639	582.25
467.097	616.25
467.555	615.25
468.012	605.25
468.47	629.25
468.928	633.25
469.385	620.25
469.843	630.25
470.3	662.25
470.758	644.25
471.215	640.25
471.673	669.25
472.13	695.25
472.588	701.25
473.045	697.25
473.503	740.25
473.96	786.25
474.417	758.25
474.875	808.25
475.332	809.25
475.789	829.25
476.246	856.25
476.704	832.25
477.161	894.25
477.618	926.25
478.075	964.25
478.532	1014.25
478.989	1097.25
479.446	1230.25
479.903	1233.25
480.36	1322.25
480.817	1380.25
481.274	1540.25
481.731	1643.25
482.188	1748.25
482.645	1841.25
483.102	1939.25
483.558	2126.25
484.015	2166.25
484.472	2212.25
484.929	2142.25
485.385	2040.25
485.842	2004.25
486.299	1906.25
486.755	1785.25
487.212	1625.25
487.668	1494.25
488.125	1402.25
488.582	1294.25
489.038	1286.25
489.494	1246.25
489.951	1166.25
490.407	1148.25
490.864	1128.25
491.32	1159.25
491.776	1133.25
492.233	1102.25
492.689	1074.25
493.145	1072.25
493.602	1092.25
494.058	1076.25
494.514	1072.25
494.97	1094.25
495.426	1122.25
495.882	1102.25
496.338	1126.25
496.794	1100.25
497.251	1092.25
497.707	1110.25
498.163	1112.25
498.618	1104.25
499.074	1115.25
499.53	1144.25
499.986	1122.25
500.442	1110.25
500.898	1121.25
501.354	1124.25
501.809	1108.25
502.265	1114.25
502.721	1124.25
503.177	1117.25
503.632	1155.25
504.088	1107.25
504.543	1168.25
504.999	1126.25
505.455	1144.25
505.91	1146.25
506.366	1152.25
506.821	1148.25
507.277	1146.25
507.732	1138.25
508.187	1173.25
508.643	1142.25
509.098	1162.25
509.553	1167.25
510.009	1174.25
510.464	1184.25
510.919	1203.25
511.375	1193.25
511.83	1216.25
512.285	1213.25
512.74	1256.25
513.195	1284.25
513.65	1298.25
514.105	1358.25
514.56	1330.25
515.015	1325.25
515.47	1369.25
515.925	1328.25
516.38	1355.25
516.835	1382.25
517.29	1326.25
517.745	1334.25
518.2	1325.25
518.655	1312.25
519.109	1317.25
519.564	1294.25
520.019	1276.25
520.474	1292.25
520.928	1232.25
521.383	1229.25
521.838	1262.25
522.292	1226.25
522.747	1202.25
523.201	1185.25
523.656	1225.25
524.11	1184.25
524.565	1217.25
525.019	1203.25
525.474	1242.25
525.928	1190.25
526.382	1200.25
526.837	1208.25
527.291	1190.25
527.745	1178.25
528.2	1165.25
528.654	1178.25
529.108	1171.25
529.562	1198.25
530.016	1212.25
530.47	1160.25
530.925	1166.25
531.379	1233.25
531.833	1199.25
532.287	1223.25
532.741	1197.25
533.195	1190.25
533.649	1196.25
534.103	1212.25
534.556	1177.25
535.01	1226.25
535.464	1202.25
535.918	1191.25
536.372	1201.25
536.826	1211.25
537.279	1174.25
537.733	1213.25
538.187	1200.25
538.64	1205.25
539.094	1203.25
539.548	1190.25
540.001	1185.25
540.455	1214.25
540.908	1249.25
541.362	1216.25
541.815	1238.25
542.269	1317.25
542.722	1293.25
543.175	1313.25
543.629	1302.25
544.082	1293.25
544.536	1304.25
544.989	1281.25
545.442	1306.25
545.895	1311.25
546.349	1335.25
546.802	1323.25
547.255	1287.25
547.708	1374.25
548.161	1371.25
548.614	1354.25
549.067	1337.25
549.52	1327.25
549.973	1308.25
550.426	1302.25
550.879	1320.25
551.332	1311.25
551.785	1324.25
552.238	1348.25
552.691	1314.25
553.144	1376.25
553.596	1391.25
554.049	1388.25
554.502	1405.25
554.955	1464.25
555.407	1426.25
555.86	1463.25
556.313	1381.25
556.765	1422.25
557.218	1456.25
557.67	1420.25
558.123	1396.25
558.576	1361.25
559.028	1390.25
559.48	1403.25
559.933	1401.25
560.385	1356.25
560.838	1334.25
561.29	1262.25
561.742	1300.25
562.195	1250.25
562.647	1254.25
563.099	1248.25
563.551	1243.25
564.004	1268.25
564.456	1249.25
564.908	1238.25
565.36	1167.25
565.812	1185.25
566.264	1134.25
566.716	1126.25
567.168	1127.25
567.62	1127.25
568.072	1092.25
568.524	1093.25
568.976	1115.25
569.428	1086.25
569.88	1118.25
570.332	1122.25
570.784	1099.25
571.235	1094.25
571.687	1083.25
572.139	1082.25
572.59	1135.25
573.042	1156.25
573.494	1126.25
573.945	1122.25
574.397	1112.25
574.849	1073.25
575.3	1087.25
575.752	1081.25
576.203	1078.25
576.655	1056.25
577.106	1086.25
577.557	1047.25
578.009	1013.25
578.46	1022.25
578.912	1024.25
579.363	1015.25
579.814	1006.25
580.265	1065.25
580.717	1034.25
581.168	1018.25
581.619	1069.25
582.07	1024.25
582.521	1032.25
582.972	1037.25
583.423	1065.25
583.875	1077.25
584.326	1070.25
584.777	1096.25
585.227	1084.25
585.678	1148.25
586.129	1144.25
586.58	1178.25
587.031	1196.25
587.482	1207.25
587.933	1279.25
588.384	1252.25
588.834	1198.25
589.285	1158.25
589.736	1163.25
590.186	1185.25
590.637	1157.25
591.088	1154.25
591.538	1113.25
591.989	1114.25
592.439	1092.25
592.89	1096.25
593.34	1076.25
593.791	1062.25
594.241	1080.25
594.692	1048.25
595.142	1047.25
595.593	1023.25
596.043	1066.25
596.493	1042.25
596.943	1056.25
597.394	1106.25
597.844	1124.25
598.294	1121.25
598.744	1172.25
599.195	1186.25
599.645	1243.25
600.095	1333.25
600.545	1408.25
600.995	1429.25
601.445	1495.25
601.895	1567.25
602.345	1639.25
602.795	1634.25
603.245	1536.25
603.695	1499.25
604.145	1406.25
604.594	1325.25
605.044	1270.25
605.494	1190.25
605.944	1176.25
606.393	1085.25
606.843	1104.25
607.293	1089.25
607.743	1092.25
608.192	1082.25
608.642	1068.25
609.091	1070.25
609.541	1079.25
609.99	1075.25
610.44	1058.25
610.889	1057.25
611.339	1026.25
611.788	1011.25
612.238	1046.25
612.687	1030.25
613.136	1030.25
613.586	1045.25
614.035	1021.25
614.484	1036.25
614.933	1073.25
615.383	1052.25
615.832	1044.25
616.281	990.25
616.73	957.25
617.179	975.25
617.628	976.25
618.077	907.25
618.526	937.25
618.975	896.25
619.424	908.25
619.873	918.25
620.322	920.25
620.771	912.25
621.22	895.25
621.669	844.25
622.118	870.25
622.567	861.25
623.015	843.25
623.464	834.25
623.913	808.25
624.361	825.25
624.81	850.25
625.259	818.25
625.707	808.25
626.156	839.25
626.604	861.25
627.053	814.25
627.501	824.25
627.95	861.25
628.398	860.25
628.847	843.25
629.295	835.25
629.744	832.25
630.192	839.25
630.64	802.25
631.089	806.25
631.537	797.25
631.985	788.25
632.433	804.25
632.881	773.25
633.33	776.25
633.778	788.25
634.226	770.25
634.674	806.25
635.122	785.25
635.57	772.25
636.018	798.25
636.466	803.25
636.914	786.25
637.362	845.25
637.81	832.25
638.258	820.25
638.705	874.25
639.153	892.25
639.601	876.25
640.049	920.25
640.497	907.25
640.944	985.25
641.392	922.25
641.84	874.25
642.287	831.25
642.735	820.25
643.182	826.25
643.63	811.25
644.078	818.25
644.525	813.25
644.973	832.25
645.42	848.25
645.867	872.25
646.315	899.25
646.762	943.25
647.21	965.25
647.657	1000.25
648.104	1034.25
648.551	1050.25
648.999	1106.25
649.446	1176.25
649.893	1292.25
650.34	1471.25
650.787	1750.25
651.234	2178.25
651.682	2917.25
652.129	3999.25
652.576	5744.25
653.023	7862.25
653.47	9618.25
653.917	10685.25
654.363	11285.25
654.81	11830.25
655.257	12436.25
655.704	9559.25
656.151	5757.25
656.598	3671.25
657.044	2612.25
657.491	2054.25
657.938	1703.25
658.385	1443.25
658.831	1273.25
659.278	1150.25
659.724	1062.25
660.171	1014.25
660.618	907.25
661.064	893.25
661.511	861.25
661.957	784.25
662.404	818.25
662.85	812.25
663.296	771.25
663.743	765.25
664.189	751.25
664.635	763.25
665.082	735.25
665.528	751.25
665.974	733.25
666.42	704.25
666.867	711.25
667.313	698.25
667.759	639.25
668.205	652.25
668.651	654.25
669.097	671.25
669.543	678.25
669.989	662.25
670.435	690.25
670.881	680.25
671.327	696.25
671.773	700.25
672.219	790.25
672.665	830.25
673.11	857.25
673.556	830.25
674.002	891.25
674.448	922.25
674.893	825.25
675.339	710.25
675.785	632.25
676.23	631.25
676.676	608.25
677.122	573.25
677.567	561.25
678.013	565.25
678.458	567.25
678.904	547.25
679.349	556.25
679.794	541.25
680.24	553.25
680.685	527.25
681.131	523.25
681.576	520.25
682.021	523.25
682.466	522.25
682.912	532.25
683.357	562.25
683.802	579.25
684.247	624.25
684.692	670.25
685.137	741.25
685.583	740.25
686.028	775.25
686.473	760.25
686.918	674.25
687.363	604.25
687.807	583.25
688.252	553.25
688.697	549.25
689.142	522.25
689.587	509.25
690.032	504.25
690.477	555.25
690.921	573.25
691.366	586.25
691.811	621.25
692.255	655.25
692.7	756.25
693.145	945.25
693.589	1362.25
694.034	1796.25
694.478	1997.25
694.923	1873.25
695.367	2254.25
695.812	2117.25
696.256	908.25
696.701	595.25
697.145	542.25
697.59	510.25
698.034	487.25
698.478	507.25
698.922	495.25
699.367	487.25
699.811	501.25
700.255	548.25
700.699	624.25
701.143	671.25
701.588	708.25
702.032	710.25
702.476	728.25
702.92	760.25
703.364	846.25
703.808	1224.25
704.252	1714.25
704.696	1926.25
705.14	1804.25
705.584	2200.25
706.027	1818.25
706.471	853.25
706.915	624.25
707.359	547.25
707.803	515.25
708.246	469.25
708.69	477.25
709.134	472.25
709.577	462.25
710.021	492.25
710.465	486.25
710.908	483.25
711.352	484.25
711.795	497.25
712.239	549.25
712.682	603.25
713.126	579.25
713.569	637.25
714.012	577.25
714.456	480.25
714.899	452.25
715.342	437.25
715.786	413.25
716.229	415.25
716.672	385.25
717.115	424.25
717.558	415.25
718.002	426.25
718.445	424.25
718.888	436.25
719.331	468.25
719.774	476.25
720.217	438.25
720.66	453.25
721.103	460.25
721.546	429.25
721.989	400.25
722.432	392.25
722.874	378.25
723.317	379.25
723.76	395.25
724.203	443.25
724.645	568.25
725.088	710.25
725.531	733.25
725.974	748.25
726.416	774.25
726.859	520.25
727.301	403.25
727.744	391.25
728.187	389.25
728.629	365.25
729.071	415.25
729.514	410.25
729.956	440.25
730.399	449.25
730.841	439.25
731.283	438.25
731.726	418.25
732.168	418.25
732.61	448.25
733.053	456.25
733.495	502.25
733.937	560.25
734.379	612.25
734.821	719.25
735.263	992.25
735.705	1647.25
736.148	2682.25
736.59	3167.25
737.032	2999.25
737.474	3160.25
737.916	1584.25
738.357	775.25
738.799	536.25
739.241	482.25
739.683	465.25
740.125	471.25
740.567	497.25
741.008	491.25
741.45	542.25
741.892	560.25
742.334	562.25
742.775	551.25
743.217	563.25
743.658	492.25
744.1	470.25
744.542	527.25
744.983	545.25
745.425	547.25
745.866	574.25
746.307	516.25
746.749	508.25
