Data from 20170802-ORNL-NYSim-Air_HRD10391_10-36-57-625.txt Node
Date: Wed Aug 02 10:36:57 EDT 2017
User: Ender
Spectrometer: HR+D1039
Trigger mode: 0
Integration Time (sec): 1.510000E-3
Scans to average: 1
Electric dark correction enabled: true
Nonlinearity correction enabled: false
Boxcar width: 0
XAxis mode: Wavelengths
Number of Pixels in Spectrum: 2048
>>>>>Begin Spectral Data<<<<<
187.836	-9.56
188.309	-9.56
188.782	-9.56
189.255	8.44
189.728	-10.56
190.201	11.44
190.674	-9.56
191.147	-6.56
191.619	-2.56
192.092	-8.56
192.565	-11.56
193.038	-4.56
193.511	6.44
193.984	0.44
194.456	-3.56
194.929	35.44
195.402	8.44
195.874	-3.56
196.347	23.44
196.82	31.44
197.292	30.44
197.765	44.44
198.237	31.44
198.71	35.44
199.182	32.44
199.655	71.44
200.127	56.44
200.6	54.44
201.072	67.44
201.544	58.44
202.017	63.44
202.489	67.44
202.961	58.44
203.433	76.44
203.906	53.44
204.378	73.44
204.85	66.44
205.322	94.44
205.794	63.44
206.266	77.44
206.739	81.44
207.211	69.44
207.683	94.44
208.155	69.44
208.627	95.44
209.099	78.44
209.57	94.44
210.042	98.44
210.514	86.44
210.986	61.44
211.458	88.44
211.93	83.44
212.402	92.44
212.873	90.44
213.345	82.44
213.817	90.44
214.288	82.44
214.76	84.44
215.232	85.44
215.703	77.44
216.175	82.44
216.646	80.44
217.118	78.44
217.589	72.44
218.061	85.44
218.532	85.44
219.004	74.44
219.475	70.44
219.946	76.44
220.418	82.44
220.889	75.44
221.36	73.44
221.832	80.44
222.303	80.44
222.774	77.44
223.245	73.44
223.717	92.44
224.188	85.44
224.659	72.44
225.13	80.44
225.601	67.44
226.072	86.44
226.543	87.44
227.014	74.44
227.485	75.44
227.956	90.44
228.427	90.44
228.898	82.44
229.369	88.44
229.839	97.44
230.31	58.44
230.781	81.44
231.252	94.44
231.722	83.44
232.193	79.44
232.664	90.44
233.135	92.44
233.605	82.44
234.076	72.44
234.546	69.44
235.017	85.44
235.487	94.44
235.958	86.44
236.428	104.44
236.899	72.44
237.369	70.44
237.84	74.44
238.31	70.44
238.78	79.44
239.251	85.44
239.721	86.44
240.191	93.44
240.662	76.44
241.132	94.44
241.602	76.44
242.072	91.44
242.542	80.44
243.013	98.44
243.483	84.44
243.953	91.44
244.423	105.44
244.893	80.44
245.363	113.44
245.833	76.44
246.303	101.44
246.773	79.44
247.243	81.44
247.712	89.44
248.182	99.44
248.652	78.44
249.122	90.44
249.592	100.44
250.061	106.44
250.531	102.44
251.001	90.44
251.471	98.44
251.94	83.44
252.41	88.44
252.879	93.44
253.349	94.44
253.818	84.44
254.288	86.44
254.757	93.44
255.227	94.44
255.696	104.44
256.166	99.44
256.635	90.44
257.105	100.44
257.574	78.44
258.043	79.44
258.513	94.44
258.982	82.44
259.451	102.44
259.92	97.44
260.389	94.44
260.859	93.44
261.328	100.44
261.797	85.44
262.266	95.44
262.735	94.44
263.204	84.44
263.673	117.44
264.142	83.44
264.611	108.44
265.08	95.44
265.549	108.44
266.018	123.44
266.487	96.44
266.955	101.44
267.424	115.44
267.893	130.44
268.362	111.44
268.83	108.44
269.299	101.44
269.768	108.44
270.236	118.44
270.705	99.44
271.174	98.44
271.642	107.44
272.111	112.44
272.579	88.44
273.048	107.44
273.516	108.44
273.985	106.44
274.453	106.44
274.922	101.44
275.39	104.44
275.858	119.44
276.327	101.44
276.795	100.44
277.263	100.44
277.731	112.44
278.2	112.44
278.668	110.44
279.136	94.44
279.604	109.44
280.072	110.44
280.54	114.44
281.008	123.44
281.477	101.44
281.945	110.44
282.413	109.44
282.881	123.44
283.348	119.44
283.816	118.44
284.284	131.44
284.752	125.44
285.22	114.44
285.688	120.44
286.156	112.44
286.623	119.44
287.091	126.44
287.559	120.44
288.026	129.44
288.494	120.44
288.962	109.44
289.429	113.44
289.897	119.44
290.364	147.44
290.832	117.44
291.3	114.44
291.767	121.44
292.234	122.44
292.702	115.44
293.169	126.44
293.637	116.44
294.104	99.44
294.571	114.44
295.039	117.44
295.506	129.44
295.973	132.44
296.44	132.44
296.908	105.44
297.375	124.44
297.842	122.44
298.309	118.44
298.776	120.44
299.243	120.44
299.71	125.44
300.177	132.44
300.644	132.44
301.111	127.44
301.578	138.44
302.045	134.44
302.512	152.44
302.979	138.44
303.446	112.44
303.913	140.44
304.379	131.44
304.846	130.44
305.313	137.44
305.78	145.44
306.246	137.44
306.713	139.44
307.18	128.44
307.646	138.44
308.113	152.44
308.579	140.44
309.046	157.44
309.512	151.44
309.979	137.44
310.445	153.44
310.912	142.44
311.378	149.44
311.845	139.44
312.311	127.44
312.777	146.44
313.244	138.44
313.71	138.44
314.176	154.44
314.642	155.44
315.109	151.44
315.575	149.44
316.041	147.44
316.507	152.44
316.973	155.44
317.439	158.44
317.905	152.44
318.371	144.44
318.837	154.44
319.303	166.44
319.769	152.44
320.235	164.44
320.701	161.44
321.167	159.44
321.633	176.44
322.099	149.44
322.564	175.44
323.03	146.44
323.496	163.44
323.962	161.44
324.427	171.44
324.893	175.44
325.359	164.44
325.824	177.44
326.29	167.44
326.755	168.44
327.221	175.44
327.686	184.44
328.152	174.44
328.617	171.44
329.083	160.44
329.548	161.44
330.014	161.44
330.479	163.44
330.944	173.44
331.41	192.44
331.875	182.44
332.34	172.44
332.805	167.44
333.271	174.44
333.736	174.44
334.201	188.44
334.666	194.44
335.131	183.44
335.596	200.44
336.061	169.44
336.526	203.44
336.991	168.44
337.456	167.44
337.921	168.44
338.386	182.44
338.851	168.44
339.316	180.44
339.781	166.44
340.246	170.44
340.711	176.44
341.175	206.44
341.64	201.44
342.105	184.44
342.569	202.44
343.034	192.44
343.499	197.44
343.963	188.44
344.428	195.44
344.893	207.44
345.357	193.44
345.822	212.44
346.286	219.44
346.751	221.44
347.215	216.44
347.679	198.44
348.144	217.44
348.608	191.44
349.073	214.44
349.537	218.44
350.001	219.44
350.465	222.44
350.93	221.44
351.394	206.44
351.858	212.44
352.322	198.44
352.786	209.44
353.25	234.44
353.715	239.44
354.179	238.44
354.643	211.44
355.107	244.44
355.571	262.44
356.035	241.44
356.498	238.44
356.962	243.44
357.426	250.44
357.89	231.44
358.354	231.44
358.818	230.44
359.281	243.44
359.745	254.44
360.209	235.44
360.673	234.44
361.136	232.44
361.6	218.44
362.064	249.44
362.527	251.44
362.991	259.44
363.454	235.44
363.918	256.44
364.381	237.44
364.845	250.44
365.308	242.44
365.772	254.44
366.235	255.44
366.698	259.44
367.162	250.44
367.625	251.44
368.088	274.44
368.552	261.44
369.015	259.44
369.478	271.44
369.941	249.44
370.404	252.44
370.867	233.44
371.331	255.44
371.794	288.44
372.257	266.44
372.72	259.44
373.183	251.44
373.646	252.44
374.109	259.44
374.572	286.44
375.035	274.44
375.497	273.44
375.96	267.44
376.423	305.44
376.886	310.44
377.349	281.44
377.811	292.44
378.274	281.44
378.737	272.44
379.199	282.44
379.662	278.44
380.125	312.44
380.587	287.44
381.05	297.44
381.512	296.44
381.975	328.44
382.437	316.44
382.9	309.44
383.362	308.44
383.825	326.44
384.287	328.44
384.75	307.44
385.212	296.44
385.674	334.44
386.136	320.44
386.599	318.44
387.061	323.44
387.523	336.44
387.985	313.44
388.447	327.44
388.91	297.44
389.372	323.44
389.834	327.44
390.296	340.44
390.758	332.44
391.22	320.44
391.682	345.44
392.144	326.44
392.606	331.44
393.068	349.44
393.529	339.44
393.991	358.44
394.453	341.44
394.915	358.44
395.377	342.44
395.838	315.44
396.3	319.44
396.762	337.44
397.224	330.44
397.685	325.44
398.147	354.44
398.608	361.44
399.07	342.44
399.531	338.44
399.993	351.44
400.454	353.44
400.916	376.44
401.377	377.44
401.839	356.44
402.3	378.44
402.762	374.44
403.223	398.44
403.684	403.44
404.145	379.44
404.607	403.44
405.068	364.44
405.529	377.44
405.99	368.44
406.451	365.44
406.913	409.44
407.374	393.44
407.835	394.44
408.296	399.44
408.757	382.44
409.218	391.44
409.679	422.44
410.14	430.44
410.601	435.44
411.062	407.44
411.522	446.44
411.983	428.44
412.444	410.44
412.905	436.44
413.366	421.44
413.826	449.44
414.287	494.44
414.748	575.44
415.208	582.44
415.669	521.44
416.13	480.44
416.59	475.44
417.051	497.44
417.511	504.44
417.972	535.44
418.432	548.44
418.893	604.44
419.353	584.44
419.814	460.44
420.274	457.44
420.734	423.44
421.195	436.44
421.655	431.44
422.115	443.44
422.576	444.44
423.036	457.44
423.496	486.44
423.956	482.44
424.416	506.44
424.876	560.44
425.336	558.44
425.797	532.44
426.257	523.44
426.717	515.44
427.177	464.44
427.637	494.44
428.097	502.44
428.556	533.44
429.016	564.44
429.476	570.44
429.936	553.44
430.396	577.44
430.856	567.44
431.315	604.44
431.775	622.44
432.235	653.44
432.694	650.44
433.154	628.44
433.614	642.44
434.073	630.44
434.533	575.44
434.993	552.44
435.452	516.44
435.912	539.44
436.371	535.44
436.83	528.44
437.29	498.44
437.749	506.44
438.209	498.44
438.668	493.44
439.127	487.44
439.587	520.44
440.046	501.44
440.505	507.44
440.964	503.44
441.424	544.44
441.883	524.44
442.342	517.44
442.801	469.44
443.26	468.44
443.719	486.44
444.178	472.44
444.637	506.44
445.096	490.44
445.555	501.44
446.014	490.44
446.473	485.44
446.932	510.44
447.391	500.44
447.849	490.44
448.308	501.44
448.767	501.44
449.226	516.44
449.685	503.44
450.143	525.44
450.602	545.44
451.061	486.44
451.519	516.44
451.978	533.44
452.436	508.44
452.895	520.44
453.353	508.44
453.812	507.44
454.27	513.44
454.729	522.44
455.187	498.44
455.646	507.44
456.104	490.44
456.562	523.44
457.021	529.44
457.479	515.44
457.937	517.44
458.395	540.44
458.854	534.44
459.312	530.44
459.77	538.44
460.228	542.44
460.686	530.44
461.144	533.44
461.602	518.44
462.06	544.44
462.518	525.44
462.976	500.44
463.434	570.44
463.892	554.44
464.35	547.44
464.808	544.44
465.266	560.44
465.724	565.44
466.181	583.44
466.639	580.44
467.097	610.44
467.555	590.44
468.012	595.44
468.47	612.44
468.928	647.44
469.385	654.44
469.843	630.44
470.3	610.44
470.758	660.44
471.215	674.44
471.673	673.44
472.13	708.44
472.588	704.44
473.045	706.44
473.503	719.44
473.96	730.44
474.417	764.44
474.875	793.44
475.332	840.44
475.789	844.44
476.246	848.44
476.704	865.44
477.161	928.44
477.618	942.44
478.075	979.44
478.532	1022.44
478.989	1131.44
479.446	1223.44
479.903	1271.44
480.36	1415.44
480.817	1460.44
481.274	1573.44
481.731	1697.44
482.188	1825.44
482.645	1983.44
483.102	2088.44
483.558	2204.44
484.015	2349.44
484.472	2329.44
484.929	2272.44
485.385	2178.44
485.842	2133.44
486.299	2022.44
486.755	1889.44
487.212	1681.44
487.668	1551.44
488.125	1443.44
488.582	1323.44
489.038	1289.44
489.494	1254.44
489.951	1243.44
490.407	1169.44
490.864	1134.44
491.32	1129.44
491.776	1132.44
492.233	1147.44
492.689	1108.44
493.145	1081.44
493.602	1084.44
494.058	1068.44
494.514	1086.44
494.97	1084.44
495.426	1068.44
495.882	1134.44
496.338	1054.44
496.794	1101.44
497.251	1094.44
497.707	1126.44
498.163	1118.44
498.618	1109.44
499.074	1120.44
499.53	1144.44
499.986	1124.44
500.442	1094.44
500.898	1127.44
501.354	1123.44
501.809	1088.44
502.265	1101.44
502.721	1102.44
503.177	1088.44
503.632	1105.44
504.088	1128.44
504.543	1118.44
504.999	1180.44
505.455	1202.44
505.91	1160.44
506.366	1147.44
506.821	1146.44
507.277	1146.44
507.732	1139.44
508.187	1127.44
508.643	1147.44
509.098	1155.44
509.553	1178.44
510.009	1160.44
510.464	1167.44
510.919	1222.44
511.375	1230.44
511.83	1209.44
512.285	1256.44
512.74	1228.44
513.195	1270.44
513.65	1316.44
514.105	1339.44
514.56	1332.44
515.015	1325.44
515.47	1329.44
515.925	1338.44
516.38	1315.44
516.835	1333.44
517.29	1321.44
517.745	1304.44
518.2	1293.44
518.655	1293.44
519.109	1297.44
519.564	1234.44
520.019	1213.44
520.474	1247.44
520.928	1225.44
521.383	1208.44
521.838	1206.44
522.292	1201.44
522.747	1202.44
523.201	1238.44
523.656	1206.44
524.11	1215.44
524.565	1201.44
525.019	1160.44
525.474	1195.44
525.928	1206.44
526.382	1200.44
526.837	1206.44
527.291	1213.44
527.745	1178.44
528.2	1164.44
528.654	1181.44
529.108	1193.44
529.562	1194.44
530.016	1151.44
530.47	1174.44
530.925	1191.44
531.379	1217.44
531.833	1229.44
532.287	1188.44
532.741	1170.44
533.195	1202.44
533.649	1203.44
534.103	1142.44
534.556	1182.44
535.01	1166.44
535.464	1188.44
535.918	1178.44
536.372	1168.44
536.826	1184.44
537.279	1174.44
537.733	1195.44
538.187	1176.44
538.64	1190.44
539.094	1168.44
539.548	1200.44
540.001	1211.44
540.455	1180.44
540.908	1197.44
541.362	1204.44
541.815	1240.44
542.269	1280.44
542.722	1270.44
543.175	1300.44
543.629	1279.44
544.082	1269.44
544.536	1312.44
544.989	1283.44
545.442	1272.44
545.895	1304.44
546.349	1290.44
546.802	1351.44
547.255	1310.44
547.708	1334.44
548.161	1325.44
548.614	1326.44
549.067	1347.44
549.52	1309.44
549.973	1324.44
550.426	1298.44
550.879	1304.44
551.332	1301.44
551.785	1288.44
552.238	1326.44
552.691	1344.44
553.144	1350.44
553.596	1380.44
554.049	1371.44
554.502	1406.44
554.955	1446.44
555.407	1487.44
555.86	1466.44
556.313	1423.44
556.765	1416.44
557.218	1402.44
557.67	1384.44
558.123	1365.44
558.576	1368.44
559.028	1368.44
559.48	1405.44
559.933	1395.44
560.385	1308.44
560.838	1290.44
561.29	1276.44
561.742	1282.44
562.195	1260.44
562.647	1223.44
563.099	1230.44
563.551	1204.44
564.004	1227.44
564.456	1222.44
564.908	1218.44
565.36	1184.44
565.812	1136.44
566.264	1104.44
566.716	1131.44
567.168	1102.44
567.62	1090.44
568.072	1082.44
568.524	1096.44
568.976	1071.44
569.428	1082.44
569.88	1073.44
570.332	1088.44
570.784	1109.44
571.235	1076.44
571.687	1117.44
572.139	1107.44
572.59	1088.44
573.042	1104.44
573.494	1098.44
573.945	1096.44
574.397	1090.44
574.849	1080.44
575.3	1086.44
575.752	1081.44
576.203	1076.44
576.655	1069.44
577.106	1055.44
577.557	1056.44
578.009	1029.44
578.46	1059.44
578.912	1030.44
579.363	1048.44
579.814	1017.44
580.265	1066.44
580.717	1034.44
581.168	1048.44
581.619	1042.44
582.07	1049.44
582.521	1029.44
582.972	1026.44
583.423	1036.44
583.875	1027.44
584.326	1041.44
584.777	1081.44
585.227	1063.44
585.678	1114.44
586.129	1090.44
586.58	1119.44
587.031	1112.44
587.482	1144.44
587.933	1139.44
588.384	1166.44
588.834	1168.44
589.285	1136.44
589.736	1148.44
590.186	1144.44
590.637	1176.44
591.088	1158.44
591.538	1131.44
591.989	1103.44
592.439	1111.44
592.89	1102.44
593.34	1096.44
593.791	1049.44
594.241	1024.44
594.692	1057.44
595.142	1064.44
595.593	1074.44
596.043	1041.44
596.493	1052.44
596.943	1055.44
597.394	1084.44
597.844	1078.44
598.294	1132.44
598.744	1161.44
599.195	1213.44
599.645	1231.44
600.095	1318.44
600.545	1356.44
600.995	1405.44
601.445	1476.44
601.895	1516.44
602.345	1602.44
602.795	1600.44
603.245	1530.44
603.695	1464.44
604.145	1378.44
604.594	1321.44
605.044	1235.44
605.494	1189.44
605.944	1142.44
606.393	1097.44
606.843	1102.44
607.293	1030.44
607.743	1064.44
608.192	1061.44
608.642	1071.44
609.091	1091.44
609.541	1074.44
609.99	1063.44
610.44	1072.44
610.889	1080.44
611.339	1020.44
611.788	1021.44
612.238	1032.44
612.687	992.44
613.136	1063.44
613.586	1045.44
614.035	1003.44
614.484	1072.44
614.933	1069.44
615.383	1031.44
615.832	1000.44
616.281	1019.44
616.73	980.44
617.179	978.44
617.628	936.44
618.077	936.44
618.526	916.44
618.975	920.44
619.424	884.44
619.873	900.44
620.322	895.44
620.771	900.44
621.22	864.44
621.669	840.44
622.118	842.44
622.567	840.44
623.015	821.44
623.464	871.44
623.913	790.44
624.361	837.44
624.81	811.44
625.259	793.44
625.707	839.44
626.156	819.44
626.604	830.44
627.053	824.44
627.501	819.44
627.95	846.44
628.398	846.44
628.847	842.44
629.295	834.44
629.744	833.44
630.192	814.44
630.64	824.44
631.089	782.44
631.537	786.44
631.985	763.44
632.433	789.44
632.881	774.44
633.33	779.44
633.778	781.44
634.226	780.44
634.674	775.44
635.122	794.44
635.57	778.44
636.018	822.44
636.466	806.44
636.914	804.44
637.362	852.44
637.81	815.44
638.258	856.44
638.705	872.44
639.153	882.44
639.601	901.44
640.049	908.44
640.497	924.44
640.944	959.44
641.392	912.44
641.84	894.44
642.287	872.44
642.735	834.44
643.182	804.44
643.63	846.44
644.078	854.44
644.525	834.44
644.973	848.44
645.42	892.44
645.867	892.44
646.315	888.44
646.762	939.44
647.21	1006.44
647.657	1026.44
648.104	1024.44
648.551	1092.44
648.999	1156.44
649.446	1237.44
649.893	1347.44
650.34	1550.44
650.787	1820.44
651.234	2325.44
651.682	3127.44
652.129	4301.44
652.576	6106.44
653.023	8418.44
653.47	10299.44
653.917	11560.44
654.363	12228.44
654.81	12944.44
655.257	13532.44
655.704	10373.44
656.151	6259.44
656.598	3972.44
657.044	2833.44
657.491	2189.44
657.938	1774.44
658.385	1537.44
658.831	1363.44
659.278	1199.44
659.724	1099.44
660.171	1027.44
660.618	941.44
661.064	912.44
661.511	854.44
661.957	809.44
662.404	822.44
662.85	827.44
663.296	782.44
663.743	786.44
664.189	800.44
664.635	757.44
665.082	736.44
665.528	731.44
665.974	718.44
666.42	726.44
666.867	730.44
667.313	684.44
667.759	687.44
668.205	648.44
668.651	662.44
669.097	690.44
669.543	661.44
669.989	650.44
670.435	656.44
670.881	671.44
671.327	696.44
671.773	716.44
672.219	786.44
672.665	833.44
673.11	871.44
673.556	876.44
674.002	872.44
674.448	885.44
674.893	821.44
675.339	720.44
675.785	647.44
676.23	609.44
676.676	619.44
677.122	575.44
677.567	552.44
678.013	544.44
678.458	552.44
678.904	558.44
679.349	554.44
679.794	542.44
680.24	533.44
680.685	552.44
681.131	509.44
681.576	514.44
682.021	538.44
682.466	538.44
682.912	549.44
683.357	536.44
683.802	581.44
684.247	612.44
684.692	676.44
685.137	705.44
685.583	716.44
686.028	713.44
686.473	738.44
686.918	656.44
687.363	586.44
687.807	556.44
688.252	562.44
688.697	511.44
689.142	515.44
689.587	512.44
690.032	534.44
690.477	538.44
690.921	546.44
691.366	586.44
691.811	610.44
692.255	641.44
692.7	720.44
693.145	919.44
693.589	1306.44
694.034	1799.44
694.478	1895.44
694.923	1761.44
695.367	2181.44
695.812	2044.44
696.256	878.44
696.701	588.44
697.145	542.44
697.59	495.44
698.034	505.44
698.478	497.44
698.922	501.44
699.367	498.44
699.811	511.44
700.255	554.44
700.699	598.44
701.143	666.44
701.588	651.44
702.032	687.44
702.476	712.44
702.92	718.44
703.364	834.44
703.808	1194.44
704.252	1640.44
704.696	1873.44
705.14	1748.44
705.584	2130.44
706.027	1795.44
706.471	881.44
706.915	612.44
707.359	556.44
707.803	505.44
708.246	489.44
708.69	501.44
709.134	486.44
709.577	476.44
710.021	458.44
710.465	462.44
710.908	483.44
711.352	490.44
711.795	532.44
712.239	543.44
712.682	572.44
713.126	567.44
713.569	608.44
714.012	546.44
714.456	480.44
714.899	440.44
715.342	427.44
715.786	423.44
716.229	418.44
716.672	415.44
717.115	424.44
717.558	400.44
718.002	409.44
718.445	436.44
718.888	422.44
719.331	456.44
719.774	447.44
720.217	442.44
720.66	438.44
721.103	402.44
721.546	403.44
721.989	394.44
722.432	406.44
722.874	401.44
723.317	374.44
723.76	392.44
724.203	464.44
724.645	566.44
725.088	690.44
725.531	719.44
725.974	720.44
726.416	779.44
726.859	549.44
727.301	414.44
727.744	416.44
728.187	384.44
728.629	380.44
729.071	410.44
729.514	412.44
729.956	427.44
730.399	440.44
730.841	451.44
731.283	422.44
731.726	432.44
732.168	411.44
732.61	432.44
733.053	471.44
733.495	489.44
733.937	532.44
734.379	610.44
734.821	708.44
735.263	927.44
735.705	1628.44
736.148	2632.44
736.59	3044.44
737.032	2848.44
737.474	3103.44
737.916	1578.44
738.357	740.44
738.799	517.44
739.241	484.44
739.683	474.44
740.125	489.44
740.567	487.44
741.008	479.44
741.45	510.44
741.892	574.44
742.334	574.44
742.775	575.44
743.217	567.44
743.658	503.44
744.1	456.44
744.542	510.44
744.983	572.44
745.425	564.44
745.866	598.44
746.307	532.44
