Data from 20170802-ORNL-NYSim-Air_HRD10391_10-37-15-633.txt Node
Date: Wed Aug 02 10:37:15 EDT 2017
User: Ender
Spectrometer: HR+D1039
Trigger mode: 0
Integration Time (sec): 1.510000E-3
Scans to average: 1
Electric dark correction enabled: true
Nonlinearity correction enabled: false
Boxcar width: 0
XAxis mode: Wavelengths
Number of Pixels in Spectrum: 2048
>>>>>Begin Spectral Data<<<<<
187.836	-6.25
188.309	-6.25
188.782	-6.25
189.255	-9.25
189.728	-17.25
190.201	-3.25
190.674	-8.25
191.147	-10.25
191.619	-9.25
192.092	-6.25
192.565	-3.25
193.038	6.75
193.511	-1.25
193.984	4.75
194.456	22.75
194.929	11.75
195.402	20.75
195.874	7.75
196.347	2.75
196.82	4.75
197.292	34.75
197.765	30.75
198.237	37.75
198.71	40.75
199.182	40.75
199.655	39.75
200.127	47.75
200.6	63.75
201.072	64.75
201.544	58.75
202.017	62.75
202.489	66.75
202.961	52.75
203.433	64.75
203.906	79.75
204.378	71.75
204.85	77.75
205.322	100.75
205.794	77.75
206.266	87.75
206.739	72.75
207.211	78.75
207.683	85.75
208.155	76.75
208.627	94.75
209.099	87.75
209.57	80.75
210.042	65.75
210.514	87.75
210.986	69.75
211.458	81.75
211.93	72.75
212.402	64.75
212.873	84.75
213.345	84.75
213.817	80.75
214.288	87.75
214.76	56.75
215.232	90.75
215.703	79.75
216.175	69.75
216.646	72.75
217.118	66.75
217.589	77.75
218.061	86.75
218.532	67.75
219.004	72.75
219.475	82.75
219.946	78.75
220.418	86.75
220.889	85.75
221.36	57.75
221.832	79.75
222.303	62.75
222.774	81.75
223.245	75.75
223.717	78.75
224.188	79.75
224.659	72.75
225.13	57.75
225.601	77.75
226.072	77.75
226.543	61.75
227.014	87.75
227.485	85.75
227.956	83.75
228.427	74.75
228.898	66.75
229.369	74.75
229.839	79.75
230.31	78.75
230.781	77.75
231.252	74.75
231.722	65.75
232.193	87.75
232.664	89.75
233.135	49.75
233.605	65.75
234.076	72.75
234.546	91.75
235.017	98.75
235.487	81.75
235.958	70.75
236.428	89.75
236.899	93.75
237.369	86.75
237.84	94.75
238.31	84.75
238.78	66.75
239.251	91.75
239.721	96.75
240.191	103.75
240.662	86.75
241.132	97.75
241.602	64.75
242.072	88.75
242.542	74.75
243.013	88.75
243.483	87.75
243.953	79.75
244.423	90.75
244.893	77.75
245.363	102.75
245.833	94.75
246.303	80.75
246.773	79.75
247.243	79.75
247.712	84.75
248.182	79.75
248.652	88.75
249.122	74.75
249.592	82.75
250.061	84.75
250.531	78.75
251.001	80.75
251.471	98.75
251.94	97.75
252.41	76.75
252.879	90.75
253.349	96.75
253.818	79.75
254.288	99.75
254.757	95.75
255.227	88.75
255.696	89.75
256.166	79.75
256.635	96.75
257.105	86.75
257.574	103.75
258.043	85.75
258.513	81.75
258.982	94.75
259.451	92.75
259.92	92.75
260.389	69.75
260.859	98.75
261.328	92.75
261.797	88.75
262.266	99.75
262.735	94.75
263.204	93.75
263.673	92.75
264.142	103.75
264.611	90.75
265.08	75.75
265.549	83.75
266.018	100.75
266.487	85.75
266.955	80.75
267.424	97.75
267.893	109.75
268.362	101.75
268.83	108.75
269.299	79.75
269.768	97.75
270.236	93.75
270.705	100.75
271.174	105.75
271.642	82.75
272.111	111.75
272.579	77.75
273.048	104.75
273.516	98.75
273.985	83.75
274.453	78.75
274.922	102.75
275.39	100.75
275.858	86.75
276.327	110.75
276.795	92.75
277.263	106.75
277.731	103.75
278.2	102.75
278.668	108.75
279.136	94.75
279.604	105.75
280.072	113.75
280.54	112.75
281.008	116.75
281.477	84.75
281.945	117.75
282.413	102.75
282.881	98.75
283.348	99.75
283.816	114.75
284.284	100.75
284.752	98.75
285.22	110.75
285.688	125.75
286.156	104.75
286.623	124.75
287.091	107.75
287.559	114.75
288.026	111.75
288.494	116.75
288.962	122.75
289.429	110.75
289.897	113.75
290.364	126.75
290.832	114.75
291.3	100.75
291.767	122.75
292.234	118.75
292.702	103.75
293.169	109.75
293.637	117.75
294.104	122.75
294.571	111.75
295.039	98.75
295.506	97.75
295.973	105.75
296.44	108.75
296.908	121.75
297.375	109.75
297.842	114.75
298.309	94.75
298.776	110.75
299.243	139.75
299.71	136.75
300.177	142.75
300.644	106.75
301.111	126.75
301.578	114.75
302.045	116.75
302.512	122.75
302.979	126.75
303.446	140.75
303.913	112.75
304.379	121.75
304.846	124.75
305.313	114.75
305.78	125.75
306.246	127.75
306.713	134.75
307.18	127.75
307.646	133.75
308.113	130.75
308.579	131.75
309.046	120.75
309.512	143.75
309.979	120.75
310.445	126.75
310.912	141.75
311.378	144.75
311.845	142.75
312.311	153.75
312.777	137.75
313.244	136.75
313.71	132.75
314.176	140.75
314.642	142.75
315.109	149.75
315.575	149.75
316.041	136.75
316.507	138.75
316.973	122.75
317.439	135.75
317.905	146.75
318.371	144.75
318.837	128.75
319.303	144.75
319.769	153.75
320.235	161.75
320.701	158.75
321.167	133.75
321.633	163.75
322.099	160.75
322.564	148.75
323.03	142.75
323.496	148.75
323.962	147.75
324.427	164.75
324.893	156.75
325.359	152.75
325.824	140.75
326.29	148.75
326.755	162.75
327.221	153.75
327.686	168.75
328.152	178.75
328.617	155.75
329.083	153.75
329.548	173.75
330.014	140.75
330.479	150.75
330.944	150.75
331.41	169.75
331.875	168.75
332.34	153.75
332.805	149.75
333.271	148.75
333.736	161.75
334.201	181.75
334.666	169.75
335.131	159.75
335.596	172.75
336.061	168.75
336.526	175.75
336.991	184.75
337.456	164.75
337.921	178.75
338.386	171.75
338.851	162.75
339.316	180.75
339.781	169.75
340.246	174.75
340.711	170.75
341.175	183.75
341.64	168.75
342.105	165.75
342.569	181.75
343.034	178.75
343.499	172.75
343.963	188.75
344.428	179.75
344.893	193.75
345.357	172.75
345.822	184.75
346.286	178.75
346.751	189.75
347.215	197.75
347.679	189.75
348.144	216.75
348.608	200.75
349.073	184.75
349.537	216.75
350.001	195.75
350.465	224.75
350.93	225.75
351.394	201.75
351.858	212.75
352.322	207.75
352.786	212.75
353.25	209.75
353.715	225.75
354.179	191.75
354.643	250.75
355.107	231.75
355.571	209.75
356.035	218.75
356.498	207.75
356.962	224.75
357.426	242.75
357.89	212.75
358.354	217.75
358.818	232.75
359.281	222.75
359.745	229.75
360.209	227.75
360.673	214.75
361.136	224.75
361.6	240.75
362.064	240.75
362.527	233.75
362.991	223.75
363.454	237.75
363.918	226.75
364.381	242.75
364.845	240.75
365.308	225.75
365.772	204.75
366.235	245.75
366.698	236.75
367.162	254.75
367.625	235.75
368.088	250.75
368.552	234.75
369.015	260.75
369.478	231.75
369.941	237.75
370.404	233.75
370.867	233.75
371.331	255.75
371.794	235.75
372.257	248.75
372.72	243.75
373.183	253.75
373.646	244.75
374.109	260.75
374.572	264.75
375.035	259.75
375.497	274.75
375.96	272.75
376.423	282.75
376.886	275.75
377.349	280.75
377.811	258.75
378.274	282.75
378.737	265.75
379.199	278.75
379.662	279.75
380.125	272.75
380.587	287.75
381.05	284.75
381.512	293.75
381.975	306.75
382.437	271.75
382.9	292.75
383.362	294.75
383.825	285.75
384.287	305.75
384.75	265.75
385.212	298.75
385.674	293.75
386.136	300.75
386.599	286.75
387.061	304.75
387.523	326.75
387.985	316.75
388.447	293.75
388.91	312.75
389.372	298.75
389.834	290.75
390.296	298.75
390.758	324.75
391.22	311.75
391.682	298.75
392.144	301.75
392.606	312.75
393.068	303.75
393.529	340.75
393.991	353.75
394.453	331.75
394.915	343.75
395.377	317.75
395.838	320.75
396.3	321.75
396.762	318.75
397.224	347.75
397.685	320.75
398.147	329.75
398.608	317.75
399.07	328.75
399.531	323.75
399.993	339.75
400.454	343.75
400.916	340.75
401.377	348.75
401.839	351.75
402.3	360.75
402.762	358.75
403.223	380.75
403.684	372.75
404.145	388.75
404.607	380.75
405.068	356.75
405.529	362.75
405.99	372.75
406.451	365.75
406.913	368.75
407.374	366.75
407.835	407.75
408.296	362.75
408.757	374.75
409.218	377.75
409.679	395.75
410.14	384.75
410.601	417.75
411.062	414.75
411.522	404.75
411.983	403.75
412.444	399.75
412.905	424.75
413.366	408.75
413.826	451.75
414.287	476.75
414.748	540.75
415.208	579.75
415.669	484.75
416.13	442.75
416.59	452.75
417.051	465.75
417.511	484.75
417.972	507.75
418.432	530.75
418.893	570.75
419.353	553.75
419.814	444.75
420.274	427.75
420.734	424.75
421.195	419.75
421.655	417.75
422.115	428.75
422.576	412.75
423.036	418.75
423.496	438.75
423.956	463.75
424.416	486.75
424.876	526.75
425.336	512.75
425.797	537.75
426.257	519.75
426.717	495.75
427.177	493.75
427.637	474.75
428.097	498.75
428.556	493.75
429.016	542.75
429.476	539.75
429.936	540.75
430.396	557.75
430.856	565.75
431.315	547.75
431.775	594.75
432.235	649.75
432.694	623.75
433.154	594.75
433.614	610.75
434.073	567.75
434.533	560.75
434.993	518.75
435.452	506.75
435.912	486.75
436.371	498.75
436.83	510.75
437.29	512.75
437.749	444.75
438.209	482.75
438.668	478.75
439.127	483.75
439.587	454.75
440.046	460.75
440.505	467.75
440.964	492.75
441.424	502.75
441.883	488.75
442.342	458.75
442.801	456.75
443.26	466.75
443.719	446.75
444.178	439.75
444.637	461.75
445.096	470.75
445.555	454.75
446.014	461.75
446.473	457.75
446.932	459.75
447.391	476.75
447.849	489.75
448.308	490.75
448.767	513.75
449.226	476.75
449.685	484.75
450.143	517.75
450.602	527.75
451.061	478.75
451.519	502.75
451.978	485.75
452.436	474.75
452.895	482.75
453.353	474.75
453.812	490.75
454.27	492.75
454.729	465.75
455.187	463.75
455.646	457.75
456.104	503.75
456.562	483.75
457.021	514.75
457.479	464.75
457.937	503.75
458.395	473.75
458.854	503.75
459.312	478.75
459.77	511.75
460.228	492.75
460.686	516.75
461.144	482.75
461.602	516.75
462.06	486.75
462.518	526.75
462.976	532.75
463.434	533.75
463.892	547.75
464.35	522.75
464.808	565.75
465.266	532.75
465.724	555.75
466.181	535.75
466.639	554.75
467.097	589.75
467.555	576.75
468.012	599.75
468.47	586.75
468.928	618.75
469.385	622.75
469.843	627.75
470.3	631.75
470.758	641.75
471.215	642.75
471.673	668.75
472.13	672.75
472.588	678.75
473.045	671.75
473.503	693.75
473.96	753.75
474.417	763.75
474.875	769.75
475.332	796.75
475.789	820.75
476.246	820.75
476.704	854.75
477.161	854.75
477.618	897.75
478.075	954.75
478.532	958.75
478.989	1060.75
479.446	1189.75
479.903	1210.75
480.36	1318.75
480.817	1362.75
481.274	1476.75
481.731	1613.75
482.188	1735.75
482.645	1788.75
483.102	1946.75
483.558	2096.75
484.015	2124.75
484.472	2142.75
484.929	2091.75
485.385	2059.75
485.842	2000.75
486.299	1894.75
486.755	1779.75
487.212	1629.75
487.668	1480.75
488.125	1356.75
488.582	1240.75
489.038	1202.75
489.494	1216.75
489.951	1137.75
490.407	1107.75
490.864	1091.75
491.32	1081.75
491.776	1080.75
492.233	1086.75
492.689	1053.75
493.145	1032.75
493.602	1006.75
494.058	1050.75
494.514	1024.75
494.97	1035.75
495.426	1047.75
495.882	1044.75
496.338	1041.75
496.794	1047.75
497.251	1012.75
497.707	1050.75
498.163	1045.75
498.618	1051.75
499.074	1098.75
499.53	1045.75
499.986	1062.75
500.442	1046.75
500.898	1080.75
501.354	1080.75
501.809	1076.75
502.265	1068.75
502.721	1061.75
503.177	1066.75
503.632	1050.75
504.088	1070.75
504.543	1097.75
504.999	1126.75
505.455	1078.75
505.91	1101.75
506.366	1123.75
506.821	1081.75
507.277	1093.75
507.732	1084.75
508.187	1040.75
508.643	1099.75
509.098	1088.75
509.553	1099.75
510.009	1116.75
510.464	1152.75
510.919	1164.75
511.375	1164.75
511.83	1164.75
512.285	1198.75
512.74	1244.75
513.195	1188.75
513.65	1286.75
514.105	1269.75
514.56	1217.75
515.015	1299.75
515.47	1303.75
515.925	1296.75
516.38	1329.75
516.835	1309.75
517.29	1260.75
517.745	1266.75
518.2	1266.75
518.655	1220.75
519.109	1218.75
519.564	1193.75
520.019	1217.75
520.474	1201.75
520.928	1194.75
521.383	1159.75
521.838	1188.75
522.292	1133.75
522.747	1186.75
523.201	1208.75
523.656	1151.75
524.11	1189.75
524.565	1158.75
525.019	1140.75
525.474	1138.75
525.928	1144.75
526.382	1127.75
526.837	1173.75
527.291	1148.75
527.745	1142.75
528.2	1133.75
528.654	1135.75
529.108	1131.75
529.562	1122.75
530.016	1131.75
530.47	1184.75
530.925	1118.75
531.379	1144.75
531.833	1118.75
532.287	1148.75
532.741	1127.75
533.195	1118.75
533.649	1135.75
534.103	1140.75
534.556	1168.75
535.01	1132.75
535.464	1118.75
535.918	1167.75
536.372	1149.75
536.826	1135.75
537.279	1125.75
537.733	1140.75
538.187	1134.75
538.64	1146.75
539.094	1135.75
539.548	1148.75
540.001	1158.75
540.455	1185.75
540.908	1161.75
541.362	1174.75
541.815	1186.75
542.269	1217.75
542.722	1204.75
543.175	1233.75
543.629	1236.75
544.082	1218.75
544.536	1226.75
544.989	1262.75
545.442	1239.75
545.895	1290.75
546.349	1267.75
546.802	1255.75
547.255	1285.75
547.708	1265.75
548.161	1308.75
548.614	1298.75
549.067	1262.75
549.52	1292.75
549.973	1305.75
550.426	1287.75
550.879	1234.75
551.332	1235.75
551.785	1273.75
552.238	1295.75
552.691	1305.75
553.144	1316.75
553.596	1309.75
554.049	1318.75
554.502	1353.75
554.955	1395.75
555.407	1381.75
555.86	1382.75
556.313	1411.75
556.765	1361.75
557.218	1341.75
557.67	1328.75
558.123	1335.75
558.576	1312.75
559.028	1284.75
559.48	1329.75
559.933	1315.75
560.385	1292.75
560.838	1269.75
561.29	1212.75
561.742	1203.75
562.195	1171.75
562.647	1213.75
563.099	1184.75
563.551	1180.75
564.004	1187.75
564.456	1182.75
564.908	1202.75
565.36	1140.75
565.812	1086.75
566.264	1116.75
566.716	1069.75
567.168	1074.75
567.62	1083.75
568.072	1061.75
568.524	1058.75
568.976	1068.75
569.428	1032.75
569.88	1058.75
570.332	1031.75
570.784	1047.75
571.235	1055.75
571.687	1095.75
572.139	1095.75
572.59	1070.75
573.042	1058.75
573.494	1043.75
573.945	1096.75
574.397	1052.75
574.849	1058.75
575.3	1010.75
575.752	1034.75
576.203	1011.75
576.655	1043.75
577.106	1030.75
577.557	1000.75
578.009	998.75
578.46	1024.75
578.912	998.75
579.363	1015.75
579.814	1006.75
580.265	998.75
580.717	993.75
581.168	1012.75
581.619	1016.75
582.07	1021.75
582.521	1014.75
582.972	980.75
583.423	1030.75
583.875	1032.75
584.326	1007.75
584.777	1028.75
585.227	1040.75
585.678	1098.75
586.129	1058.75
586.58	1056.75
587.031	1099.75
587.482	1114.75
587.933	1148.75
588.384	1114.75
588.834	1096.75
589.285	1100.75
589.736	1102.75
590.186	1125.75
590.637	1090.75
591.088	1101.75
591.538	1070.75
591.989	1046.75
592.439	1062.75
592.89	1024.75
593.34	1000.75
593.791	1033.75
594.241	1006.75
594.692	1007.75
595.142	1007.75
595.593	1025.75
596.043	1019.75
596.493	1012.75
596.943	1044.75
597.394	1046.75
597.844	1061.75
598.294	1070.75
598.744	1133.75
599.195	1141.75
599.645	1203.75
600.095	1232.75
600.545	1321.75
600.995	1391.75
601.445	1436.75
601.895	1494.75
602.345	1545.75
602.795	1560.75
603.245	1497.75
603.695	1386.75
604.145	1348.75
604.594	1277.75
605.044	1214.75
605.494	1151.75
605.944	1093.75
606.393	1042.75
606.843	1024.75
607.293	1031.75
607.743	1060.75
608.192	1028.75
608.642	1000.75
609.091	1072.75
609.541	1033.75
609.99	1058.75
610.44	1006.75
610.889	1041.75
611.339	1004.75
611.788	1012.75
612.238	1027.75
612.687	1021.75
613.136	997.75
613.586	1013.75
614.035	1007.75
614.484	990.75
614.933	1018.75
615.383	971.75
615.832	955.75
616.281	937.75
616.73	931.75
617.179	916.75
617.628	875.75
618.077	899.75
618.526	913.75
618.975	864.75
619.424	838.75
619.873	878.75
620.322	852.75
620.771	877.75
621.22	863.75
621.669	868.75
622.118	837.75
622.567	841.75
623.015	794.75
623.464	829.75
623.913	776.75
624.361	800.75
624.81	768.75
625.259	805.75
625.707	789.75
626.156	804.75
626.604	822.75
627.053	819.75
627.501	825.75
627.95	822.75
628.398	803.75
628.847	816.75
629.295	824.75
629.744	802.75
630.192	797.75
630.64	790.75
631.089	812.75
631.537	741.75
631.985	740.75
632.433	729.75
632.881	736.75
633.33	744.75
633.778	753.75
634.226	721.75
634.674	757.75
635.122	755.75
635.57	761.75
636.018	762.75
636.466	775.75
636.914	766.75
637.362	772.75
637.81	814.75
638.258	836.75
638.705	856.75
639.153	855.75
639.601	835.75
640.049	896.75
640.497	902.75
640.944	913.75
641.392	874.75
641.84	864.75
642.287	815.75
642.735	804.75
643.182	793.75
643.63	779.75
644.078	788.75
644.525	795.75
644.973	843.75
645.42	806.75
645.867	864.75
646.315	890.75
646.762	876.75
647.21	920.75
647.657	988.75
648.104	1007.75
648.551	1029.75
648.999	1059.75
649.446	1174.75
649.893	1303.75
650.34	1465.75
650.787	1758.75
651.234	2125.75
651.682	2875.75
652.129	4044.75
652.576	5713.75
653.023	7899.75
653.47	9658.75
653.917	10800.75
654.363	11292.75
654.81	12007.75
655.257	12636.75
655.704	9651.75
656.151	5735.75
656.598	3718.75
657.044	2608.75
657.491	2031.75
657.938	1676.75
658.385	1445.75
658.831	1226.75
659.278	1129.75
659.724	1044.75
660.171	966.75
660.618	891.75
661.064	838.75
661.511	828.75
661.957	808.75
662.404	797.75
662.85	760.75
663.296	772.75
663.743	767.75
664.189	753.75
664.635	744.75
665.082	723.75
665.528	694.75
665.974	674.75
666.42	674.75
666.867	680.75
667.313	657.75
667.759	667.75
668.205	667.75
668.651	656.75
669.097	622.75
669.543	655.75
669.989	669.75
670.435	642.75
670.881	647.75
671.327	687.75
671.773	722.75
672.219	738.75
672.665	805.75
673.11	828.75
673.556	845.75
674.002	870.75
674.448	894.75
674.893	779.75
675.339	693.75
675.785	645.75
676.23	582.75
676.676	582.75
677.122	543.75
677.567	540.75
678.013	519.75
678.458	506.75
678.904	535.75
679.349	530.75
679.794	512.75
680.24	516.75
680.685	527.75
681.131	501.75
681.576	490.75
682.021	504.75
682.466	530.75
682.912	532.75
683.357	521.75
683.802	583.75
684.247	603.75
684.692	650.75
685.137	693.75
685.583	700.75
686.028	728.75
686.473	712.75
686.918	651.75
687.363	585.75
687.807	567.75
688.252	568.75
688.697	519.75
689.142	510.75
689.587	520.75
690.032	522.75
690.477	524.75
690.921	528.75
691.366	544.75
691.811	570.75
692.255	606.75
692.7	690.75
693.145	891.75
693.589	1271.75
694.034	1698.75
694.478	1902.75
694.923	1749.75
695.367	2176.75
695.812	1978.75
696.256	852.75
696.701	560.75
697.145	518.75
697.59	489.75
698.034	460.75
698.478	493.75
698.922	492.75
699.367	489.75
699.811	482.75
700.255	513.75
700.699	561.75
701.143	614.75
701.588	665.75
702.032	701.75
702.476	699.75
702.92	714.75
703.364	837.75
703.808	1182.75
704.252	1665.75
704.696	1803.75
705.14	1640.75
705.584	2069.75
706.027	1728.75
706.471	850.75
706.915	608.75
707.359	512.75
707.803	472.75
708.246	474.75
708.69	445.75
709.134	456.75
709.577	447.75
710.021	440.75
710.465	458.75
710.908	465.75
711.352	436.75
711.795	497.75
712.239	524.75
712.682	572.75
713.126	530.75
713.569	598.75
714.012	552.75
714.456	473.75
714.899	449.75
715.342	382.75
715.786	388.75
716.229	407.75
716.672	410.75
717.115	395.75
717.558	388.75
718.002	396.75
718.445	383.75
718.888	422.75
719.331	431.75
719.774	440.75
720.217	456.75
720.66	438.75
721.103	381.75
721.546	393.75
721.989	393.75
722.432	383.75
722.874	365.75
723.317	364.75
723.76	407.75
724.203	416.75
724.645	533.75
725.088	686.75
725.531	702.75
725.974	681.75
726.416	745.75
726.859	518.75
727.301	377.75
727.744	369.75
728.187	356.75
728.629	380.75
729.071	390.75
729.514	390.75
729.956	407.75
730.399	427.75
730.841	409.75
731.283	398.75
731.726	406.75
732.168	412.75
732.61	428.75
733.053	433.75
733.495	466.75
733.937	500.75
734.379	594.75
734.821	679.75
735.263	932.75
735.705	1583.75
736.148	2542.75
736.59	2944.75
737.032	2761.75
737.474	3056.75
737.916	1493.75
738.357	754.75
738.799	522.75
739.241	465.75
739.683	449.75
740.125	468.75
740.567	473.75
741.008	482.75
741.45	496.75
741.892	520.75
742.334	535.75
742.775	548.75
743.217	552.75
743.658	492.75
744.1	468.75
744.542	504.75
744.983	539.75
745.425	537.75
745.866	593.75
746.307	495.75
746.749	482.75
747.19	581.75
