Data from 20170802-ORNL-NYSim-Air_HRD10391_10-37-38-641.txt Node
Date: Wed Aug 02 10:37:38 EDT 2017
User: Ender
Spectrometer: HR+D1039
Trigger mode: 0
Integration Time (sec): 1.510000E-3
Scans to average: 1
Electric dark correction enabled: true
Nonlinearity correction enabled: false
Boxcar width: 0
XAxis mode: Wavelengths
Number of Pixels in Spectrum: 2048
>>>>>Begin Spectral Data<<<<<
187.836	19.62
188.309	19.62
188.782	19.62
189.255	0.62
189.728	-7.38
190.201	-2.38
190.674	-6.38
191.147	-13.38
191.619	-3.38
192.092	-18.38
192.565	-4.38
193.038	7.62
193.511	-2.38
193.984	4.62
194.456	3.62
194.929	2.62
195.402	3.62
195.874	15.62
196.347	31.62
196.82	30.62
197.292	38.62
197.765	38.62
198.237	39.62
198.71	45.62
199.182	31.62
199.655	48.62
200.127	45.62
200.6	64.62
201.072	50.62
201.544	62.62
202.017	59.62
202.489	49.62
202.961	71.62
203.433	64.62
203.906	56.62
204.378	77.62
204.85	65.62
205.322	74.62
205.794	87.62
206.266	78.62
206.739	82.62
207.211	83.62
207.683	90.62
208.155	92.62
208.627	79.62
209.099	94.62
209.57	87.62
210.042	82.62
210.514	92.62
210.986	91.62
211.458	84.62
211.93	76.62
212.402	103.62
212.873	83.62
213.345	94.62
213.817	78.62
214.288	94.62
214.76	75.62
215.232	87.62
215.703	77.62
216.175	82.62
216.646	92.62
217.118	78.62
217.589	77.62
218.061	89.62
218.532	85.62
219.004	88.62
219.475	95.62
219.946	93.62
220.418	75.62
220.889	83.62
221.36	84.62
221.832	93.62
222.303	71.62
222.774	74.62
223.245	68.62
223.717	65.62
224.188	77.62
224.659	68.62
225.13	65.62
225.601	71.62
226.072	64.62
226.543	74.62
227.014	68.62
227.485	76.62
227.956	75.62
228.427	73.62
228.898	87.62
229.369	68.62
229.839	91.62
230.31	93.62
230.781	70.62
231.252	75.62
231.722	82.62
232.193	89.62
232.664	75.62
233.135	75.62
233.605	79.62
234.076	81.62
234.546	73.62
235.017	77.62
235.487	83.62
235.958	88.62
236.428	93.62
236.899	78.62
237.369	91.62
237.84	84.62
238.31	92.62
238.78	87.62
239.251	93.62
239.721	85.62
240.191	82.62
240.662	91.62
241.132	78.62
241.602	84.62
242.072	78.62
242.542	95.62
243.013	86.62
243.483	82.62
243.953	93.62
244.423	90.62
244.893	95.62
245.363	68.62
245.833	93.62
246.303	84.62
246.773	74.62
247.243	87.62
247.712	70.62
248.182	103.62
248.652	77.62
249.122	89.62
249.592	93.62
250.061	100.62
250.531	92.62
251.001	91.62
251.471	90.62
251.94	100.62
252.41	95.62
252.879	93.62
253.349	88.62
253.818	90.62
254.288	99.62
254.757	91.62
255.227	81.62
255.696	88.62
256.166	88.62
256.635	77.62
257.105	94.62
257.574	101.62
258.043	86.62
258.513	86.62
258.982	88.62
259.451	92.62
259.92	101.62
260.389	98.62
260.859	98.62
261.328	94.62
261.797	96.62
262.266	96.62
262.735	94.62
263.204	101.62
263.673	87.62
264.142	87.62
264.611	88.62
265.08	90.62
265.549	94.62
266.018	89.62
266.487	96.62
266.955	102.62
267.424	97.62
267.893	97.62
268.362	105.62
268.83	103.62
269.299	109.62
269.768	101.62
270.236	88.62
270.705	103.62
271.174	104.62
271.642	81.62
272.111	118.62
272.579	89.62
273.048	105.62
273.516	103.62
273.985	108.62
274.453	94.62
274.922	110.62
275.39	100.62
275.858	101.62
276.327	98.62
276.795	99.62
277.263	118.62
277.731	106.62
278.2	119.62
278.668	101.62
279.136	101.62
279.604	114.62
280.072	113.62
280.54	108.62
281.008	100.62
281.477	113.62
281.945	91.62
282.413	104.62
282.881	90.62
283.348	105.62
283.816	110.62
284.284	99.62
284.752	117.62
285.22	102.62
285.688	114.62
286.156	119.62
286.623	122.62
287.091	123.62
287.559	123.62
288.026	106.62
288.494	107.62
288.962	109.62
289.429	114.62
289.897	119.62
290.364	115.62
290.832	124.62
291.3	121.62
291.767	114.62
292.234	129.62
292.702	108.62
293.169	117.62
293.637	102.62
294.104	131.62
294.571	120.62
295.039	119.62
295.506	107.62
295.973	107.62
296.44	112.62
296.908	119.62
297.375	137.62
297.842	120.62
298.309	121.62
298.776	131.62
299.243	123.62
299.71	120.62
300.177	114.62
300.644	127.62
301.111	123.62
301.578	128.62
302.045	133.62
302.512	129.62
302.979	124.62
303.446	127.62
303.913	161.62
304.379	151.62
304.846	131.62
305.313	112.62
305.78	141.62
306.246	151.62
306.713	137.62
307.18	126.62
307.646	137.62
308.113	133.62
308.579	137.62
309.046	144.62
309.512	135.62
309.979	136.62
310.445	145.62
310.912	134.62
311.378	119.62
311.845	124.62
312.311	156.62
312.777	150.62
313.244	131.62
313.71	154.62
314.176	126.62
314.642	161.62
315.109	145.62
315.575	128.62
316.041	141.62
316.507	149.62
316.973	157.62
317.439	141.62
317.905	165.62
318.371	144.62
318.837	155.62
319.303	146.62
319.769	164.62
320.235	169.62
320.701	160.62
321.167	156.62
321.633	143.62
322.099	166.62
322.564	169.62
323.03	149.62
323.496	134.62
323.962	146.62
324.427	162.62
324.893	156.62
325.359	156.62
325.824	158.62
326.29	173.62
326.755	155.62
327.221	160.62
327.686	170.62
328.152	163.62
328.617	181.62
329.083	156.62
329.548	168.62
330.014	162.62
330.479	157.62
330.944	150.62
331.41	161.62
331.875	178.62
332.34	159.62
332.805	166.62
333.271	155.62
333.736	176.62
334.201	179.62
334.666	189.62
335.131	181.62
335.596	168.62
336.061	176.62
336.526	195.62
336.991	165.62
337.456	162.62
337.921	181.62
338.386	179.62
338.851	174.62
339.316	181.62
339.781	157.62
340.246	178.62
340.711	171.62
341.175	174.62
341.64	186.62
342.105	174.62
342.569	185.62
343.034	181.62
343.499	195.62
343.963	194.62
344.428	200.62
344.893	211.62
345.357	163.62
345.822	181.62
346.286	167.62
346.751	195.62
347.215	201.62
347.679	200.62
348.144	214.62
348.608	212.62
349.073	210.62
349.537	224.62
350.001	213.62
350.465	216.62
350.93	213.62
351.394	208.62
351.858	217.62
352.322	201.62
352.786	212.62
353.25	238.62
353.715	225.62
354.179	228.62
354.643	222.62
355.107	247.62
355.571	219.62
356.035	226.62
356.498	234.62
356.962	231.62
357.426	216.62
357.89	218.62
358.354	227.62
358.818	248.62
359.281	235.62
359.745	242.62
360.209	248.62
360.673	234.62
361.136	238.62
361.6	223.62
362.064	229.62
362.527	242.62
362.991	232.62
363.454	237.62
363.918	237.62
364.381	220.62
364.845	242.62
365.308	233.62
365.772	228.62
366.235	223.62
366.698	244.62
367.162	253.62
367.625	249.62
368.088	270.62
368.552	243.62
369.015	267.62
369.478	268.62
369.941	252.62
370.404	246.62
370.867	255.62
371.331	267.62
371.794	251.62
372.257	282.62
372.72	254.62
373.183	281.62
373.646	281.62
374.109	265.62
374.572	251.62
375.035	275.62
375.497	276.62
375.96	265.62
376.423	271.62
376.886	269.62
377.349	262.62
377.811	276.62
378.274	293.62
378.737	294.62
379.199	308.62
379.662	289.62
380.125	278.62
380.587	300.62
381.05	318.62
381.512	275.62
381.975	287.62
382.437	299.62
382.9	293.62
383.362	308.62
383.825	303.62
384.287	321.62
384.75	303.62
385.212	320.62
385.674	305.62
386.136	297.62
386.599	294.62
387.061	331.62
387.523	309.62
387.985	327.62
388.447	333.62
388.91	295.62
389.372	329.62
389.834	325.62
390.296	334.62
390.758	318.62
391.22	337.62
391.682	305.62
392.144	328.62
392.606	314.62
393.068	329.62
393.529	332.62
393.991	347.62
394.453	351.62
394.915	343.62
395.377	335.62
395.838	335.62
396.3	318.62
396.762	333.62
397.224	331.62
397.685	342.62
398.147	320.62
398.608	310.62
399.07	328.62
399.531	351.62
399.993	358.62
400.454	331.62
400.916	340.62
401.377	339.62
401.839	379.62
402.3	380.62
402.762	367.62
403.223	393.62
403.684	380.62
404.145	369.62
404.607	343.62
405.068	368.62
405.529	368.62
405.99	373.62
406.451	369.62
406.913	381.62
407.374	379.62
407.835	374.62
408.296	374.62
408.757	381.62
409.218	382.62
409.679	390.62
410.14	394.62
410.601	398.62
411.062	424.62
411.522	412.62
411.983	416.62
412.444	437.62
412.905	423.62
413.366	445.62
413.826	444.62
414.287	487.62
414.748	583.62
415.208	575.62
415.669	528.62
416.13	490.62
416.59	452.62
417.051	473.62
417.511	489.62
417.972	503.62
418.432	526.62
418.893	595.62
419.353	579.62
419.814	476.62
420.274	420.62
420.734	428.62
421.195	445.62
421.655	432.62
422.115	435.62
422.576	452.62
423.036	466.62
423.496	455.62
423.956	447.62
424.416	497.62
424.876	542.62
425.336	528.62
425.797	538.62
426.257	550.62
426.717	499.62
427.177	471.62
427.637	482.62
428.097	489.62
428.556	495.62
429.016	559.62
429.476	553.62
429.936	547.62
430.396	527.62
430.856	537.62
431.315	559.62
431.775	570.62
432.235	631.62
432.694	653.62
433.154	606.62
433.614	587.62
434.073	580.62
434.533	540.62
434.993	524.62
435.452	523.62
435.912	521.62
436.371	530.62
436.83	527.62
437.29	505.62
437.749	487.62
438.209	469.62
438.668	479.62
439.127	476.62
439.587	479.62
440.046	492.62
440.505	476.62
440.964	477.62
441.424	515.62
441.883	503.62
442.342	495.62
442.801	489.62
443.26	478.62
443.719	493.62
444.178	495.62
444.637	477.62
445.096	477.62
445.555	503.62
446.014	451.62
446.473	477.62
446.932	501.62
447.391	479.62
447.849	476.62
448.308	483.62
448.767	497.62
449.226	473.62
449.685	492.62
450.143	507.62
450.602	524.62
451.061	498.62
451.519	503.62
451.978	502.62
452.436	495.62
452.895	501.62
453.353	499.62
453.812	500.62
454.27	506.62
454.729	522.62
455.187	496.62
455.646	494.62
456.104	498.62
456.562	498.62
457.021	516.62
457.479	488.62
457.937	502.62
458.395	532.62
458.854	516.62
459.312	499.62
459.77	506.62
460.228	523.62
460.686	539.62
461.144	507.62
461.602	517.62
462.06	521.62
462.518	510.62
462.976	526.62
463.434	550.62
463.892	539.62
464.35	552.62
464.808	540.62
465.266	561.62
465.724	562.62
466.181	574.62
466.639	577.62
467.097	603.62
467.555	621.62
468.012	591.62
468.47	579.62
468.928	626.62
469.385	623.62
469.843	645.62
470.3	647.62
470.758	661.62
471.215	665.62
471.673	670.62
472.13	693.62
472.588	735.62
473.045	689.62
473.503	707.62
473.96	741.62
474.417	751.62
474.875	772.62
475.332	825.62
475.789	808.62
476.246	858.62
476.704	873.62
477.161	890.62
477.618	933.62
478.075	975.62
478.532	975.62
478.989	1059.62
479.446	1185.62
479.903	1213.62
480.36	1336.62
480.817	1405.62
481.274	1491.62
481.731	1587.62
482.188	1718.62
482.645	1792.62
483.102	1921.62
483.558	2069.62
484.015	2112.62
484.472	2151.62
484.929	2060.62
485.385	1993.62
485.842	1979.62
486.299	1841.62
486.755	1749.62
487.212	1607.62
487.668	1459.62
488.125	1325.62
488.582	1276.62
489.038	1244.62
489.494	1234.62
489.951	1197.62
490.407	1161.62
490.864	1133.62
491.32	1098.62
491.776	1090.62
492.233	1072.62
492.689	1086.62
493.145	1045.62
493.602	1043.62
494.058	1080.62
494.514	1057.62
494.97	1077.62
495.426	1119.62
495.882	1097.62
496.338	1059.62
496.794	1099.62
497.251	1078.62
497.707	1114.62
498.163	1112.62
498.618	1109.62
499.074	1058.62
499.53	1117.62
499.986	1093.62
500.442	1110.62
500.898	1089.62
501.354	1088.62
501.809	1087.62
502.265	1083.62
502.721	1114.62
503.177	1127.62
503.632	1105.62
504.088	1119.62
504.543	1139.62
504.999	1178.62
505.455	1163.62
505.91	1129.62
506.366	1133.62
506.821	1172.62
507.277	1140.62
507.732	1129.62
508.187	1148.62
508.643	1143.62
509.098	1138.62
509.553	1169.62
510.009	1180.62
510.464	1177.62
510.919	1211.62
511.375	1194.62
511.83	1229.62
512.285	1232.62
512.74	1266.62
513.195	1286.62
513.65	1289.62
514.105	1319.62
514.56	1324.62
515.015	1365.62
515.47	1355.62
515.925	1339.62
516.38	1351.62
516.835	1307.62
517.29	1316.62
517.745	1343.62
518.2	1338.62
518.655	1291.62
519.109	1271.62
519.564	1261.62
520.019	1244.62
520.474	1271.62
520.928	1231.62
521.383	1223.62
521.838	1208.62
522.292	1183.62
522.747	1233.62
523.201	1218.62
523.656	1227.62
524.11	1170.62
524.565	1203.62
525.019	1224.62
525.474	1183.62
525.928	1187.62
526.382	1177.62
526.837	1215.62
527.291	1185.62
527.745	1187.62
528.2	1215.62
528.654	1148.62
529.108	1165.62
529.562	1204.62
530.016	1207.62
530.47	1145.62
530.925	1179.62
531.379	1181.62
531.833	1150.62
532.287	1195.62
532.741	1192.62
533.195	1188.62
533.649	1204.62
534.103	1192.62
534.556	1213.62
535.01	1203.62
535.464	1168.62
535.918	1169.62
536.372	1208.62
536.826	1183.62
537.279	1189.62
537.733	1162.62
538.187	1177.62
538.64	1181.62
539.094	1240.62
539.548	1222.62
540.001	1199.62
540.455	1227.62
540.908	1194.62
541.362	1233.62
541.815	1227.62
542.269	1285.62
542.722	1285.62
543.175	1287.62
543.629	1255.62
544.082	1281.62
544.536	1285.62
544.989	1303.62
545.442	1317.62
545.895	1302.62
546.349	1317.62
546.802	1295.62
547.255	1323.62
547.708	1305.62
548.161	1332.62
548.614	1326.62
549.067	1362.62
549.52	1335.62
549.973	1292.62
550.426	1267.62
550.879	1291.62
551.332	1291.62
551.785	1327.62
552.238	1339.62
552.691	1322.62
553.144	1329.62
553.596	1336.62
554.049	1366.62
554.502	1381.62
554.955	1421.62
555.407	1447.62
555.86	1425.62
556.313	1455.62
556.765	1423.62
557.218	1425.62
557.67	1425.62
558.123	1433.62
558.576	1353.62
559.028	1379.62
559.48	1423.62
559.933	1359.62
560.385	1363.62
560.838	1361.62
561.29	1280.62
561.742	1271.62
562.195	1232.62
562.647	1242.62
563.099	1213.62
563.551	1217.62
564.004	1234.62
564.456	1244.62
564.908	1197.62
565.36	1199.62
565.812	1166.62
566.264	1137.62
566.716	1158.62
567.168	1129.62
567.62	1111.62
568.072	1111.62
568.524	1078.62
568.976	1060.62
569.428	1091.62
569.88	1090.62
570.332	1061.62
570.784	1103.62
571.235	1098.62
571.687	1121.62
572.139	1098.62
572.59	1083.62
573.042	1111.62
573.494	1104.62
573.945	1091.62
574.397	1073.62
574.849	1067.62
575.3	1091.62
575.752	1050.62
576.203	1055.62
576.655	1038.62
577.106	1033.62
577.557	1027.62
578.009	1027.62
578.46	1082.62
578.912	1045.62
579.363	1039.62
579.814	1013.62
580.265	1041.62
580.717	1050.62
581.168	1037.62
581.619	1047.62
582.07	1053.62
582.521	1050.62
582.972	1049.62
583.423	1032.62
583.875	1053.62
584.326	1075.62
584.777	1066.62
585.227	1101.62
585.678	1162.62
586.129	1184.62
586.58	1200.62
587.031	1214.62
587.482	1251.62
587.933	1308.62
588.384	1280.62
588.834	1212.62
589.285	1136.62
589.736	1172.62
590.186	1129.62
590.637	1151.62
591.088	1133.62
591.538	1129.62
591.989	1103.62
592.439	1069.62
592.89	1117.62
593.34	1046.62
593.791	1076.62
594.241	1037.62
594.692	1071.62
595.142	1071.62
595.593	1065.62
596.043	1067.62
596.493	1097.62
596.943	1061.62
597.394	1082.62
597.844	1099.62
598.294	1100.62
598.744	1127.62
599.195	1163.62
599.645	1285.62
600.095	1333.62
600.545	1375.62
600.995	1436.62
601.445	1481.62
601.895	1572.62
602.345	1657.62
602.795	1607.62
603.245	1515.62
603.695	1447.62
604.145	1418.62
604.594	1312.62
605.044	1261.62
605.494	1204.62
605.944	1148.62
606.393	1118.62
606.843	1081.62
607.293	1055.62
607.743	1077.62
608.192	1094.62
608.642	1079.62
609.091	1094.62
609.541	1092.62
609.99	1077.62
610.44	1069.62
610.889	1052.62
611.339	1055.62
611.788	1038.62
612.238	1026.62
612.687	1058.62
613.136	1038.62
613.586	1024.62
614.035	1027.62
614.484	1043.62
614.933	1055.62
615.383	1036.62
615.832	999.62
616.281	999.62
616.73	978.62
617.179	967.62
617.628	964.62
618.077	917.62
618.526	906.62
618.975	925.62
619.424	899.62
619.873	884.62
620.322	871.62
620.771	890.62
621.22	899.62
621.669	857.62
622.118	834.62
622.567	851.62
623.015	835.62
623.464	837.62
623.913	834.62
624.361	821.62
624.81	820.62
625.259	855.62
625.707	805.62
626.156	830.62
626.604	853.62
627.053	814.62
627.501	851.62
627.95	865.62
628.398	889.62
628.847	848.62
629.295	856.62
629.744	867.62
630.192	838.62
630.64	818.62
631.089	845.62
631.537	820.62
631.985	770.62
632.433	785.62
632.881	763.62
633.33	787.62
633.778	791.62
634.226	814.62
634.674	799.62
635.122	792.62
635.57	810.62
636.018	821.62
636.466	826.62
636.914	789.62
637.362	810.62
637.81	847.62
638.258	855.62
638.705	840.62
639.153	905.62
639.601	911.62
640.049	907.62
640.497	923.62
640.944	944.62
641.392	928.62
641.84	901.62
642.287	840.62
642.735	812.62
643.182	838.62
643.63	782.62
644.078	805.62
644.525	826.62
644.973	851.62
645.42	830.62
645.867	871.62
646.315	880.62
646.762	913.62
647.21	912.62
647.657	986.62
648.104	1017.62
648.551	1024.62
648.999	1092.62
649.446	1162.62
649.893	1303.62
650.34	1471.62
650.787	1773.62
651.234	2105.62
651.682	2811.62
652.129	3840.62
652.576	5491.62
653.023	7553.62
653.47	9223.62
653.917	10252.62
654.363	10999.62
654.81	11639.62
655.257	12115.62
655.704	9292.62
656.151	5567.62
656.598	3596.62
657.044	2578.62
657.491	1976.62
657.938	1632.62
658.385	1391.62
658.831	1252.62
659.278	1081.62
659.724	1020.62
660.171	943.62
660.618	876.62
661.064	857.62
661.511	835.62
661.957	835.62
662.404	783.62
662.85	760.62
663.296	784.62
663.743	779.62
664.189	770.62
664.635	754.62
665.082	726.62
665.528	736.62
665.974	714.62
666.42	711.62
666.867	684.62
667.313	714.62
667.759	643.62
668.205	666.62
668.651	663.62
669.097	640.62
669.543	666.62
669.989	685.62
670.435	666.62
670.881	654.62
671.327	693.62
671.773	704.62
672.219	741.62
672.665	847.62
673.11	904.62
673.556	859.62
674.002	896.62
674.448	948.62
674.893	839.62
675.339	725.62
675.785	637.62
676.23	609.62
676.676	590.62
677.122	561.62
677.567	569.62
678.013	568.62
678.458	549.62
678.904	541.62
679.349	551.62
679.794	559.62
680.24	562.62
680.685	534.62
681.131	546.62
681.576	541.62
682.021	518.62
682.466	549.62
682.912	561.62
683.357	562.62
683.802	581.62
684.247	631.62
684.692	683.62
685.137	731.62
685.583	721.62
686.028	757.62
686.473	765.62
686.918	669.62
687.363	609.62
687.807	577.62
688.252	549.62
688.697	533.62
689.142	518.62
689.587	507.62
690.032	512.62
690.477	511.62
690.921	556.62
691.366	555.62
691.811	609.62
692.255	630.62
692.7	739.62
693.145	951.62
693.589	1362.62
694.034	1823.62
694.478	1994.62
694.923	1865.62
695.367	2247.62
695.812	2096.62
696.256	928.62
696.701	612.62
697.145	533.62
697.59	501.62
698.034	470.62
698.478	498.62
698.922	539.62
699.367	510.62
699.811	491.62
700.255	562.62
700.699	579.62
701.143	651.62
701.588	688.62
702.032	717.62
702.476	718.62
702.92	771.62
703.364	852.62
703.808	1273.62
704.252	1709.62
704.696	1893.62
705.14	1749.62
705.584	2187.62
706.027	1826.62
706.471	877.62
706.915	620.62
707.359	525.62
707.803	514.62
708.246	491.62
708.69	485.62
709.134	477.62
709.577	481.62
710.021	475.62
710.465	475.62
710.908	477.62
711.352	489.62
711.795	527.62
712.239	554.62
712.682	579.62
713.126	569.62
713.569	625.62
714.012	571.62
714.456	484.62
714.899	445.62
715.342	439.62
715.786	413.62
716.229	435.62
716.672	409.62
717.115	411.62
717.558	404.62
718.002	411.62
718.445	452.62
718.888	451.62
719.331	475.62
719.774	458.62
720.217	466.62
720.66	463.62
721.103	449.62
721.546	415.62
721.989	397.62
722.432	385.62
722.874	389.62
723.317	385.62
723.76	403.62
724.203	441.62
724.645	599.62
725.088	713.62
725.531	721.62
725.974	731.62
726.416	797.62
726.859	531.62
727.301	419.62
727.744	367.62
728.187	361.62
728.629	380.62
729.071	384.62
729.514	437.62
729.956	464.62
730.399	439.62
730.841	450.62
731.283	446.62
731.726	439.62
732.168	447.62
732.61	439.62
733.053	462.62
733.495	512.62
733.937	549.62
734.379	592.62
734.821	716.62
735.263	1013.62
735.705	1665.62
736.148	2699.62
736.59	3139.62
737.032	2952.62
737.474	3199.62
737.916	1569.62
738.357	758.62
738.799	544.62
739.241	489.62
739.683	471.62
740.125	485.62
740.567	486.62
741.008	483.62
741.45	535.62
741.892	539.62
742.334	557.62
742.775	558.62
743.217	550.62
743.658	511.62
744.1	491.62
744.542	514.62
744.983	558.62
745.425	555.62
745.866	581.62
746.307	501.62
746.749	491.62
