Data from 20170802-ORNL-NYSim-Air_HRD10391_10-37-41-642.txt Node
Date: Wed Aug 02 10:37:41 EDT 2017
User: Ender
Spectrometer: HR+D1039
Trigger mode: 0
Integration Time (sec): 1.510000E-3
Scans to average: 1
Electric dark correction enabled: true
Nonlinearity correction enabled: false
Boxcar width: 0
XAxis mode: Wavelengths
Number of Pixels in Spectrum: 2048
>>>>>Begin Spectral Data<<<<<
187.836	18.69
188.309	18.69
188.782	18.69
189.255	16.69
189.728	-8.31
190.201	-17.31
190.674	-13.31
191.147	6.69
191.619	-10.31
192.092	-6.31
192.565	-8.31
193.038	-1.31
193.511	1.69
193.984	-0.31
194.456	8.69
194.929	0.69
195.402	12.69
195.874	-0.31
196.347	15.69
196.82	15.69
197.292	21.69
197.765	18.69
198.237	28.69
198.71	41.69
199.182	48.69
199.655	54.69
200.127	51.69
200.6	51.69
201.072	69.69
201.544	75.69
202.017	65.69
202.489	53.69
202.961	79.69
203.433	53.69
203.906	88.69
204.378	69.69
204.85	70.69
205.322	77.69
205.794	73.69
206.266	76.69
206.739	69.69
207.211	84.69
207.683	75.69
208.155	72.69
208.627	74.69
209.099	94.69
209.57	82.69
210.042	90.69
210.514	74.69
210.986	75.69
211.458	86.69
211.93	79.69
212.402	77.69
212.873	77.69
213.345	73.69
213.817	87.69
214.288	79.69
214.76	92.69
215.232	67.69
215.703	87.69
216.175	77.69
216.646	75.69
217.118	84.69
217.589	81.69
218.061	78.69
218.532	76.69
219.004	62.69
219.475	68.69
219.946	89.69
220.418	86.69
220.889	66.69
221.36	76.69
221.832	82.69
222.303	68.69
222.774	91.69
223.245	88.69
223.717	72.69
224.188	73.69
224.659	85.69
225.13	76.69
225.601	77.69
226.072	76.69
226.543	84.69
227.014	84.69
227.485	93.69
227.956	68.69
228.427	78.69
228.898	69.69
229.369	56.69
229.839	77.69
230.31	71.69
230.781	86.69
231.252	93.69
231.722	73.69
232.193	70.69
232.664	66.69
233.135	74.69
233.605	73.69
234.076	72.69
234.546	84.69
235.017	90.69
235.487	75.69
235.958	73.69
236.428	63.69
236.899	87.69
237.369	75.69
237.84	77.69
238.31	87.69
238.78	88.69
239.251	83.69
239.721	79.69
240.191	88.69
240.662	78.69
241.132	75.69
241.602	88.69
242.072	75.69
242.542	77.69
243.013	74.69
243.483	74.69
243.953	97.69
244.423	73.69
244.893	79.69
245.363	89.69
245.833	80.69
246.303	86.69
246.773	86.69
247.243	89.69
247.712	83.69
248.182	88.69
248.652	83.69
249.122	90.69
249.592	86.69
250.061	98.69
250.531	76.69
251.001	82.69
251.471	82.69
251.94	73.69
252.41	103.69
252.879	89.69
253.349	86.69
253.818	99.69
254.288	99.69
254.757	85.69
255.227	83.69
255.696	100.69
256.166	90.69
256.635	109.69
257.105	83.69
257.574	91.69
258.043	85.69
258.513	87.69
258.982	96.69
259.451	83.69
259.92	84.69
260.389	72.69
260.859	82.69
261.328	78.69
261.797	90.69
262.266	115.69
262.735	100.69
263.204	107.69
263.673	104.69
264.142	89.69
264.611	83.69
265.08	89.69
265.549	100.69
266.018	98.69
266.487	87.69
266.955	95.69
267.424	94.69
267.893	95.69
268.362	104.69
268.83	96.69
269.299	85.69
269.768	106.69
270.236	97.69
270.705	106.69
271.174	110.69
271.642	87.69
272.111	100.69
272.579	110.69
273.048	97.69
273.516	105.69
273.985	114.69
274.453	92.69
274.922	113.69
275.39	99.69
275.858	90.69
276.327	103.69
276.795	95.69
277.263	102.69
277.731	87.69
278.2	76.69
278.668	89.69
279.136	94.69
279.604	98.69
280.072	119.69
280.54	127.69
281.008	102.69
281.477	102.69
281.945	98.69
282.413	113.69
282.881	110.69
283.348	90.69
283.816	103.69
284.284	124.69
284.752	117.69
285.22	94.69
285.688	118.69
286.156	116.69
286.623	97.69
287.091	121.69
287.559	117.69
288.026	102.69
288.494	96.69
288.962	109.69
289.429	122.69
289.897	114.69
290.364	124.69
290.832	103.69
291.3	103.69
291.767	111.69
292.234	124.69
292.702	104.69
293.169	118.69
293.637	94.69
294.104	126.69
294.571	118.69
295.039	111.69
295.506	103.69
295.973	106.69
296.44	122.69
296.908	113.69
297.375	104.69
297.842	122.69
298.309	111.69
298.776	129.69
299.243	115.69
299.71	126.69
300.177	132.69
300.644	140.69
301.111	136.69
301.578	102.69
302.045	132.69
302.512	142.69
302.979	115.69
303.446	131.69
303.913	128.69
304.379	120.69
304.846	128.69
305.313	124.69
305.78	123.69
306.246	136.69
306.713	130.69
307.18	127.69
307.646	125.69
308.113	134.69
308.579	135.69
309.046	120.69
309.512	142.69
309.979	131.69
310.445	126.69
310.912	132.69
311.378	124.69
311.845	150.69
312.311	142.69
312.777	142.69
313.244	160.69
313.71	149.69
314.176	147.69
314.642	155.69
315.109	160.69
315.575	138.69
316.041	152.69
316.507	134.69
316.973	152.69
317.439	144.69
317.905	141.69
318.371	147.69
318.837	160.69
319.303	151.69
319.769	142.69
320.235	148.69
320.701	143.69
321.167	153.69
321.633	158.69
322.099	149.69
322.564	169.69
323.03	134.69
323.496	151.69
323.962	121.69
324.427	156.69
324.893	160.69
325.359	135.69
325.824	146.69
326.29	143.69
326.755	157.69
327.221	175.69
327.686	160.69
328.152	164.69
328.617	169.69
329.083	153.69
329.548	158.69
330.014	178.69
330.479	163.69
330.944	169.69
331.41	166.69
331.875	162.69
332.34	166.69
332.805	162.69
333.271	169.69
333.736	172.69
334.201	168.69
334.666	170.69
335.131	185.69
335.596	164.69
336.061	169.69
336.526	167.69
336.991	165.69
337.456	170.69
337.921	172.69
338.386	186.69
338.851	168.69
339.316	182.69
339.781	175.69
340.246	169.69
340.711	168.69
341.175	166.69
341.64	182.69
342.105	176.69
342.569	185.69
343.034	186.69
343.499	193.69
343.963	199.69
344.428	189.69
344.893	179.69
345.357	176.69
345.822	180.69
346.286	212.69
346.751	189.69
347.215	181.69
347.679	205.69
348.144	204.69
348.608	209.69
349.073	194.69
349.537	219.69
350.001	205.69
350.465	194.69
350.93	226.69
351.394	207.69
351.858	196.69
352.322	208.69
352.786	214.69
353.25	230.69
353.715	215.69
354.179	238.69
354.643	224.69
355.107	230.69
355.571	203.69
356.035	240.69
356.498	199.69
356.962	225.69
357.426	228.69
357.89	237.69
358.354	215.69
358.818	220.69
359.281	216.69
359.745	202.69
360.209	214.69
360.673	236.69
361.136	225.69
361.6	229.69
362.064	239.69
362.527	240.69
362.991	238.69
363.454	254.69
363.918	224.69
364.381	245.69
364.845	246.69
365.308	254.69
365.772	247.69
366.235	240.69
366.698	249.69
367.162	261.69
367.625	239.69
368.088	236.69
368.552	232.69
369.015	242.69
369.478	244.69
369.941	258.69
370.404	239.69
370.867	251.69
371.331	259.69
371.794	247.69
372.257	253.69
372.72	267.69
373.183	257.69
373.646	259.69
374.109	263.69
374.572	256.69
375.035	275.69
375.497	267.69
375.96	246.69
376.423	296.69
376.886	273.69
377.349	264.69
377.811	261.69
378.274	261.69
378.737	278.69
379.199	265.69
379.662	293.69
380.125	284.69
380.587	286.69
381.05	307.69
381.512	280.69
381.975	283.69
382.437	296.69
382.9	300.69
383.362	319.69
383.825	301.69
384.287	310.69
384.75	321.69
385.212	317.69
385.674	304.69
386.136	320.69
386.599	295.69
387.061	310.69
387.523	330.69
387.985	298.69
388.447	317.69
388.91	312.69
389.372	295.69
389.834	326.69
390.296	304.69
390.758	322.69
391.22	317.69
391.682	306.69
392.144	316.69
392.606	313.69
393.068	326.69
393.529	351.69
393.991	346.69
394.453	308.69
394.915	316.69
395.377	323.69
395.838	326.69
396.3	318.69
396.762	330.69
397.224	340.69
397.685	346.69
398.147	327.69
398.608	311.69
399.07	348.69
399.531	338.69
399.993	363.69
400.454	339.69
400.916	362.69
401.377	357.69
401.839	339.69
402.3	348.69
402.762	351.69
403.223	357.69
403.684	371.69
404.145	367.69
404.607	380.69
405.068	382.69
405.529	363.69
405.99	362.69
406.451	397.69
406.913	403.69
407.374	366.69
407.835	378.69
408.296	373.69
408.757	390.69
409.218	411.69
409.679	406.69
410.14	410.69
410.601	410.69
411.062	416.69
411.522	408.69
411.983	382.69
412.444	414.69
412.905	400.69
413.366	425.69
413.826	451.69
414.287	476.69
414.748	589.69
415.208	608.69
415.669	521.69
416.13	474.69
416.59	459.69
417.051	452.69
417.511	486.69
417.972	522.69
418.432	525.69
418.893	579.69
419.353	553.69
419.814	476.69
420.274	420.69
420.734	413.69
421.195	434.69
421.655	416.69
422.115	453.69
422.576	446.69
423.036	436.69
423.496	466.69
423.956	487.69
424.416	500.69
424.876	538.69
425.336	548.69
425.797	542.69
426.257	567.69
426.717	510.69
427.177	454.69
427.637	471.69
428.097	470.69
428.556	527.69
429.016	523.69
429.476	553.69
429.936	549.69
430.396	525.69
430.856	540.69
431.315	555.69
431.775	600.69
432.235	618.69
432.694	670.69
433.154	614.69
433.614	600.69
434.073	576.69
434.533	538.69
434.993	538.69
435.452	522.69
435.912	498.69
436.371	498.69
436.83	516.69
437.29	504.69
437.749	492.69
438.209	475.69
438.668	497.69
439.127	502.69
439.587	462.69
440.046	500.69
440.505	496.69
440.964	482.69
441.424	516.69
441.883	494.69
442.342	493.69
442.801	459.69
443.26	480.69
443.719	474.69
444.178	459.69
444.637	469.69
445.096	447.69
445.555	472.69
446.014	488.69
446.473	465.69
446.932	464.69
447.391	459.69
447.849	480.69
448.308	458.69
448.767	494.69
449.226	494.69
449.685	504.69
450.143	524.69
450.602	509.69
451.061	480.69
451.519	470.69
451.978	495.69
452.436	476.69
452.895	486.69
453.353	480.69
453.812	488.69
454.27	490.69
454.729	459.69
455.187	469.69
455.646	490.69
456.104	502.69
456.562	511.69
457.021	507.69
457.479	491.69
457.937	510.69
458.395	510.69
458.854	525.69
459.312	526.69
459.77	494.69
460.228	505.69
460.686	529.69
461.144	512.69
461.602	483.69
462.06	534.69
462.518	556.69
462.976	526.69
463.434	529.69
463.892	547.69
464.35	559.69
464.808	533.69
465.266	568.69
465.724	548.69
466.181	551.69
466.639	540.69
467.097	580.69
467.555	626.69
468.012	583.69
468.47	638.69
468.928	615.69
469.385	621.69
469.843	646.69
470.3	628.69
470.758	675.69
471.215	655.69
471.673	682.69
472.13	703.69
472.588	722.69
473.045	689.69
473.503	721.69
473.96	734.69
474.417	756.69
474.875	781.69
475.332	803.69
475.789	796.69
476.246	824.69
476.704	873.69
477.161	877.69
477.618	914.69
478.075	911.69
478.532	1002.69
478.989	1062.69
479.446	1146.69
479.903	1230.69
480.36	1307.69
480.817	1354.69
481.274	1432.69
481.731	1570.69
482.188	1679.69
482.645	1731.69
483.102	1878.69
483.558	1962.69
484.015	2055.69
484.472	2050.69
484.929	2033.69
485.385	1941.69
485.842	1927.69
486.299	1830.69
486.755	1712.69
487.212	1561.69
487.668	1450.69
488.125	1378.69
488.582	1236.69
489.038	1200.69
489.494	1152.69
489.951	1171.69
490.407	1128.69
490.864	1108.69
491.32	1116.69
491.776	1095.69
492.233	1065.69
492.689	1056.69
493.145	1067.69
493.602	1037.69
494.058	1063.69
494.514	1034.69
494.97	1072.69
495.426	1066.69
495.882	1059.69
496.338	1049.69
496.794	1078.69
497.251	1116.69
497.707	1067.69
498.163	1062.69
498.618	1104.69
499.074	1077.69
499.53	1094.69
499.986	1105.69
500.442	1097.69
500.898	1103.69
501.354	1088.69
501.809	1116.69
502.265	1118.69
502.721	1103.69
503.177	1132.69
503.632	1099.69
504.088	1132.69
504.543	1124.69
504.999	1166.69
505.455	1173.69
505.91	1132.69
506.366	1168.69
506.821	1105.69
507.277	1103.69
507.732	1090.69
508.187	1120.69
508.643	1131.69
509.098	1134.69
509.553	1133.69
510.009	1175.69
510.464	1206.69
510.919	1181.69
511.375	1232.69
511.83	1211.69
512.285	1216.69
512.74	1221.69
513.195	1273.69
513.65	1298.69
514.105	1325.69
514.56	1310.69
515.015	1318.69
515.47	1340.69
515.925	1320.69
516.38	1337.69
516.835	1303.69
517.29	1297.69
517.745	1299.69
518.2	1295.69
518.655	1291.69
519.109	1257.69
519.564	1221.69
520.019	1209.69
520.474	1227.69
520.928	1226.69
521.383	1210.69
521.838	1238.69
522.292	1204.69
522.747	1172.69
523.201	1176.69
523.656	1164.69
524.11	1223.69
524.565	1235.69
525.019	1204.69
525.474	1170.69
525.928	1172.69
526.382	1176.69
526.837	1190.69
527.291	1170.69
527.745	1187.69
528.2	1191.69
528.654	1150.69
529.108	1151.69
529.562	1167.69
530.016	1175.69
530.47	1153.69
530.925	1183.69
531.379	1174.69
531.833	1198.69
532.287	1162.69
532.741	1169.69
533.195	1183.69
533.649	1182.69
534.103	1198.69
534.556	1155.69
535.01	1156.69
535.464	1158.69
535.918	1171.69
536.372	1182.69
536.826	1189.69
537.279	1167.69
537.733	1128.69
538.187	1194.69
538.64	1144.69
539.094	1169.69
539.548	1206.69
540.001	1196.69
540.455	1209.69
540.908	1206.69
541.362	1208.69
541.815	1221.69
542.269	1265.69
542.722	1286.69
543.175	1260.69
543.629	1268.69
544.082	1269.69
544.536	1310.69
544.989	1289.69
545.442	1281.69
545.895	1287.69
546.349	1275.69
546.802	1276.69
547.255	1309.69
547.708	1343.69
548.161	1324.69
548.614	1298.69
549.067	1322.69
549.52	1287.69
549.973	1284.69
550.426	1311.69
550.879	1284.69
551.332	1318.69
551.785	1319.69
552.238	1324.69
552.691	1292.69
553.144	1320.69
553.596	1358.69
554.049	1380.69
554.502	1392.69
554.955	1412.69
555.407	1425.69
555.86	1439.69
556.313	1384.69
556.765	1382.69
557.218	1367.69
557.67	1390.69
558.123	1347.69
558.576	1367.69
559.028	1372.69
559.48	1401.69
559.933	1365.69
560.385	1368.69
560.838	1298.69
561.29	1258.69
561.742	1258.69
562.195	1248.69
562.647	1221.69
563.099	1216.69
563.551	1232.69
564.004	1225.69
564.456	1221.69
564.908	1172.69
565.36	1162.69
565.812	1153.69
566.264	1135.69
566.716	1139.69
567.168	1112.69
567.62	1087.69
568.072	1098.69
568.524	1095.69
568.976	1082.69
569.428	1066.69
569.88	1070.69
570.332	1095.69
570.784	1092.69
571.235	1078.69
571.687	1066.69
572.139	1085.69
572.59	1097.69
573.042	1114.69
573.494	1115.69
573.945	1095.69
574.397	1052.69
574.849	1060.69
575.3	1070.69
575.752	1012.69
576.203	1049.69
576.655	1076.69
577.106	1072.69
577.557	1032.69
578.009	1008.69
578.46	1028.69
578.912	1026.69
579.363	1051.69
579.814	1026.69
580.265	1035.69
580.717	1024.69
581.168	1055.69
581.619	1026.69
582.07	1044.69
582.521	1074.69
582.972	1040.69
583.423	1026.69
583.875	1022.69
584.326	1057.69
584.777	1036.69
585.227	1062.69
585.678	1098.69
586.129	1097.69
586.58	1145.69
587.031	1139.69
587.482	1168.69
587.933	1188.69
588.384	1149.69
588.834	1172.69
589.285	1155.69
589.736	1188.69
590.186	1192.69
590.637	1166.69
591.088	1136.69
591.538	1134.69
591.989	1068.69
592.439	1057.69
592.89	1062.69
593.34	1051.69
593.791	1072.69
594.241	1069.69
594.692	1027.69
595.142	1057.69
595.593	1065.69
596.043	1052.69
596.493	1066.69
596.943	1060.69
597.394	1090.69
597.844	1082.69
598.294	1110.69
598.744	1140.69
599.195	1192.69
599.645	1240.69
600.095	1311.69
600.545	1372.69
600.995	1391.69
601.445	1436.69
601.895	1545.69
602.345	1608.69
602.795	1610.69
603.245	1512.69
603.695	1472.69
604.145	1372.69
604.594	1329.69
605.044	1255.69
605.494	1186.69
605.944	1096.69
606.393	1070.69
606.843	1058.69
607.293	1027.69
607.743	1071.69
608.192	1084.69
608.642	1091.69
609.091	1110.69
609.541	1071.69
609.99	1042.69
610.44	1037.69
610.889	1066.69
611.339	1040.69
611.788	1000.69
612.238	994.69
612.687	1014.69
613.136	1026.69
613.586	1028.69
614.035	1034.69
614.484	1025.69
614.933	1069.69
615.383	1009.69
615.832	992.69
616.281	989.69
616.73	969.69
617.179	930.69
617.628	944.69
618.077	935.69
618.526	903.69
618.975	903.69
619.424	889.69
619.873	893.69
620.322	871.69
620.771	897.69
621.22	874.69
621.669	850.69
622.118	853.69
622.567	878.69
623.015	854.69
623.464	831.69
623.913	804.69
624.361	791.69
624.81	796.69
625.259	850.69
625.707	799.69
626.156	794.69
626.604	841.69
627.053	802.69
627.501	846.69
627.95	835.69
628.398	847.69
628.847	814.69
629.295	818.69
629.744	846.69
630.192	842.69
630.64	805.69
631.089	794.69
631.537	789.69
631.985	793.69
632.433	771.69
632.881	758.69
633.33	774.69
633.778	771.69
634.226	771.69
634.674	779.69
635.122	750.69
635.57	754.69
636.018	798.69
636.466	813.69
636.914	802.69
637.362	820.69
637.81	792.69
638.258	848.69
638.705	841.69
639.153	868.69
639.601	866.69
640.049	911.69
640.497	935.69
640.944	933.69
641.392	899.69
641.84	856.69
642.287	822.69
642.735	832.69
643.182	785.69
643.63	787.69
644.078	823.69
644.525	792.69
644.973	806.69
645.42	822.69
645.867	854.69
646.315	871.69
646.762	890.69
647.21	924.69
647.657	959.69
648.104	962.69
648.551	985.69
648.999	1062.69
649.446	1128.69
649.893	1260.69
650.34	1392.69
650.787	1653.69
651.234	2043.69
651.682	2692.69
652.129	3659.69
652.576	5166.69
653.023	7142.69
653.47	8736.69
653.917	9771.69
654.363	10327.69
654.81	10876.69
655.257	11306.69
655.704	8660.69
656.151	5392.69
656.598	3416.69
657.044	2448.69
657.491	1874.69
657.938	1602.69
658.385	1364.69
658.831	1213.69
659.278	1080.69
659.724	1018.69
660.171	930.69
660.618	871.69
661.064	861.69
661.511	824.69
661.957	798.69
662.404	809.69
662.85	750.69
663.296	779.69
663.743	760.69
664.189	743.69
664.635	753.69
665.082	745.69
665.528	733.69
665.974	727.69
666.42	695.69
666.867	701.69
667.313	658.69
667.759	670.69
668.205	649.69
668.651	646.69
669.097	656.69
669.543	656.69
669.989	644.69
670.435	663.69
670.881	662.69
671.327	671.69
671.773	715.69
672.219	716.69
672.665	791.69
673.11	862.69
673.556	848.69
674.002	876.69
674.448	902.69
674.893	789.69
675.339	684.69
675.785	663.69
676.23	625.69
676.676	643.69
677.122	577.69
677.567	566.69
678.013	537.69
678.458	552.69
678.904	543.69
679.349	536.69
679.794	516.69
680.24	524.69
680.685	543.69
681.131	536.69
681.576	525.69
682.021	553.69
682.466	525.69
682.912	528.69
683.357	562.69
683.802	600.69
684.247	630.69
684.692	675.69
685.137	701.69
685.583	710.69
686.028	725.69
686.473	710.69
686.918	628.69
687.363	583.69
687.807	578.69
688.252	550.69
688.697	542.69
689.142	530.69
689.587	511.69
690.032	527.69
690.477	528.69
690.921	569.69
691.366	564.69
691.811	583.69
692.255	611.69
692.7	716.69
693.145	928.69
693.589	1321.69
694.034	1767.69
694.478	1979.69
694.923	1810.69
695.367	2238.69
695.812	2109.69
696.256	889.69
696.701	599.69
697.145	542.69
697.59	508.69
698.034	476.69
698.478	506.69
698.922	472.69
699.367	488.69
699.811	515.69
700.255	542.69
700.699	596.69
701.143	644.69
701.588	675.69
702.032	681.69
702.476	744.69
702.92	752.69
703.364	879.69
703.808	1211.69
704.252	1675.69
704.696	1896.69
705.14	1755.69
705.584	2183.69
706.027	1838.69
706.471	886.69
706.915	610.69
707.359	534.69
707.803	476.69
708.246	467.69
708.69	455.69
709.134	470.69
709.577	473.69
710.021	482.69
710.465	472.69
710.908	443.69
711.352	464.69
711.795	520.69
712.239	553.69
712.682	573.69
713.126	539.69
713.569	601.69
714.012	542.69
714.456	462.69
714.899	446.69
715.342	420.69
715.786	426.69
716.229	401.69
716.672	374.69
717.115	405.69
717.558	407.69
718.002	410.69
718.445	420.69
718.888	433.69
719.331	426.69
719.774	445.69
720.217	452.69
720.66	429.69
721.103	420.69
721.546	397.69
721.989	408.69
722.432	403.69
722.874	374.69
723.317	384.69
723.76	398.69
724.203	450.69
724.645	581.69
725.088	682.69
725.531	742.69
725.974	710.69
726.416	764.69
726.859	533.69
727.301	413.69
727.744	408.69
728.187	374.69
728.629	394.69
729.071	387.69
729.514	411.69
729.956	421.69
730.399	428.69
730.841	438.69
731.283	450.69
731.726	432.69
732.168	408.69
732.61	435.69
733.053	470.69
733.495	500.69
733.937	536.69
734.379	608.69
734.821	710.69
735.263	978.69
735.705	1620.69
736.148	2655.69
736.59	3055.69
737.032	2879.69
737.474	3098.69
737.916	1522.69
738.357	767.69
738.799	543.69
739.241	483.69
739.683	456.69
740.125	462.69
740.567	482.69
741.008	516.69
741.45	535.69
741.892	552.69
742.334	514.69
742.775	534.69
743.217	582.69
743.658	474.69
744.1	445.69
744.542	486.69
744.983	552.69
745.425	537.69
745.866	577.69
746.307	508.69
746.749	500.69
747.19	582.69
