Data from 20170802-ORNL-NYSim-Air_HRD10391_10-37-08-628.txt Node
Date: Wed Aug 02 10:37:08 EDT 2017
User: Ender
Spectrometer: HR+D1039
Trigger mode: 0
Integration Time (sec): 1.510000E-3
Scans to average: 1
Electric dark correction enabled: true
Nonlinearity correction enabled: false
Boxcar width: 0
XAxis mode: Wavelengths
Number of Pixels in Spectrum: 2048
>>>>>Begin Spectral Data<<<<<
187.836	2.19
188.309	2.19
188.782	2.19
189.255	8.19
189.728	-8.81
190.201	-13.81
190.674	-2.81
191.147	-5.81
191.619	-14.81
192.092	2.19
192.565	-13.81
193.038	4.19
193.511	2.19
193.984	0.19
194.456	7.19
194.929	14.19
195.402	7.19
195.874	12.19
196.347	12.19
196.82	15.19
197.292	38.19
197.765	32.19
198.237	25.19
198.71	35.19
199.182	32.19
199.655	55.19
200.127	42.19
200.6	49.19
201.072	63.19
201.544	56.19
202.017	76.19
202.489	72.19
202.961	54.19
203.433	66.19
203.906	98.19
204.378	79.19
204.85	70.19
205.322	92.19
205.794	87.19
206.266	64.19
206.739	82.19
207.211	79.19
207.683	88.19
208.155	71.19
208.627	84.19
209.099	70.19
209.57	83.19
210.042	80.19
210.514	103.19
210.986	94.19
211.458	88.19
211.93	89.19
212.402	93.19
212.873	91.19
213.345	70.19
213.817	101.19
214.288	72.19
214.76	78.19
215.232	93.19
215.703	84.19
216.175	88.19
216.646	91.19
217.118	91.19
217.589	71.19
218.061	74.19
218.532	80.19
219.004	95.19
219.475	73.19
219.946	79.19
220.418	92.19
220.889	71.19
221.36	92.19
221.832	71.19
222.303	79.19
222.774	88.19
223.245	80.19
223.717	74.19
224.188	84.19
224.659	73.19
225.13	75.19
225.601	89.19
226.072	81.19
226.543	77.19
227.014	83.19
227.485	90.19
227.956	101.19
228.427	76.19
228.898	94.19
229.369	86.19
229.839	91.19
230.31	79.19
230.781	74.19
231.252	80.19
231.722	92.19
232.193	78.19
232.664	96.19
233.135	92.19
233.605	86.19
234.076	89.19
234.546	88.19
235.017	68.19
235.487	81.19
235.958	85.19
236.428	66.19
236.899	84.19
237.369	97.19
237.84	75.19
238.31	80.19
238.78	93.19
239.251	79.19
239.721	70.19
240.191	75.19
240.662	84.19
241.132	73.19
241.602	83.19
242.072	73.19
242.542	75.19
243.013	80.19
243.483	94.19
243.953	95.19
244.423	82.19
244.893	81.19
245.363	82.19
245.833	91.19
246.303	103.19
246.773	90.19
247.243	98.19
247.712	89.19
248.182	101.19
248.652	97.19
249.122	94.19
249.592	86.19
250.061	88.19
250.531	80.19
251.001	77.19
251.471	95.19
251.94	86.19
252.41	98.19
252.879	81.19
253.349	76.19
253.818	96.19
254.288	82.19
254.757	94.19
255.227	77.19
255.696	69.19
256.166	96.19
256.635	92.19
257.105	102.19
257.574	79.19
258.043	99.19
258.513	68.19
258.982	107.19
259.451	88.19
259.92	108.19
260.389	97.19
260.859	102.19
261.328	88.19
261.797	76.19
262.266	101.19
262.735	105.19
263.204	102.19
263.673	104.19
264.142	102.19
264.611	92.19
265.08	102.19
265.549	125.19
266.018	115.19
266.487	106.19
266.955	93.19
267.424	100.19
267.893	94.19
268.362	98.19
268.83	113.19
269.299	101.19
269.768	103.19
270.236	98.19
270.705	106.19
271.174	109.19
271.642	87.19
272.111	105.19
272.579	83.19
273.048	96.19
273.516	92.19
273.985	101.19
274.453	99.19
274.922	104.19
275.39	102.19
275.858	93.19
276.327	99.19
276.795	103.19
277.263	99.19
277.731	89.19
278.2	96.19
278.668	105.19
279.136	100.19
279.604	119.19
280.072	114.19
280.54	104.19
281.008	107.19
281.477	115.19
281.945	124.19
282.413	91.19
282.881	113.19
283.348	116.19
283.816	112.19
284.284	109.19
284.752	110.19
285.22	98.19
285.688	110.19
286.156	121.19
286.623	118.19
287.091	101.19
287.559	130.19
288.026	130.19
288.494	119.19
288.962	125.19
289.429	125.19
289.897	111.19
290.364	128.19
290.832	120.19
291.3	107.19
291.767	121.19
292.234	114.19
292.702	118.19
293.169	122.19
293.637	110.19
294.104	135.19
294.571	96.19
295.039	114.19
295.506	124.19
295.973	129.19
296.44	123.19
296.908	124.19
297.375	115.19
297.842	140.19
298.309	102.19
298.776	134.19
299.243	123.19
299.71	122.19
300.177	117.19
300.644	106.19
301.111	110.19
301.578	105.19
302.045	140.19
302.512	115.19
302.979	120.19
303.446	134.19
303.913	128.19
304.379	138.19
304.846	116.19
305.313	144.19
305.78	121.19
306.246	130.19
306.713	151.19
307.18	135.19
307.646	138.19
308.113	142.19
308.579	124.19
309.046	146.19
309.512	141.19
309.979	149.19
310.445	133.19
310.912	148.19
311.378	129.19
311.845	144.19
312.311	144.19
312.777	135.19
313.244	133.19
313.71	146.19
314.176	140.19
314.642	139.19
315.109	152.19
315.575	131.19
316.041	156.19
316.507	135.19
316.973	141.19
317.439	136.19
317.905	161.19
318.371	149.19
318.837	152.19
319.303	167.19
319.769	144.19
320.235	164.19
320.701	152.19
321.167	124.19
321.633	154.19
322.099	151.19
322.564	165.19
323.03	150.19
323.496	140.19
323.962	159.19
324.427	147.19
324.893	156.19
325.359	175.19
325.824	152.19
326.29	166.19
326.755	162.19
327.221	164.19
327.686	162.19
328.152	149.19
328.617	155.19
329.083	168.19
329.548	194.19
330.014	177.19
330.479	156.19
330.944	157.19
331.41	158.19
331.875	165.19
332.34	161.19
332.805	170.19
333.271	161.19
333.736	174.19
334.201	168.19
334.666	174.19
335.131	182.19
335.596	180.19
336.061	177.19
336.526	184.19
336.991	156.19
337.456	178.19
337.921	166.19
338.386	178.19
338.851	161.19
339.316	179.19
339.781	158.19
340.246	200.19
340.711	181.19
341.175	181.19
341.64	190.19
342.105	192.19
342.569	173.19
343.034	169.19
343.499	170.19
343.963	177.19
344.428	186.19
344.893	183.19
345.357	173.19
345.822	192.19
346.286	177.19
346.751	200.19
347.215	187.19
347.679	205.19
348.144	210.19
348.608	201.19
349.073	206.19
349.537	209.19
350.001	217.19
350.465	215.19
350.93	217.19
351.394	196.19
351.858	206.19
352.322	220.19
352.786	243.19
353.25	206.19
353.715	210.19
354.179	246.19
354.643	253.19
355.107	241.19
355.571	234.19
356.035	237.19
356.498	236.19
356.962	223.19
357.426	224.19
357.89	230.19
358.354	248.19
358.818	226.19
359.281	228.19
359.745	236.19
360.209	220.19
360.673	210.19
361.136	237.19
361.6	248.19
362.064	250.19
362.527	256.19
362.991	248.19
363.454	217.19
363.918	254.19
364.381	246.19
364.845	259.19
365.308	244.19
365.772	227.19
366.235	229.19
366.698	232.19
367.162	244.19
367.625	231.19
368.088	246.19
368.552	254.19
369.015	240.19
369.478	242.19
369.941	253.19
370.404	266.19
370.867	264.19
371.331	257.19
371.794	265.19
372.257	251.19
372.72	272.19
373.183	288.19
373.646	261.19
374.109	278.19
374.572	267.19
375.035	256.19
375.497	266.19
375.96	289.19
376.423	288.19
376.886	252.19
377.349	265.19
377.811	294.19
378.274	286.19
378.737	280.19
379.199	281.19
379.662	299.19
380.125	276.19
380.587	277.19
381.05	289.19
381.512	294.19
381.975	307.19
382.437	292.19
382.9	303.19
383.362	313.19
383.825	303.19
384.287	320.19
384.75	304.19
385.212	295.19
385.674	302.19
386.136	301.19
386.599	314.19
387.061	318.19
387.523	323.19
387.985	299.19
388.447	307.19
388.91	326.19
389.372	332.19
389.834	323.19
390.296	327.19
390.758	309.19
391.22	327.19
391.682	312.19
392.144	324.19
392.606	312.19
393.068	329.19
393.529	347.19
393.991	323.19
394.453	347.19
394.915	338.19
395.377	342.19
395.838	329.19
396.3	305.19
396.762	334.19
397.224	318.19
397.685	331.19
398.147	335.19
398.608	334.19
399.07	325.19
399.531	316.19
399.993	371.19
400.454	355.19
400.916	362.19
401.377	356.19
401.839	346.19
402.3	345.19
402.762	366.19
403.223	368.19
403.684	373.19
404.145	397.19
404.607	362.19
405.068	363.19
405.529	382.19
405.99	366.19
406.451	374.19
406.913	372.19
407.374	380.19
407.835	384.19
408.296	371.19
408.757	382.19
409.218	371.19
409.679	392.19
410.14	406.19
410.601	398.19
411.062	414.19
411.522	433.19
411.983	446.19
412.444	449.19
412.905	418.19
413.366	438.19
413.826	465.19
414.287	503.19
414.748	564.19
415.208	592.19
415.669	498.19
416.13	448.19
416.59	445.19
417.051	472.19
417.511	481.19
417.972	529.19
418.432	568.19
418.893	612.19
419.353	571.19
419.814	467.19
420.274	423.19
420.734	413.19
421.195	418.19
421.655	404.19
422.115	434.19
422.576	429.19
423.036	442.19
423.496	442.19
423.956	474.19
424.416	496.19
424.876	546.19
425.336	537.19
425.797	530.19
426.257	504.19
426.717	491.19
427.177	504.19
427.637	520.19
428.097	492.19
428.556	537.19
429.016	542.19
429.476	549.19
429.936	551.19
430.396	524.19
430.856	557.19
431.315	599.19
431.775	594.19
432.235	621.19
432.694	616.19
433.154	613.19
433.614	619.19
434.073	581.19
434.533	533.19
434.993	544.19
435.452	513.19
435.912	527.19
436.371	507.19
436.83	544.19
437.29	497.19
437.749	469.19
438.209	467.19
438.668	457.19
439.127	501.19
439.587	472.19
440.046	501.19
440.505	481.19
440.964	488.19
441.424	476.19
441.883	497.19
442.342	494.19
442.801	489.19
443.26	460.19
443.719	456.19
444.178	482.19
444.637	458.19
445.096	463.19
445.555	498.19
446.014	488.19
446.473	468.19
446.932	476.19
447.391	471.19
447.849	467.19
448.308	476.19
448.767	490.19
449.226	509.19
449.685	506.19
450.143	506.19
450.602	497.19
451.061	464.19
451.519	507.19
451.978	494.19
452.436	496.19
452.895	503.19
453.353	486.19
453.812	466.19
454.27	459.19
454.729	487.19
455.187	506.19
455.646	493.19
456.104	468.19
456.562	513.19
457.021	518.19
457.479	495.19
457.937	551.19
458.395	523.19
458.854	521.19
459.312	489.19
459.77	513.19
460.228	513.19
460.686	537.19
461.144	509.19
461.602	513.19
462.06	526.19
462.518	534.19
462.976	508.19
463.434	550.19
463.892	521.19
464.35	551.19
464.808	565.19
465.266	573.19
465.724	555.19
466.181	582.19
466.639	558.19
467.097	586.19
467.555	600.19
468.012	594.19
468.47	618.19
468.928	618.19
469.385	639.19
469.843	649.19
470.3	630.19
470.758	626.19
471.215	673.19
471.673	694.19
472.13	672.19
472.588	739.19
473.045	701.19
473.503	701.19
473.96	729.19
474.417	746.19
474.875	779.19
475.332	798.19
475.789	808.19
476.246	831.19
476.704	860.19
477.161	918.19
477.618	898.19
478.075	953.19
478.532	1006.19
478.989	1088.19
479.446	1145.19
479.903	1227.19
480.36	1320.19
480.817	1416.19
481.274	1464.19
481.731	1616.19
482.188	1737.19
482.645	1856.19
483.102	1971.19
483.558	2088.19
484.015	2177.19
484.472	2166.19
484.929	2120.19
485.385	2035.19
485.842	1988.19
486.299	1881.19
486.755	1744.19
487.212	1585.19
487.668	1454.19
488.125	1384.19
488.582	1262.19
489.038	1205.19
489.494	1199.19
489.951	1209.19
490.407	1144.19
490.864	1121.19
491.32	1101.19
491.776	1089.19
492.233	1097.19
492.689	1095.19
493.145	1080.19
493.602	1063.19
494.058	1051.19
494.514	1085.19
494.97	1048.19
495.426	1104.19
495.882	1057.19
496.338	1063.19
496.794	1075.19
497.251	1095.19
497.707	1099.19
498.163	1096.19
498.618	1084.19
499.074	1066.19
499.53	1114.19
499.986	1108.19
500.442	1098.19
500.898	1060.19
501.354	1072.19
501.809	1079.19
502.265	1079.19
502.721	1089.19
503.177	1097.19
503.632	1113.19
504.088	1101.19
504.543	1159.19
504.999	1162.19
505.455	1132.19
505.91	1139.19
506.366	1132.19
506.821	1153.19
507.277	1125.19
507.732	1112.19
508.187	1111.19
508.643	1136.19
509.098	1116.19
509.553	1174.19
510.009	1120.19
510.464	1162.19
510.919	1209.19
511.375	1210.19
511.83	1205.19
512.285	1248.19
512.74	1244.19
513.195	1221.19
513.65	1278.19
514.105	1297.19
514.56	1309.19
515.015	1322.19
515.47	1345.19
515.925	1292.19
516.38	1338.19
516.835	1334.19
517.29	1340.19
517.745	1369.19
518.2	1285.19
518.655	1293.19
519.109	1280.19
519.564	1290.19
520.019	1220.19
520.474	1237.19
520.928	1238.19
521.383	1233.19
521.838	1213.19
522.292	1180.19
522.747	1212.19
523.201	1182.19
523.656	1148.19
524.11	1161.19
524.565	1187.19
525.019	1215.19
525.474	1166.19
525.928	1161.19
526.382	1178.19
526.837	1191.19
527.291	1176.19
527.745	1216.19
528.2	1167.19
528.654	1156.19
529.108	1149.19
529.562	1160.19
530.016	1178.19
530.47	1168.19
530.925	1134.19
531.379	1176.19
531.833	1191.19
532.287	1153.19
532.741	1138.19
533.195	1212.19
533.649	1174.19
534.103	1176.19
534.556	1204.19
535.01	1178.19
535.464	1152.19
535.918	1171.19
536.372	1167.19
536.826	1182.19
537.279	1218.19
537.733	1164.19
538.187	1169.19
538.64	1169.19
539.094	1182.19
539.548	1171.19
540.001	1203.19
540.455	1186.19
540.908	1195.19
541.362	1212.19
541.815	1240.19
542.269	1259.19
542.722	1275.19
543.175	1264.19
543.629	1243.19
544.082	1250.19
544.536	1281.19
544.989	1294.19
545.442	1296.19
545.895	1267.19
546.349	1289.19
546.802	1307.19
547.255	1281.19
547.708	1320.19
548.161	1294.19
548.614	1312.19
549.067	1362.19
549.52	1319.19
549.973	1290.19
550.426	1317.19
550.879	1324.19
551.332	1290.19
551.785	1300.19
552.238	1284.19
552.691	1341.19
553.144	1364.19
553.596	1337.19
554.049	1372.19
554.502	1386.19
554.955	1452.19
555.407	1432.19
555.86	1425.19
556.313	1431.19
556.765	1402.19
557.218	1396.19
557.67	1355.19
558.123	1357.19
558.576	1351.19
559.028	1365.19
559.48	1406.19
559.933	1362.19
560.385	1331.19
560.838	1264.19
561.29	1258.19
561.742	1259.19
562.195	1220.19
562.647	1236.19
563.099	1195.19
563.551	1187.19
564.004	1209.19
564.456	1206.19
564.908	1192.19
565.36	1183.19
565.812	1124.19
566.264	1119.19
566.716	1153.19
567.168	1116.19
567.62	1104.19
568.072	1093.19
568.524	1086.19
568.976	1092.19
569.428	1078.19
569.88	1089.19
570.332	1088.19
570.784	1065.19
571.235	1116.19
571.687	1069.19
572.139	1109.19
572.59	1102.19
573.042	1088.19
573.494	1118.19
573.945	1065.19
574.397	1068.19
574.849	1081.19
575.3	1048.19
575.752	1060.19
576.203	1060.19
576.655	1051.19
577.106	1026.19
577.557	1016.19
578.009	1037.19
578.46	1046.19
578.912	1064.19
579.363	1032.19
579.814	1009.19
580.265	1004.19
580.717	1029.19
581.168	1018.19
581.619	1011.19
582.07	1032.19
582.521	1044.19
582.972	1030.19
583.423	1050.19
583.875	1053.19
584.326	1038.19
584.777	1060.19
585.227	1080.19
585.678	1093.19
586.129	1088.19
586.58	1121.19
587.031	1112.19
587.482	1136.19
587.933	1174.19
588.384	1166.19
588.834	1180.19
589.285	1139.19
589.736	1142.19
590.186	1148.19
590.637	1148.19
591.088	1162.19
591.538	1086.19
591.989	1089.19
592.439	1088.19
592.89	1055.19
593.34	1048.19
593.791	1073.19
594.241	1049.19
594.692	1020.19
595.142	1018.19
595.593	1051.19
596.043	1044.19
596.493	1080.19
596.943	1032.19
597.394	1069.19
597.844	1120.19
598.294	1099.19
598.744	1142.19
599.195	1228.19
599.645	1242.19
600.095	1318.19
600.545	1353.19
600.995	1414.19
601.445	1446.19
601.895	1517.19
602.345	1588.19
602.795	1578.19
603.245	1543.19
603.695	1462.19
604.145	1369.19
604.594	1322.19
605.044	1245.19
605.494	1171.19
605.944	1089.19
606.393	1082.19
606.843	1089.19
607.293	1060.19
607.743	1065.19
608.192	1046.19
608.642	1077.19
609.091	1026.19
609.541	1060.19
609.99	1103.19
610.44	1040.19
610.889	1083.19
611.339	1032.19
611.788	1006.19
612.238	1008.19
612.687	1019.19
613.136	1025.19
613.586	1038.19
614.035	1037.19
614.484	1054.19
614.933	1058.19
615.383	1040.19
615.832	1014.19
616.281	978.19
616.73	982.19
617.179	965.19
617.628	922.19
618.077	905.19
618.526	925.19
618.975	922.19
619.424	904.19
619.873	902.19
620.322	885.19
620.771	868.19
621.22	892.19
621.669	842.19
622.118	868.19
622.567	832.19
623.015	827.19
623.464	852.19
623.913	814.19
624.361	800.19
624.81	825.19
625.259	802.19
625.707	816.19
626.156	800.19
626.604	815.19
627.053	820.19
627.501	838.19
627.95	815.19
628.398	846.19
628.847	887.19
629.295	829.19
629.744	821.19
630.192	815.19
630.64	809.19
631.089	790.19
631.537	788.19
631.985	766.19
632.433	763.19
632.881	761.19
633.33	787.19
633.778	744.19
634.226	768.19
634.674	739.19
635.122	737.19
635.57	796.19
636.018	794.19
636.466	808.19
636.914	802.19
637.362	801.19
637.81	832.19
638.258	833.19
638.705	832.19
639.153	896.19
639.601	944.19
640.049	885.19
640.497	898.19
640.944	931.19
641.392	973.19
641.84	894.19
642.287	864.19
642.735	833.19
643.182	790.19
643.63	814.19
644.078	830.19
644.525	832.19
644.973	839.19
645.42	808.19
645.867	874.19
646.315	906.19
646.762	907.19
647.21	933.19
647.657	985.19
648.104	1020.19
648.551	1035.19
648.999	1101.19
649.446	1167.19
649.893	1325.19
650.34	1474.19
650.787	1727.19
651.234	2130.19
651.682	2906.19
652.129	3958.19
652.576	5650.19
653.023	7846.19
653.47	9645.19
653.917	10642.19
654.363	11340.19
654.81	11988.19
655.257	12482.19
655.704	9622.19
656.151	5808.19
656.598	3688.19
657.044	2685.19
657.491	2067.19
657.938	1677.19
658.385	1406.19
658.831	1273.19
659.278	1138.19
659.724	1072.19
660.171	963.19
660.618	897.19
661.064	866.19
661.511	854.19
661.957	837.19
662.404	817.19
662.85	802.19
663.296	801.19
663.743	753.19
664.189	713.19
664.635	745.19
665.082	730.19
665.528	764.19
665.974	693.19
666.42	703.19
666.867	711.19
667.313	662.19
667.759	642.19
668.205	657.19
668.651	638.19
669.097	674.19
669.543	666.19
669.989	673.19
670.435	639.19
670.881	665.19
671.327	684.19
671.773	725.19
672.219	780.19
672.665	818.19
673.11	840.19
673.556	857.19
674.002	859.19
674.448	909.19
674.893	809.19
675.339	701.19
675.785	641.19
676.23	613.19
676.676	591.19
677.122	580.19
677.567	539.19
678.013	557.19
678.458	542.19
678.904	529.19
679.349	555.19
679.794	534.19
680.24	512.19
680.685	534.19
681.131	506.19
681.576	545.19
682.021	526.19
682.466	542.19
682.912	519.19
683.357	589.19
683.802	585.19
684.247	644.19
684.692	680.19
685.137	700.19
685.583	704.19
686.028	752.19
686.473	746.19
686.918	676.19
687.363	602.19
687.807	572.19
688.252	528.19
688.697	531.19
689.142	534.19
689.587	510.19
690.032	513.19
690.477	522.19
690.921	534.19
691.366	594.19
691.811	616.19
692.255	628.19
692.7	728.19
693.145	907.19
693.589	1316.19
694.034	1750.19
694.478	1974.19
694.923	1822.19
695.367	2227.19
695.812	2092.19
696.256	860.19
696.701	574.19
697.145	528.19
697.59	505.19
698.034	492.19
698.478	504.19
698.922	494.19
699.367	494.19
699.811	535.19
700.255	565.19
700.699	596.19
701.143	648.19
701.588	673.19
702.032	715.19
702.476	745.19
702.92	750.19
703.364	869.19
703.808	1214.19
704.252	1642.19
704.696	1852.19
705.14	1776.19
705.584	2171.19
706.027	1828.19
706.471	889.19
706.915	628.19
707.359	537.19
707.803	502.19
708.246	476.19
708.69	475.19
709.134	503.19
709.577	458.19
710.021	464.19
710.465	475.19
710.908	454.19
711.352	467.19
711.795	502.19
712.239	553.19
712.682	610.19
713.126	583.19
713.569	601.19
714.012	561.19
714.456	500.19
714.899	464.19
715.342	447.19
715.786	403.19
716.229	408.19
716.672	373.19
717.115	384.19
717.558	410.19
718.002	398.19
718.445	400.19
718.888	424.19
719.331	455.19
719.774	466.19
720.217	442.19
720.66	449.19
721.103	425.19
721.546	395.19
721.989	399.19
722.432	371.19
722.874	395.19
723.317	398.19
723.76	410.19
724.203	452.19
724.645	565.19
725.088	717.19
725.531	722.19
725.974	699.19
726.416	772.19
726.859	506.19
727.301	428.19
727.744	390.19
728.187	362.19
728.629	377.19
729.071	396.19
729.514	416.19
729.956	427.19
730.399	448.19
730.841	435.19
731.283	446.19
731.726	426.19
732.168	413.19
732.61	423.19
733.053	434.19
733.495	486.19
733.937	536.19
734.379	615.19
734.821	724.19
735.263	973.19
735.705	1644.19
736.148	2592.19
736.59	3065.19
737.032	2902.19
737.474	3154.19
737.916	1564.19
738.357	768.19
738.799	526.19
739.241	473.19
739.683	450.19
740.125	476.19
740.567	502.19
741.008	510.19
741.45	545.19
741.892	560.19
742.334	574.19
742.775	551.19
743.217	552.19
743.658	465.19
744.1	451.19
744.542	514.19
744.983	547.19
745.425	569.19
745.866	598.19
746.307	510.19
746.749	474.19
