Data from 20170802-ORNL-NYSim-Air_HRD10391_10-37-43-644.txt Node
Date: Wed Aug 02 10:37:43 EDT 2017
User: Ender
Spectrometer: HR+D1039
Trigger mode: 0
Integration Time (sec): 1.510000E-3
Scans to average: 1
Electric dark correction enabled: true
Nonlinearity correction enabled: false
Boxcar width: 0
XAxis mode: Wavelengths
Number of Pixels in Spectrum: 2048
>>>>>Begin Spectral Data<<<<<
187.836	8.81
188.309	8.81
188.782	8.81
189.255	4.81
189.728	3.81
190.201	-12.19
190.674	-15.19
191.147	-16.19
191.619	-7.19
192.092	5.81
192.565	-2.19
193.038	-11.19
193.511	-9.19
193.984	2.81
194.456	4.81
194.929	1.81
195.402	18.81
195.874	21.81
196.347	22.81
196.82	21.81
197.292	33.81
197.765	35.81
198.237	29.81
198.71	39.81
199.182	46.81
199.655	30.81
200.127	50.81
200.6	69.81
201.072	52.81
201.544	48.81
202.017	59.81
202.489	71.81
202.961	71.81
203.433	71.81
203.906	84.81
204.378	73.81
204.85	56.81
205.322	86.81
205.794	84.81
206.266	90.81
206.739	78.81
207.211	88.81
207.683	84.81
208.155	82.81
208.627	83.81
209.099	80.81
209.57	73.81
210.042	86.81
210.514	79.81
210.986	87.81
211.458	94.81
211.93	91.81
212.402	93.81
212.873	74.81
213.345	76.81
213.817	71.81
214.288	74.81
214.76	89.81
215.232	93.81
215.703	73.81
216.175	69.81
216.646	83.81
217.118	94.81
217.589	79.81
218.061	78.81
218.532	82.81
219.004	79.81
219.475	81.81
219.946	75.81
220.418	71.81
220.889	81.81
221.36	89.81
221.832	89.81
222.303	72.81
222.774	76.81
223.245	79.81
223.717	78.81
224.188	70.81
224.659	79.81
225.13	72.81
225.601	67.81
226.072	78.81
226.543	73.81
227.014	65.81
227.485	72.81
227.956	82.81
228.427	98.81
228.898	78.81
229.369	78.81
229.839	83.81
230.31	83.81
230.781	70.81
231.252	71.81
231.722	83.81
232.193	85.81
232.664	81.81
233.135	90.81
233.605	66.81
234.076	76.81
234.546	86.81
235.017	70.81
235.487	91.81
235.958	97.81
236.428	78.81
236.899	84.81
237.369	90.81
237.84	79.81
238.31	80.81
238.78	78.81
239.251	82.81
239.721	79.81
240.191	96.81
240.662	76.81
241.132	80.81
241.602	92.81
242.072	95.81
242.542	76.81
243.013	87.81
243.483	91.81
243.953	92.81
244.423	89.81
244.893	95.81
245.363	82.81
245.833	96.81
246.303	90.81
246.773	106.81
247.243	82.81
247.712	94.81
248.182	87.81
248.652	89.81
249.122	77.81
249.592	103.81
250.061	91.81
250.531	87.81
251.001	101.81
251.471	82.81
251.94	99.81
252.41	79.81
252.879	103.81
253.349	94.81
253.818	98.81
254.288	87.81
254.757	85.81
255.227	101.81
255.696	94.81
256.166	93.81
256.635	82.81
257.105	106.81
257.574	87.81
258.043	89.81
258.513	77.81
258.982	99.81
259.451	88.81
259.92	92.81
260.389	91.81
260.859	84.81
261.328	98.81
261.797	107.81
262.266	81.81
262.735	96.81
263.204	92.81
263.673	102.81
264.142	97.81
264.611	91.81
265.08	86.81
265.549	85.81
266.018	101.81
266.487	92.81
266.955	105.81
267.424	91.81
267.893	107.81
268.362	106.81
268.83	106.81
269.299	95.81
269.768	97.81
270.236	100.81
270.705	100.81
271.174	101.81
271.642	94.81
272.111	101.81
272.579	90.81
273.048	95.81
273.516	91.81
273.985	105.81
274.453	104.81
274.922	113.81
275.39	115.81
275.858	97.81
276.327	109.81
276.795	97.81
277.263	95.81
277.731	108.81
278.2	101.81
278.668	108.81
279.136	119.81
279.604	102.81
280.072	95.81
280.54	111.81
281.008	110.81
281.477	102.81
281.945	96.81
282.413	112.81
282.881	111.81
283.348	114.81
283.816	101.81
284.284	117.81
284.752	104.81
285.22	111.81
285.688	111.81
286.156	101.81
286.623	114.81
287.091	107.81
287.559	113.81
288.026	117.81
288.494	135.81
288.962	118.81
289.429	126.81
289.897	117.81
290.364	125.81
290.832	110.81
291.3	114.81
291.767	131.81
292.234	108.81
292.702	125.81
293.169	120.81
293.637	122.81
294.104	112.81
294.571	112.81
295.039	127.81
295.506	97.81
295.973	127.81
296.44	105.81
296.908	127.81
297.375	119.81
297.842	101.81
298.309	108.81
298.776	121.81
299.243	110.81
299.71	118.81
300.177	113.81
300.644	132.81
301.111	119.81
301.578	137.81
302.045	118.81
302.512	119.81
302.979	124.81
303.446	135.81
303.913	131.81
304.379	135.81
304.846	114.81
305.313	128.81
305.78	121.81
306.246	124.81
306.713	129.81
307.18	136.81
307.646	139.81
308.113	133.81
308.579	137.81
309.046	135.81
309.512	122.81
309.979	132.81
310.445	143.81
310.912	156.81
311.378	136.81
311.845	162.81
312.311	109.81
312.777	125.81
313.244	138.81
313.71	125.81
314.176	162.81
314.642	142.81
315.109	145.81
315.575	137.81
316.041	149.81
316.507	161.81
316.973	140.81
317.439	147.81
317.905	140.81
318.371	141.81
318.837	141.81
319.303	144.81
319.769	155.81
320.235	147.81
320.701	150.81
321.167	157.81
321.633	159.81
322.099	154.81
322.564	153.81
323.03	139.81
323.496	143.81
323.962	156.81
324.427	152.81
324.893	157.81
325.359	155.81
325.824	163.81
326.29	159.81
326.755	155.81
327.221	157.81
327.686	156.81
328.152	154.81
328.617	156.81
329.083	154.81
329.548	163.81
330.014	159.81
330.479	163.81
330.944	165.81
331.41	153.81
331.875	165.81
332.34	154.81
332.805	170.81
333.271	172.81
333.736	137.81
334.201	157.81
334.666	163.81
335.131	167.81
335.596	176.81
336.061	198.81
336.526	181.81
336.991	186.81
337.456	164.81
337.921	162.81
338.386	195.81
338.851	185.81
339.316	173.81
339.781	177.81
340.246	193.81
340.711	191.81
341.175	163.81
341.64	175.81
342.105	188.81
342.569	187.81
343.034	170.81
343.499	166.81
343.963	187.81
344.428	186.81
344.893	184.81
345.357	174.81
345.822	191.81
346.286	202.81
346.751	182.81
347.215	197.81
347.679	221.81
348.144	206.81
348.608	207.81
349.073	215.81
349.537	220.81
350.001	195.81
350.465	220.81
350.93	213.81
351.394	208.81
351.858	214.81
352.322	219.81
352.786	225.81
353.25	212.81
353.715	232.81
354.179	223.81
354.643	240.81
355.107	252.81
355.571	238.81
356.035	232.81
356.498	218.81
356.962	234.81
357.426	236.81
357.89	217.81
358.354	226.81
358.818	239.81
359.281	234.81
359.745	233.81
360.209	224.81
360.673	213.81
361.136	236.81
361.6	222.81
362.064	241.81
362.527	231.81
362.991	227.81
363.454	234.81
363.918	221.81
364.381	235.81
364.845	235.81
365.308	237.81
365.772	215.81
366.235	232.81
366.698	235.81
367.162	247.81
367.625	233.81
368.088	223.81
368.552	265.81
369.015	246.81
369.478	245.81
369.941	241.81
370.404	229.81
370.867	253.81
371.331	239.81
371.794	256.81
372.257	243.81
372.72	275.81
373.183	247.81
373.646	246.81
374.109	257.81
374.572	274.81
375.035	263.81
375.497	263.81
375.96	267.81
376.423	282.81
376.886	267.81
377.349	276.81
377.811	289.81
378.274	287.81
378.737	272.81
379.199	303.81
379.662	270.81
380.125	284.81
380.587	270.81
381.05	311.81
381.512	294.81
381.975	301.81
382.437	291.81
382.9	295.81
383.362	304.81
383.825	292.81
384.287	308.81
384.75	309.81
385.212	303.81
385.674	303.81
386.136	295.81
386.599	300.81
387.061	303.81
387.523	289.81
387.985	317.81
388.447	313.81
388.91	302.81
389.372	324.81
389.834	295.81
390.296	304.81
390.758	330.81
391.22	332.81
391.682	327.81
392.144	315.81
392.606	322.81
393.068	317.81
393.529	343.81
393.991	327.81
394.453	323.81
394.915	329.81
395.377	336.81
395.838	317.81
396.3	346.81
396.762	313.81
397.224	309.81
397.685	314.81
398.147	320.81
398.608	315.81
399.07	300.81
399.531	311.81
399.993	308.81
400.454	340.81
400.916	370.81
401.377	342.81
401.839	335.81
402.3	338.81
402.762	368.81
403.223	370.81
403.684	384.81
404.145	353.81
404.607	359.81
405.068	358.81
405.529	356.81
405.99	374.81
406.451	367.81
406.913	382.81
407.374	383.81
407.835	368.81
408.296	389.81
408.757	392.81
409.218	381.81
409.679	396.81
410.14	375.81
410.601	389.81
411.062	405.81
411.522	395.81
411.983	419.81
412.444	375.81
412.905	402.81
413.366	431.81
413.826	438.81
414.287	473.81
414.748	557.81
415.208	580.81
415.669	494.81
416.13	477.81
416.59	486.81
417.051	453.81
417.511	492.81
417.972	512.81
418.432	536.81
418.893	613.81
419.353	583.81
419.814	456.81
420.274	414.81
420.734	411.81
421.195	423.81
421.655	412.81
422.115	399.81
422.576	422.81
423.036	435.81
423.496	448.81
423.956	476.81
424.416	477.81
424.876	545.81
425.336	538.81
425.797	537.81
426.257	511.81
426.717	507.81
427.177	454.81
427.637	491.81
428.097	479.81
428.556	495.81
429.016	538.81
429.476	537.81
429.936	522.81
430.396	528.81
430.856	515.81
431.315	553.81
431.775	552.81
432.235	619.81
432.694	616.81
433.154	611.81
433.614	575.81
434.073	562.81
434.533	510.81
434.993	514.81
435.452	485.81
435.912	499.81
436.371	495.81
436.83	504.81
437.29	515.81
437.749	479.81
438.209	459.81
438.668	483.81
439.127	498.81
439.587	458.81
440.046	477.81
440.505	473.81
440.964	463.81
441.424	508.81
441.883	525.81
442.342	469.81
442.801	450.81
443.26	471.81
443.719	459.81
444.178	463.81
444.637	489.81
445.096	507.81
445.555	499.81
446.014	466.81
446.473	470.81
446.932	492.81
447.391	469.81
447.849	481.81
448.308	447.81
448.767	485.81
449.226	482.81
449.685	481.81
450.143	515.81
450.602	501.81
451.061	462.81
451.519	490.81
451.978	492.81
452.436	495.81
452.895	449.81
453.353	467.81
453.812	468.81
454.27	470.81
454.729	494.81
455.187	487.81
455.646	491.81
456.104	498.81
456.562	503.81
457.021	472.81
457.479	479.81
457.937	489.81
458.395	499.81
458.854	502.81
459.312	475.81
459.77	507.81
460.228	500.81
460.686	493.81
461.144	535.81
461.602	520.81
462.06	519.81
462.518	543.81
462.976	537.81
463.434	533.81
463.892	533.81
464.35	529.81
464.808	555.81
465.266	545.81
465.724	569.81
466.181	557.81
466.639	547.81
467.097	555.81
467.555	619.81
468.012	583.81
468.47	624.81
468.928	623.81
469.385	652.81
469.843	633.81
470.3	646.81
470.758	637.81
471.215	652.81
471.673	661.81
472.13	670.81
472.588	703.81
473.045	687.81
473.503	742.81
473.96	727.81
474.417	708.81
474.875	781.81
475.332	805.81
475.789	781.81
476.246	826.81
476.704	864.81
477.161	874.81
477.618	890.81
478.075	908.81
478.532	993.81
478.989	1044.81
479.446	1165.81
479.903	1173.81
480.36	1261.81
480.817	1323.81
481.274	1399.81
481.731	1512.81
482.188	1621.81
482.645	1730.81
483.102	1825.81
483.558	1932.81
484.015	2029.81
484.472	2009.81
484.929	1971.81
485.385	1872.81
485.842	1857.81
486.299	1781.81
486.755	1687.81
487.212	1550.81
487.668	1417.81
488.125	1337.81
488.582	1257.81
489.038	1201.81
489.494	1169.81
489.951	1125.81
490.407	1122.81
490.864	1094.81
491.32	1064.81
491.776	1080.81
492.233	1067.81
492.689	1074.81
493.145	1023.81
493.602	1015.81
494.058	1036.81
494.514	1062.81
494.97	1034.81
495.426	1058.81
495.882	1069.81
496.338	1036.81
496.794	1036.81
497.251	1069.81
497.707	1080.81
498.163	1111.81
498.618	1089.81
499.074	1087.81
499.53	1069.81
499.986	1068.81
500.442	1068.81
500.898	1087.81
501.354	1083.81
501.809	1095.81
502.265	1068.81
502.721	1106.81
503.177	1081.81
503.632	1134.81
504.088	1073.81
504.543	1133.81
504.999	1115.81
505.455	1147.81
505.91	1084.81
506.366	1126.81
506.821	1117.81
507.277	1104.81
507.732	1093.81
508.187	1113.81
508.643	1110.81
509.098	1129.81
509.553	1135.81
510.009	1165.81
510.464	1146.81
510.919	1160.81
511.375	1184.81
511.83	1188.81
512.285	1201.81
512.74	1235.81
513.195	1271.81
513.65	1291.81
514.105	1296.81
514.56	1315.81
515.015	1339.81
515.47	1320.81
515.925	1312.81
516.38	1312.81
516.835	1314.81
517.29	1303.81
517.745	1341.81
518.2	1260.81
518.655	1261.81
519.109	1283.81
519.564	1257.81
520.019	1228.81
520.474	1213.81
520.928	1228.81
521.383	1219.81
521.838	1208.81
522.292	1179.81
522.747	1175.81
523.201	1191.81
523.656	1187.81
524.11	1176.81
524.565	1158.81
525.019	1156.81
525.474	1150.81
525.928	1140.81
526.382	1154.81
526.837	1184.81
527.291	1171.81
527.745	1147.81
528.2	1153.81
528.654	1158.81
529.108	1101.81
529.562	1157.81
530.016	1150.81
530.47	1145.81
530.925	1175.81
531.379	1168.81
531.833	1161.81
532.287	1154.81
532.741	1141.81
533.195	1123.81
533.649	1166.81
534.103	1165.81
534.556	1179.81
535.01	1150.81
535.464	1175.81
535.918	1176.81
536.372	1136.81
536.826	1183.81
537.279	1121.81
537.733	1155.81
538.187	1185.81
538.64	1173.81
539.094	1153.81
539.548	1177.81
540.001	1181.81
540.455	1197.81
540.908	1161.81
541.362	1185.81
541.815	1213.81
542.269	1237.81
542.722	1219.81
543.175	1261.81
543.629	1200.81
544.082	1280.81
544.536	1295.81
544.989	1231.81
545.442	1277.81
545.895	1279.81
546.349	1273.81
546.802	1308.81
547.255	1320.81
547.708	1291.81
548.161	1315.81
548.614	1312.81
549.067	1315.81
549.52	1317.81
549.973	1287.81
550.426	1303.81
550.879	1306.81
551.332	1281.81
551.785	1285.81
552.238	1323.81
552.691	1315.81
553.144	1302.81
553.596	1305.81
554.049	1333.81
554.502	1371.81
554.955	1422.81
555.407	1447.81
555.86	1415.81
556.313	1412.81
556.765	1375.81
557.218	1379.81
557.67	1384.81
558.123	1322.81
558.576	1351.81
559.028	1331.81
559.48	1365.81
559.933	1356.81
560.385	1329.81
560.838	1292.81
561.29	1256.81
561.742	1254.81
562.195	1199.81
562.647	1203.81
563.099	1194.81
563.551	1162.81
564.004	1222.81
564.456	1198.81
564.908	1162.81
565.36	1155.81
565.812	1151.81
566.264	1094.81
566.716	1107.81
567.168	1088.81
567.62	1067.81
568.072	1130.81
568.524	1083.81
568.976	1061.81
569.428	1052.81
569.88	1037.81
570.332	1055.81
570.784	1043.81
571.235	1068.81
571.687	1101.81
572.139	1082.81
572.59	1077.81
573.042	1095.81
573.494	1097.81
573.945	1052.81
574.397	1055.81
574.849	1064.81
575.3	1067.81
575.752	1042.81
576.203	1047.81
576.655	1059.81
577.106	1031.81
577.557	963.81
578.009	1013.81
578.46	1005.81
578.912	1000.81
579.363	1018.81
579.814	1011.81
580.265	1000.81
580.717	1029.81
581.168	1033.81
581.619	1030.81
582.07	1038.81
582.521	1028.81
582.972	1015.81
583.423	1045.81
583.875	1051.81
584.326	992.81
584.777	1031.81
585.227	1063.81
585.678	1100.81
586.129	1099.81
586.58	1113.81
587.031	1105.81
587.482	1119.81
587.933	1130.81
588.384	1165.81
588.834	1175.81
589.285	1149.81
589.736	1171.81
590.186	1135.81
590.637	1149.81
591.088	1143.81
591.538	1123.81
591.989	1079.81
592.439	1047.81
592.89	1088.81
593.34	1031.81
593.791	1025.81
594.241	1056.81
594.692	1041.81
595.142	1035.81
595.593	1066.81
596.043	1073.81
596.493	1056.81
596.943	1057.81
597.394	1082.81
597.844	1074.81
598.294	1091.81
598.744	1129.81
599.195	1180.81
599.645	1228.81
600.095	1273.81
600.545	1363.81
600.995	1395.81
601.445	1417.81
601.895	1520.81
602.345	1609.81
602.795	1622.81
603.245	1493.81
603.695	1435.81
604.145	1385.81
604.594	1324.81
605.044	1230.81
605.494	1168.81
605.944	1112.81
606.393	1073.81
606.843	1070.81
607.293	1080.81
607.743	1070.81
608.192	1015.81
608.642	1054.81
609.091	1065.81
609.541	1031.81
609.99	1074.81
610.44	1017.81
610.889	1001.81
611.339	1044.81
611.788	1012.81
612.238	1006.81
612.687	990.81
613.136	1013.81
613.586	1024.81
614.035	1035.81
614.484	1032.81
614.933	1013.81
615.383	1030.81
615.832	997.81
616.281	971.81
616.73	978.81
617.179	934.81
617.628	927.81
618.077	915.81
618.526	915.81
618.975	891.81
619.424	874.81
619.873	861.81
620.322	910.81
620.771	895.81
621.22	875.81
621.669	853.81
622.118	860.81
622.567	825.81
623.015	831.81
623.464	827.81
623.913	812.81
624.361	794.81
624.81	824.81
625.259	816.81
625.707	782.81
626.156	793.81
626.604	789.81
627.053	811.81
627.501	817.81
627.95	811.81
628.398	834.81
628.847	845.81
629.295	815.81
629.744	799.81
630.192	805.81
630.64	813.81
631.089	789.81
631.537	764.81
631.985	763.81
632.433	767.81
632.881	749.81
633.33	750.81
633.778	766.81
634.226	783.81
634.674	775.81
635.122	760.81
635.57	796.81
636.018	757.81
636.466	809.81
636.914	778.81
637.362	793.81
637.81	793.81
638.258	813.81
638.705	831.81
639.153	858.81
639.601	875.81
640.049	885.81
640.497	925.81
640.944	935.81
641.392	903.81
641.84	868.81
642.287	802.81
642.735	808.81
643.182	798.81
643.63	752.81
644.078	783.81
644.525	808.81
644.973	799.81
645.42	842.81
645.867	827.81
646.315	838.81
646.762	936.81
647.21	905.81
647.657	938.81
648.104	959.81
648.551	998.81
648.999	1061.81
649.446	1134.81
649.893	1205.81
650.34	1383.81
650.787	1584.81
651.234	1976.81
651.682	2573.81
652.129	3590.81
652.576	5055.81
653.023	6982.81
653.47	8555.81
653.917	9447.81
654.363	10131.81
654.81	10727.81
655.257	11216.81
655.704	8478.81
656.151	5095.81
656.598	3301.81
657.044	2380.81
657.491	1886.81
657.938	1559.81
658.385	1329.81
658.831	1169.81
659.278	1095.81
659.724	1017.81
660.171	960.81
660.618	889.81
661.064	816.81
661.511	803.81
661.957	756.81
662.404	751.81
662.85	733.81
663.296	723.81
663.743	736.81
664.189	722.81
664.635	724.81
665.082	721.81
665.528	693.81
665.974	688.81
666.42	679.81
666.867	665.81
667.313	680.81
667.759	654.81
668.205	637.81
668.651	635.81
669.097	644.81
669.543	668.81
669.989	615.81
670.435	639.81
670.881	649.81
671.327	668.81
671.773	695.81
672.219	765.81
672.665	802.81
673.11	859.81
673.556	829.81
674.002	851.81
674.448	885.81
674.893	794.81
675.339	698.81
675.785	634.81
676.23	606.81
676.676	561.81
677.122	558.81
677.567	546.81
678.013	548.81
678.458	528.81
678.904	535.81
679.349	541.81
679.794	519.81
680.24	531.81
680.685	512.81
681.131	517.81
681.576	534.81
682.021	539.81
682.466	545.81
682.912	523.81
683.357	565.81
683.802	585.81
684.247	622.81
684.692	665.81
685.137	699.81
685.583	682.81
686.028	741.81
686.473	741.81
686.918	618.81
687.363	603.81
687.807	562.81
688.252	544.81
688.697	513.81
689.142	531.81
689.587	529.81
690.032	511.81
690.477	520.81
690.921	517.81
691.366	585.81
691.811	571.81
692.255	639.81
692.7	711.81
693.145	904.81
693.589	1329.81
694.034	1755.81
694.478	1943.81
694.923	1799.81
695.367	2224.81
695.812	2038.81
696.256	875.81
696.701	591.81
697.145	517.81
697.59	494.81
698.034	495.81
698.478	497.81
698.922	457.81
699.367	473.81
699.811	507.81
700.255	545.81
700.699	587.81
701.143	640.81
701.588	681.81
702.032	729.81
702.476	713.81
702.92	716.81
703.364	846.81
703.808	1209.81
704.252	1666.81
704.696	1875.81
705.14	1720.81
705.584	2200.81
706.027	1793.81
706.471	900.81
706.915	625.81
707.359	529.81
707.803	520.81
708.246	469.81
708.69	459.81
709.134	431.81
709.577	444.81
710.021	484.81
710.465	481.81
710.908	465.81
711.352	471.81
711.795	494.81
712.239	547.81
712.682	592.81
713.126	577.81
713.569	613.81
714.012	560.81
714.456	468.81
714.899	471.81
715.342	414.81
715.786	424.81
716.229	398.81
716.672	394.81
717.115	393.81
717.558	409.81
718.002	404.81
718.445	414.81
718.888	446.81
719.331	444.81
719.774	458.81
720.217	418.81
720.66	406.81
721.103	421.81
721.546	391.81
721.989	382.81
722.432	379.81
722.874	376.81
723.317	377.81
723.76	405.81
724.203	433.81
724.645	584.81
725.088	707.81
725.531	720.81
725.974	704.81
726.416	749.81
726.859	523.81
727.301	403.81
727.744	383.81
728.187	385.81
728.629	369.81
729.071	402.81
729.514	414.81
729.956	477.81
730.399	421.81
730.841	438.81
731.283	459.81
731.726	411.81
732.168	395.81
732.61	445.81
733.053	441.81
733.495	495.81
733.937	527.81
734.379	586.81
734.821	690.81
735.263	950.81
735.705	1619.81
736.148	2666.81
736.59	3071.81
737.032	2896.81
737.474	3106.81
737.916	1569.81
738.357	750.81
738.799	548.81
739.241	451.81
739.683	463.81
740.125	489.81
740.567	471.81
741.008	485.81
741.45	527.81
741.892	552.81
742.334	560.81
742.775	538.81
743.217	539.81
743.658	458.81
744.1	439.81
744.542	475.81
744.983	557.81
745.425	537.81
745.866	566.81
746.307	517.81
746.749	521.81
