Data from 20170802-ORNL-NYSim-Air_HRD10391_10-37-26-638.txt Node
Date: Wed Aug 02 10:37:26 EDT 2017
User: Ender
Spectrometer: HR+D1039
Trigger mode: 0
Integration Time (sec): 1.510000E-3
Scans to average: 1
Electric dark correction enabled: true
Nonlinearity correction enabled: false
Boxcar width: 0
XAxis mode: Wavelengths
Number of Pixels in Spectrum: 2048
>>>>>Begin Spectral Data<<<<<
187.836	3.25
188.309	3.25
188.782	3.25
189.255	-0.75
189.728	-10.75
190.201	-20.75
190.674	-20.75
191.147	-10.75
191.619	-4.75
192.092	1.25
192.565	-7.75
193.038	14.25
193.511	-4.75
193.984	14.25
194.456	13.25
194.929	19.25
195.402	11.25
195.874	4.25
196.347	31.25
196.82	19.25
197.292	33.25
197.765	12.25
198.237	35.25
198.71	37.25
199.182	49.25
199.655	52.25
200.127	42.25
200.6	45.25
201.072	54.25
201.544	51.25
202.017	53.25
202.489	57.25
202.961	62.25
203.433	72.25
203.906	62.25
204.378	67.25
204.85	78.25
205.322	85.25
205.794	74.25
206.266	83.25
206.739	80.25
207.211	91.25
207.683	97.25
208.155	70.25
208.627	74.25
209.099	84.25
209.57	81.25
210.042	78.25
210.514	85.25
210.986	74.25
211.458	90.25
211.93	85.25
212.402	87.25
212.873	84.25
213.345	79.25
213.817	76.25
214.288	77.25
214.76	87.25
215.232	96.25
215.703	68.25
216.175	80.25
216.646	79.25
217.118	86.25
217.589	80.25
218.061	95.25
218.532	86.25
219.004	85.25
219.475	80.25
219.946	83.25
220.418	91.25
220.889	76.25
221.36	89.25
221.832	76.25
222.303	70.25
222.774	74.25
223.245	77.25
223.717	70.25
224.188	90.25
224.659	79.25
225.13	75.25
225.601	81.25
226.072	82.25
226.543	75.25
227.014	69.25
227.485	85.25
227.956	81.25
228.427	87.25
228.898	83.25
229.369	70.25
229.839	79.25
230.31	70.25
230.781	85.25
231.252	70.25
231.722	74.25
232.193	76.25
232.664	80.25
233.135	89.25
233.605	67.25
234.076	78.25
234.546	67.25
235.017	86.25
235.487	92.25
235.958	73.25
236.428	71.25
236.899	65.25
237.369	81.25
237.84	85.25
238.31	79.25
238.78	84.25
239.251	93.25
239.721	95.25
240.191	77.25
240.662	87.25
241.132	84.25
241.602	79.25
242.072	93.25
242.542	87.25
243.013	93.25
243.483	106.25
243.953	88.25
244.423	90.25
244.893	89.25
245.363	79.25
245.833	101.25
246.303	95.25
246.773	91.25
247.243	83.25
247.712	78.25
248.182	92.25
248.652	85.25
249.122	98.25
249.592	83.25
250.061	81.25
250.531	93.25
251.001	93.25
251.471	98.25
251.94	78.25
252.41	95.25
252.879	91.25
253.349	98.25
253.818	80.25
254.288	98.25
254.757	87.25
255.227	87.25
255.696	86.25
256.166	81.25
256.635	73.25
257.105	95.25
257.574	97.25
258.043	89.25
258.513	68.25
258.982	87.25
259.451	88.25
259.92	98.25
260.389	92.25
260.859	97.25
261.328	89.25
261.797	93.25
262.266	95.25
262.735	85.25
263.204	74.25
263.673	107.25
264.142	93.25
264.611	94.25
265.08	94.25
265.549	101.25
266.018	96.25
266.487	93.25
266.955	93.25
267.424	101.25
267.893	97.25
268.362	96.25
268.83	96.25
269.299	99.25
269.768	93.25
270.236	96.25
270.705	103.25
271.174	104.25
271.642	104.25
272.111	108.25
272.579	102.25
273.048	110.25
273.516	106.25
273.985	103.25
274.453	98.25
274.922	89.25
275.39	99.25
275.858	91.25
276.327	112.25
276.795	85.25
277.263	103.25
277.731	99.25
278.2	95.25
278.668	88.25
279.136	99.25
279.604	116.25
280.072	99.25
280.54	116.25
281.008	102.25
281.477	110.25
281.945	113.25
282.413	119.25
282.881	103.25
283.348	114.25
283.816	107.25
284.284	112.25
284.752	104.25
285.22	107.25
285.688	96.25
286.156	96.25
286.623	111.25
287.091	106.25
287.559	116.25
288.026	121.25
288.494	103.25
288.962	126.25
289.429	96.25
289.897	124.25
290.364	124.25
290.832	124.25
291.3	118.25
291.767	121.25
292.234	106.25
292.702	127.25
293.169	111.25
293.637	114.25
294.104	120.25
294.571	126.25
295.039	120.25
295.506	127.25
295.973	102.25
296.44	108.25
296.908	101.25
297.375	120.25
297.842	111.25
298.309	129.25
298.776	130.25
299.243	97.25
299.71	121.25
300.177	128.25
300.644	113.25
301.111	120.25
301.578	139.25
302.045	115.25
302.512	117.25
302.979	119.25
303.446	117.25
303.913	130.25
304.379	123.25
304.846	123.25
305.313	133.25
305.78	130.25
306.246	128.25
306.713	125.25
307.18	131.25
307.646	121.25
308.113	127.25
308.579	142.25
309.046	140.25
309.512	132.25
309.979	136.25
310.445	137.25
310.912	114.25
311.378	118.25
311.845	129.25
312.311	135.25
312.777	125.25
313.244	106.25
313.71	128.25
314.176	124.25
314.642	131.25
315.109	136.25
315.575	120.25
316.041	151.25
316.507	125.25
316.973	150.25
317.439	143.25
317.905	145.25
318.371	124.25
318.837	139.25
319.303	154.25
319.769	153.25
320.235	148.25
320.701	145.25
321.167	137.25
321.633	140.25
322.099	146.25
322.564	163.25
323.03	150.25
323.496	140.25
323.962	144.25
324.427	146.25
324.893	135.25
325.359	139.25
325.824	148.25
326.29	155.25
326.755	142.25
327.221	134.25
327.686	167.25
328.152	145.25
328.617	160.25
329.083	145.25
329.548	142.25
330.014	154.25
330.479	153.25
330.944	170.25
331.41	159.25
331.875	155.25
332.34	156.25
332.805	167.25
333.271	153.25
333.736	168.25
334.201	160.25
334.666	183.25
335.131	176.25
335.596	151.25
336.061	201.25
336.526	144.25
336.991	146.25
337.456	151.25
337.921	149.25
338.386	161.25
338.851	164.25
339.316	159.25
339.781	154.25
340.246	165.25
340.711	177.25
341.175	171.25
341.64	174.25
342.105	158.25
342.569	170.25
343.034	173.25
343.499	178.25
343.963	185.25
344.428	179.25
344.893	162.25
345.357	178.25
345.822	183.25
346.286	183.25
346.751	181.25
347.215	171.25
347.679	188.25
348.144	195.25
348.608	201.25
349.073	170.25
349.537	198.25
350.001	191.25
350.465	175.25
350.93	209.25
351.394	213.25
351.858	219.25
352.322	199.25
352.786	216.25
353.25	221.25
353.715	192.25
354.179	221.25
354.643	203.25
355.107	221.25
355.571	205.25
356.035	201.25
356.498	199.25
356.962	202.25
357.426	223.25
357.89	219.25
358.354	217.25
358.818	236.25
359.281	205.25
359.745	245.25
360.209	220.25
360.673	214.25
361.136	182.25
361.6	217.25
362.064	228.25
362.527	215.25
362.991	231.25
363.454	223.25
363.918	215.25
364.381	229.25
364.845	230.25
365.308	212.25
365.772	231.25
366.235	216.25
366.698	221.25
367.162	242.25
367.625	224.25
368.088	233.25
368.552	242.25
369.015	239.25
369.478	241.25
369.941	240.25
370.404	239.25
370.867	239.25
371.331	251.25
371.794	236.25
372.257	253.25
372.72	234.25
373.183	221.25
373.646	252.25
374.109	265.25
374.572	253.25
375.035	246.25
375.497	250.25
375.96	262.25
376.423	277.25
376.886	242.25
377.349	253.25
377.811	278.25
378.274	256.25
378.737	265.25
379.199	242.25
379.662	257.25
380.125	265.25
380.587	276.25
381.05	266.25
381.512	271.25
381.975	262.25
382.437	277.25
382.9	295.25
383.362	272.25
383.825	269.25
384.287	297.25
384.75	279.25
385.212	288.25
385.674	282.25
386.136	289.25
386.599	263.25
387.061	293.25
387.523	304.25
387.985	299.25
388.447	291.25
388.91	280.25
389.372	301.25
389.834	287.25
390.296	285.25
390.758	271.25
391.22	289.25
391.682	279.25
392.144	303.25
392.606	288.25
393.068	311.25
393.529	313.25
393.991	333.25
394.453	306.25
394.915	283.25
395.377	310.25
395.838	303.25
396.3	299.25
396.762	310.25
397.224	306.25
397.685	291.25
398.147	304.25
398.608	323.25
399.07	316.25
399.531	332.25
399.993	313.25
400.454	333.25
400.916	322.25
401.377	313.25
401.839	326.25
402.3	330.25
402.762	333.25
403.223	353.25
403.684	345.25
404.145	369.25
404.607	349.25
405.068	331.25
405.529	333.25
405.99	348.25
406.451	370.25
406.913	363.25
407.374	369.25
407.835	340.25
408.296	338.25
408.757	348.25
409.218	375.25
409.679	370.25
410.14	394.25
410.601	371.25
411.062	381.25
411.522	367.25
411.983	385.25
412.444	392.25
412.905	397.25
413.366	393.25
413.826	408.25
414.287	447.25
414.748	520.25
415.208	518.25
415.669	467.25
416.13	414.25
416.59	410.25
417.051	411.25
417.511	457.25
417.972	495.25
418.432	493.25
418.893	561.25
419.353	539.25
419.814	411.25
420.274	375.25
420.734	361.25
421.195	405.25
421.655	400.25
422.115	420.25
422.576	394.25
423.036	399.25
423.496	422.25
423.956	432.25
424.416	450.25
424.876	491.25
425.336	508.25
425.797	467.25
426.257	484.25
426.717	471.25
427.177	433.25
427.637	449.25
428.097	464.25
428.556	486.25
429.016	505.25
429.476	488.25
429.936	512.25
430.396	495.25
430.856	507.25
431.315	504.25
431.775	539.25
432.235	574.25
432.694	587.25
433.154	547.25
433.614	575.25
434.073	538.25
434.533	505.25
434.993	495.25
435.452	460.25
435.912	453.25
436.371	495.25
436.83	432.25
437.29	463.25
437.749	440.25
438.209	428.25
438.668	462.25
439.127	457.25
439.587	449.25
440.046	457.25
440.505	418.25
440.964	455.25
441.424	452.25
441.883	444.25
442.342	437.25
442.801	448.25
443.26	442.25
443.719	436.25
444.178	422.25
444.637	448.25
445.096	440.25
445.555	432.25
446.014	439.25
446.473	421.25
446.932	446.25
447.391	443.25
447.849	428.25
448.308	447.25
448.767	452.25
449.226	441.25
449.685	433.25
450.143	451.25
450.602	469.25
451.061	448.25
451.519	467.25
451.978	444.25
452.436	433.25
452.895	434.25
453.353	439.25
453.812	446.25
454.27	444.25
454.729	457.25
455.187	434.25
455.646	453.25
456.104	451.25
456.562	451.25
457.021	480.25
457.479	457.25
457.937	453.25
458.395	475.25
458.854	466.25
459.312	453.25
459.77	478.25
460.228	455.25
460.686	469.25
461.144	481.25
461.602	488.25
462.06	463.25
462.518	441.25
462.976	498.25
463.434	486.25
463.892	479.25
464.35	503.25
464.808	510.25
465.266	508.25
465.724	503.25
466.181	534.25
466.639	525.25
467.097	527.25
467.555	538.25
468.012	535.25
468.47	541.25
468.928	565.25
469.385	572.25
469.843	582.25
470.3	586.25
470.758	612.25
471.215	600.25
471.673	610.25
472.13	633.25
472.588	650.25
473.045	638.25
473.503	667.25
473.96	701.25
474.417	669.25
474.875	706.25
475.332	705.25
475.789	729.25
476.246	730.25
476.704	794.25
477.161	802.25
477.618	823.25
478.075	838.25
478.532	914.25
478.989	999.25
479.446	1073.25
479.903	1115.25
480.36	1183.25
480.817	1225.25
481.274	1350.25
481.731	1497.25
482.188	1587.25
482.645	1687.25
483.102	1798.25
483.558	1928.25
484.015	2005.25
484.472	1958.25
484.929	1925.25
485.385	1842.25
485.842	1802.25
486.299	1754.25
486.755	1653.25
487.212	1480.25
487.668	1326.25
488.125	1270.25
488.582	1137.25
489.038	1132.25
489.494	1048.25
489.951	1057.25
490.407	999.25
490.864	1022.25
491.32	1005.25
491.776	1001.25
492.233	996.25
492.689	995.25
493.145	955.25
493.602	1000.25
494.058	954.25
494.514	935.25
494.97	970.25
495.426	997.25
495.882	969.25
496.338	938.25
496.794	987.25
497.251	985.25
497.707	1003.25
498.163	969.25
498.618	961.25
499.074	982.25
499.53	987.25
499.986	1009.25
500.442	1026.25
500.898	1008.25
501.354	977.25
501.809	1013.25
502.265	1008.25
502.721	1017.25
503.177	1005.25
503.632	993.25
504.088	992.25
504.543	981.25
504.999	1038.25
505.455	1014.25
505.91	994.25
506.366	1008.25
506.821	1016.25
507.277	1005.25
507.732	1009.25
508.187	1009.25
508.643	1021.25
509.098	1043.25
509.553	1043.25
510.009	1036.25
510.464	1059.25
510.919	1029.25
511.375	1068.25
511.83	1099.25
512.285	1084.25
512.74	1125.25
513.195	1134.25
513.65	1121.25
514.105	1170.25
514.56	1153.25
515.015	1188.25
515.47	1197.25
515.925	1198.25
516.38	1183.25
516.835	1213.25
517.29	1193.25
517.745	1189.25
518.2	1188.25
518.655	1159.25
519.109	1145.25
519.564	1127.25
520.019	1134.25
520.474	1106.25
520.928	1105.25
521.383	1094.25
521.838	1073.25
522.292	1077.25
522.747	1101.25
523.201	1023.25
523.656	1107.25
524.11	1041.25
524.565	1066.25
525.019	1071.25
525.474	1043.25
525.928	1033.25
526.382	1051.25
526.837	1057.25
527.291	1119.25
527.745	1087.25
528.2	1053.25
528.654	1005.25
529.108	1068.25
529.562	1031.25
530.016	1045.25
530.47	1072.25
530.925	1054.25
531.379	1059.25
531.833	1054.25
532.287	1079.25
532.741	1033.25
533.195	1074.25
533.649	1038.25
534.103	1074.25
534.556	1054.25
535.01	1056.25
535.464	1058.25
535.918	1033.25
536.372	1023.25
536.826	1031.25
537.279	1029.25
537.733	1028.25
538.187	1053.25
538.64	1057.25
539.094	1048.25
539.548	1109.25
540.001	1058.25
540.455	1088.25
540.908	1137.25
541.362	1097.25
541.815	1078.25
542.269	1148.25
542.722	1134.25
543.175	1129.25
543.629	1122.25
544.082	1187.25
544.536	1155.25
544.989	1161.25
545.442	1167.25
545.895	1157.25
546.349	1150.25
546.802	1170.25
547.255	1175.25
547.708	1169.25
548.161	1181.25
548.614	1184.25
549.067	1193.25
549.52	1195.25
549.973	1191.25
550.426	1129.25
550.879	1173.25
551.332	1160.25
551.785	1149.25
552.238	1173.25
552.691	1187.25
553.144	1223.25
553.596	1225.25
554.049	1251.25
554.502	1282.25
554.955	1299.25
555.407	1322.25
555.86	1273.25
556.313	1273.25
556.765	1268.25
557.218	1245.25
557.67	1213.25
558.123	1240.25
558.576	1227.25
559.028	1233.25
559.48	1228.25
559.933	1255.25
560.385	1230.25
560.838	1162.25
561.29	1132.25
561.742	1117.25
562.195	1091.25
562.647	1115.25
563.099	1095.25
563.551	1113.25
564.004	1095.25
564.456	1098.25
564.908	1079.25
565.36	1073.25
565.812	1036.25
566.264	1034.25
566.716	1037.25
567.168	991.25
567.62	1019.25
568.072	982.25
568.524	999.25
568.976	999.25
569.428	970.25
569.88	985.25
570.332	993.25
570.784	995.25
571.235	963.25
571.687	1000.25
572.139	977.25
572.59	996.25
573.042	993.25
573.494	1001.25
573.945	1030.25
574.397	946.25
574.849	967.25
575.3	944.25
575.752	977.25
576.203	921.25
576.655	965.25
577.106	943.25
577.557	937.25
578.009	961.25
578.46	986.25
578.912	935.25
579.363	929.25
579.814	915.25
580.265	914.25
580.717	933.25
581.168	914.25
581.619	920.25
582.07	925.25
582.521	933.25
582.972	934.25
583.423	937.25
583.875	931.25
584.326	940.25
584.777	960.25
585.227	952.25
585.678	983.25
586.129	979.25
586.58	1023.25
587.031	1023.25
587.482	1019.25
587.933	1067.25
588.384	1042.25
588.834	1037.25
589.285	1047.25
589.736	1033.25
590.186	1037.25
590.637	1036.25
591.088	1009.25
591.538	994.25
591.989	984.25
592.439	963.25
592.89	957.25
593.34	927.25
593.791	949.25
594.241	988.25
594.692	923.25
595.142	942.25
595.593	945.25
596.043	957.25
596.493	948.25
596.943	939.25
597.394	985.25
597.844	976.25
598.294	1013.25
598.744	1005.25
599.195	1048.25
599.645	1119.25
600.095	1174.25
600.545	1214.25
600.995	1245.25
601.445	1323.25
601.895	1365.25
602.345	1449.25
602.795	1409.25
603.245	1375.25
603.695	1311.25
604.145	1260.25
604.594	1202.25
605.044	1161.25
605.494	1074.25
605.944	1038.25
606.393	957.25
606.843	955.25
607.293	959.25
607.743	987.25
608.192	970.25
608.642	990.25
609.091	955.25
609.541	940.25
609.99	983.25
610.44	927.25
610.889	972.25
611.339	923.25
611.788	914.25
612.238	915.25
612.687	919.25
613.136	930.25
613.586	936.25
614.035	920.25
614.484	935.25
614.933	931.25
615.383	944.25
615.832	903.25
616.281	899.25
616.73	920.25
617.179	879.25
617.628	866.25
618.077	832.25
618.526	800.25
618.975	798.25
619.424	801.25
619.873	822.25
620.322	791.25
620.771	782.25
621.22	811.25
621.669	790.25
622.118	779.25
622.567	771.25
623.015	743.25
623.464	746.25
623.913	744.25
624.361	748.25
624.81	726.25
625.259	728.25
625.707	718.25
626.156	733.25
626.604	747.25
627.053	754.25
627.501	771.25
627.95	729.25
628.398	762.25
628.847	732.25
629.295	730.25
629.744	743.25
630.192	715.25
630.64	711.25
631.089	734.25
631.537	705.25
631.985	699.25
632.433	692.25
632.881	675.25
633.33	709.25
633.778	684.25
634.226	677.25
634.674	711.25
635.122	682.25
635.57	727.25
636.018	727.25
636.466	723.25
636.914	750.25
637.362	733.25
637.81	732.25
638.258	779.25
638.705	777.25
639.153	777.25
639.601	802.25
640.049	812.25
640.497	823.25
640.944	869.25
641.392	867.25
641.84	774.25
642.287	779.25
642.735	757.25
643.182	741.25
643.63	721.25
644.078	708.25
644.525	747.25
644.973	773.25
645.42	770.25
645.867	783.25
646.315	789.25
646.762	843.25
647.21	863.25
647.657	887.25
648.104	914.25
648.551	936.25
648.999	1002.25
649.446	1065.25
649.893	1161.25
650.34	1347.25
650.787	1585.25
651.234	1967.25
651.682	2599.25
652.129	3587.25
652.576	5238.25
653.023	7212.25
653.47	8741.25
653.917	9759.25
654.363	10273.25
654.81	10902.25
655.257	11519.25
655.704	8786.25
656.151	5312.25
656.598	3319.25
657.044	2413.25
657.491	1849.25
657.938	1473.25
658.385	1290.25
658.831	1137.25
659.278	1025.25
659.724	946.25
660.171	884.25
660.618	816.25
661.064	771.25
661.511	749.25
661.957	737.25
662.404	705.25
662.85	722.25
663.296	669.25
663.743	685.25
664.189	697.25
664.635	679.25
665.082	678.25
665.528	645.25
665.974	641.25
666.42	630.25
666.867	633.25
667.313	617.25
667.759	615.25
668.205	601.25
668.651	576.25
669.097	588.25
669.543	599.25
669.989	600.25
670.435	614.25
670.881	611.25
671.327	655.25
671.773	665.25
672.219	682.25
672.665	754.25
673.11	801.25
673.556	781.25
674.002	802.25
674.448	810.25
674.893	721.25
675.339	621.25
675.785	601.25
676.23	553.25
676.676	562.25
677.122	522.25
677.567	473.25
678.013	486.25
678.458	479.25
678.904	488.25
679.349	492.25
679.794	467.25
680.24	473.25
680.685	486.25
681.131	485.25
681.576	458.25
682.021	482.25
682.466	476.25
682.912	493.25
683.357	500.25
683.802	521.25
684.247	582.25
684.692	617.25
685.137	618.25
685.583	645.25
686.028	689.25
686.473	682.25
686.918	605.25
687.363	545.25
687.807	515.25
688.252	497.25
688.697	495.25
689.142	468.25
689.587	461.25
690.032	448.25
690.477	478.25
690.921	499.25
691.366	529.25
691.811	538.25
692.255	595.25
692.7	635.25
693.145	803.25
693.589	1194.25
694.034	1622.25
694.478	1813.25
694.923	1662.25
695.367	2028.25
695.812	1846.25
696.256	791.25
696.701	539.25
697.145	493.25
697.59	436.25
698.034	471.25
698.478	443.25
698.922	448.25
699.367	462.25
699.811	491.25
700.255	497.25
700.699	528.25
701.143	579.25
701.588	615.25
702.032	655.25
702.476	705.25
702.92	701.25
703.364	764.25
703.808	1086.25
704.252	1507.25
704.696	1662.25
705.14	1619.25
705.584	1964.25
706.027	1629.25
706.471	796.25
706.915	565.25
707.359	505.25
707.803	478.25
708.246	469.25
708.69	442.25
709.134	421.25
709.577	456.25
710.021	449.25
710.465	410.25
710.908	427.25
711.352	421.25
711.795	448.25
712.239	511.25
712.682	541.25
713.126	522.25
713.569	552.25
714.012	497.25
714.456	431.25
714.899	389.25
715.342	405.25
715.786	375.25
716.229	370.25
716.672	375.25
717.115	353.25
717.558	364.25
718.002	379.25
718.445	408.25
718.888	407.25
719.331	421.25
719.774	412.25
720.217	426.25
720.66	385.25
721.103	380.25
721.546	341.25
721.989	368.25
722.432	355.25
722.874	345.25
723.317	361.25
723.76	356.25
724.203	424.25
724.645	520.25
725.088	613.25
725.531	673.25
725.974	613.25
726.416	694.25
726.859	488.25
727.301	381.25
727.744	347.25
728.187	354.25
728.629	350.25
729.071	371.25
729.514	380.25
729.956	374.25
730.399	373.25
730.841	409.25
731.283	389.25
731.726	395.25
732.168	384.25
732.61	408.25
733.053	434.25
733.495	456.25
733.937	470.25
734.379	561.25
734.821	613.25
735.263	871.25
735.705	1457.25
736.148	2369.25
736.59	2768.25
737.032	2627.25
737.474	2821.25
737.916	1371.25
738.357	659.25
738.799	461.25
739.241	417.25
739.683	437.25
740.125	413.25
740.567	448.25
741.008	442.25
741.45	472.25
741.892	475.25
742.334	510.25
742.775	505.25
743.217	506.25
743.658	451.25
744.1	433.25
744.542	455.25
744.983	488.25
745.425	527.25
745.866	561.25
746.307	438.25
746.749	423.25
747.19	511.25
747.632	831.25
748.073	1605.25
748.514	2443.25
748.956	3036.25
749.397	4166.25
749.838	3367.25
