Data from 20170802-ORNL-NYSim-Air_HRD10391_10-36-56-624.txt Node
Date: Wed Aug 02 10:36:56 EDT 2017
User: Ender
Spectrometer: HR+D1039
Trigger mode: 0
Integration Time (sec): 1.510000E-3
Scans to average: 1
Electric dark correction enabled: true
Nonlinearity correction enabled: false
Boxcar width: 0
XAxis mode: Wavelengths
Number of Pixels in Spectrum: 2048
>>>>>Begin Spectral Data<<<<<
187.836	8.31
188.309	8.31
188.782	8.31
189.255	9.31
189.728	-14.69
190.201	-12.69
190.674	-7.69
191.147	-13.69
191.619	-8.69
192.092	-10.69
192.565	-4.69
193.038	-12.69
193.511	2.31
193.984	8.31
194.456	7.31
194.929	8.31
195.402	14.31
195.874	27.31
196.347	23.31
196.82	25.31
197.292	29.31
197.765	29.31
198.237	40.31
198.71	41.31
199.182	27.31
199.655	49.31
200.127	61.31
200.6	49.31
201.072	55.31
201.544	54.31
202.017	59.31
202.489	69.31
202.961	58.31
203.433	80.31
203.906	73.31
204.378	71.31
204.85	66.31
205.322	80.31
205.794	92.31
206.266	72.31
206.739	86.31
207.211	85.31
207.683	93.31
208.155	83.31
208.627	93.31
209.099	93.31
209.57	88.31
210.042	81.31
210.514	77.31
210.986	84.31
211.458	81.31
211.93	86.31
212.402	96.31
212.873	86.31
213.345	91.31
213.817	66.31
214.288	77.31
214.76	75.31
215.232	93.31
215.703	93.31
216.175	90.31
216.646	95.31
217.118	83.31
217.589	95.31
218.061	67.31
218.532	88.31
219.004	78.31
219.475	76.31
219.946	87.31
220.418	77.31
220.889	57.31
221.36	77.31
221.832	73.31
222.303	89.31
222.774	92.31
223.245	84.31
223.717	87.31
224.188	85.31
224.659	68.31
225.13	61.31
225.601	77.31
226.072	71.31
226.543	74.31
227.014	85.31
227.485	74.31
227.956	64.31
228.427	91.31
228.898	85.31
229.369	82.31
229.839	80.31
230.31	98.31
230.781	84.31
231.252	98.31
231.722	94.31
232.193	87.31
232.664	86.31
233.135	82.31
233.605	82.31
234.076	75.31
234.546	91.31
235.017	74.31
235.487	85.31
235.958	85.31
236.428	80.31
236.899	72.31
237.369	73.31
237.84	72.31
238.31	78.31
238.78	89.31
239.251	74.31
239.721	89.31
240.191	93.31
240.662	88.31
241.132	71.31
241.602	90.31
242.072	84.31
242.542	92.31
243.013	88.31
243.483	89.31
243.953	86.31
244.423	84.31
244.893	89.31
245.363	77.31
245.833	91.31
246.303	95.31
246.773	89.31
247.243	82.31
247.712	98.31
248.182	80.31
248.652	89.31
249.122	88.31
249.592	100.31
250.061	105.31
250.531	97.31
251.001	106.31
251.471	84.31
251.94	97.31
252.41	94.31
252.879	91.31
253.349	74.31
253.818	86.31
254.288	80.31
254.757	99.31
255.227	97.31
255.696	85.31
256.166	101.31
256.635	95.31
257.105	82.31
257.574	102.31
258.043	94.31
258.513	82.31
258.982	105.31
259.451	105.31
259.92	105.31
260.389	101.31
260.859	101.31
261.328	99.31
261.797	103.31
262.266	102.31
262.735	95.31
263.204	103.31
263.673	92.31
264.142	95.31
264.611	79.31
265.08	103.31
265.549	99.31
266.018	103.31
266.487	96.31
266.955	106.31
267.424	110.31
267.893	116.31
268.362	105.31
268.83	97.31
269.299	100.31
269.768	104.31
270.236	123.31
270.705	111.31
271.174	104.31
271.642	107.31
272.111	88.31
272.579	101.31
273.048	102.31
273.516	113.31
273.985	97.31
274.453	98.31
274.922	122.31
275.39	93.31
275.858	125.31
276.327	107.31
276.795	117.31
277.263	100.31
277.731	86.31
278.2	100.31
278.668	101.31
279.136	103.31
279.604	106.31
280.072	128.31
280.54	107.31
281.008	109.31
281.477	103.31
281.945	107.31
282.413	110.31
282.881	105.31
283.348	107.31
283.816	111.31
284.284	102.31
284.752	130.31
285.22	108.31
285.688	116.31
286.156	121.31
286.623	108.31
287.091	126.31
287.559	105.31
288.026	117.31
288.494	117.31
288.962	119.31
289.429	121.31
289.897	124.31
290.364	121.31
290.832	112.31
291.3	104.31
291.767	123.31
292.234	124.31
292.702	114.31
293.169	124.31
293.637	135.31
294.104	108.31
294.571	115.31
295.039	123.31
295.506	124.31
295.973	129.31
296.44	113.31
296.908	116.31
297.375	125.31
297.842	112.31
298.309	124.31
298.776	127.31
299.243	137.31
299.71	143.31
300.177	125.31
300.644	128.31
301.111	127.31
301.578	129.31
302.045	129.31
302.512	134.31
302.979	123.31
303.446	131.31
303.913	131.31
304.379	141.31
304.846	133.31
305.313	129.31
305.78	125.31
306.246	136.31
306.713	149.31
307.18	137.31
307.646	134.31
308.113	130.31
308.579	141.31
309.046	149.31
309.512	106.31
309.979	131.31
310.445	123.31
310.912	138.31
311.378	143.31
311.845	148.31
312.311	142.31
312.777	141.31
313.244	148.31
313.71	144.31
314.176	146.31
314.642	127.31
315.109	156.31
315.575	159.31
316.041	141.31
316.507	150.31
316.973	144.31
317.439	137.31
317.905	139.31
318.371	156.31
318.837	157.31
319.303	156.31
319.769	145.31
320.235	165.31
320.701	154.31
321.167	153.31
321.633	168.31
322.099	168.31
322.564	172.31
323.03	163.31
323.496	150.31
323.962	160.31
324.427	160.31
324.893	167.31
325.359	167.31
325.824	157.31
326.29	173.31
326.755	158.31
327.221	154.31
327.686	174.31
328.152	172.31
328.617	153.31
329.083	165.31
329.548	172.31
330.014	159.31
330.479	175.31
330.944	172.31
331.41	162.31
331.875	156.31
332.34	181.31
332.805	181.31
333.271	166.31
333.736	193.31
334.201	180.31
334.666	200.31
335.131	169.31
335.596	195.31
336.061	199.31
336.526	179.31
336.991	190.31
337.456	198.31
337.921	177.31
338.386	162.31
338.851	190.31
339.316	173.31
339.781	206.31
340.246	194.31
340.711	204.31
341.175	176.31
341.64	174.31
342.105	173.31
342.569	179.31
343.034	194.31
343.499	189.31
343.963	167.31
344.428	185.31
344.893	200.31
345.357	208.31
345.822	198.31
346.286	236.31
346.751	205.31
347.215	223.31
347.679	206.31
348.144	230.31
348.608	229.31
349.073	222.31
349.537	233.31
350.001	224.31
350.465	214.31
350.93	203.31
351.394	203.31
351.858	240.31
352.322	223.31
352.786	235.31
353.25	244.31
353.715	239.31
354.179	241.31
354.643	237.31
355.107	241.31
355.571	251.31
356.035	256.31
356.498	251.31
356.962	214.31
357.426	239.31
357.89	254.31
358.354	232.31
358.818	252.31
359.281	233.31
359.745	239.31
360.209	227.31
360.673	256.31
361.136	224.31
361.6	231.31
362.064	233.31
362.527	231.31
362.991	245.31
363.454	262.31
363.918	243.31
364.381	261.31
364.845	247.31
365.308	243.31
365.772	262.31
366.235	265.31
366.698	256.31
367.162	263.31
367.625	263.31
368.088	258.31
368.552	262.31
369.015	243.31
369.478	273.31
369.941	274.31
370.404	282.31
370.867	278.31
371.331	267.31
371.794	257.31
372.257	282.31
372.72	290.31
373.183	284.31
373.646	264.31
374.109	287.31
374.572	281.31
375.035	293.31
375.497	252.31
375.96	291.31
376.423	301.31
376.886	280.31
377.349	288.31
377.811	294.31
378.274	282.31
378.737	278.31
379.199	310.31
379.662	308.31
380.125	316.31
380.587	309.31
381.05	314.31
381.512	306.31
381.975	289.31
382.437	305.31
382.9	323.31
383.362	326.31
383.825	317.31
384.287	333.31
384.75	316.31
385.212	306.31
385.674	327.31
386.136	317.31
386.599	326.31
387.061	339.31
387.523	333.31
387.985	341.31
388.447	335.31
388.91	350.31
389.372	328.31
389.834	358.31
390.296	337.31
390.758	339.31
391.22	329.31
391.682	343.31
392.144	343.31
392.606	344.31
393.068	347.31
393.529	360.31
393.991	371.31
394.453	330.31
394.915	347.31
395.377	344.31
395.838	352.31
396.3	344.31
396.762	347.31
397.224	362.31
397.685	338.31
398.147	370.31
398.608	357.31
399.07	347.31
399.531	360.31
399.993	369.31
400.454	379.31
400.916	374.31
401.377	361.31
401.839	355.31
402.3	383.31
402.762	396.31
403.223	399.31
403.684	417.31
404.145	392.31
404.607	403.31
405.068	377.31
405.529	364.31
405.99	386.31
406.451	404.31
406.913	398.31
407.374	393.31
407.835	393.31
408.296	405.31
408.757	397.31
409.218	421.31
409.679	399.31
410.14	411.31
410.601	425.31
411.062	464.31
411.522	441.31
411.983	446.31
412.444	424.31
412.905	443.31
413.366	459.31
413.826	468.31
414.287	519.31
414.748	597.31
415.208	641.31
415.669	513.31
416.13	474.31
416.59	497.31
417.051	495.31
417.511	509.31
417.972	518.31
418.432	581.31
418.893	635.31
419.353	612.31
419.814	490.31
420.274	452.31
420.734	444.31
421.195	456.31
421.655	445.31
422.115	455.31
422.576	475.31
423.036	441.31
423.496	483.31
423.956	491.31
424.416	530.31
424.876	582.31
425.336	567.31
425.797	567.31
426.257	565.31
426.717	546.31
427.177	504.31
427.637	522.31
428.097	533.31
428.556	509.31
429.016	570.31
429.476	583.31
429.936	581.31
430.396	591.31
430.856	598.31
431.315	601.31
431.775	621.31
432.235	677.31
432.694	679.31
433.154	677.31
433.614	660.31
434.073	631.31
434.533	569.31
434.993	542.31
435.452	540.31
435.912	523.31
436.371	554.31
436.83	555.31
437.29	551.31
437.749	521.31
438.209	514.31
438.668	518.31
439.127	525.31
439.587	519.31
440.046	525.31
440.505	513.31
440.964	515.31
441.424	543.31
441.883	561.31
442.342	514.31
442.801	492.31
443.26	478.31
443.719	516.31
444.178	513.31
444.637	495.31
445.096	481.31
445.555	511.31
446.014	512.31
446.473	525.31
446.932	479.31
447.391	500.31
447.849	554.31
448.308	502.31
448.767	509.31
449.226	527.31
449.685	522.31
450.143	523.31
450.602	538.31
451.061	527.31
451.519	529.31
451.978	518.31
452.436	514.31
452.895	524.31
453.353	517.31
453.812	495.31
454.27	513.31
454.729	510.31
455.187	511.31
455.646	552.31
456.104	506.31
456.562	533.31
457.021	536.31
457.479	518.31
457.937	529.31
458.395	546.31
458.854	537.31
459.312	550.31
459.77	559.31
460.228	554.31
460.686	547.31
461.144	543.31
461.602	523.31
462.06	545.31
462.518	547.31
462.976	552.31
463.434	561.31
463.892	584.31
464.35	581.31
464.808	589.31
465.266	578.31
465.724	602.31
466.181	598.31
466.639	594.31
467.097	614.31
467.555	654.31
468.012	650.31
468.47	619.31
468.928	636.31
469.385	661.31
469.843	687.31
470.3	660.31
470.758	669.31
471.215	684.31
471.673	723.31
472.13	716.31
472.588	769.31
473.045	762.31
473.503	751.31
473.96	778.31
474.417	816.31
474.875	855.31
475.332	875.31
475.789	857.31
476.246	898.31
476.704	913.31
477.161	936.31
477.618	964.31
478.075	1009.31
478.532	1079.31
478.989	1177.31
479.446	1274.31
479.903	1302.31
480.36	1503.31
480.817	1493.31
481.274	1650.31
481.731	1798.31
482.188	1924.31
482.645	2072.31
483.102	2151.31
483.558	2312.31
484.015	2432.31
484.472	2384.31
484.929	2375.31
485.385	2245.31
485.842	2219.31
486.299	2129.31
486.755	1991.31
487.212	1797.31
487.668	1605.31
488.125	1511.31
488.582	1355.31
489.038	1317.31
489.494	1295.31
489.951	1245.31
490.407	1205.31
490.864	1208.31
491.32	1141.31
491.776	1158.31
492.233	1165.31
492.689	1155.31
493.145	1137.31
493.602	1115.31
494.058	1147.31
494.514	1111.31
494.97	1108.31
495.426	1152.31
495.882	1170.31
496.338	1137.31
496.794	1144.31
497.251	1125.31
497.707	1147.31
498.163	1165.31
498.618	1138.31
499.074	1175.31
499.53	1159.31
499.986	1175.31
500.442	1163.31
500.898	1146.31
501.354	1130.31
501.809	1145.31
502.265	1192.31
502.721	1165.31
503.177	1163.31
503.632	1137.31
504.088	1178.31
504.543	1193.31
504.999	1199.31
505.455	1203.31
505.91	1142.31
506.366	1167.31
506.821	1201.31
507.277	1140.31
507.732	1199.31
508.187	1187.31
508.643	1198.31
509.098	1169.31
509.553	1179.31
510.009	1240.31
510.464	1223.31
510.919	1259.31
511.375	1249.31
511.83	1256.31
512.285	1271.31
512.74	1285.31
513.195	1359.31
513.65	1365.31
514.105	1371.31
514.56	1369.31
515.015	1359.31
515.47	1375.31
515.925	1342.31
516.38	1376.31
516.835	1392.31
517.29	1381.31
517.745	1347.31
518.2	1369.31
518.655	1330.31
519.109	1317.31
519.564	1311.31
520.019	1294.31
520.474	1275.31
520.928	1270.31
521.383	1279.31
521.838	1295.31
522.292	1306.31
522.747	1249.31
523.201	1251.31
523.656	1220.31
524.11	1193.31
524.565	1240.31
525.019	1235.31
525.474	1249.31
525.928	1244.31
526.382	1248.31
526.837	1191.31
527.291	1256.31
527.745	1226.31
528.2	1218.31
528.654	1233.31
529.108	1243.31
529.562	1258.31
530.016	1188.31
530.47	1243.31
530.925	1211.31
531.379	1231.31
531.833	1244.31
532.287	1232.31
532.741	1205.31
533.195	1220.31
533.649	1202.31
534.103	1216.31
534.556	1230.31
535.01	1221.31
535.464	1220.31
535.918	1181.31
536.372	1217.31
536.826	1198.31
537.279	1247.31
537.733	1201.31
538.187	1246.31
538.64	1207.31
539.094	1218.31
539.548	1244.31
540.001	1215.31
540.455	1215.31
540.908	1248.31
541.362	1266.31
541.815	1261.31
542.269	1287.31
542.722	1290.31
543.175	1312.31
543.629	1327.31
544.082	1294.31
544.536	1346.31
544.989	1363.31
545.442	1338.31
545.895	1350.31
546.349	1346.31
546.802	1358.31
547.255	1346.31
547.708	1349.31
548.161	1367.31
548.614	1384.31
549.067	1362.31
549.52	1335.31
549.973	1327.31
550.426	1348.31
550.879	1373.31
551.332	1383.31
551.785	1323.31
552.238	1359.31
552.691	1372.31
553.144	1366.31
553.596	1432.31
554.049	1433.31
554.502	1431.31
554.955	1490.31
555.407	1489.31
555.86	1459.31
556.313	1471.31
556.765	1449.31
557.218	1439.31
557.67	1442.31
558.123	1402.31
558.576	1401.31
559.028	1448.31
559.48	1460.31
559.933	1389.31
560.385	1369.31
560.838	1349.31
561.29	1342.31
561.742	1287.31
562.195	1291.31
562.647	1251.31
563.099	1273.31
563.551	1265.31
564.004	1283.31
564.456	1270.31
564.908	1237.31
565.36	1199.31
565.812	1167.31
566.264	1160.31
566.716	1156.31
567.168	1123.31
567.62	1165.31
568.072	1145.31
568.524	1137.31
568.976	1100.31
569.428	1155.31
569.88	1109.31
570.332	1134.31
570.784	1132.31
571.235	1135.31
571.687	1120.31
572.139	1126.31
572.59	1145.31
573.042	1142.31
573.494	1127.31
573.945	1153.31
574.397	1133.31
574.849	1145.31
575.3	1135.31
575.752	1115.31
576.203	1081.31
576.655	1093.31
577.106	1078.31
577.557	1083.31
578.009	1076.31
578.46	1074.31
578.912	1077.31
579.363	1096.31
579.814	1075.31
580.265	1046.31
580.717	1062.31
581.168	1073.31
581.619	1068.31
582.07	1082.31
582.521	1079.31
582.972	1068.31
583.423	1072.31
583.875	1093.31
584.326	1093.31
584.777	1109.31
585.227	1116.31
585.678	1117.31
586.129	1160.31
586.58	1151.31
587.031	1171.31
587.482	1175.31
587.933	1194.31
588.384	1183.31
588.834	1171.31
589.285	1151.31
589.736	1187.31
590.186	1194.31
590.637	1192.31
591.088	1185.31
591.538	1176.31
591.989	1130.31
592.439	1090.31
592.89	1135.31
593.34	1099.31
593.791	1091.31
594.241	1084.31
594.692	1098.31
595.142	1111.31
595.593	1095.31
596.043	1073.31
596.493	1077.31
596.943	1082.31
597.394	1147.31
597.844	1127.31
598.294	1117.31
598.744	1189.31
599.195	1215.31
599.645	1271.31
600.095	1301.31
600.545	1387.31
600.995	1420.31
601.445	1482.31
601.895	1556.31
602.345	1612.31
602.795	1630.31
603.245	1576.31
603.695	1526.31
604.145	1430.31
604.594	1341.31
605.044	1325.31
605.494	1214.31
605.944	1157.31
606.393	1123.31
606.843	1117.31
607.293	1090.31
607.743	1126.31
608.192	1089.31
608.642	1087.31
609.091	1134.31
609.541	1073.31
609.99	1126.31
610.44	1118.31
610.889	1062.31
611.339	1082.31
611.788	1054.31
612.238	1056.31
612.687	1087.31
613.136	1071.31
613.586	1088.31
614.035	1077.31
614.484	1093.31
614.933	1058.31
615.383	1069.31
615.832	1029.31
616.281	1059.31
616.73	1015.31
617.179	965.31
617.628	960.31
618.077	932.31
618.526	953.31
618.975	927.31
619.424	938.31
619.873	889.31
620.322	896.31
620.771	928.31
621.22	868.31
621.669	913.31
622.118	907.31
622.567	890.31
623.015	873.31
623.464	870.31
623.913	840.31
624.361	823.31
624.81	883.31
625.259	835.31
625.707	844.31
626.156	836.31
626.604	870.31
627.053	883.31
627.501	851.31
627.95	871.31
628.398	866.31
628.847	832.31
629.295	877.31
629.744	865.31
630.192	839.31
630.64	849.31
631.089	835.31
631.537	822.31
631.985	792.31
632.433	828.31
632.881	783.31
633.33	831.31
633.778	795.31
634.226	797.31
634.674	803.31
635.122	799.31
635.57	797.31
636.018	841.31
636.466	811.31
636.914	829.31
637.362	841.31
637.81	831.31
638.258	868.31
638.705	885.31
639.153	893.31
639.601	905.31
640.049	935.31
640.497	940.31
640.944	964.31
641.392	944.31
641.84	883.31
642.287	883.31
642.735	858.31
643.182	833.31
643.63	869.31
644.078	889.31
644.525	884.31
644.973	909.31
645.42	903.31
645.867	917.31
646.315	987.31
646.762	932.31
647.21	1007.31
647.657	1065.31
648.104	1082.31
648.551	1112.31
648.999	1173.31
649.446	1305.31
649.893	1427.31
650.34	1629.31
650.787	1954.31
651.234	2427.31
651.682	3251.31
652.129	4481.31
652.576	6525.31
653.023	8792.31
653.47	10901.31
653.917	12166.31
654.363	12897.31
654.81	13543.31
655.257	14092.31
655.704	10875.31
656.151	6583.31
656.598	4175.31
657.044	2981.31
657.491	2271.31
657.938	1859.31
658.385	1561.31
658.831	1391.31
659.278	1255.31
659.724	1113.31
660.171	1054.31
660.618	1001.31
661.064	943.31
661.511	912.31
661.957	850.31
662.404	851.31
662.85	817.31
663.296	817.31
663.743	819.31
664.189	809.31
664.635	797.31
665.082	753.31
665.528	764.31
665.974	732.31
666.42	765.31
666.867	732.31
667.313	703.31
667.759	707.31
668.205	655.31
668.651	661.31
669.097	693.31
669.543	681.31
669.989	681.31
670.435	684.31
670.881	704.31
671.327	708.31
671.773	720.31
672.219	806.31
672.665	853.31
673.11	863.31
673.556	890.31
674.002	896.31
674.448	903.31
674.893	815.31
675.339	713.31
675.785	661.31
676.23	622.31
676.676	588.31
677.122	611.31
677.567	574.31
678.013	578.31
678.458	575.31
678.904	560.31
679.349	549.31
679.794	547.31
680.24	533.31
680.685	563.31
681.131	537.31
681.576	544.31
682.021	546.31
682.466	544.31
682.912	569.31
683.357	588.31
683.802	598.31
684.247	669.31
684.692	686.31
685.137	731.31
685.583	738.31
686.028	767.31
686.473	756.31
686.918	663.31
687.363	638.31
687.807	592.31
688.252	564.31
688.697	539.31
689.142	528.31
689.587	511.31
690.032	551.31
690.477	545.31
690.921	580.31
691.366	593.31
691.811	636.31
692.255	625.31
692.7	723.31
693.145	915.31
693.589	1370.31
694.034	1772.31
694.478	2048.31
694.923	1879.31
695.367	2304.31
695.812	2120.31
696.256	907.31
696.701	598.31
697.145	566.31
697.59	511.31
698.034	512.31
698.478	520.31
698.922	514.31
699.367	542.31
699.811	555.31
700.255	548.31
700.699	608.31
701.143	681.31
701.588	701.31
702.032	679.31
702.476	757.31
702.92	764.31
703.364	878.31
703.808	1273.31
704.252	1765.31
704.696	1883.31
705.14	1767.31
705.584	2227.31
706.027	1855.31
706.471	908.31
706.915	607.31
707.359	565.31
707.803	524.31
708.246	487.31
708.69	493.31
709.134	492.31
709.577	463.31
710.021	467.31
710.465	498.31
710.908	461.31
711.352	495.31
711.795	553.31
712.239	542.31
712.682	584.31
713.126	567.31
713.569	619.31
714.012	583.31
714.456	514.31
714.899	489.31
715.342	441.31
715.786	441.31
716.229	412.31
716.672	427.31
717.115	416.31
717.558	431.31
718.002	411.31
718.445	443.31
718.888	442.31
719.331	445.31
719.774	473.31
720.217	463.31
720.66	451.31
721.103	427.31
721.546	402.31
721.989	399.31
722.432	411.31
722.874	361.31
723.317	365.31
723.76	396.31
724.203	461.31
724.645	589.31
725.088	714.31
725.531	757.31
725.974	747.31
726.416	810.31
726.859	529.31
727.301	407.31
727.744	388.31
728.187	377.31
728.629	393.31
729.071	433.31
729.514	430.31
729.956	441.31
730.399	459.31
730.841	438.31
731.283	432.31
731.726	432.31
732.168	457.31
732.61	453.31
733.053	464.31
733.495	511.31
733.937	544.31
734.379	613.31
734.821	705.31
735.263	988.31
735.705	1661.31
736.148	2693.31
736.59	3149.31
737.032	2935.31
737.474	3281.31
737.916	1625.31
738.357	804.31
738.799	536.31
739.241	472.31
739.683	471.31
740.125	515.31
740.567	535.31
741.008	516.31
741.45	562.31
741.892	558.31
742.334	591.31
742.775	589.31
743.217	584.31
743.658	518.31
744.1	462.31
744.542	535.31
744.983	590.31
745.425	596.31
745.866	621.31
