Data from 20170802-ORNL-NYSim-Air_HRD10391_10-37-00-625.txt Node
Date: Wed Aug 02 10:37:00 EDT 2017
User: Ender
Spectrometer: HR+D1039
Trigger mode: 0
Integration Time (sec): 1.510000E-3
Scans to average: 1
Electric dark correction enabled: true
Nonlinearity correction enabled: false
Boxcar width: 0
XAxis mode: Wavelengths
Number of Pixels in Spectrum: 2048
>>>>>Begin Spectral Data<<<<<
187.836	8.81
188.309	8.81
188.782	8.81
189.255	-4.19
189.728	-1.19
190.201	-16.19
190.674	-17.19
191.147	-11.19
191.619	4.81
192.092	-18.19
192.565	-5.19
193.038	-7.19
193.511	-9.19
193.984	9.81
194.456	12.81
194.929	14.81
195.402	11.81
195.874	26.81
196.347	10.81
196.82	17.81
197.292	23.81
197.765	32.81
198.237	26.81
198.71	24.81
199.182	40.81
199.655	51.81
200.127	42.81
200.6	55.81
201.072	47.81
201.544	63.81
202.017	77.81
202.489	66.81
202.961	66.81
203.433	53.81
203.906	77.81
204.378	66.81
204.85	76.81
205.322	89.81
205.794	87.81
206.266	76.81
206.739	84.81
207.211	66.81
207.683	89.81
208.155	99.81
208.627	83.81
209.099	94.81
209.57	101.81
210.042	100.81
210.514	62.81
210.986	80.81
211.458	91.81
211.93	91.81
212.402	89.81
212.873	73.81
213.345	89.81
213.817	81.81
214.288	92.81
214.76	92.81
215.232	99.81
215.703	79.81
216.175	84.81
216.646	62.81
217.118	72.81
217.589	77.81
218.061	79.81
218.532	97.81
219.004	97.81
219.475	90.81
219.946	80.81
220.418	61.81
220.889	73.81
221.36	72.81
221.832	85.81
222.303	86.81
222.774	74.81
223.245	76.81
223.717	79.81
224.188	86.81
224.659	71.81
225.13	74.81
225.601	73.81
226.072	79.81
226.543	87.81
227.014	68.81
227.485	84.81
227.956	80.81
228.427	80.81
228.898	87.81
229.369	70.81
229.839	85.81
230.31	74.81
230.781	75.81
231.252	82.81
231.722	79.81
232.193	91.81
232.664	75.81
233.135	88.81
233.605	91.81
234.076	92.81
234.546	81.81
235.017	88.81
235.487	67.81
235.958	91.81
236.428	84.81
236.899	82.81
237.369	100.81
237.84	82.81
238.31	75.81
238.78	78.81
239.251	86.81
239.721	93.81
240.191	68.81
240.662	76.81
241.132	75.81
241.602	86.81
242.072	88.81
242.542	92.81
243.013	93.81
243.483	79.81
243.953	85.81
244.423	84.81
244.893	75.81
245.363	76.81
245.833	96.81
246.303	87.81
246.773	91.81
247.243	74.81
247.712	85.81
248.182	91.81
248.652	74.81
249.122	88.81
249.592	86.81
250.061	101.81
250.531	99.81
251.001	102.81
251.471	104.81
251.94	78.81
252.41	87.81
252.879	70.81
253.349	90.81
253.818	94.81
254.288	94.81
254.757	96.81
255.227	86.81
255.696	91.81
256.166	100.81
256.635	93.81
257.105	81.81
257.574	98.81
258.043	80.81
258.513	87.81
258.982	93.81
259.451	97.81
259.92	100.81
260.389	90.81
260.859	89.81
261.328	95.81
261.797	90.81
262.266	100.81
262.735	91.81
263.204	93.81
263.673	89.81
264.142	99.81
264.611	94.81
265.08	97.81
265.549	92.81
266.018	88.81
266.487	101.81
266.955	101.81
267.424	96.81
267.893	90.81
268.362	95.81
268.83	92.81
269.299	92.81
269.768	108.81
270.236	102.81
270.705	104.81
271.174	99.81
271.642	93.81
272.111	100.81
272.579	106.81
273.048	115.81
273.516	98.81
273.985	94.81
274.453	116.81
274.922	92.81
275.39	93.81
275.858	104.81
276.327	109.81
276.795	102.81
277.263	104.81
277.731	95.81
278.2	104.81
278.668	112.81
279.136	104.81
279.604	111.81
280.072	108.81
280.54	119.81
281.008	102.81
281.477	123.81
281.945	112.81
282.413	109.81
282.881	103.81
283.348	116.81
283.816	117.81
284.284	94.81
284.752	129.81
285.22	124.81
285.688	112.81
286.156	107.81
286.623	116.81
287.091	112.81
287.559	132.81
288.026	121.81
288.494	104.81
288.962	142.81
289.429	104.81
289.897	116.81
290.364	112.81
290.832	124.81
291.3	134.81
291.767	117.81
292.234	106.81
292.702	124.81
293.169	103.81
293.637	117.81
294.104	134.81
294.571	112.81
295.039	112.81
295.506	121.81
295.973	118.81
296.44	122.81
296.908	107.81
297.375	137.81
297.842	119.81
298.309	114.81
298.776	120.81
299.243	114.81
299.71	133.81
300.177	120.81
300.644	121.81
301.111	133.81
301.578	128.81
302.045	116.81
302.512	109.81
302.979	134.81
303.446	115.81
303.913	135.81
304.379	132.81
304.846	123.81
305.313	136.81
305.78	136.81
306.246	128.81
306.713	126.81
307.18	137.81
307.646	142.81
308.113	141.81
308.579	123.81
309.046	135.81
309.512	157.81
309.979	136.81
310.445	158.81
310.912	132.81
311.378	138.81
311.845	140.81
312.311	144.81
312.777	155.81
313.244	136.81
313.71	149.81
314.176	120.81
314.642	154.81
315.109	150.81
315.575	128.81
316.041	138.81
316.507	146.81
316.973	156.81
317.439	147.81
317.905	138.81
318.371	146.81
318.837	147.81
319.303	153.81
319.769	142.81
320.235	148.81
320.701	142.81
321.167	155.81
321.633	144.81
322.099	138.81
322.564	148.81
323.03	148.81
323.496	141.81
323.962	130.81
324.427	150.81
324.893	171.81
325.359	156.81
325.824	143.81
326.29	166.81
326.755	154.81
327.221	157.81
327.686	176.81
328.152	158.81
328.617	170.81
329.083	143.81
329.548	168.81
330.014	146.81
330.479	172.81
330.944	179.81
331.41	164.81
331.875	155.81
332.34	162.81
332.805	175.81
333.271	164.81
333.736	167.81
334.201	181.81
334.666	176.81
335.131	190.81
335.596	176.81
336.061	176.81
336.526	162.81
336.991	199.81
337.456	180.81
337.921	168.81
338.386	191.81
338.851	183.81
339.316	173.81
339.781	160.81
340.246	174.81
340.711	164.81
341.175	186.81
341.64	203.81
342.105	181.81
342.569	185.81
343.034	174.81
343.499	201.81
343.963	185.81
344.428	191.81
344.893	198.81
345.357	206.81
345.822	196.81
346.286	187.81
346.751	216.81
347.215	201.81
347.679	191.81
348.144	202.81
348.608	199.81
349.073	203.81
349.537	182.81
350.001	218.81
350.465	214.81
350.93	219.81
351.394	215.81
351.858	235.81
352.322	223.81
352.786	204.81
353.25	231.81
353.715	215.81
354.179	247.81
354.643	258.81
355.107	248.81
355.571	271.81
356.035	230.81
356.498	236.81
356.962	232.81
357.426	226.81
357.89	244.81
358.354	230.81
358.818	228.81
359.281	214.81
359.745	223.81
360.209	238.81
360.673	238.81
361.136	214.81
361.6	251.81
362.064	258.81
362.527	239.81
362.991	237.81
363.454	247.81
363.918	224.81
364.381	258.81
364.845	238.81
365.308	257.81
365.772	268.81
366.235	255.81
366.698	241.81
367.162	233.81
367.625	242.81
368.088	249.81
368.552	258.81
369.015	259.81
369.478	257.81
369.941	259.81
370.404	254.81
370.867	245.81
371.331	242.81
371.794	256.81
372.257	269.81
372.72	270.81
373.183	277.81
373.646	258.81
374.109	269.81
374.572	267.81
375.035	252.81
375.497	282.81
375.96	269.81
376.423	264.81
376.886	290.81
377.349	301.81
377.811	291.81
378.274	294.81
378.737	282.81
379.199	284.81
379.662	274.81
380.125	277.81
380.587	311.81
381.05	311.81
381.512	290.81
381.975	303.81
382.437	299.81
382.9	328.81
383.362	292.81
383.825	313.81
384.287	307.81
384.75	280.81
385.212	305.81
385.674	312.81
386.136	322.81
386.599	321.81
387.061	324.81
387.523	310.81
387.985	318.81
388.447	307.81
388.91	332.81
389.372	344.81
389.834	330.81
390.296	321.81
390.758	318.81
391.22	322.81
391.682	325.81
392.144	333.81
392.606	328.81
393.068	326.81
393.529	370.81
393.991	350.81
394.453	334.81
394.915	342.81
395.377	334.81
395.838	325.81
396.3	336.81
396.762	342.81
397.224	341.81
397.685	355.81
398.147	331.81
398.608	354.81
399.07	355.81
399.531	348.81
399.993	333.81
400.454	332.81
400.916	344.81
401.377	351.81
401.839	374.81
402.3	381.81
402.762	387.81
403.223	395.81
403.684	420.81
404.145	406.81
404.607	381.81
405.068	358.81
405.529	384.81
405.99	393.81
406.451	384.81
406.913	386.81
407.374	397.81
407.835	412.81
408.296	404.81
408.757	397.81
409.218	404.81
409.679	390.81
410.14	391.81
410.601	418.81
411.062	409.81
411.522	401.81
411.983	408.81
412.444	436.81
412.905	421.81
413.366	416.81
413.826	467.81
414.287	499.81
414.748	565.81
415.208	583.81
415.669	513.81
416.13	484.81
416.59	458.81
417.051	476.81
417.511	482.81
417.972	555.81
418.432	555.81
418.893	613.81
419.353	592.81
419.814	464.81
420.274	428.81
420.734	451.81
421.195	455.81
421.655	420.81
422.115	440.81
422.576	418.81
423.036	430.81
423.496	444.81
423.956	484.81
424.416	496.81
424.876	555.81
425.336	539.81
425.797	560.81
426.257	549.81
426.717	536.81
427.177	478.81
427.637	483.81
428.097	503.81
428.556	538.81
429.016	569.81
429.476	599.81
429.936	571.81
430.396	562.81
430.856	565.81
431.315	576.81
431.775	591.81
432.235	641.81
432.694	656.81
433.154	631.81
433.614	638.81
434.073	594.81
434.533	552.81
434.993	530.81
435.452	538.81
435.912	516.81
436.371	516.81
436.83	522.81
437.29	506.81
437.749	499.81
438.209	488.81
438.668	509.81
439.127	518.81
439.587	500.81
440.046	503.81
440.505	483.81
440.964	494.81
441.424	526.81
441.883	532.81
442.342	506.81
442.801	490.81
443.26	477.81
443.719	494.81
444.178	498.81
444.637	477.81
445.096	488.81
445.555	489.81
446.014	491.81
446.473	484.81
446.932	489.81
447.391	492.81
447.849	512.81
448.308	522.81
448.767	509.81
449.226	488.81
449.685	543.81
450.143	544.81
450.602	549.81
451.061	499.81
451.519	510.81
451.978	494.81
452.436	485.81
452.895	500.81
453.353	470.81
453.812	486.81
454.27	512.81
454.729	485.81
455.187	528.81
455.646	500.81
456.104	525.81
456.562	514.81
457.021	527.81
457.479	496.81
457.937	499.81
458.395	497.81
458.854	513.81
459.312	530.81
459.77	534.81
460.228	526.81
460.686	534.81
461.144	514.81
461.602	522.81
462.06	550.81
462.518	538.81
462.976	542.81
463.434	550.81
463.892	548.81
464.35	534.81
464.808	552.81
465.266	565.81
465.724	557.81
466.181	573.81
466.639	588.81
467.097	591.81
467.555	625.81
468.012	619.81
468.47	620.81
468.928	624.81
469.385	640.81
469.843	636.81
470.3	659.81
470.758	670.81
471.215	664.81
471.673	679.81
472.13	702.81
472.588	726.81
473.045	720.81
473.503	762.81
473.96	773.81
474.417	774.81
474.875	804.81
475.332	816.81
475.789	838.81
476.246	868.81
476.704	918.81
477.161	869.81
477.618	920.81
478.075	973.81
478.532	1042.81
478.989	1112.81
479.446	1228.81
479.903	1272.81
480.36	1330.81
480.817	1430.81
481.274	1542.81
481.731	1672.81
482.188	1779.81
482.645	1911.81
483.102	2015.81
483.558	2174.81
484.015	2230.81
484.472	2309.81
484.929	2226.81
485.385	2114.81
485.842	2059.81
486.299	1975.81
486.755	1888.81
487.212	1650.81
487.668	1536.81
488.125	1449.81
488.582	1343.81
489.038	1248.81
489.494	1213.81
489.951	1196.81
490.407	1180.81
490.864	1164.81
491.32	1092.81
491.776	1153.81
492.233	1121.81
492.689	1102.81
493.145	1092.81
493.602	1060.81
494.058	1086.81
494.514	1064.81
494.97	1084.81
495.426	1075.81
495.882	1104.81
496.338	1081.81
496.794	1122.81
497.251	1106.81
497.707	1125.81
498.163	1113.81
498.618	1122.81
499.074	1097.81
499.53	1126.81
499.986	1102.81
500.442	1114.81
500.898	1133.81
501.354	1146.81
501.809	1120.81
502.265	1148.81
502.721	1114.81
503.177	1105.81
503.632	1146.81
504.088	1150.81
504.543	1153.81
504.999	1161.81
505.455	1174.81
505.91	1122.81
506.366	1143.81
506.821	1171.81
507.277	1190.81
507.732	1180.81
508.187	1136.81
508.643	1203.81
509.098	1188.81
509.553	1186.81
510.009	1195.81
510.464	1205.81
510.919	1166.81
511.375	1238.81
511.83	1272.81
512.285	1244.81
512.74	1272.81
513.195	1276.81
513.65	1312.81
514.105	1340.81
514.56	1307.81
515.015	1359.81
515.47	1355.81
515.925	1352.81
516.38	1333.81
516.835	1336.81
517.29	1368.81
517.745	1343.81
518.2	1347.81
518.655	1272.81
519.109	1302.81
519.564	1302.81
520.019	1302.81
520.474	1240.81
520.928	1246.81
521.383	1260.81
521.838	1197.81
522.292	1224.81
522.747	1224.81
523.201	1200.81
523.656	1222.81
524.11	1198.81
524.565	1197.81
525.019	1207.81
525.474	1194.81
525.928	1200.81
526.382	1243.81
526.837	1221.81
527.291	1184.81
527.745	1205.81
528.2	1182.81
528.654	1202.81
529.108	1173.81
529.562	1188.81
530.016	1162.81
530.47	1197.81
530.925	1197.81
531.379	1176.81
531.833	1182.81
532.287	1177.81
532.741	1212.81
533.195	1204.81
533.649	1219.81
534.103	1233.81
534.556	1247.81
535.01	1176.81
535.464	1188.81
535.918	1211.81
536.372	1228.81
536.826	1190.81
537.279	1187.81
537.733	1190.81
538.187	1202.81
538.64	1185.81
539.094	1244.81
539.548	1255.81
540.001	1214.81
540.455	1206.81
540.908	1252.81
541.362	1248.81
541.815	1265.81
542.269	1298.81
542.722	1276.81
543.175	1262.81
543.629	1296.81
544.082	1313.81
544.536	1308.81
544.989	1328.81
545.442	1341.81
545.895	1332.81
546.349	1309.81
546.802	1255.81
547.255	1293.81
547.708	1339.81
548.161	1339.81
548.614	1363.81
549.067	1321.81
549.52	1376.81
549.973	1329.81
550.426	1341.81
550.879	1332.81
551.332	1303.81
551.785	1351.81
552.238	1348.81
552.691	1322.81
553.144	1384.81
553.596	1350.81
554.049	1404.81
554.502	1445.81
554.955	1452.81
555.407	1463.81
555.86	1457.81
556.313	1419.81
556.765	1453.81
557.218	1436.81
557.67	1430.81
558.123	1372.81
558.576	1376.81
559.028	1374.81
559.48	1416.81
559.933	1416.81
560.385	1359.81
560.838	1297.81
561.29	1289.81
561.742	1297.81
562.195	1238.81
562.647	1242.81
563.099	1256.81
563.551	1231.81
564.004	1248.81
564.456	1224.81
564.908	1220.81
565.36	1190.81
565.812	1163.81
566.264	1155.81
566.716	1150.81
567.168	1111.81
567.62	1122.81
568.072	1108.81
568.524	1118.81
568.976	1097.81
569.428	1120.81
569.88	1100.81
570.332	1084.81
570.784	1106.81
571.235	1098.81
571.687	1116.81
572.139	1089.81
572.59	1091.81
573.042	1112.81
573.494	1117.81
573.945	1117.81
574.397	1077.81
574.849	1108.81
575.3	1123.81
575.752	1098.81
576.203	1066.81
576.655	1094.81
577.106	1070.81
577.557	1050.81
578.009	1075.81
578.46	1038.81
578.912	1049.81
579.363	1067.81
579.814	1075.81
580.265	1043.81
580.717	1075.81
581.168	1051.81
581.619	1051.81
582.07	1080.81
582.521	1033.81
582.972	1070.81
583.423	1047.81
583.875	1073.81
584.326	1043.81
584.777	1109.81
585.227	1160.81
585.678	1105.81
586.129	1107.81
586.58	1168.81
587.031	1128.81
587.482	1192.81
587.933	1185.81
588.384	1197.81
588.834	1195.81
589.285	1205.81
589.736	1139.81
590.186	1145.81
590.637	1166.81
591.088	1118.81
591.538	1112.81
591.989	1097.81
592.439	1136.81
592.89	1089.81
593.34	1094.81
593.791	1092.81
594.241	1033.81
594.692	1064.81
595.142	1056.81
595.593	1057.81
596.043	1080.81
596.493	1098.81
596.943	1090.81
597.394	1101.81
597.844	1083.81
598.294	1134.81
598.744	1163.81
599.195	1209.81
599.645	1264.81
600.095	1356.81
600.545	1394.81
600.995	1456.81
601.445	1507.81
601.895	1540.81
602.345	1587.81
602.795	1587.81
603.245	1548.81
603.695	1512.81
604.145	1411.81
604.594	1407.81
605.044	1302.81
605.494	1237.81
605.944	1156.81
606.393	1101.81
606.843	1064.81
607.293	1097.81
607.743	1089.81
608.192	1075.81
608.642	1106.81
609.091	1086.81
609.541	1089.81
609.99	1065.81
610.44	1098.81
610.889	1066.81
611.339	1033.81
611.788	1034.81
612.238	1051.81
612.687	1016.81
613.136	1025.81
613.586	1085.81
614.035	1030.81
614.484	1084.81
614.933	1067.81
615.383	1039.81
615.832	1024.81
616.281	989.81
616.73	1000.81
617.179	993.81
617.628	954.81
618.077	939.81
618.526	900.81
618.975	951.81
619.424	916.81
619.873	912.81
620.322	926.81
620.771	926.81
621.22	885.81
621.669	890.81
622.118	869.81
622.567	844.81
623.015	824.81
623.464	850.81
623.913	834.81
624.361	857.81
624.81	834.81
625.259	831.81
625.707	822.81
626.156	852.81
626.604	832.81
627.053	830.81
627.501	843.81
627.95	829.81
628.398	864.81
628.847	854.81
629.295	848.81
629.744	846.81
630.192	870.81
630.64	824.81
631.089	790.81
631.537	796.81
631.985	798.81
632.433	774.81
632.881	789.81
633.33	783.81
633.778	795.81
634.226	746.81
634.674	796.81
635.122	790.81
635.57	815.81
636.018	797.81
636.466	829.81
636.914	809.81
637.362	845.81
637.81	843.81
638.258	855.81
638.705	900.81
639.153	872.81
639.601	911.81
640.049	922.81
640.497	912.81
640.944	962.81
641.392	923.81
641.84	889.81
642.287	852.81
642.735	859.81
643.182	813.81
643.63	807.81
644.078	840.81
644.525	850.81
644.973	865.81
645.42	870.81
645.867	909.81
646.315	901.81
646.762	935.81
647.21	964.81
647.657	1020.81
648.104	1078.81
648.551	1084.81
648.999	1122.81
649.446	1219.81
649.893	1325.81
650.34	1499.81
650.787	1798.81
651.234	2304.81
651.682	3037.81
652.129	4205.81
652.576	5998.81
653.023	8288.81
653.47	10092.81
653.917	11315.81
654.363	11912.81
654.81	12637.81
655.257	13044.81
655.704	10055.81
656.151	6106.81
656.598	3879.81
657.044	2753.81
657.491	2110.81
657.938	1747.81
658.385	1489.81
658.831	1310.81
659.278	1162.81
659.724	1075.81
660.171	1000.81
660.618	926.81
661.064	907.81
661.511	827.81
661.957	853.81
662.404	814.81
662.85	836.81
663.296	811.81
663.743	796.81
664.189	768.81
664.635	775.81
665.082	740.81
665.528	745.81
665.974	736.81
666.42	726.81
666.867	711.81
667.313	680.81
667.759	639.81
668.205	680.81
668.651	671.81
669.097	677.81
669.543	680.81
669.989	678.81
670.435	689.81
670.881	690.81
671.327	730.81
671.773	722.81
672.219	764.81
672.665	834.81
673.11	884.81
673.556	875.81
674.002	868.81
674.448	893.81
674.893	828.81
675.339	732.81
675.785	644.81
676.23	622.81
676.676	611.81
677.122	576.81
677.567	583.81
678.013	560.81
678.458	568.81
678.904	563.81
679.349	547.81
679.794	506.81
680.24	514.81
680.685	536.81
681.131	531.81
681.576	529.81
682.021	537.81
682.466	538.81
682.912	555.81
683.357	553.81
683.802	592.81
684.247	628.81
684.692	688.81
685.137	678.81
685.583	718.81
686.028	758.81
686.473	728.81
686.918	650.81
687.363	607.81
687.807	606.81
688.252	538.81
688.697	539.81
689.142	526.81
689.587	534.81
690.032	541.81
690.477	550.81
690.921	570.81
691.366	575.81
691.811	591.81
692.255	643.81
692.7	708.81
693.145	926.81
693.589	1362.81
694.034	1782.81
694.478	1969.81
694.923	1832.81
695.367	2304.81
695.812	2099.81
696.256	893.81
696.701	616.81
697.145	549.81
697.59	504.81
698.034	494.81
698.478	511.81
698.922	510.81
699.367	521.81
699.811	543.81
700.255	540.81
700.699	590.81
701.143	625.81
701.588	707.81
702.032	718.81
702.476	747.81
702.92	753.81
703.364	859.81
703.808	1252.81
704.252	1688.81
704.696	1864.81
705.14	1753.81
705.584	2137.81
706.027	1804.81
706.471	901.81
706.915	607.81
707.359	573.81
707.803	525.81
708.246	518.81
708.69	456.81
709.134	500.81
709.577	470.81
710.021	479.81
710.465	477.81
710.908	474.81
711.352	498.81
711.795	516.81
712.239	582.81
712.682	574.81
713.126	571.81
713.569	633.81
714.012	577.81
714.456	491.81
714.899	465.81
715.342	439.81
715.786	433.81
716.229	433.81
716.672	417.81
717.115	427.81
717.558	403.81
718.002	414.81
718.445	400.81
718.888	464.81
719.331	466.81
719.774	476.81
720.217	464.81
720.66	432.81
721.103	427.81
721.546	380.81
721.989	383.81
722.432	398.81
722.874	407.81
723.317	392.81
723.76	388.81
724.203	450.81
724.645	554.81
725.088	718.81
725.531	726.81
725.974	728.81
726.416	779.81
726.859	510.81
727.301	408.81
727.744	378.81
728.187	395.81
728.629	378.81
729.071	407.81
729.514	417.81
729.956	431.81
730.399	445.81
730.841	452.81
731.283	455.81
731.726	414.81
732.168	419.81
732.61	443.81
733.053	467.81
733.495	517.81
733.937	543.81
734.379	607.81
734.821	728.81
735.263	1008.81
735.705	1620.81
736.148	2676.81
736.59	3093.81
737.032	2900.81
737.474	3145.81
737.916	1565.81
738.357	764.81
738.799	524.81
739.241	505.81
739.683	460.81
740.125	463.81
740.567	486.81
741.008	511.81
741.45	525.81
741.892	561.81
742.334	579.81
742.775	547.81
743.217	575.81
743.658	492.81
744.1	487.81
744.542	517.81
744.983	587.81
745.425	553.81
745.866	600.81
746.307	502.81
