Data from 20170802-ORNL-NYSim-Air_HRD10391_10-37-33-641.txt Node
Date: Wed Aug 02 10:37:33 EDT 2017
User: Ender
Spectrometer: HR+D1039
Trigger mode: 0
Integration Time (sec): 1.510000E-3
Scans to average: 1
Electric dark correction enabled: true
Nonlinearity correction enabled: false
Boxcar width: 0
XAxis mode: Wavelengths
Number of Pixels in Spectrum: 2048
>>>>>Begin Spectral Data<<<<<
187.836	2.56
188.309	2.56
188.782	2.56
189.255	-5.44
189.728	6.56
190.201	0.56
190.674	-14.44
191.147	-0.44
191.619	-3.44
192.092	-0.44
192.565	5.56
193.038	-7.44
193.511	3.56
193.984	-5.44
194.456	-5.44
194.929	4.56
195.402	0.56
195.874	18.56
196.347	32.56
196.82	5.56
197.292	46.56
197.765	15.56
198.237	45.56
198.71	37.56
199.182	46.56
199.655	69.56
200.127	60.56
200.6	47.56
201.072	63.56
201.544	51.56
202.017	75.56
202.489	80.56
202.961	70.56
203.433	69.56
203.906	92.56
204.378	68.56
204.85	82.56
205.322	84.56
205.794	77.56
206.266	79.56
206.739	76.56
207.211	98.56
207.683	82.56
208.155	77.56
208.627	82.56
209.099	99.56
209.57	94.56
210.042	90.56
210.514	73.56
210.986	92.56
211.458	90.56
211.93	68.56
212.402	89.56
212.873	90.56
213.345	104.56
213.817	84.56
214.288	93.56
214.76	90.56
215.232	61.56
215.703	82.56
216.175	81.56
216.646	82.56
217.118	77.56
217.589	71.56
218.061	75.56
218.532	82.56
219.004	78.56
219.475	77.56
219.946	90.56
220.418	76.56
220.889	78.56
221.36	79.56
221.832	80.56
222.303	83.56
222.774	85.56
223.245	82.56
223.717	83.56
224.188	90.56
224.659	73.56
225.13	78.56
225.601	82.56
226.072	70.56
226.543	83.56
227.014	85.56
227.485	107.56
227.956	80.56
228.427	74.56
228.898	82.56
229.369	75.56
229.839	87.56
230.31	103.56
230.781	90.56
231.252	90.56
231.722	95.56
232.193	95.56
232.664	75.56
233.135	81.56
233.605	85.56
234.076	91.56
234.546	73.56
235.017	90.56
235.487	68.56
235.958	85.56
236.428	82.56
236.899	86.56
237.369	88.56
237.84	77.56
238.31	71.56
238.78	73.56
239.251	82.56
239.721	75.56
240.191	83.56
240.662	86.56
241.132	80.56
241.602	84.56
242.072	93.56
242.542	105.56
243.013	94.56
243.483	69.56
243.953	86.56
244.423	90.56
244.893	82.56
245.363	86.56
245.833	86.56
246.303	62.56
246.773	79.56
247.243	78.56
247.712	98.56
248.182	99.56
248.652	90.56
249.122	87.56
249.592	105.56
250.061	109.56
250.531	71.56
251.001	64.56
251.471	93.56
251.94	84.56
252.41	97.56
252.879	86.56
253.349	82.56
253.818	106.56
254.288	104.56
254.757	95.56
255.227	78.56
255.696	89.56
256.166	79.56
256.635	105.56
257.105	89.56
257.574	88.56
258.043	94.56
258.513	108.56
258.982	88.56
259.451	84.56
259.92	89.56
260.389	96.56
260.859	112.56
261.328	113.56
261.797	110.56
262.266	110.56
262.735	92.56
263.204	101.56
263.673	92.56
264.142	95.56
264.611	90.56
265.08	93.56
265.549	99.56
266.018	111.56
266.487	111.56
266.955	95.56
267.424	106.56
267.893	102.56
268.362	99.56
268.83	108.56
269.299	104.56
269.768	99.56
270.236	93.56
270.705	101.56
271.174	114.56
271.642	103.56
272.111	101.56
272.579	109.56
273.048	102.56
273.516	106.56
273.985	109.56
274.453	105.56
274.922	121.56
275.39	115.56
275.858	122.56
276.327	115.56
276.795	106.56
277.263	98.56
277.731	100.56
278.2	107.56
278.668	101.56
279.136	92.56
279.604	96.56
280.072	118.56
280.54	111.56
281.008	115.56
281.477	116.56
281.945	102.56
282.413	105.56
282.881	101.56
283.348	124.56
283.816	112.56
284.284	102.56
284.752	99.56
285.22	100.56
285.688	113.56
286.156	117.56
286.623	127.56
287.091	119.56
287.559	98.56
288.026	112.56
288.494	120.56
288.962	126.56
289.429	119.56
289.897	114.56
290.364	109.56
290.832	116.56
291.3	112.56
291.767	128.56
292.234	122.56
292.702	124.56
293.169	124.56
293.637	114.56
294.104	122.56
294.571	135.56
295.039	130.56
295.506	128.56
295.973	136.56
296.44	125.56
296.908	121.56
297.375	131.56
297.842	135.56
298.309	107.56
298.776	136.56
299.243	128.56
299.71	148.56
300.177	138.56
300.644	132.56
301.111	126.56
301.578	142.56
302.045	153.56
302.512	130.56
302.979	118.56
303.446	124.56
303.913	150.56
304.379	129.56
304.846	132.56
305.313	127.56
305.78	128.56
306.246	124.56
306.713	116.56
307.18	129.56
307.646	130.56
308.113	122.56
308.579	142.56
309.046	147.56
309.512	136.56
309.979	134.56
310.445	144.56
310.912	154.56
311.378	154.56
311.845	153.56
312.311	148.56
312.777	144.56
313.244	152.56
313.71	136.56
314.176	142.56
314.642	144.56
315.109	142.56
315.575	158.56
316.041	158.56
316.507	173.56
316.973	152.56
317.439	157.56
317.905	140.56
318.371	152.56
318.837	140.56
319.303	136.56
319.769	146.56
320.235	151.56
320.701	158.56
321.167	138.56
321.633	159.56
322.099	157.56
322.564	143.56
323.03	139.56
323.496	145.56
323.962	156.56
324.427	152.56
324.893	140.56
325.359	157.56
325.824	156.56
326.29	166.56
326.755	156.56
327.221	170.56
327.686	163.56
328.152	177.56
328.617	150.56
329.083	177.56
329.548	186.56
330.014	180.56
330.479	166.56
330.944	184.56
331.41	163.56
331.875	180.56
332.34	168.56
332.805	189.56
333.271	158.56
333.736	177.56
334.201	172.56
334.666	183.56
335.131	195.56
335.596	170.56
336.061	180.56
336.526	171.56
336.991	170.56
337.456	185.56
337.921	186.56
338.386	193.56
338.851	189.56
339.316	182.56
339.781	167.56
340.246	177.56
340.711	163.56
341.175	175.56
341.64	173.56
342.105	186.56
342.569	167.56
343.034	184.56
343.499	188.56
343.963	185.56
344.428	206.56
344.893	186.56
345.357	190.56
345.822	202.56
346.286	196.56
346.751	220.56
347.215	229.56
347.679	205.56
348.144	183.56
348.608	214.56
349.073	214.56
349.537	235.56
350.001	216.56
350.465	208.56
350.93	223.56
351.394	224.56
351.858	207.56
352.322	199.56
352.786	228.56
353.25	207.56
353.715	228.56
354.179	232.56
354.643	242.56
355.107	245.56
355.571	238.56
356.035	240.56
356.498	226.56
356.962	221.56
357.426	216.56
357.89	250.56
358.354	237.56
358.818	222.56
359.281	230.56
359.745	238.56
360.209	248.56
360.673	242.56
361.136	237.56
361.6	234.56
362.064	253.56
362.527	243.56
362.991	252.56
363.454	236.56
363.918	251.56
364.381	236.56
364.845	236.56
365.308	235.56
365.772	258.56
366.235	241.56
366.698	250.56
367.162	245.56
367.625	250.56
368.088	243.56
368.552	263.56
369.015	263.56
369.478	268.56
369.941	246.56
370.404	256.56
370.867	267.56
371.331	274.56
371.794	271.56
372.257	267.56
372.72	268.56
373.183	251.56
373.646	253.56
374.109	284.56
374.572	258.56
375.035	279.56
375.497	263.56
375.96	288.56
376.423	279.56
376.886	277.56
377.349	274.56
377.811	269.56
378.274	286.56
378.737	307.56
379.199	301.56
379.662	289.56
380.125	292.56
380.587	272.56
381.05	292.56
381.512	294.56
381.975	288.56
382.437	311.56
382.9	326.56
383.362	307.56
383.825	316.56
384.287	312.56
384.75	317.56
385.212	308.56
385.674	324.56
386.136	299.56
386.599	316.56
387.061	303.56
387.523	308.56
387.985	323.56
388.447	314.56
388.91	314.56
389.372	304.56
389.834	305.56
390.296	322.56
390.758	309.56
391.22	314.56
391.682	316.56
392.144	330.56
392.606	341.56
393.068	353.56
393.529	352.56
393.991	336.56
394.453	336.56
394.915	332.56
395.377	325.56
395.838	309.56
396.3	333.56
396.762	338.56
397.224	324.56
397.685	329.56
398.147	332.56
398.608	375.56
399.07	355.56
399.531	357.56
399.993	357.56
400.454	375.56
400.916	332.56
401.377	357.56
401.839	370.56
402.3	387.56
402.762	380.56
403.223	394.56
403.684	410.56
404.145	379.56
404.607	403.56
405.068	392.56
405.529	402.56
405.99	389.56
406.451	406.56
406.913	374.56
407.374	391.56
407.835	368.56
408.296	409.56
408.757	397.56
409.218	405.56
409.679	402.56
410.14	423.56
410.601	428.56
411.062	414.56
411.522	428.56
411.983	433.56
412.444	436.56
412.905	442.56
413.366	432.56
413.826	440.56
414.287	479.56
414.748	574.56
415.208	582.56
415.669	496.56
416.13	471.56
416.59	475.56
417.051	474.56
417.511	495.56
417.972	516.56
418.432	547.56
418.893	597.56
419.353	605.56
419.814	466.56
420.274	416.56
420.734	423.56
421.195	446.56
421.655	448.56
422.115	432.56
422.576	430.56
423.036	460.56
423.496	456.56
423.956	457.56
424.416	506.56
424.876	556.56
425.336	552.56
425.797	563.56
426.257	542.56
426.717	515.56
427.177	510.56
427.637	507.56
428.097	517.56
428.556	535.56
429.016	534.56
429.476	540.56
429.936	541.56
430.396	562.56
430.856	573.56
431.315	582.56
431.775	604.56
432.235	664.56
432.694	663.56
433.154	619.56
433.614	610.56
434.073	607.56
434.533	555.56
434.993	516.56
435.452	516.56
435.912	525.56
436.371	518.56
436.83	508.56
437.29	503.56
437.749	499.56
438.209	498.56
438.668	516.56
439.127	508.56
439.587	504.56
440.046	476.56
440.505	474.56
440.964	490.56
441.424	528.56
441.883	499.56
442.342	495.56
442.801	495.56
443.26	477.56
443.719	508.56
444.178	489.56
444.637	494.56
445.096	475.56
445.555	499.56
446.014	501.56
446.473	494.56
446.932	496.56
447.391	500.56
447.849	489.56
448.308	484.56
448.767	498.56
449.226	496.56
449.685	506.56
450.143	521.56
450.602	533.56
451.061	506.56
451.519	522.56
451.978	510.56
452.436	525.56
452.895	520.56
453.353	480.56
453.812	503.56
454.27	500.56
454.729	501.56
455.187	493.56
455.646	515.56
456.104	511.56
456.562	499.56
457.021	509.56
457.479	539.56
457.937	512.56
458.395	507.56
458.854	527.56
459.312	486.56
459.77	501.56
460.228	516.56
460.686	536.56
461.144	520.56
461.602	547.56
462.06	543.56
462.518	515.56
462.976	542.56
463.434	560.56
463.892	548.56
464.35	545.56
464.808	577.56
465.266	571.56
465.724	564.56
466.181	557.56
466.639	561.56
467.097	591.56
467.555	618.56
468.012	640.56
468.47	629.56
468.928	636.56
469.385	652.56
469.843	667.56
470.3	647.56
470.758	687.56
471.215	717.56
471.673	697.56
472.13	702.56
472.588	716.56
473.045	720.56
473.503	746.56
473.96	766.56
474.417	778.56
474.875	786.56
475.332	798.56
475.789	836.56
476.246	848.56
476.704	904.56
477.161	936.56
477.618	933.56
478.075	945.56
478.532	1015.56
478.989	1096.56
479.446	1213.56
479.903	1253.56
480.36	1308.56
480.817	1432.56
481.274	1559.56
481.731	1659.56
482.188	1804.56
482.645	1952.56
483.102	1973.56
483.558	2127.56
484.015	2192.56
484.472	2216.56
484.929	2132.56
485.385	2084.56
485.842	2034.56
486.299	1958.56
486.755	1804.56
487.212	1690.56
487.668	1498.56
488.125	1450.56
488.582	1308.56
489.038	1240.56
489.494	1217.56
489.951	1206.56
490.407	1147.56
490.864	1129.56
491.32	1104.56
491.776	1108.56
492.233	1121.56
492.689	1090.56
493.145	1084.56
493.602	1062.56
494.058	1098.56
494.514	1055.56
494.97	1087.56
495.426	1076.56
495.882	1075.56
496.338	1086.56
496.794	1090.56
497.251	1135.56
497.707	1127.56
498.163	1091.56
498.618	1099.56
499.074	1071.56
499.53	1126.56
499.986	1148.56
500.442	1113.56
500.898	1114.56
501.354	1102.56
501.809	1148.56
502.265	1123.56
502.721	1125.56
503.177	1148.56
503.632	1154.56
504.088	1128.56
504.543	1116.56
504.999	1142.56
505.455	1141.56
505.91	1173.56
506.366	1166.56
506.821	1163.56
507.277	1138.56
507.732	1145.56
508.187	1125.56
508.643	1154.56
509.098	1160.56
509.553	1180.56
510.009	1149.56
510.464	1172.56
510.919	1188.56
511.375	1227.56
511.83	1229.56
512.285	1272.56
512.74	1295.56
513.195	1290.56
513.65	1303.56
514.105	1326.56
514.56	1362.56
515.015	1366.56
515.47	1380.56
515.925	1307.56
516.38	1368.56
516.835	1341.56
517.29	1337.56
517.745	1361.56
518.2	1336.56
518.655	1285.56
519.109	1306.56
519.564	1290.56
520.019	1282.56
520.474	1260.56
520.928	1205.56
521.383	1226.56
521.838	1210.56
522.292	1229.56
522.747	1233.56
523.201	1182.56
523.656	1178.56
524.11	1225.56
524.565	1198.56
525.019	1192.56
525.474	1209.56
525.928	1212.56
526.382	1224.56
526.837	1163.56
527.291	1242.56
527.745	1208.56
528.2	1200.56
528.654	1190.56
529.108	1193.56
529.562	1156.56
530.016	1182.56
530.47	1188.56
530.925	1179.56
531.379	1143.56
531.833	1194.56
532.287	1168.56
532.741	1208.56
533.195	1180.56
533.649	1173.56
534.103	1184.56
534.556	1175.56
535.01	1164.56
535.464	1174.56
535.918	1223.56
536.372	1197.56
536.826	1215.56
537.279	1190.56
537.733	1192.56
538.187	1235.56
538.64	1165.56
539.094	1204.56
539.548	1230.56
540.001	1214.56
540.455	1216.56
540.908	1223.56
541.362	1251.56
541.815	1236.56
542.269	1292.56
542.722	1251.56
543.175	1248.56
543.629	1278.56
544.082	1278.56
544.536	1312.56
544.989	1331.56
545.442	1307.56
545.895	1319.56
546.349	1321.56
546.802	1289.56
547.255	1319.56
547.708	1346.56
548.161	1349.56
548.614	1387.56
549.067	1380.56
549.52	1357.56
549.973	1334.56
550.426	1324.56
550.879	1318.56
551.332	1298.56
551.785	1342.56
552.238	1363.56
552.691	1331.56
553.144	1357.56
553.596	1380.56
554.049	1418.56
554.502	1420.56
554.955	1457.56
555.407	1479.56
555.86	1440.56
556.313	1455.56
556.765	1444.56
557.218	1410.56
557.67	1403.56
558.123	1406.56
558.576	1401.56
559.028	1382.56
559.48	1402.56
559.933	1406.56
560.385	1363.56
560.838	1342.56
561.29	1294.56
561.742	1262.56
562.195	1198.56
562.647	1220.56
563.099	1236.56
563.551	1238.56
564.004	1264.56
564.456	1242.56
564.908	1204.56
565.36	1199.56
565.812	1172.56
566.264	1114.56
566.716	1163.56
567.168	1119.56
567.62	1137.56
568.072	1113.56
568.524	1119.56
568.976	1096.56
569.428	1107.56
569.88	1089.56
570.332	1088.56
570.784	1092.56
571.235	1091.56
571.687	1125.56
572.139	1119.56
572.59	1136.56
573.042	1140.56
573.494	1141.56
573.945	1084.56
574.397	1075.56
574.849	1108.56
575.3	1068.56
575.752	1076.56
576.203	1058.56
576.655	1082.56
577.106	1068.56
577.557	1055.56
578.009	1028.56
578.46	1043.56
578.912	1048.56
579.363	1062.56
579.814	1046.56
580.265	1040.56
580.717	1046.56
581.168	1038.56
581.619	1042.56
582.07	1062.56
582.521	1040.56
582.972	1070.56
583.423	1036.56
583.875	1070.56
584.326	1055.56
584.777	1122.56
585.227	1100.56
585.678	1110.56
586.129	1150.56
586.58	1130.56
587.031	1165.56
587.482	1200.56
587.933	1217.56
588.384	1193.56
588.834	1193.56
589.285	1182.56
589.736	1184.56
590.186	1159.56
590.637	1190.56
591.088	1151.56
591.538	1089.56
591.989	1113.56
592.439	1078.56
592.89	1102.56
593.34	1085.56
593.791	1074.56
594.241	1036.56
594.692	1073.56
595.142	1044.56
595.593	1073.56
596.043	1037.56
596.493	1066.56
596.943	1064.56
597.394	1114.56
597.844	1080.56
598.294	1114.56
598.744	1164.56
599.195	1219.56
599.645	1269.56
600.095	1348.56
600.545	1390.56
600.995	1468.56
601.445	1487.56
601.895	1519.56
602.345	1609.56
602.795	1613.56
603.245	1554.56
603.695	1453.56
604.145	1402.56
604.594	1347.56
605.044	1262.56
605.494	1202.56
605.944	1136.56
606.393	1105.56
606.843	1068.56
607.293	1096.56
607.743	1086.56
608.192	1068.56
608.642	1113.56
609.091	1075.56
609.541	1096.56
609.99	1107.56
610.44	1073.56
610.889	1061.56
611.339	1054.56
611.788	1030.56
612.238	1076.56
612.687	1046.56
613.136	1060.56
613.586	1071.56
614.035	1076.56
614.484	1056.56
614.933	1070.56
615.383	1045.56
615.832	1035.56
616.281	1064.56
616.73	1012.56
617.179	985.56
617.628	970.56
618.077	963.56
618.526	922.56
618.975	911.56
619.424	902.56
619.873	913.56
620.322	919.56
620.771	926.56
621.22	908.56
621.669	873.56
622.118	878.56
622.567	874.56
623.015	833.56
623.464	844.56
623.913	835.56
624.361	839.56
624.81	830.56
625.259	838.56
625.707	832.56
626.156	838.56
626.604	814.56
627.053	863.56
627.501	862.56
627.95	843.56
628.398	869.56
628.847	837.56
629.295	856.56
629.744	828.56
630.192	857.56
630.64	832.56
631.089	794.56
631.537	814.56
631.985	789.56
632.433	781.56
632.881	763.56
633.33	769.56
633.778	769.56
634.226	795.56
634.674	786.56
635.122	800.56
635.57	802.56
636.018	834.56
636.466	826.56
636.914	791.56
637.362	831.56
637.81	836.56
638.258	845.56
638.705	887.56
639.153	888.56
639.601	894.56
640.049	890.56
640.497	952.56
640.944	994.56
641.392	959.56
641.84	905.56
642.287	867.56
642.735	858.56
643.182	795.56
643.63	853.56
644.078	841.56
644.525	847.56
644.973	864.56
645.42	868.56
645.867	892.56
646.315	912.56
646.762	941.56
647.21	975.56
647.657	1039.56
648.104	1054.56
648.551	1080.56
648.999	1144.56
649.446	1207.56
649.893	1337.56
650.34	1496.56
650.787	1831.56
651.234	2261.56
651.682	2966.56
652.129	4025.56
652.576	5797.56
653.023	7983.56
653.47	9860.56
653.917	10996.56
654.363	11462.56
654.81	12187.56
655.257	12880.56
655.704	9922.56
656.151	5922.56
656.598	3794.56
657.044	2686.56
657.491	2069.56
657.938	1770.56
658.385	1456.56
658.831	1275.56
659.278	1148.56
659.724	1038.56
660.171	982.56
660.618	926.56
661.064	885.56
661.511	868.56
661.957	823.56
662.404	826.56
662.85	806.56
663.296	790.56
663.743	796.56
664.189	768.56
664.635	770.56
665.082	740.56
665.528	751.56
665.974	748.56
666.42	726.56
666.867	726.56
667.313	673.56
667.759	655.56
668.205	649.56
668.651	649.56
669.097	703.56
669.543	678.56
669.989	687.56
670.435	705.56
670.881	675.56
671.327	720.56
671.773	750.56
672.219	776.56
672.665	827.56
673.11	863.56
673.556	873.56
674.002	896.56
674.448	922.56
674.893	813.56
675.339	714.56
675.785	656.56
676.23	659.56
676.676	599.56
677.122	565.56
677.567	568.56
678.013	562.56
678.458	576.56
678.904	564.56
679.349	560.56
679.794	535.56
680.24	530.56
680.685	532.56
681.131	556.56
681.576	530.56
682.021	540.56
682.466	537.56
682.912	533.56
683.357	541.56
683.802	590.56
684.247	667.56
684.692	725.56
685.137	705.56
685.583	734.56
686.028	757.56
686.473	773.56
686.918	667.56
687.363	614.56
687.807	587.56
688.252	565.56
688.697	552.56
689.142	539.56
689.587	529.56
690.032	512.56
690.477	532.56
690.921	546.56
691.366	614.56
691.811	630.56
692.255	643.56
692.7	731.56
693.145	905.56
693.589	1327.56
694.034	1818.56
694.478	2022.56
694.923	1816.56
695.367	2302.56
695.812	2144.56
696.256	937.56
696.701	603.56
697.145	540.56
697.59	522.56
698.034	516.56
698.478	507.56
698.922	513.56
699.367	518.56
699.811	527.56
700.255	584.56
700.699	604.56
701.143	650.56
701.588	687.56
702.032	727.56
702.476	728.56
702.92	771.56
703.364	888.56
703.808	1264.56
704.252	1709.56
704.696	1879.56
705.14	1794.56
705.584	2186.56
706.027	1854.56
706.471	911.56
706.915	638.56
707.359	545.56
707.803	506.56
708.246	473.56
708.69	487.56
709.134	482.56
709.577	489.56
710.021	477.56
710.465	476.56
710.908	493.56
711.352	485.56
711.795	511.56
712.239	566.56
712.682	620.56
713.126	590.56
713.569	614.56
714.012	560.56
714.456	470.56
714.899	448.56
715.342	431.56
715.786	415.56
716.229	426.56
716.672	414.56
717.115	396.56
717.558	410.56
718.002	413.56
718.445	443.56
718.888	442.56
719.331	490.56
719.774	462.56
720.217	471.56
720.66	475.56
721.103	430.56
721.546	398.56
721.989	408.56
722.432	388.56
722.874	380.56
723.317	395.56
723.76	409.56
724.203	465.56
724.645	576.56
725.088	720.56
725.531	733.56
725.974	733.56
726.416	780.56
726.859	530.56
727.301	408.56
727.744	393.56
728.187	370.56
728.629	390.56
729.071	416.56
729.514	416.56
729.956	437.56
730.399	451.56
730.841	454.56
731.283	437.56
731.726	426.56
732.168	434.56
732.61	425.56
733.053	473.56
733.495	516.56
733.937	546.56
734.379	598.56
734.821	713.56
735.263	976.56
735.705	1638.56
736.148	2745.56
736.59	3173.56
737.032	2964.56
737.474	3210.56
737.916	1562.56
738.357	798.56
738.799	542.56
739.241	515.56
739.683	481.56
740.125	491.56
740.567	495.56
741.008	526.56
741.45	557.56
741.892	540.56
742.334	553.56
742.775	582.56
743.217	564.56
743.658	504.56
744.1	472.56
744.542	533.56
744.983	577.56
745.425	575.56
745.866	586.56
746.307	538.56
