Data from 20170802-ORNL-NYSim-Air_HRD10391_10-37-09-629.txt Node
Date: Wed Aug 02 10:37:09 EDT 2017
User: Ender
Spectrometer: HR+D1039
Trigger mode: 0
Integration Time (sec): 1.510000E-3
Scans to average: 1
Electric dark correction enabled: true
Nonlinearity correction enabled: false
Boxcar width: 0
XAxis mode: Wavelengths
Number of Pixels in Spectrum: 2048
>>>>>Begin Spectral Data<<<<<
187.836	10.44
188.309	10.44
188.782	10.44
189.255	10.44
189.728	-1.56
190.201	0.44
190.674	-12.56
191.147	0.44
191.619	-17.56
192.092	-13.56
192.565	-3.56
193.038	-2.56
193.511	4.44
193.984	2.44
194.456	15.44
194.929	0.44
195.402	12.44
195.874	-5.56
196.347	18.44
196.82	39.44
197.292	28.44
197.765	31.44
198.237	32.44
198.71	53.44
199.182	67.44
199.655	48.44
200.127	61.44
200.6	54.44
201.072	57.44
201.544	51.44
202.017	62.44
202.489	67.44
202.961	63.44
203.433	80.44
203.906	64.44
204.378	70.44
204.85	55.44
205.322	88.44
205.794	89.44
206.266	76.44
206.739	85.44
207.211	83.44
207.683	77.44
208.155	90.44
208.627	93.44
209.099	96.44
209.57	114.44
210.042	92.44
210.514	92.44
210.986	107.44
211.458	64.44
211.93	86.44
212.402	76.44
212.873	78.44
213.345	80.44
213.817	80.44
214.288	89.44
214.76	66.44
215.232	82.44
215.703	83.44
216.175	91.44
216.646	77.44
217.118	84.44
217.589	81.44
218.061	88.44
218.532	83.44
219.004	82.44
219.475	83.44
219.946	85.44
220.418	75.44
220.889	79.44
221.36	79.44
221.832	72.44
222.303	79.44
222.774	84.44
223.245	81.44
223.717	78.44
224.188	82.44
224.659	77.44
225.13	87.44
225.601	75.44
226.072	88.44
226.543	71.44
227.014	80.44
227.485	73.44
227.956	80.44
228.427	80.44
228.898	83.44
229.369	97.44
229.839	79.44
230.31	80.44
230.781	91.44
231.252	78.44
231.722	99.44
232.193	92.44
232.664	66.44
233.135	78.44
233.605	89.44
234.076	83.44
234.546	87.44
235.017	86.44
235.487	96.44
235.958	83.44
236.428	77.44
236.899	74.44
237.369	89.44
237.84	96.44
238.31	92.44
238.78	84.44
239.251	80.44
239.721	84.44
240.191	86.44
240.662	70.44
241.132	78.44
241.602	80.44
242.072	99.44
242.542	94.44
243.013	84.44
243.483	84.44
243.953	87.44
244.423	90.44
244.893	85.44
245.363	107.44
245.833	96.44
246.303	92.44
246.773	102.44
247.243	94.44
247.712	98.44
248.182	99.44
248.652	102.44
249.122	104.44
249.592	100.44
250.061	90.44
250.531	84.44
251.001	96.44
251.471	90.44
251.94	91.44
252.41	94.44
252.879	78.44
253.349	90.44
253.818	87.44
254.288	86.44
254.757	95.44
255.227	83.44
255.696	102.44
256.166	94.44
256.635	98.44
257.105	103.44
257.574	93.44
258.043	103.44
258.513	91.44
258.982	91.44
259.451	76.44
259.92	89.44
260.389	96.44
260.859	107.44
261.328	98.44
261.797	105.44
262.266	101.44
262.735	90.44
263.204	90.44
263.673	80.44
264.142	96.44
264.611	108.44
265.08	101.44
265.549	98.44
266.018	91.44
266.487	108.44
266.955	100.44
267.424	98.44
267.893	111.44
268.362	106.44
268.83	101.44
269.299	107.44
269.768	103.44
270.236	112.44
270.705	106.44
271.174	105.44
271.642	98.44
272.111	105.44
272.579	94.44
273.048	102.44
273.516	102.44
273.985	87.44
274.453	106.44
274.922	97.44
275.39	109.44
275.858	111.44
276.327	114.44
276.795	108.44
277.263	98.44
277.731	106.44
278.2	99.44
278.668	104.44
279.136	98.44
279.604	103.44
280.072	122.44
280.54	129.44
281.008	105.44
281.477	109.44
281.945	112.44
282.413	112.44
282.881	103.44
283.348	113.44
283.816	122.44
284.284	107.44
284.752	103.44
285.22	114.44
285.688	107.44
286.156	122.44
286.623	100.44
287.091	127.44
287.559	108.44
288.026	103.44
288.494	112.44
288.962	120.44
289.429	117.44
289.897	100.44
290.364	102.44
290.832	127.44
291.3	131.44
291.767	126.44
292.234	123.44
292.702	131.44
293.169	116.44
293.637	121.44
294.104	115.44
294.571	124.44
295.039	130.44
295.506	110.44
295.973	127.44
296.44	119.44
296.908	111.44
297.375	128.44
297.842	139.44
298.309	118.44
298.776	114.44
299.243	131.44
299.71	118.44
300.177	116.44
300.644	128.44
301.111	123.44
301.578	114.44
302.045	117.44
302.512	126.44
302.979	127.44
303.446	133.44
303.913	139.44
304.379	119.44
304.846	125.44
305.313	125.44
305.78	137.44
306.246	139.44
306.713	144.44
307.18	135.44
307.646	128.44
308.113	142.44
308.579	144.44
309.046	139.44
309.512	126.44
309.979	129.44
310.445	152.44
310.912	146.44
311.378	124.44
311.845	120.44
312.311	164.44
312.777	138.44
313.244	141.44
313.71	126.44
314.176	138.44
314.642	148.44
315.109	164.44
315.575	156.44
316.041	147.44
316.507	150.44
316.973	149.44
317.439	139.44
317.905	144.44
318.371	156.44
318.837	139.44
319.303	145.44
319.769	137.44
320.235	149.44
320.701	160.44
321.167	142.44
321.633	163.44
322.099	158.44
322.564	152.44
323.03	163.44
323.496	160.44
323.962	141.44
324.427	137.44
324.893	146.44
325.359	159.44
325.824	158.44
326.29	157.44
326.755	163.44
327.221	164.44
327.686	140.44
328.152	158.44
328.617	176.44
329.083	177.44
329.548	161.44
330.014	172.44
330.479	164.44
330.944	183.44
331.41	167.44
331.875	168.44
332.34	166.44
332.805	139.44
333.271	166.44
333.736	154.44
334.201	170.44
334.666	158.44
335.131	168.44
335.596	164.44
336.061	163.44
336.526	157.44
336.991	179.44
337.456	174.44
337.921	163.44
338.386	165.44
338.851	181.44
339.316	177.44
339.781	175.44
340.246	192.44
340.711	164.44
341.175	168.44
341.64	192.44
342.105	181.44
342.569	188.44
343.034	177.44
343.499	180.44
343.963	181.44
344.428	192.44
344.893	202.44
345.357	180.44
345.822	190.44
346.286	186.44
346.751	205.44
347.215	200.44
347.679	187.44
348.144	230.44
348.608	208.44
349.073	202.44
349.537	200.44
350.001	201.44
350.465	204.44
350.93	216.44
351.394	205.44
351.858	230.44
352.322	220.44
352.786	202.44
353.25	206.44
353.715	219.44
354.179	238.44
354.643	237.44
355.107	238.44
355.571	258.44
356.035	224.44
356.498	223.44
356.962	223.44
357.426	215.44
357.89	228.44
358.354	225.44
358.818	228.44
359.281	238.44
359.745	214.44
360.209	212.44
360.673	212.44
361.136	212.44
361.6	251.44
362.064	233.44
362.527	239.44
362.991	246.44
363.454	239.44
363.918	230.44
364.381	236.44
364.845	232.44
365.308	226.44
365.772	236.44
366.235	240.44
366.698	232.44
367.162	236.44
367.625	225.44
368.088	249.44
368.552	253.44
369.015	257.44
369.478	265.44
369.941	244.44
370.404	263.44
370.867	238.44
371.331	272.44
371.794	269.44
372.257	248.44
372.72	232.44
373.183	242.44
373.646	281.44
374.109	255.44
374.572	278.44
375.035	267.44
375.497	270.44
375.96	275.44
376.423	296.44
376.886	281.44
377.349	268.44
377.811	276.44
378.274	280.44
378.737	295.44
379.199	288.44
379.662	278.44
380.125	294.44
380.587	278.44
381.05	298.44
381.512	302.44
381.975	292.44
382.437	315.44
382.9	292.44
383.362	321.44
383.825	288.44
384.287	319.44
384.75	285.44
385.212	304.44
385.674	298.44
386.136	310.44
386.599	318.44
387.061	287.44
387.523	326.44
387.985	295.44
388.447	337.44
388.91	310.44
389.372	317.44
389.834	306.44
390.296	309.44
390.758	294.44
391.22	316.44
391.682	305.44
392.144	332.44
392.606	323.44
393.068	315.44
393.529	338.44
393.991	363.44
394.453	318.44
394.915	312.44
395.377	306.44
395.838	333.44
396.3	312.44
396.762	320.44
397.224	326.44
397.685	321.44
398.147	328.44
398.608	325.44
399.07	312.44
399.531	322.44
399.993	336.44
400.454	343.44
400.916	330.44
401.377	344.44
401.839	353.44
402.3	340.44
402.762	319.44
403.223	394.44
403.684	376.44
404.145	372.44
404.607	354.44
405.068	370.44
405.529	368.44
405.99	380.44
406.451	380.44
406.913	375.44
407.374	371.44
407.835	348.44
408.296	387.44
408.757	389.44
409.218	378.44
409.679	390.44
410.14	399.44
410.601	412.44
411.062	423.44
411.522	396.44
411.983	408.44
412.444	418.44
412.905	419.44
413.366	438.44
413.826	438.44
414.287	479.44
414.748	573.44
415.208	574.44
415.669	473.44
416.13	468.44
416.59	460.44
417.051	478.44
417.511	488.44
417.972	508.44
418.432	518.44
418.893	600.44
419.353	603.44
419.814	472.44
420.274	430.44
420.734	409.44
421.195	408.44
421.655	417.44
422.115	402.44
422.576	420.44
423.036	428.44
423.496	467.44
423.956	462.44
424.416	471.44
424.876	516.44
425.336	524.44
425.797	530.44
426.257	532.44
426.717	492.44
427.177	458.44
427.637	466.44
428.097	500.44
428.556	517.44
429.016	508.44
429.476	521.44
429.936	540.44
430.396	514.44
430.856	544.44
431.315	550.44
431.775	600.44
432.235	618.44
432.694	634.44
433.154	612.44
433.614	577.44
434.073	582.44
434.533	540.44
434.993	504.44
435.452	521.44
435.912	486.44
436.371	494.44
436.83	491.44
437.29	466.44
437.749	490.44
438.209	469.44
438.668	507.44
439.127	471.44
439.587	479.44
440.046	471.44
440.505	478.44
440.964	473.44
441.424	490.44
441.883	528.44
442.342	470.44
442.801	452.44
443.26	434.44
443.719	474.44
444.178	457.44
444.637	484.44
445.096	470.44
445.555	479.44
446.014	457.44
446.473	475.44
446.932	472.44
447.391	457.44
447.849	479.44
448.308	476.44
448.767	493.44
449.226	488.44
449.685	503.44
450.143	486.44
450.602	508.44
451.061	474.44
451.519	469.44
451.978	477.44
452.436	460.44
452.895	460.44
453.353	471.44
453.812	459.44
454.27	480.44
454.729	494.44
455.187	471.44
455.646	492.44
456.104	512.44
456.562	496.44
457.021	506.44
457.479	461.44
457.937	500.44
458.395	537.44
458.854	527.44
459.312	498.44
459.77	478.44
460.228	538.44
460.686	498.44
461.144	509.44
461.602	508.44
462.06	510.44
462.518	520.44
462.976	504.44
463.434	529.44
463.892	504.44
464.35	555.44
464.808	541.44
465.266	573.44
465.724	559.44
466.181	548.44
466.639	561.44
467.097	547.44
467.555	589.44
468.012	567.44
468.47	608.44
468.928	616.44
469.385	594.44
469.843	632.44
470.3	630.44
470.758	640.44
471.215	683.44
471.673	679.44
472.13	680.44
472.588	696.44
473.045	689.44
473.503	694.44
473.96	729.44
474.417	744.44
474.875	753.44
475.332	808.44
475.789	815.44
476.246	803.44
476.704	817.44
477.161	850.44
477.618	884.44
478.075	911.44
478.532	989.44
478.989	1086.44
479.446	1122.44
479.903	1172.44
480.36	1287.44
480.817	1339.44
481.274	1396.44
481.731	1586.44
482.188	1693.44
482.645	1807.44
483.102	1845.44
483.558	1966.44
484.015	2108.44
484.472	2122.44
484.929	2052.44
485.385	1965.44
485.842	1901.44
486.299	1846.44
486.755	1748.44
487.212	1574.44
487.668	1445.44
488.125	1350.44
488.582	1250.44
489.038	1202.44
489.494	1158.44
489.951	1125.44
490.407	1088.44
490.864	1093.44
491.32	1046.44
491.776	1053.44
492.233	1059.44
492.689	1043.44
493.145	1047.44
493.602	1026.44
494.058	1048.44
494.514	1031.44
494.97	1016.44
495.426	1048.44
495.882	994.44
496.338	1045.44
496.794	1044.44
497.251	1034.44
497.707	1074.44
498.163	1064.44
498.618	1066.44
499.074	1047.44
499.53	1063.44
499.986	1076.44
500.442	1034.44
500.898	1068.44
501.354	1050.44
501.809	1085.44
502.265	1041.44
502.721	1081.44
503.177	1075.44
503.632	1100.44
504.088	1094.44
504.543	1073.44
504.999	1126.44
505.455	1074.44
505.91	1058.44
506.366	1067.44
506.821	1081.44
507.277	1125.44
507.732	1058.44
508.187	1091.44
508.643	1139.44
509.098	1096.44
509.553	1122.44
510.009	1137.44
510.464	1134.44
510.919	1190.44
511.375	1190.44
511.83	1203.44
512.285	1213.44
512.74	1182.44
513.195	1210.44
513.65	1241.44
514.105	1238.44
514.56	1276.44
515.015	1286.44
515.47	1286.44
515.925	1253.44
516.38	1242.44
516.835	1284.44
517.29	1306.44
517.745	1280.44
518.2	1265.44
518.655	1207.44
519.109	1237.44
519.564	1197.44
520.019	1211.44
520.474	1195.44
520.928	1215.44
521.383	1192.44
521.838	1170.44
522.292	1142.44
522.747	1190.44
523.201	1174.44
523.656	1133.44
524.11	1164.44
524.565	1156.44
525.019	1149.44
525.474	1123.44
525.928	1138.44
526.382	1129.44
526.837	1130.44
527.291	1160.44
527.745	1136.44
528.2	1143.44
528.654	1126.44
529.108	1128.44
529.562	1114.44
530.016	1128.44
530.47	1114.44
530.925	1118.44
531.379	1121.44
531.833	1136.44
532.287	1155.44
532.741	1133.44
533.195	1150.44
533.649	1140.44
534.103	1174.44
534.556	1151.44
535.01	1130.44
535.464	1118.44
535.918	1141.44
536.372	1178.44
536.826	1138.44
537.279	1144.44
537.733	1129.44
538.187	1140.44
538.64	1145.44
539.094	1152.44
539.548	1165.44
540.001	1183.44
540.455	1191.44
540.908	1207.44
541.362	1188.44
541.815	1203.44
542.269	1212.44
542.722	1229.44
543.175	1260.44
543.629	1250.44
544.082	1264.44
544.536	1252.44
544.989	1222.44
545.442	1264.44
545.895	1298.44
546.349	1257.44
546.802	1266.44
547.255	1230.44
547.708	1270.44
548.161	1286.44
548.614	1302.44
549.067	1288.44
549.52	1287.44
549.973	1260.44
550.426	1281.44
550.879	1244.44
551.332	1266.44
551.785	1292.44
552.238	1281.44
552.691	1296.44
553.144	1286.44
553.596	1343.44
554.049	1339.44
554.502	1370.44
554.955	1382.44
555.407	1416.44
555.86	1385.44
556.313	1353.44
556.765	1355.44
557.218	1356.44
557.67	1362.44
558.123	1318.44
558.576	1307.44
559.028	1330.44
559.48	1315.44
559.933	1334.44
560.385	1296.44
560.838	1265.44
561.29	1235.44
561.742	1220.44
562.195	1178.44
562.647	1202.44
563.099	1175.44
563.551	1167.44
564.004	1154.44
564.456	1154.44
564.908	1168.44
565.36	1170.44
565.812	1116.44
566.264	1085.44
566.716	1082.44
567.168	1064.44
567.62	1060.44
568.072	1076.44
568.524	1054.44
568.976	1034.44
569.428	1044.44
569.88	1034.44
570.332	1030.44
570.784	1084.44
571.235	1081.44
571.687	1056.44
572.139	1052.44
572.59	1098.44
573.042	1079.44
573.494	1071.44
573.945	1053.44
574.397	1056.44
574.849	1041.44
575.3	1047.44
575.752	1034.44
576.203	1023.44
576.655	1038.44
577.106	984.44
577.557	990.44
578.009	1022.44
578.46	979.44
578.912	1002.44
579.363	1010.44
579.814	1005.44
580.265	963.44
580.717	1018.44
581.168	992.44
581.619	1029.44
582.07	1047.44
582.521	975.44
582.972	1020.44
583.423	998.44
583.875	1028.44
584.326	1037.44
584.777	1035.44
585.227	1024.44
585.678	1074.44
586.129	1067.44
586.58	1082.44
587.031	1096.44
587.482	1078.44
587.933	1098.44
588.384	1148.44
588.834	1102.44
589.285	1173.44
589.736	1120.44
590.186	1081.44
590.637	1132.44
591.088	1072.44
591.538	1075.44
591.989	1048.44
592.439	1034.44
592.89	1002.44
593.34	1033.44
593.791	1042.44
594.241	991.44
594.692	1014.44
595.142	994.44
595.593	1002.44
596.043	1002.44
596.493	1050.44
596.943	990.44
597.394	1055.44
597.844	1058.44
598.294	1054.44
598.744	1122.44
599.195	1178.44
599.645	1209.44
600.095	1255.44
600.545	1349.44
600.995	1397.44
601.445	1382.44
601.895	1494.44
602.345	1533.44
602.795	1556.44
603.245	1487.44
603.695	1416.44
604.145	1324.44
604.594	1264.44
605.044	1190.44
605.494	1148.44
605.944	1138.44
606.393	1088.44
606.843	1062.44
607.293	1062.44
607.743	1062.44
608.192	1024.44
608.642	1024.44
609.091	1042.44
609.541	1009.44
609.99	1054.44
610.44	1017.44
610.889	984.44
611.339	996.44
611.788	974.44
612.238	999.44
612.687	1000.44
613.136	994.44
613.586	1018.44
614.035	1037.44
614.484	1029.44
614.933	1024.44
615.383	990.44
615.832	972.44
616.281	977.44
616.73	944.44
617.179	921.44
617.628	934.44
618.077	901.44
618.526	885.44
618.975	875.44
619.424	864.44
619.873	870.44
620.322	873.44
620.771	862.44
621.22	856.44
621.669	875.44
622.118	827.44
622.567	848.44
623.015	820.44
623.464	792.44
623.913	803.44
624.361	842.44
624.81	797.44
625.259	789.44
625.707	774.44
626.156	762.44
626.604	799.44
627.053	765.44
627.501	826.44
627.95	814.44
628.398	818.44
628.847	799.44
629.295	822.44
629.744	807.44
630.192	782.44
630.64	774.44
631.089	785.44
631.537	768.44
631.985	751.44
632.433	740.44
632.881	775.44
633.33	764.44
633.778	750.44
634.226	734.44
634.674	759.44
635.122	767.44
635.57	770.44
636.018	768.44
636.466	766.44
636.914	804.44
637.362	776.44
637.81	808.44
638.258	808.44
638.705	829.44
639.153	853.44
639.601	872.44
640.049	894.44
640.497	884.44
640.944	917.44
641.392	910.44
641.84	825.44
642.287	816.44
642.735	794.44
643.182	784.44
643.63	782.44
644.078	781.44
644.525	805.44
644.973	834.44
645.42	787.44
645.867	838.44
646.315	858.44
646.762	914.44
647.21	908.44
647.657	986.44
648.104	969.44
648.551	1024.44
648.999	1077.44
649.446	1136.44
649.893	1240.44
650.34	1445.44
650.787	1688.44
651.234	2092.44
651.682	2778.44
652.129	3874.44
652.576	5370.44
653.023	7454.44
653.47	9064.44
653.917	10168.44
654.363	10763.44
654.81	11472.44
655.257	11916.44
655.704	9074.44
656.151	5504.44
656.598	3521.44
657.044	2536.44
657.491	1984.44
657.938	1612.44
658.385	1381.44
658.831	1237.44
659.278	1099.44
659.724	1008.44
660.171	950.44
660.618	896.44
661.064	884.44
661.511	821.44
661.957	783.44
662.404	769.44
662.85	812.44
663.296	747.44
663.743	740.44
664.189	712.44
664.635	748.44
665.082	723.44
665.528	718.44
665.974	718.44
666.42	685.44
666.867	680.44
667.313	652.44
667.759	654.44
668.205	635.44
668.651	620.44
669.097	621.44
669.543	657.44
669.989	676.44
670.435	645.44
670.881	646.44
671.327	650.44
671.773	736.44
672.219	766.44
672.665	789.44
673.11	816.44
673.556	830.44
674.002	873.44
674.448	876.44
674.893	787.44
675.339	670.44
675.785	654.44
676.23	595.44
676.676	581.44
677.122	557.44
677.567	545.44
678.013	547.44
678.458	520.44
678.904	503.44
679.349	542.44
679.794	519.44
680.24	512.44
680.685	512.44
681.131	508.44
681.576	501.44
682.021	508.44
682.466	548.44
682.912	523.44
683.357	533.44
683.802	573.44
684.247	603.44
684.692	650.44
685.137	676.44
685.583	710.44
686.028	756.44
686.473	712.44
686.918	658.44
687.363	597.44
687.807	552.44
688.252	560.44
688.697	519.44
689.142	497.44
689.587	508.44
690.032	484.44
690.477	525.44
690.921	550.44
691.366	565.44
691.811	587.44
692.255	616.44
692.7	650.44
693.145	874.44
693.589	1276.44
694.034	1684.44
694.478	1912.44
694.923	1754.44
695.367	2215.44
695.812	2008.44
696.256	836.44
696.701	585.44
697.145	522.44
697.59	488.44
698.034	469.44
698.478	502.44
698.922	478.44
699.367	476.44
699.811	493.44
700.255	526.44
700.699	565.44
701.143	621.44
701.588	654.44
702.032	676.44
702.476	690.44
702.92	698.44
703.364	816.44
703.808	1167.44
704.252	1608.44
704.696	1816.44
705.14	1711.44
705.584	2131.44
706.027	1708.44
706.471	873.44
706.915	568.44
707.359	502.44
707.803	478.44
708.246	468.44
708.69	459.44
709.134	451.44
709.577	462.44
710.021	422.44
710.465	434.44
710.908	466.44
711.352	456.44
711.795	485.44
712.239	550.44
712.682	559.44
713.126	533.44
713.569	575.44
714.012	524.44
714.456	453.44
714.899	444.44
715.342	424.44
715.786	392.44
716.229	398.44
716.672	394.44
717.115	383.44
717.558	377.44
718.002	394.44
718.445	402.44
718.888	413.44
719.331	433.44
719.774	444.44
720.217	434.44
720.66	412.44
721.103	404.44
721.546	391.44
721.989	390.44
722.432	388.44
722.874	371.44
723.317	349.44
723.76	401.44
724.203	427.44
724.645	522.44
725.088	652.44
725.531	693.44
725.974	708.44
726.416	744.44
726.859	500.44
727.301	384.44
727.744	378.44
728.187	331.44
728.629	367.44
729.071	355.44
729.514	387.44
729.956	422.44
730.399	427.44
730.841	437.44
731.283	430.44
731.726	392.44
732.168	414.44
732.61	424.44
733.053	456.44
733.495	470.44
733.937	538.44
734.379	571.44
734.821	679.44
735.263	960.44
735.705	1548.44
736.148	2476.44
736.59	2905.44
737.032	2788.44
737.474	3014.44
737.916	1505.44
738.357	747.44
738.799	512.44
739.241	458.44
739.683	437.44
740.125	443.44
740.567	480.44
741.008	483.44
741.45	533.44
741.892	562.44
742.334	552.44
742.775	530.44
743.217	538.44
743.658	492.44
744.1	452.44
744.542	468.44
744.983	570.44
745.425	550.44
745.866	562.44
746.307	492.44
746.749	484.44
