Data from 20170802-ORNL-NYSim-Air_HRD10391_10-37-29-639.txt Node
Date: Wed Aug 02 10:37:29 EDT 2017
User: Ender
Spectrometer: HR+D1039
Trigger mode: 0
Integration Time (sec): 1.510000E-3
Scans to average: 1
Electric dark correction enabled: true
Nonlinearity correction enabled: false
Boxcar width: 0
XAxis mode: Wavelengths
Number of Pixels in Spectrum: 2048
>>>>>Begin Spectral Data<<<<<
187.836	-7.12
188.309	-7.12
188.782	-7.12
189.255	-0.12
189.728	-16.12
190.201	0.88
190.674	-14.12
191.147	-4.12
191.619	-5.12
192.092	-1.12
192.565	6.88
193.038	12.88
193.511	2.88
193.984	-15.12
194.456	-4.12
194.929	11.88
195.402	7.88
195.874	23.88
196.347	19.88
196.82	27.88
197.292	30.88
197.765	35.88
198.237	36.88
198.71	35.88
199.182	37.88
199.655	39.88
200.127	30.88
200.6	69.88
201.072	62.88
201.544	59.88
202.017	71.88
202.489	86.88
202.961	73.88
203.433	80.88
203.906	67.88
204.378	77.88
204.85	72.88
205.322	84.88
205.794	89.88
206.266	79.88
206.739	86.88
207.211	59.88
207.683	95.88
208.155	73.88
208.627	92.88
209.099	85.88
209.57	94.88
210.042	64.88
210.514	82.88
210.986	85.88
211.458	77.88
211.93	89.88
212.402	81.88
212.873	88.88
213.345	83.88
213.817	88.88
214.288	94.88
214.76	85.88
215.232	78.88
215.703	93.88
216.175	74.88
216.646	78.88
217.118	88.88
217.589	89.88
218.061	95.88
218.532	84.88
219.004	73.88
219.475	85.88
219.946	75.88
220.418	79.88
220.889	66.88
221.36	69.88
221.832	91.88
222.303	70.88
222.774	58.88
223.245	76.88
223.717	91.88
224.188	85.88
224.659	81.88
225.13	81.88
225.601	83.88
226.072	85.88
226.543	80.88
227.014	57.88
227.485	90.88
227.956	75.88
228.427	75.88
228.898	83.88
229.369	85.88
229.839	79.88
230.31	85.88
230.781	82.88
231.252	78.88
231.722	96.88
232.193	89.88
232.664	99.88
233.135	73.88
233.605	66.88
234.076	102.88
234.546	75.88
235.017	85.88
235.487	73.88
235.958	85.88
236.428	72.88
236.899	79.88
237.369	89.88
237.84	75.88
238.31	74.88
238.78	80.88
239.251	86.88
239.721	59.88
240.191	89.88
240.662	99.88
241.132	75.88
241.602	98.88
242.072	97.88
242.542	71.88
243.013	96.88
243.483	71.88
243.953	79.88
244.423	82.88
244.893	85.88
245.363	84.88
245.833	83.88
246.303	62.88
246.773	92.88
247.243	90.88
247.712	88.88
248.182	84.88
248.652	87.88
249.122	97.88
249.592	90.88
250.061	102.88
250.531	104.88
251.001	94.88
251.471	94.88
251.94	79.88
252.41	95.88
252.879	115.88
253.349	78.88
253.818	105.88
254.288	91.88
254.757	93.88
255.227	94.88
255.696	82.88
256.166	97.88
256.635	86.88
257.105	85.88
257.574	91.88
258.043	80.88
258.513	87.88
258.982	96.88
259.451	90.88
259.92	101.88
260.389	83.88
260.859	89.88
261.328	85.88
261.797	89.88
262.266	88.88
262.735	103.88
263.204	88.88
263.673	92.88
264.142	105.88
264.611	93.88
265.08	101.88
265.549	89.88
266.018	103.88
266.487	90.88
266.955	103.88
267.424	89.88
267.893	108.88
268.362	101.88
268.83	97.88
269.299	110.88
269.768	83.88
270.236	100.88
270.705	101.88
271.174	105.88
271.642	100.88
272.111	97.88
272.579	107.88
273.048	102.88
273.516	98.88
273.985	121.88
274.453	93.88
274.922	110.88
275.39	94.88
275.858	92.88
276.327	94.88
276.795	102.88
277.263	114.88
277.731	103.88
278.2	102.88
278.668	105.88
279.136	103.88
279.604	109.88
280.072	114.88
280.54	96.88
281.008	95.88
281.477	99.88
281.945	105.88
282.413	103.88
282.881	104.88
283.348	108.88
283.816	102.88
284.284	104.88
284.752	102.88
285.22	103.88
285.688	119.88
286.156	106.88
286.623	114.88
287.091	96.88
287.559	119.88
288.026	103.88
288.494	109.88
288.962	127.88
289.429	99.88
289.897	104.88
290.364	97.88
290.832	125.88
291.3	111.88
291.767	125.88
292.234	125.88
292.702	96.88
293.169	119.88
293.637	120.88
294.104	123.88
294.571	123.88
295.039	127.88
295.506	122.88
295.973	112.88
296.44	104.88
296.908	112.88
297.375	115.88
297.842	111.88
298.309	149.88
298.776	107.88
299.243	121.88
299.71	126.88
300.177	108.88
300.644	109.88
301.111	119.88
301.578	124.88
302.045	113.88
302.512	121.88
302.979	123.88
303.446	121.88
303.913	120.88
304.379	137.88
304.846	139.88
305.313	116.88
305.78	138.88
306.246	141.88
306.713	132.88
307.18	137.88
307.646	135.88
308.113	135.88
308.579	135.88
309.046	127.88
309.512	135.88
309.979	128.88
310.445	147.88
310.912	147.88
311.378	136.88
311.845	152.88
312.311	152.88
312.777	139.88
313.244	151.88
313.71	148.88
314.176	156.88
314.642	123.88
315.109	160.88
315.575	147.88
316.041	149.88
316.507	131.88
316.973	153.88
317.439	140.88
317.905	143.88
318.371	153.88
318.837	155.88
319.303	163.88
319.769	158.88
320.235	152.88
320.701	147.88
321.167	148.88
321.633	151.88
322.099	147.88
322.564	163.88
323.03	159.88
323.496	122.88
323.962	137.88
324.427	136.88
324.893	165.88
325.359	159.88
325.824	160.88
326.29	148.88
326.755	170.88
327.221	163.88
327.686	174.88
328.152	176.88
328.617	180.88
329.083	161.88
329.548	159.88
330.014	172.88
330.479	162.88
330.944	162.88
331.41	173.88
331.875	149.88
332.34	152.88
332.805	179.88
333.271	179.88
333.736	189.88
334.201	169.88
334.666	163.88
335.131	171.88
335.596	165.88
336.061	171.88
336.526	158.88
336.991	162.88
337.456	178.88
337.921	157.88
338.386	153.88
338.851	173.88
339.316	191.88
339.781	197.88
340.246	172.88
340.711	171.88
341.175	187.88
341.64	199.88
342.105	193.88
342.569	176.88
343.034	193.88
343.499	170.88
343.963	181.88
344.428	163.88
344.893	192.88
345.357	189.88
345.822	203.88
346.286	217.88
346.751	191.88
347.215	199.88
347.679	213.88
348.144	230.88
348.608	205.88
349.073	198.88
349.537	215.88
350.001	218.88
350.465	214.88
350.93	202.88
351.394	239.88
351.858	217.88
352.322	216.88
352.786	243.88
353.25	235.88
353.715	197.88
354.179	198.88
354.643	236.88
355.107	242.88
355.571	238.88
356.035	214.88
356.498	213.88
356.962	220.88
357.426	235.88
357.89	239.88
358.354	248.88
358.818	217.88
359.281	225.88
359.745	225.88
360.209	226.88
360.673	222.88
361.136	211.88
361.6	229.88
362.064	233.88
362.527	253.88
362.991	259.88
363.454	229.88
363.918	231.88
364.381	236.88
364.845	231.88
365.308	232.88
365.772	223.88
366.235	228.88
366.698	249.88
367.162	243.88
367.625	241.88
368.088	255.88
368.552	249.88
369.015	238.88
369.478	250.88
369.941	246.88
370.404	263.88
370.867	239.88
371.331	245.88
371.794	249.88
372.257	253.88
372.72	260.88
373.183	280.88
373.646	249.88
374.109	259.88
374.572	253.88
375.035	263.88
375.497	273.88
375.96	255.88
376.423	254.88
376.886	263.88
377.349	313.88
377.811	273.88
378.274	286.88
378.737	253.88
379.199	295.88
379.662	279.88
380.125	288.88
380.587	288.88
381.05	269.88
381.512	293.88
381.975	282.88
382.437	303.88
382.9	316.88
383.362	293.88
383.825	304.88
384.287	306.88
384.75	303.88
385.212	307.88
385.674	298.88
386.136	311.88
386.599	297.88
387.061	308.88
387.523	329.88
387.985	335.88
388.447	322.88
388.91	322.88
389.372	319.88
389.834	325.88
390.296	313.88
390.758	306.88
391.22	312.88
391.682	301.88
392.144	313.88
392.606	327.88
393.068	332.88
393.529	351.88
393.991	357.88
394.453	318.88
394.915	324.88
395.377	327.88
395.838	305.88
396.3	324.88
396.762	307.88
397.224	312.88
397.685	335.88
398.147	323.88
398.608	333.88
399.07	351.88
399.531	333.88
399.993	325.88
400.454	351.88
400.916	359.88
401.377	371.88
401.839	362.88
402.3	339.88
402.762	373.88
403.223	394.88
403.684	396.88
404.145	381.88
404.607	375.88
405.068	363.88
405.529	370.88
405.99	390.88
406.451	369.88
406.913	349.88
407.374	343.88
407.835	390.88
408.296	370.88
408.757	384.88
409.218	391.88
409.679	379.88
410.14	367.88
410.601	387.88
411.062	375.88
411.522	409.88
411.983	407.88
412.444	400.88
412.905	403.88
413.366	427.88
413.826	448.88
414.287	471.88
414.748	549.88
415.208	600.88
415.669	499.88
416.13	473.88
416.59	455.88
417.051	462.88
417.511	462.88
417.972	536.88
418.432	576.88
418.893	594.88
419.353	581.88
419.814	465.88
420.274	442.88
420.734	422.88
421.195	438.88
421.655	444.88
422.115	446.88
422.576	434.88
423.036	444.88
423.496	467.88
423.956	508.88
424.416	483.88
424.876	544.88
425.336	535.88
425.797	532.88
426.257	548.88
426.717	487.88
427.177	474.88
427.637	484.88
428.097	495.88
428.556	511.88
429.016	537.88
429.476	522.88
429.936	527.88
430.396	542.88
430.856	565.88
431.315	576.88
431.775	595.88
432.235	637.88
432.694	629.88
433.154	621.88
433.614	576.88
434.073	568.88
434.533	504.88
434.993	515.88
435.452	514.88
435.912	522.88
436.371	520.88
436.83	511.88
437.29	467.88
437.749	469.88
438.209	486.88
438.668	475.88
439.127	504.88
439.587	502.88
440.046	454.88
440.505	480.88
440.964	483.88
441.424	502.88
441.883	520.88
442.342	470.88
442.801	465.88
443.26	475.88
443.719	472.88
444.178	471.88
444.637	480.88
445.096	458.88
445.555	479.88
446.014	456.88
446.473	467.88
446.932	469.88
447.391	483.88
447.849	495.88
448.308	499.88
448.767	485.88
449.226	508.88
449.685	493.88
450.143	529.88
450.602	518.88
451.061	479.88
451.519	487.88
451.978	488.88
452.436	497.88
452.895	492.88
453.353	479.88
453.812	489.88
454.27	501.88
454.729	447.88
455.187	487.88
455.646	497.88
456.104	513.88
456.562	496.88
457.021	489.88
457.479	484.88
457.937	472.88
458.395	487.88
458.854	512.88
459.312	506.88
459.77	468.88
460.228	517.88
460.686	538.88
461.144	518.88
461.602	517.88
462.06	509.88
462.518	511.88
462.976	524.88
463.434	551.88
463.892	523.88
464.35	560.88
464.808	548.88
465.266	547.88
465.724	570.88
466.181	568.88
466.639	561.88
467.097	561.88
467.555	597.88
468.012	572.88
468.47	588.88
468.928	622.88
469.385	605.88
469.843	615.88
470.3	639.88
470.758	644.88
471.215	653.88
471.673	671.88
472.13	697.88
472.588	709.88
473.045	688.88
473.503	720.88
473.96	734.88
474.417	738.88
474.875	765.88
475.332	807.88
475.789	836.88
476.246	843.88
476.704	851.88
477.161	881.88
477.618	899.88
478.075	931.88
478.532	992.88
478.989	1075.88
479.446	1142.88
479.903	1229.88
480.36	1322.88
480.817	1384.88
481.274	1538.88
481.731	1627.88
482.188	1744.88
482.645	1841.88
483.102	1959.88
483.558	2069.88
484.015	2174.88
484.472	2179.88
484.929	2098.88
485.385	2004.88
485.842	1973.88
486.299	1929.88
486.755	1802.88
487.212	1585.88
487.668	1461.88
488.125	1347.88
488.582	1227.88
489.038	1221.88
489.494	1166.88
489.951	1163.88
490.407	1119.88
490.864	1107.88
491.32	1079.88
491.776	1115.88
492.233	1098.88
492.689	1049.88
493.145	1080.88
493.602	1056.88
494.058	1041.88
494.514	1035.88
494.97	1012.88
495.426	1049.88
495.882	1054.88
496.338	1052.88
496.794	1076.88
497.251	1095.88
497.707	1075.88
498.163	1077.88
498.618	1040.88
499.074	1053.88
499.53	1040.88
499.986	1071.88
500.442	1095.88
500.898	1075.88
501.354	1073.88
501.809	1051.88
502.265	1092.88
502.721	1106.88
503.177	1109.88
503.632	1111.88
504.088	1090.88
504.543	1131.88
504.999	1142.88
505.455	1158.88
505.91	1110.88
506.366	1095.88
506.821	1074.88
507.277	1134.88
507.732	1118.88
508.187	1110.88
508.643	1152.88
509.098	1090.88
509.553	1166.88
510.009	1160.88
510.464	1168.88
510.919	1183.88
511.375	1191.88
511.83	1182.88
512.285	1201.88
512.74	1223.88
513.195	1255.88
513.65	1239.88
514.105	1297.88
514.56	1267.88
515.015	1351.88
515.47	1317.88
515.925	1310.88
516.38	1300.88
516.835	1311.88
517.29	1283.88
517.745	1298.88
518.2	1271.88
518.655	1244.88
519.109	1238.88
519.564	1274.88
520.019	1248.88
520.474	1186.88
520.928	1220.88
521.383	1190.88
521.838	1184.88
522.292	1206.88
522.747	1167.88
523.201	1192.88
523.656	1175.88
524.11	1174.88
524.565	1168.88
525.019	1173.88
525.474	1150.88
525.928	1170.88
526.382	1187.88
526.837	1157.88
527.291	1168.88
527.745	1135.88
528.2	1176.88
528.654	1127.88
529.108	1142.88
529.562	1177.88
530.016	1165.88
530.47	1131.88
530.925	1135.88
531.379	1144.88
531.833	1160.88
532.287	1171.88
532.741	1163.88
533.195	1130.88
533.649	1167.88
534.103	1139.88
534.556	1167.88
535.01	1151.88
535.464	1157.88
535.918	1155.88
536.372	1146.88
536.826	1150.88
537.279	1144.88
537.733	1172.88
538.187	1161.88
538.64	1155.88
539.094	1171.88
539.548	1181.88
540.001	1178.88
540.455	1195.88
540.908	1171.88
541.362	1231.88
541.815	1199.88
542.269	1242.88
542.722	1231.88
543.175	1261.88
543.629	1241.88
544.082	1247.88
544.536	1262.88
544.989	1282.88
545.442	1279.88
545.895	1308.88
546.349	1305.88
546.802	1289.88
547.255	1303.88
547.708	1291.88
548.161	1283.88
548.614	1302.88
549.067	1316.88
549.52	1301.88
549.973	1315.88
550.426	1283.88
550.879	1291.88
551.332	1295.88
551.785	1277.88
552.238	1324.88
552.691	1320.88
553.144	1327.88
553.596	1307.88
554.049	1383.88
554.502	1388.88
554.955	1390.88
555.407	1412.88
555.86	1412.88
556.313	1420.88
556.765	1373.88
557.218	1388.88
557.67	1380.88
558.123	1342.88
558.576	1379.88
559.028	1336.88
559.48	1345.88
559.933	1331.88
560.385	1335.88
560.838	1271.88
561.29	1244.88
561.742	1284.88
562.195	1247.88
562.647	1200.88
563.099	1202.88
563.551	1228.88
564.004	1181.88
564.456	1162.88
564.908	1158.88
565.36	1152.88
565.812	1147.88
566.264	1141.88
566.716	1103.88
567.168	1095.88
567.62	1092.88
568.072	1097.88
568.524	1085.88
568.976	1065.88
569.428	1063.88
569.88	1085.88
570.332	1091.88
570.784	1077.88
571.235	1089.88
571.687	1068.88
572.139	1059.88
572.59	1057.88
573.042	1139.88
573.494	1104.88
573.945	1085.88
574.397	1069.88
574.849	1092.88
575.3	1055.88
575.752	1068.88
576.203	1045.88
576.655	1071.88
577.106	1035.88
577.557	1040.88
578.009	1015.88
578.46	1023.88
578.912	1012.88
579.363	1032.88
579.814	1035.88
580.265	1014.88
580.717	1009.88
581.168	1016.88
581.619	1022.88
582.07	1027.88
582.521	1034.88
582.972	1003.88
583.423	1045.88
583.875	1041.88
584.326	1031.88
584.777	1057.88
585.227	1109.88
585.678	1074.88
586.129	1107.88
586.58	1120.88
587.031	1089.88
587.482	1124.88
587.933	1123.88
588.384	1147.88
588.834	1129.88
589.285	1120.88
589.736	1119.88
590.186	1133.88
590.637	1113.88
591.088	1123.88
591.538	1092.88
591.989	1093.88
592.439	1074.88
592.89	1060.88
593.34	1067.88
593.791	1057.88
594.241	1007.88
594.692	1040.88
595.142	1018.88
595.593	1053.88
596.043	1027.88
596.493	1033.88
596.943	1036.88
597.394	1042.88
597.844	1105.88
598.294	1087.88
598.744	1119.88
599.195	1183.88
599.645	1213.88
600.095	1294.88
600.545	1376.88
600.995	1435.88
601.445	1407.88
601.895	1523.88
602.345	1546.88
602.795	1545.88
603.245	1518.88
603.695	1430.88
604.145	1383.88
604.594	1319.88
605.044	1249.88
605.494	1155.88
605.944	1083.88
606.393	1090.88
606.843	1046.88
607.293	1103.88
607.743	1078.88
608.192	1063.88
608.642	1051.88
609.091	1090.88
609.541	1072.88
609.99	1098.88
610.44	1087.88
610.889	1055.88
611.339	1038.88
611.788	1009.88
612.238	979.88
612.687	991.88
613.136	1011.88
613.586	1020.88
614.035	1015.88
614.484	1059.88
614.933	1037.88
615.383	1048.88
615.832	970.88
616.281	990.88
616.73	931.88
617.179	929.88
617.628	929.88
618.077	923.88
618.526	919.88
618.975	907.88
619.424	867.88
619.873	905.88
620.322	855.88
620.771	871.88
621.22	849.88
621.669	835.88
622.118	845.88
622.567	825.88
623.015	839.88
623.464	812.88
623.913	807.88
624.361	841.88
624.81	828.88
625.259	801.88
625.707	791.88
626.156	817.88
626.604	820.88
627.053	835.88
627.501	843.88
627.95	797.88
628.398	829.88
628.847	823.88
629.295	829.88
629.744	831.88
630.192	793.88
630.64	805.88
631.089	764.88
631.537	781.88
631.985	782.88
632.433	760.88
632.881	769.88
633.33	763.88
633.778	753.88
634.226	758.88
634.674	809.88
635.122	775.88
635.57	770.88
636.018	763.88
636.466	793.88
636.914	787.88
637.362	796.88
637.81	815.88
638.258	853.88
638.705	819.88
639.153	869.88
639.601	880.88
640.049	877.88
640.497	915.88
640.944	900.88
641.392	903.88
641.84	884.88
642.287	824.88
642.735	813.88
643.182	805.88
643.63	799.88
644.078	807.88
644.525	831.88
644.973	835.88
645.42	853.88
645.867	867.88
646.315	887.88
646.762	892.88
647.21	921.88
647.657	961.88
648.104	1010.88
648.551	1019.88
648.999	1101.88
649.446	1160.88
649.893	1254.88
650.34	1470.88
650.787	1795.88
651.234	2178.88
651.682	2870.88
652.129	3982.88
652.576	5692.88
653.023	7732.88
653.47	9573.88
653.917	10768.88
654.363	11383.88
654.81	12011.88
655.257	12468.88
655.704	9589.88
656.151	5822.88
656.598	3712.88
657.044	2598.88
657.491	2041.88
657.938	1653.88
658.385	1378.88
658.831	1254.88
659.278	1131.88
659.724	1082.88
660.171	1017.88
660.618	923.88
661.064	867.88
661.511	799.88
661.957	825.88
662.404	791.88
662.85	802.88
663.296	794.88
663.743	753.88
664.189	749.88
664.635	766.88
665.082	731.88
665.528	686.88
665.974	693.88
666.42	682.88
666.867	671.88
667.313	673.88
667.759	671.88
668.205	639.88
668.651	647.88
669.097	634.88
669.543	653.88
669.989	651.88
670.435	658.88
670.881	658.88
671.327	687.88
671.773	697.88
672.219	775.88
672.665	801.88
673.11	825.88
673.556	845.88
674.002	845.88
674.448	911.88
674.893	804.88
675.339	699.88
675.785	635.88
676.23	593.88
676.676	592.88
677.122	588.88
677.567	551.88
678.013	559.88
678.458	535.88
678.904	523.88
679.349	562.88
679.794	527.88
680.24	507.88
680.685	503.88
681.131	511.88
681.576	500.88
682.021	518.88
682.466	540.88
682.912	545.88
683.357	534.88
683.802	563.88
684.247	621.88
684.692	662.88
685.137	663.88
685.583	727.88
686.028	725.88
686.473	717.88
686.918	623.88
687.363	585.88
687.807	548.88
688.252	533.88
688.697	534.88
689.142	505.88
689.587	510.88
690.032	501.88
690.477	517.88
690.921	511.88
691.366	583.88
691.811	614.88
692.255	623.88
692.7	696.88
693.145	901.88
693.589	1350.88
694.034	1735.88
694.478	1963.88
694.923	1791.88
695.367	2176.88
695.812	2007.88
696.256	887.88
696.701	597.88
697.145	528.88
697.59	515.88
698.034	484.88
698.478	503.88
698.922	477.88
699.367	498.88
699.811	506.88
700.255	554.88
700.699	597.88
701.143	621.88
701.588	645.88
702.032	669.88
702.476	743.88
702.92	728.88
703.364	818.88
703.808	1191.88
704.252	1604.88
704.696	1875.88
705.14	1775.88
705.584	2141.88
706.027	1803.88
706.471	874.88
706.915	631.88
707.359	546.88
707.803	495.88
708.246	481.88
708.69	487.88
709.134	463.88
709.577	477.88
710.021	471.88
710.465	468.88
710.908	474.88
711.352	467.88
711.795	484.88
712.239	535.88
712.682	571.88
713.126	566.88
713.569	611.88
714.012	549.88
714.456	487.88
714.899	487.88
715.342	423.88
715.786	426.88
716.229	410.88
716.672	406.88
717.115	391.88
717.558	392.88
718.002	401.88
718.445	417.88
718.888	440.88
719.331	399.88
719.774	463.88
720.217	449.88
720.66	430.88
721.103	415.88
721.546	396.88
721.989	371.88
722.432	370.88
722.874	393.88
723.317	366.88
723.76	402.88
724.203	438.88
724.645	564.88
725.088	666.88
725.531	729.88
725.974	735.88
726.416	763.88
726.859	523.88
727.301	406.88
727.744	375.88
728.187	370.88
728.629	371.88
729.071	388.88
729.514	412.88
729.956	406.88
730.399	448.88
730.841	427.88
731.283	399.88
731.726	401.88
732.168	413.88
732.61	414.88
733.053	456.88
733.495	489.88
733.937	529.88
734.379	584.88
734.821	682.88
735.263	953.88
735.705	1610.88
736.148	2570.88
736.59	3033.88
737.032	2830.88
737.474	3054.88
737.916	1541.88
738.357	757.88
738.799	545.88
739.241	462.88
739.683	483.88
740.125	481.88
740.567	490.88
741.008	516.88
741.45	519.88
741.892	558.88
742.334	539.88
742.775	539.88
743.217	555.88
743.658	503.88
744.1	460.88
744.542	459.88
744.983	553.88
745.425	555.88
745.866	605.88
746.307	502.88
746.749	493.88
