Data from 20170802-ORNL-NYSim-Air_HRD10391_10-36-44-619.txt Node
Date: Wed Aug 02 10:36:44 EDT 2017
User: Ender
Spectrometer: HR+D1039
Trigger mode: 0
Integration Time (sec): 1.510000E-3
Scans to average: 1
Electric dark correction enabled: true
Nonlinearity correction enabled: false
Boxcar width: 0
XAxis mode: Wavelengths
Number of Pixels in Spectrum: 2048
>>>>>Begin Spectral Data<<<<<
187.836	-2.12
188.309	-2.12
188.782	-2.12
189.255	-1.12
189.728	-11.12
190.201	5.88
190.674	-12.12
191.147	-10.12
191.619	-12.12
192.092	-10.12
192.565	-4.12
193.038	1.88
193.511	5.88
193.984	2.88
194.456	2.88
194.929	10.88
195.402	12.88
195.874	19.88
196.347	40.88
196.82	33.88
197.292	26.88
197.765	47.88
198.237	27.88
198.71	37.88
199.182	50.88
199.655	44.88
200.127	60.88
200.6	56.88
201.072	52.88
201.544	57.88
202.017	71.88
202.489	70.88
202.961	82.88
203.433	70.88
203.906	72.88
204.378	86.88
204.85	70.88
205.322	77.88
205.794	79.88
206.266	94.88
206.739	67.88
207.211	95.88
207.683	63.88
208.155	85.88
208.627	91.88
209.099	80.88
209.57	98.88
210.042	82.88
210.514	89.88
210.986	73.88
211.458	87.88
211.93	91.88
212.402	91.88
212.873	90.88
213.345	78.88
213.817	89.88
214.288	83.88
214.76	95.88
215.232	84.88
215.703	86.88
216.175	87.88
216.646	80.88
217.118	97.88
217.589	83.88
218.061	82.88
218.532	81.88
219.004	75.88
219.475	68.88
219.946	98.88
220.418	86.88
220.889	77.88
221.36	103.88
221.832	72.88
222.303	95.88
222.774	75.88
223.245	89.88
223.717	92.88
224.188	74.88
224.659	69.88
225.13	82.88
225.601	98.88
226.072	81.88
226.543	100.88
227.014	90.88
227.485	72.88
227.956	93.88
228.427	89.88
228.898	80.88
229.369	84.88
229.839	87.88
230.31	87.88
230.781	83.88
231.252	93.88
231.722	75.88
232.193	93.88
232.664	79.88
233.135	93.88
233.605	75.88
234.076	78.88
234.546	86.88
235.017	82.88
235.487	90.88
235.958	101.88
236.428	88.88
236.899	92.88
237.369	83.88
237.84	97.88
238.31	72.88
238.78	89.88
239.251	86.88
239.721	90.88
240.191	81.88
240.662	74.88
241.132	87.88
241.602	96.88
242.072	91.88
242.542	92.88
243.013	86.88
243.483	87.88
243.953	77.88
244.423	93.88
244.893	93.88
245.363	84.88
245.833	98.88
246.303	103.88
246.773	73.88
247.243	106.88
247.712	91.88
248.182	104.88
248.652	85.88
249.122	75.88
249.592	98.88
250.061	94.88
250.531	94.88
251.001	96.88
251.471	104.88
251.94	104.88
252.41	96.88
252.879	83.88
253.349	81.88
253.818	87.88
254.288	83.88
254.757	83.88
255.227	87.88
255.696	103.88
256.166	106.88
256.635	99.88
257.105	89.88
257.574	106.88
258.043	103.88
258.513	87.88
258.982	112.88
259.451	88.88
259.92	87.88
260.389	97.88
260.859	89.88
261.328	102.88
261.797	101.88
262.266	86.88
262.735	87.88
263.204	103.88
263.673	98.88
264.142	96.88
264.611	111.88
265.08	92.88
265.549	105.88
266.018	104.88
266.487	87.88
266.955	104.88
267.424	106.88
267.893	92.88
268.362	102.88
268.83	101.88
269.299	96.88
269.768	105.88
270.236	108.88
270.705	119.88
271.174	110.88
271.642	105.88
272.111	117.88
272.579	103.88
273.048	115.88
273.516	124.88
273.985	106.88
274.453	102.88
274.922	103.88
275.39	105.88
275.858	113.88
276.327	103.88
276.795	108.88
277.263	100.88
277.731	124.88
278.2	94.88
278.668	108.88
279.136	108.88
279.604	97.88
280.072	95.88
280.54	109.88
281.008	116.88
281.477	113.88
281.945	106.88
282.413	116.88
282.881	113.88
283.348	105.88
283.816	115.88
284.284	113.88
284.752	123.88
285.22	123.88
285.688	126.88
286.156	144.88
286.623	110.88
287.091	108.88
287.559	123.88
288.026	125.88
288.494	123.88
288.962	142.88
289.429	126.88
289.897	134.88
290.364	122.88
290.832	106.88
291.3	97.88
291.767	110.88
292.234	120.88
292.702	113.88
293.169	128.88
293.637	140.88
294.104	126.88
294.571	117.88
295.039	113.88
295.506	131.88
295.973	115.88
296.44	116.88
296.908	139.88
297.375	123.88
297.842	118.88
298.309	117.88
298.776	128.88
299.243	126.88
299.71	135.88
300.177	135.88
300.644	132.88
301.111	140.88
301.578	138.88
302.045	137.88
302.512	131.88
302.979	150.88
303.446	137.88
303.913	133.88
304.379	129.88
304.846	128.88
305.313	153.88
305.78	145.88
306.246	154.88
306.713	133.88
307.18	143.88
307.646	142.88
308.113	160.88
308.579	156.88
309.046	156.88
309.512	153.88
309.979	148.88
310.445	161.88
310.912	163.88
311.378	170.88
311.845	138.88
312.311	147.88
312.777	144.88
313.244	154.88
313.71	160.88
314.176	152.88
314.642	164.88
315.109	159.88
315.575	152.88
316.041	163.88
316.507	154.88
316.973	158.88
317.439	156.88
317.905	169.88
318.371	143.88
318.837	164.88
319.303	161.88
319.769	141.88
320.235	165.88
320.701	153.88
321.167	163.88
321.633	164.88
322.099	179.88
322.564	161.88
323.03	152.88
323.496	162.88
323.962	176.88
324.427	170.88
324.893	180.88
325.359	163.88
325.824	164.88
326.29	158.88
326.755	179.88
327.221	171.88
327.686	200.88
328.152	155.88
328.617	172.88
329.083	199.88
329.548	185.88
330.014	178.88
330.479	172.88
330.944	181.88
331.41	192.88
331.875	172.88
332.34	181.88
332.805	188.88
333.271	195.88
333.736	167.88
334.201	190.88
334.666	180.88
335.131	203.88
335.596	193.88
336.061	197.88
336.526	193.88
336.991	185.88
337.456	187.88
337.921	195.88
338.386	205.88
338.851	195.88
339.316	188.88
339.781	199.88
340.246	174.88
340.711	189.88
341.175	189.88
341.64	221.88
342.105	218.88
342.569	214.88
343.034	223.88
343.499	211.88
343.963	216.88
344.428	204.88
344.893	217.88
345.357	195.88
345.822	204.88
346.286	222.88
346.751	243.88
347.215	223.88
347.679	233.88
348.144	236.88
348.608	239.88
349.073	237.88
349.537	256.88
350.001	250.88
350.465	237.88
350.93	224.88
351.394	255.88
351.858	240.88
352.322	247.88
352.786	237.88
353.25	248.88
353.715	251.88
354.179	281.88
354.643	273.88
355.107	258.88
355.571	271.88
356.035	249.88
356.498	263.88
356.962	251.88
357.426	249.88
357.89	239.88
358.354	266.88
358.818	257.88
359.281	250.88
359.745	262.88
360.209	247.88
360.673	274.88
361.136	243.88
361.6	257.88
362.064	273.88
362.527	267.88
362.991	250.88
363.454	244.88
363.918	271.88
364.381	255.88
364.845	279.88
365.308	284.88
365.772	277.88
366.235	267.88
366.698	259.88
367.162	275.88
367.625	305.88
368.088	283.88
368.552	286.88
369.015	292.88
369.478	274.88
369.941	289.88
370.404	291.88
370.867	300.88
371.331	290.88
371.794	284.88
372.257	269.88
372.72	310.88
373.183	281.88
373.646	300.88
374.109	308.88
374.572	317.88
375.035	305.88
375.497	317.88
375.96	302.88
376.423	289.88
376.886	303.88
377.349	321.88
377.811	335.88
378.274	315.88
378.737	311.88
379.199	321.88
379.662	309.88
380.125	331.88
380.587	326.88
381.05	338.88
381.512	325.88
381.975	358.88
382.437	331.88
382.9	366.88
383.362	357.88
383.825	349.88
384.287	355.88
384.75	329.88
385.212	373.88
385.674	347.88
386.136	365.88
386.599	371.88
387.061	355.88
387.523	360.88
387.985	347.88
388.447	352.88
388.91	353.88
389.372	360.88
389.834	364.88
390.296	360.88
390.758	381.88
391.22	382.88
391.682	358.88
392.144	368.88
392.606	365.88
393.068	360.88
393.529	411.88
393.991	376.88
394.453	385.88
394.915	380.88
395.377	377.88
395.838	360.88
396.3	368.88
396.762	357.88
397.224	374.88
397.685	364.88
398.147	380.88
398.608	374.88
399.07	374.88
399.531	397.88
399.993	385.88
400.454	402.88
400.916	397.88
401.377	421.88
401.839	409.88
402.3	417.88
402.762	431.88
403.223	452.88
403.684	456.88
404.145	442.88
404.607	431.88
405.068	431.88
405.529	411.88
405.99	455.88
406.451	454.88
406.913	436.88
407.374	433.88
407.835	433.88
408.296	442.88
408.757	449.88
409.218	446.88
409.679	462.88
410.14	459.88
410.601	482.88
411.062	457.88
411.522	467.88
411.983	453.88
412.444	493.88
412.905	476.88
413.366	506.88
413.826	513.88
414.287	554.88
414.748	643.88
415.208	661.88
415.669	563.88
416.13	540.88
416.59	556.88
417.051	533.88
417.511	545.88
417.972	590.88
418.432	645.88
418.893	676.88
419.353	697.88
419.814	556.88
420.274	472.88
420.734	500.88
421.195	505.88
421.655	485.88
422.115	522.88
422.576	503.88
423.036	497.88
423.496	504.88
423.956	547.88
424.416	583.88
424.876	601.88
425.336	644.88
425.797	615.88
426.257	610.88
426.717	605.88
427.177	545.88
427.637	565.88
428.097	581.88
428.556	586.88
429.016	641.88
429.476	681.88
429.936	636.88
430.396	637.88
430.856	666.88
431.315	637.88
431.775	695.88
432.235	754.88
432.694	759.88
433.154	703.88
433.614	748.88
434.073	697.88
434.533	635.88
434.993	614.88
435.452	587.88
435.912	601.88
436.371	571.88
436.83	589.88
437.29	567.88
437.749	555.88
438.209	553.88
438.668	552.88
439.127	577.88
439.587	594.88
440.046	553.88
440.505	555.88
440.964	551.88
441.424	599.88
441.883	598.88
442.342	562.88
442.801	530.88
443.26	541.88
443.719	563.88
444.178	563.88
444.637	552.88
445.096	546.88
445.555	561.88
446.014	539.88
446.473	518.88
446.932	551.88
447.391	573.88
447.849	548.88
448.308	567.88
448.767	555.88
449.226	565.88
449.685	566.88
450.143	585.88
450.602	579.88
451.061	551.88
451.519	581.88
451.978	570.88
452.436	528.88
452.895	565.88
453.353	539.88
453.812	557.88
454.27	550.88
454.729	557.88
455.187	572.88
455.646	561.88
456.104	550.88
456.562	567.88
457.021	571.88
457.479	547.88
457.937	583.88
458.395	597.88
458.854	575.88
459.312	571.88
459.77	616.88
460.228	573.88
460.686	562.88
461.144	587.88
461.602	583.88
462.06	613.88
462.518	607.88
462.976	604.88
463.434	594.88
463.892	594.88
464.35	621.88
464.808	625.88
465.266	629.88
465.724	645.88
466.181	651.88
466.639	613.88
467.097	662.88
467.555	681.88
468.012	672.88
468.47	703.88
468.928	718.88
469.385	732.88
469.843	733.88
470.3	745.88
470.758	760.88
471.215	753.88
471.673	770.88
472.13	765.88
472.588	829.88
473.045	796.88
473.503	832.88
473.96	835.88
474.417	866.88
474.875	891.88
475.332	903.88
475.789	967.88
476.246	990.88
476.704	1008.88
477.161	1041.88
477.618	1099.88
478.075	1085.88
478.532	1195.88
478.989	1277.88
479.446	1401.88
479.903	1486.88
480.36	1590.88
480.817	1696.88
481.274	1810.88
481.731	1978.88
482.188	2143.88
482.645	2275.88
483.102	2405.88
483.558	2575.88
484.015	2727.88
484.472	2681.88
484.929	2625.88
485.385	2494.88
485.842	2505.88
486.299	2380.88
486.755	2207.88
487.212	1948.88
487.668	1793.88
488.125	1673.88
488.582	1559.88
489.038	1479.88
489.494	1439.88
489.951	1351.88
490.407	1357.88
490.864	1287.88
491.32	1302.88
491.776	1265.88
492.233	1288.88
492.689	1250.88
493.145	1227.88
493.602	1186.88
494.058	1199.88
494.514	1214.88
494.97	1243.88
495.426	1263.88
495.882	1242.88
496.338	1232.88
496.794	1255.88
497.251	1261.88
497.707	1261.88
498.163	1259.88
498.618	1255.88
499.074	1253.88
499.53	1264.88
499.986	1251.88
500.442	1229.88
500.898	1219.88
501.354	1211.88
501.809	1264.88
502.265	1255.88
502.721	1230.88
503.177	1231.88
503.632	1261.88
504.088	1295.88
504.543	1283.88
504.999	1317.88
505.455	1254.88
505.91	1249.88
506.366	1287.88
506.821	1307.88
507.277	1280.88
507.732	1280.88
508.187	1303.88
508.643	1314.88
509.098	1287.88
509.553	1319.88
510.009	1297.88
510.464	1303.88
510.919	1371.88
511.375	1377.88
511.83	1369.88
512.285	1363.88
512.74	1385.88
513.195	1433.88
513.65	1487.88
514.105	1467.88
514.56	1487.88
515.015	1475.88
515.47	1515.88
515.925	1457.88
516.38	1482.88
516.835	1521.88
517.29	1485.88
517.745	1490.88
518.2	1457.88
518.655	1457.88
519.109	1443.88
519.564	1464.88
520.019	1433.88
520.474	1415.88
520.928	1409.88
521.383	1402.88
521.838	1397.88
522.292	1379.88
522.747	1316.88
523.201	1365.88
523.656	1333.88
524.11	1342.88
524.565	1335.88
525.019	1340.88
525.474	1347.88
525.928	1350.88
526.382	1350.88
526.837	1326.88
527.291	1376.88
527.745	1351.88
528.2	1331.88
528.654	1340.88
529.108	1325.88
529.562	1343.88
530.016	1339.88
530.47	1321.88
530.925	1315.88
531.379	1355.88
531.833	1341.88
532.287	1346.88
532.741	1341.88
533.195	1369.88
533.649	1328.88
534.103	1313.88
534.556	1336.88
535.01	1364.88
535.464	1313.88
535.918	1304.88
536.372	1329.88
536.826	1305.88
537.279	1267.88
537.733	1348.88
538.187	1349.88
538.64	1339.88
539.094	1323.88
539.548	1322.88
540.001	1345.88
540.455	1379.88
540.908	1349.88
541.362	1403.88
541.815	1412.88
542.269	1426.88
542.722	1406.88
543.175	1391.88
543.629	1405.88
544.082	1450.88
544.536	1477.88
544.989	1449.88
545.442	1493.88
545.895	1481.88
546.349	1473.88
546.802	1482.88
547.255	1493.88
547.708	1482.88
548.161	1448.88
548.614	1523.88
549.067	1476.88
549.52	1465.88
549.973	1465.88
550.426	1470.88
550.879	1489.88
551.332	1443.88
551.785	1488.88
552.238	1508.88
552.691	1477.88
553.144	1503.88
553.596	1525.88
554.049	1572.88
554.502	1563.88
554.955	1616.88
555.407	1630.88
555.86	1633.88
556.313	1574.88
556.765	1551.88
557.218	1555.88
557.67	1539.88
558.123	1524.88
558.576	1591.88
559.028	1551.88
559.48	1502.88
559.933	1545.88
560.385	1488.88
560.838	1467.88
561.29	1404.88
561.742	1396.88
562.195	1423.88
562.647	1383.88
563.099	1381.88
563.551	1367.88
564.004	1379.88
564.456	1420.88
564.908	1346.88
565.36	1303.88
565.812	1256.88
566.264	1307.88
566.716	1292.88
567.168	1284.88
567.62	1304.88
568.072	1217.88
568.524	1239.88
568.976	1238.88
569.428	1210.88
569.88	1264.88
570.332	1248.88
570.784	1219.88
571.235	1241.88
571.687	1237.88
572.139	1227.88
572.59	1229.88
573.042	1263.88
573.494	1244.88
573.945	1242.88
574.397	1194.88
574.849	1203.88
575.3	1213.88
575.752	1189.88
576.203	1209.88
576.655	1190.88
577.106	1163.88
577.557	1198.88
578.009	1158.88
578.46	1163.88
578.912	1172.88
579.363	1168.88
579.814	1137.88
580.265	1124.88
580.717	1167.88
581.168	1163.88
581.619	1197.88
582.07	1157.88
582.521	1183.88
582.972	1147.88
583.423	1175.88
583.875	1189.88
584.326	1167.88
584.777	1178.88
585.227	1228.88
585.678	1240.88
586.129	1210.88
586.58	1259.88
587.031	1254.88
587.482	1275.88
587.933	1317.88
588.384	1307.88
588.834	1317.88
589.285	1324.88
589.736	1295.88
590.186	1277.88
590.637	1283.88
591.088	1271.88
591.538	1235.88
591.989	1230.88
592.439	1235.88
592.89	1197.88
593.34	1195.88
593.791	1209.88
594.241	1157.88
594.692	1181.88
595.142	1174.88
595.593	1186.88
596.043	1165.88
596.493	1181.88
596.943	1222.88
597.394	1193.88
597.844	1244.88
598.294	1258.88
598.744	1279.88
599.195	1337.88
599.645	1381.88
600.095	1471.88
600.545	1502.88
600.995	1581.88
601.445	1663.88
601.895	1738.88
602.345	1813.88
602.795	1738.88
603.245	1749.88
603.695	1657.88
604.145	1533.88
604.594	1497.88
605.044	1437.88
605.494	1354.88
605.944	1267.88
606.393	1221.88
606.843	1219.88
607.293	1212.88
607.743	1213.88
608.192	1214.88
608.642	1187.88
609.091	1199.88
609.541	1224.88
609.99	1182.88
610.44	1201.88
610.889	1187.88
611.339	1162.88
611.788	1139.88
612.238	1143.88
612.687	1159.88
613.136	1158.88
613.586	1151.88
614.035	1163.88
614.484	1143.88
614.933	1166.88
615.383	1147.88
615.832	1146.88
616.281	1105.88
616.73	1080.88
617.179	1076.88
617.628	1095.88
618.077	1027.88
618.526	1034.88
618.975	1018.88
619.424	999.88
619.873	989.88
620.322	1012.88
620.771	1004.88
621.22	957.88
621.669	978.88
622.118	969.88
622.567	957.88
623.015	947.88
623.464	917.88
623.913	897.88
624.361	915.88
624.81	910.88
625.259	927.88
625.707	922.88
626.156	900.88
626.604	925.88
627.053	923.88
627.501	947.88
627.95	927.88
628.398	968.88
628.847	930.88
629.295	929.88
629.744	928.88
630.192	893.88
630.64	921.88
631.089	900.88
631.537	900.88
631.985	855.88
632.433	877.88
632.881	875.88
633.33	876.88
633.778	863.88
634.226	857.88
634.674	855.88
635.122	879.88
635.57	871.88
636.018	867.88
636.466	899.88
636.914	913.88
637.362	909.88
637.81	935.88
638.258	994.88
638.705	978.88
639.153	1004.88
639.601	1033.88
640.049	1012.88
640.497	1023.88
640.944	1022.88
641.392	1025.88
641.84	1000.88
642.287	919.88
642.735	933.88
643.182	938.88
643.63	918.88
644.078	937.88
644.525	942.88
644.973	979.88
645.42	973.88
645.867	1014.88
646.315	1027.88
646.762	1086.88
647.21	1113.88
647.657	1132.88
648.104	1204.88
648.551	1250.88
648.999	1335.88
649.446	1455.88
649.893	1591.88
650.34	1835.88
650.787	2189.88
651.234	2771.88
651.682	3719.88
652.129	5153.88
652.576	7306.88
653.023	10086.88
653.47	12376.88
653.917	13661.88
654.363	14341.88
654.81	15131.88
655.257	15677.88
655.704	12368.88
656.151	7528.88
656.598	4801.88
657.044	3337.88
657.491	2605.88
657.938	2066.88
658.385	1793.88
658.831	1543.88
659.278	1366.88
659.724	1273.88
660.171	1194.88
660.618	1090.88
661.064	1055.88
661.511	1026.88
661.957	952.88
662.404	955.88
662.85	917.88
663.296	915.88
663.743	883.88
664.189	866.88
664.635	867.88
665.082	869.88
665.528	813.88
665.974	799.88
666.42	784.88
666.867	789.88
667.313	759.88
667.759	768.88
668.205	721.88
668.651	716.88
669.097	731.88
669.543	741.88
669.989	754.88
670.435	757.88
670.881	761.88
671.327	799.88
671.773	809.88
672.219	911.88
672.665	929.88
673.11	977.88
673.556	989.88
674.002	973.88
674.448	1015.88
674.893	911.88
675.339	794.88
675.785	697.88
676.23	681.88
676.676	662.88
677.122	621.88
677.567	628.88
678.013	610.88
678.458	601.88
678.904	618.88
679.349	606.88
679.794	612.88
680.24	560.88
680.685	588.88
681.131	599.88
681.576	617.88
682.021	598.88
682.466	581.88
682.912	620.88
683.357	606.88
683.802	673.88
684.247	715.88
684.692	736.88
685.137	759.88
685.583	820.88
686.028	832.88
686.473	811.88
686.918	749.88
687.363	661.88
687.807	642.88
688.252	580.88
688.697	620.88
689.142	593.88
689.587	551.88
690.032	617.88
690.477	615.88
690.921	615.88
691.366	651.88
691.811	714.88
692.255	715.88
692.7	793.88
693.145	1030.88
693.589	1515.88
694.034	1949.88
694.478	2127.88
694.923	1961.88
695.367	2424.88
695.812	2304.88
696.256	988.88
696.701	650.88
697.145	597.88
697.59	545.88
698.034	517.88
698.478	526.88
698.922	572.88
699.367	541.88
699.811	576.88
700.255	625.88
700.699	674.88
701.143	722.88
701.588	752.88
702.032	789.88
702.476	800.88
702.92	812.88
703.364	905.88
703.808	1325.88
704.252	1831.88
704.696	2069.88
705.14	1929.88
705.584	2415.88
706.027	2023.88
706.471	1023.88
706.915	698.88
707.359	596.88
707.803	581.88
708.246	522.88
708.69	525.88
709.134	561.88
709.577	513.88
710.021	525.88
710.465	509.88
710.908	487.88
711.352	521.88
711.795	575.88
712.239	609.88
712.682	639.88
713.126	623.88
713.569	660.88
714.012	627.88
714.456	531.88
714.899	509.88
715.342	479.88
715.786	487.88
716.229	441.88
716.672	434.88
717.115	452.88
717.558	458.88
718.002	439.88
718.445	464.88
718.888	474.88
719.331	493.88
719.774	475.88
720.217	507.88
720.66	498.88
721.103	461.88
721.546	458.88
721.989	463.88
722.432	410.88
722.874	427.88
723.317	397.88
723.76	465.88
724.203	468.88
724.645	635.88
725.088	767.88
725.531	778.88
725.974	803.88
726.416	847.88
726.859	562.88
727.301	457.88
727.744	425.88
728.187	438.88
728.629	406.88
729.071	417.88
729.514	451.88
729.956	469.88
730.399	483.88
730.841	470.88
731.283	476.88
731.726	476.88
732.168	462.88
732.61	474.88
733.053	527.88
733.495	589.88
733.937	586.88
734.379	667.88
734.821	800.88
735.263	1069.88
735.705	1799.88
736.148	2924.88
736.59	3410.88
737.032	3166.88
737.474	3481.88
737.916	1759.88
738.357	838.88
738.799	606.88
739.241	521.88
739.683	523.88
740.125	512.88
740.567	565.88
741.008	540.88
741.45	584.88
741.892	615.88
742.334	627.88
742.775	629.88
743.217	647.88
743.658	549.88
744.1	530.88
744.542	572.88
744.983	629.88
