Data from 20170802-ORNL-NYSim-Air_HRD10391_10-37-22-637.txt Node
Date: Wed Aug 02 10:37:22 EDT 2017
User: Ender
Spectrometer: HR+D1039
Trigger mode: 0
Integration Time (sec): 1.510000E-3
Scans to average: 1
Electric dark correction enabled: true
Nonlinearity correction enabled: false
Boxcar width: 0
XAxis mode: Wavelengths
Number of Pixels in Spectrum: 2048
>>>>>Begin Spectral Data<<<<<
187.836	3.19
188.309	3.19
188.782	3.19
189.255	9.19
189.728	-14.81
190.201	-0.81
190.674	3.19
191.147	-4.81
191.619	-0.81
192.092	-8.81
192.565	9.19
193.038	1.19
193.511	-3.81
193.984	1.19
194.456	-9.81
194.929	-6.81
195.402	17.19
195.874	6.19
196.347	7.19
196.82	10.19
197.292	25.19
197.765	33.19
198.237	24.19
198.71	19.19
199.182	58.19
199.655	48.19
200.127	39.19
200.6	49.19
201.072	53.19
201.544	58.19
202.017	40.19
202.489	65.19
202.961	45.19
203.433	63.19
203.906	71.19
204.378	64.19
204.85	87.19
205.322	69.19
205.794	89.19
206.266	76.19
206.739	83.19
207.211	76.19
207.683	93.19
208.155	88.19
208.627	73.19
209.099	84.19
209.57	85.19
210.042	79.19
210.514	80.19
210.986	83.19
211.458	85.19
211.93	90.19
212.402	92.19
212.873	75.19
213.345	87.19
213.817	91.19
214.288	69.19
214.76	87.19
215.232	75.19
215.703	84.19
216.175	78.19
216.646	81.19
217.118	75.19
217.589	77.19
218.061	86.19
218.532	75.19
219.004	74.19
219.475	89.19
219.946	75.19
220.418	68.19
220.889	87.19
221.36	93.19
221.832	85.19
222.303	72.19
222.774	72.19
223.245	79.19
223.717	68.19
224.188	60.19
224.659	62.19
225.13	67.19
225.601	70.19
226.072	76.19
226.543	71.19
227.014	69.19
227.485	74.19
227.956	70.19
228.427	79.19
228.898	64.19
229.369	65.19
229.839	67.19
230.31	74.19
230.781	69.19
231.252	53.19
231.722	86.19
232.193	56.19
232.664	71.19
233.135	61.19
233.605	77.19
234.076	87.19
234.546	76.19
235.017	81.19
235.487	68.19
235.958	97.19
236.428	72.19
236.899	78.19
237.369	78.19
237.84	66.19
238.31	78.19
238.78	62.19
239.251	90.19
239.721	83.19
240.191	70.19
240.662	87.19
241.132	83.19
241.602	70.19
242.072	97.19
242.542	92.19
243.013	73.19
243.483	76.19
243.953	84.19
244.423	79.19
244.893	91.19
245.363	96.19
245.833	80.19
246.303	85.19
246.773	91.19
247.243	86.19
247.712	75.19
248.182	83.19
248.652	97.19
249.122	90.19
249.592	93.19
250.061	78.19
250.531	84.19
251.001	111.19
251.471	87.19
251.94	87.19
252.41	80.19
252.879	84.19
253.349	99.19
253.818	91.19
254.288	104.19
254.757	72.19
255.227	99.19
255.696	77.19
256.166	95.19
256.635	85.19
257.105	72.19
257.574	95.19
258.043	90.19
258.513	98.19
258.982	88.19
259.451	103.19
259.92	103.19
260.389	86.19
260.859	89.19
261.328	88.19
261.797	104.19
262.266	88.19
262.735	97.19
263.204	97.19
263.673	87.19
264.142	95.19
264.611	74.19
265.08	90.19
265.549	90.19
266.018	94.19
266.487	104.19
266.955	86.19
267.424	113.19
267.893	96.19
268.362	106.19
268.83	85.19
269.299	77.19
269.768	90.19
270.236	100.19
270.705	110.19
271.174	116.19
271.642	100.19
272.111	100.19
272.579	106.19
273.048	89.19
273.516	93.19
273.985	108.19
274.453	104.19
274.922	93.19
275.39	92.19
275.858	92.19
276.327	110.19
276.795	105.19
277.263	95.19
277.731	110.19
278.2	108.19
278.668	101.19
279.136	87.19
279.604	95.19
280.072	92.19
280.54	109.19
281.008	99.19
281.477	109.19
281.945	98.19
282.413	96.19
282.881	103.19
283.348	111.19
283.816	121.19
284.284	105.19
284.752	106.19
285.22	101.19
285.688	117.19
286.156	108.19
286.623	117.19
287.091	105.19
287.559	107.19
288.026	104.19
288.494	127.19
288.962	109.19
289.429	113.19
289.897	119.19
290.364	105.19
290.832	102.19
291.3	95.19
291.767	115.19
292.234	115.19
292.702	104.19
293.169	101.19
293.637	113.19
294.104	117.19
294.571	112.19
295.039	132.19
295.506	99.19
295.973	117.19
296.44	123.19
296.908	109.19
297.375	111.19
297.842	101.19
298.309	118.19
298.776	99.19
299.243	121.19
299.71	111.19
300.177	130.19
300.644	121.19
301.111	117.19
301.578	105.19
302.045	128.19
302.512	123.19
302.979	117.19
303.446	108.19
303.913	122.19
304.379	142.19
304.846	121.19
305.313	126.19
305.78	122.19
306.246	122.19
306.713	110.19
307.18	131.19
307.646	116.19
308.113	134.19
308.579	132.19
309.046	136.19
309.512	118.19
309.979	142.19
310.445	128.19
310.912	165.19
311.378	118.19
311.845	134.19
312.311	142.19
312.777	118.19
313.244	135.19
313.71	142.19
314.176	155.19
314.642	128.19
315.109	133.19
315.575	135.19
316.041	137.19
316.507	141.19
316.973	141.19
317.439	181.19
317.905	144.19
318.371	137.19
318.837	146.19
319.303	125.19
319.769	139.19
320.235	132.19
320.701	143.19
321.167	151.19
321.633	141.19
322.099	147.19
322.564	138.19
323.03	137.19
323.496	170.19
323.962	159.19
324.427	127.19
324.893	161.19
325.359	161.19
325.824	137.19
326.29	144.19
326.755	167.19
327.221	151.19
327.686	138.19
328.152	147.19
328.617	140.19
329.083	140.19
329.548	154.19
330.014	144.19
330.479	163.19
330.944	144.19
331.41	154.19
331.875	173.19
332.34	143.19
332.805	164.19
333.271	149.19
333.736	161.19
334.201	146.19
334.666	193.19
335.131	173.19
335.596	170.19
336.061	171.19
336.526	176.19
336.991	178.19
337.456	159.19
337.921	169.19
338.386	165.19
338.851	172.19
339.316	170.19
339.781	171.19
340.246	159.19
340.711	169.19
341.175	177.19
341.64	177.19
342.105	190.19
342.569	177.19
343.034	186.19
343.499	171.19
343.963	201.19
344.428	179.19
344.893	186.19
345.357	181.19
345.822	193.19
346.286	182.19
346.751	189.19
347.215	201.19
347.679	214.19
348.144	203.19
348.608	198.19
349.073	187.19
349.537	187.19
350.001	175.19
350.465	208.19
350.93	211.19
351.394	197.19
351.858	199.19
352.322	179.19
352.786	226.19
353.25	218.19
353.715	224.19
354.179	209.19
354.643	210.19
355.107	228.19
355.571	206.19
356.035	222.19
356.498	200.19
356.962	236.19
357.426	201.19
357.89	219.19
358.354	213.19
358.818	230.19
359.281	206.19
359.745	200.19
360.209	224.19
360.673	223.19
361.136	216.19
361.6	209.19
362.064	227.19
362.527	208.19
362.991	235.19
363.454	241.19
363.918	215.19
364.381	218.19
364.845	206.19
365.308	213.19
365.772	240.19
366.235	236.19
366.698	240.19
367.162	230.19
367.625	231.19
368.088	243.19
368.552	223.19
369.015	254.19
369.478	240.19
369.941	238.19
370.404	226.19
370.867	242.19
371.331	240.19
371.794	253.19
372.257	243.19
372.72	245.19
373.183	247.19
373.646	244.19
374.109	267.19
374.572	243.19
375.035	266.19
375.497	240.19
375.96	266.19
376.423	255.19
376.886	277.19
377.349	276.19
377.811	265.19
378.274	259.19
378.737	262.19
379.199	272.19
379.662	277.19
380.125	267.19
380.587	291.19
381.05	282.19
381.512	271.19
381.975	277.19
382.437	277.19
382.9	281.19
383.362	307.19
383.825	297.19
384.287	270.19
384.75	289.19
385.212	275.19
385.674	300.19
386.136	293.19
386.599	299.19
387.061	284.19
387.523	307.19
387.985	305.19
388.447	298.19
388.91	339.19
389.372	298.19
389.834	305.19
390.296	286.19
390.758	324.19
391.22	329.19
391.682	313.19
392.144	313.19
392.606	293.19
393.068	316.19
393.529	332.19
393.991	334.19
394.453	311.19
394.915	303.19
395.377	296.19
395.838	295.19
396.3	340.19
396.762	313.19
397.224	326.19
397.685	301.19
398.147	324.19
398.608	323.19
399.07	322.19
399.531	315.19
399.993	337.19
400.454	346.19
400.916	322.19
401.377	361.19
401.839	354.19
402.3	340.19
402.762	347.19
403.223	362.19
403.684	376.19
404.145	368.19
404.607	349.19
405.068	367.19
405.529	353.19
405.99	359.19
406.451	357.19
406.913	377.19
407.374	325.19
407.835	372.19
408.296	389.19
408.757	368.19
409.218	400.19
409.679	370.19
410.14	379.19
410.601	390.19
411.062	379.19
411.522	395.19
411.983	410.19
412.444	379.19
412.905	411.19
413.366	398.19
413.826	413.19
414.287	452.19
414.748	540.19
415.208	603.19
415.669	471.19
416.13	441.19
416.59	444.19
417.051	435.19
417.511	479.19
417.972	477.19
418.432	525.19
418.893	565.19
419.353	571.19
419.814	454.19
420.274	399.19
420.734	385.19
421.195	418.19
421.655	419.19
422.115	420.19
422.576	413.19
423.036	385.19
423.496	438.19
423.956	443.19
424.416	461.19
424.876	543.19
425.336	521.19
425.797	513.19
426.257	491.19
426.717	467.19
427.177	467.19
427.637	464.19
428.097	465.19
428.556	501.19
429.016	526.19
429.476	507.19
429.936	499.19
430.396	498.19
430.856	530.19
431.315	532.19
431.775	535.19
432.235	611.19
432.694	584.19
433.154	533.19
433.614	578.19
434.073	567.19
434.533	511.19
434.993	483.19
435.452	483.19
435.912	473.19
436.371	487.19
436.83	489.19
437.29	479.19
437.749	485.19
438.209	449.19
438.668	460.19
439.127	478.19
439.587	468.19
440.046	428.19
440.505	453.19
440.964	462.19
441.424	470.19
441.883	481.19
442.342	467.19
442.801	441.19
443.26	438.19
443.719	462.19
444.178	453.19
444.637	440.19
445.096	466.19
445.555	473.19
446.014	457.19
446.473	443.19
446.932	470.19
447.391	474.19
447.849	453.19
448.308	454.19
448.767	464.19
449.226	443.19
449.685	475.19
450.143	507.19
450.602	479.19
451.061	496.19
451.519	478.19
451.978	467.19
452.436	447.19
452.895	465.19
453.353	453.19
453.812	456.19
454.27	480.19
454.729	462.19
455.187	471.19
455.646	461.19
456.104	468.19
456.562	467.19
457.021	487.19
457.479	475.19
457.937	507.19
458.395	490.19
458.854	491.19
459.312	479.19
459.77	499.19
460.228	481.19
460.686	499.19
461.144	481.19
461.602	509.19
462.06	485.19
462.518	496.19
462.976	518.19
463.434	497.19
463.892	527.19
464.35	533.19
464.808	535.19
465.266	524.19
465.724	565.19
466.181	555.19
466.639	553.19
467.097	549.19
467.555	585.19
468.012	573.19
468.47	603.19
468.928	592.19
469.385	599.19
469.843	626.19
470.3	600.19
470.758	623.19
471.215	643.19
471.673	662.19
472.13	682.19
472.588	672.19
473.045	664.19
473.503	702.19
473.96	692.19
474.417	707.19
474.875	733.19
475.332	780.19
475.789	784.19
476.246	782.19
476.704	829.19
477.161	869.19
477.618	877.19
478.075	933.19
478.532	964.19
478.989	1031.19
479.446	1123.19
479.903	1187.19
480.36	1231.19
480.817	1307.19
481.274	1409.19
481.731	1543.19
482.188	1618.19
482.645	1726.19
483.102	1849.19
483.558	1931.19
484.015	2062.19
484.472	2025.19
484.929	2005.19
485.385	1890.19
485.842	1875.19
486.299	1837.19
486.755	1719.19
487.212	1545.19
487.668	1381.19
488.125	1301.19
488.582	1225.19
489.038	1173.19
489.494	1139.19
489.951	1081.19
490.407	1057.19
490.864	1052.19
491.32	1043.19
491.776	1007.19
492.233	1067.19
492.689	1050.19
493.145	1043.19
493.602	1022.19
494.058	1016.19
494.514	985.19
494.97	1009.19
495.426	1066.19
495.882	1008.19
496.338	1009.19
496.794	1038.19
497.251	1056.19
497.707	1034.19
498.163	1084.19
498.618	1063.19
499.074	1037.19
499.53	1015.19
499.986	1013.19
500.442	1055.19
500.898	1005.19
501.354	1040.19
501.809	1033.19
502.265	1030.19
502.721	1047.19
503.177	1029.19
503.632	1055.19
504.088	1049.19
504.543	1068.19
504.999	1085.19
505.455	1083.19
505.91	1077.19
506.366	1088.19
506.821	1093.19
507.277	1063.19
507.732	1081.19
508.187	1059.19
508.643	1102.19
509.098	1097.19
509.553	1097.19
510.009	1081.19
510.464	1112.19
510.919	1136.19
511.375	1153.19
511.83	1169.19
512.285	1163.19
512.74	1185.19
513.195	1195.19
513.65	1214.19
514.105	1250.19
514.56	1258.19
515.015	1274.19
515.47	1286.19
515.925	1281.19
516.38	1257.19
516.835	1228.19
517.29	1209.19
517.745	1229.19
518.2	1263.19
518.655	1230.19
519.109	1203.19
519.564	1173.19
520.019	1161.19
520.474	1165.19
520.928	1172.19
521.383	1143.19
521.838	1134.19
522.292	1132.19
522.747	1162.19
523.201	1142.19
523.656	1116.19
524.11	1105.19
524.565	1138.19
525.019	1129.19
525.474	1119.19
525.928	1112.19
526.382	1108.19
526.837	1129.19
527.291	1099.19
527.745	1115.19
528.2	1101.19
528.654	1118.19
529.108	1123.19
529.562	1131.19
530.016	1090.19
530.47	1123.19
530.925	1086.19
531.379	1109.19
531.833	1151.19
532.287	1132.19
532.741	1125.19
533.195	1122.19
533.649	1131.19
534.103	1108.19
534.556	1127.19
535.01	1122.19
535.464	1108.19
535.918	1134.19
536.372	1138.19
536.826	1113.19
537.279	1115.19
537.733	1138.19
538.187	1152.19
538.64	1118.19
539.094	1137.19
539.548	1171.19
540.001	1135.19
540.455	1163.19
540.908	1131.19
541.362	1165.19
541.815	1196.19
542.269	1206.19
542.722	1185.19
543.175	1224.19
543.629	1204.19
544.082	1228.19
544.536	1238.19
544.989	1227.19
545.442	1210.19
545.895	1219.19
546.349	1205.19
546.802	1215.19
547.255	1213.19
547.708	1258.19
548.161	1224.19
548.614	1233.19
549.067	1286.19
549.52	1269.19
549.973	1239.19
550.426	1265.19
550.879	1250.19
551.332	1279.19
551.785	1261.19
552.238	1222.19
552.691	1261.19
553.144	1264.19
553.596	1288.19
554.049	1272.19
554.502	1347.19
554.955	1346.19
555.407	1388.19
555.86	1319.19
556.313	1376.19
556.765	1308.19
557.218	1365.19
557.67	1329.19
558.123	1289.19
558.576	1290.19
559.028	1295.19
559.48	1313.19
559.933	1333.19
560.385	1313.19
560.838	1270.19
561.29	1195.19
561.742	1185.19
562.195	1176.19
562.647	1179.19
563.099	1159.19
563.551	1125.19
564.004	1164.19
564.456	1144.19
564.908	1144.19
565.36	1121.19
565.812	1079.19
566.264	1072.19
566.716	1050.19
567.168	1057.19
567.62	1073.19
568.072	1065.19
568.524	1057.19
568.976	1027.19
569.428	1030.19
569.88	1055.19
570.332	1034.19
570.784	1056.19
571.235	1056.19
571.687	1039.19
572.139	1046.19
572.59	1055.19
573.042	1050.19
573.494	1041.19
573.945	1042.19
574.397	1027.19
574.849	1025.19
575.3	1032.19
575.752	1005.19
576.203	1045.19
576.655	1030.19
577.106	1017.19
577.557	986.19
578.009	964.19
578.46	1001.19
578.912	961.19
579.363	1011.19
579.814	999.19
580.265	997.19
580.717	966.19
581.168	971.19
581.619	982.19
582.07	988.19
582.521	1000.19
582.972	990.19
583.423	1029.19
583.875	985.19
584.326	981.19
584.777	1021.19
585.227	1051.19
585.678	1036.19
586.129	1054.19
586.58	1049.19
587.031	1074.19
587.482	1102.19
587.933	1107.19
588.384	1133.19
588.834	1099.19
589.285	1114.19
589.736	1104.19
590.186	1068.19
590.637	1100.19
591.088	1080.19
591.538	1051.19
591.989	1047.19
592.439	1037.19
592.89	991.19
593.34	1005.19
593.791	1005.19
594.241	1006.19
594.692	984.19
595.142	984.19
595.593	993.19
596.043	1018.19
596.493	1000.19
596.943	1000.19
597.394	1045.19
597.844	1047.19
598.294	1072.19
598.744	1067.19
599.195	1133.19
599.645	1149.19
600.095	1231.19
600.545	1313.19
600.995	1314.19
601.445	1418.19
601.895	1499.19
602.345	1461.19
602.795	1489.19
603.245	1434.19
603.695	1381.19
604.145	1325.19
604.594	1215.19
605.044	1210.19
605.494	1139.19
605.944	1083.19
606.393	1053.19
606.843	1013.19
607.293	1024.19
607.743	1016.19
608.192	1015.19
608.642	1020.19
609.091	1018.19
609.541	989.19
609.99	1039.19
610.44	986.19
610.889	1010.19
611.339	997.19
611.788	971.19
612.238	966.19
612.687	978.19
613.136	983.19
613.586	987.19
614.035	999.19
614.484	1020.19
614.933	979.19
615.383	984.19
615.832	974.19
616.281	931.19
616.73	926.19
617.179	917.19
617.628	906.19
618.077	885.19
618.526	863.19
618.975	877.19
619.424	847.19
619.873	838.19
620.322	847.19
620.771	867.19
621.22	811.19
621.669	836.19
622.118	805.19
622.567	802.19
623.015	825.19
623.464	815.19
623.913	765.19
624.361	787.19
624.81	795.19
625.259	775.19
625.707	808.19
626.156	779.19
626.604	804.19
627.053	795.19
627.501	809.19
627.95	789.19
628.398	794.19
628.847	815.19
629.295	796.19
629.744	796.19
630.192	753.19
630.64	757.19
631.089	750.19
631.537	751.19
631.985	731.19
632.433	738.19
632.881	704.19
633.33	727.19
633.778	724.19
634.226	763.19
634.674	746.19
635.122	742.19
635.57	752.19
636.018	753.19
636.466	762.19
636.914	749.19
637.362	771.19
637.81	782.19
638.258	781.19
638.705	822.19
639.153	837.19
639.601	865.19
640.049	879.19
640.497	888.19
640.944	893.19
641.392	908.19
641.84	823.19
642.287	808.19
642.735	802.19
643.182	770.19
643.63	771.19
644.078	774.19
644.525	783.19
644.973	797.19
645.42	838.19
645.867	848.19
646.315	862.19
646.762	877.19
647.21	884.19
647.657	971.19
648.104	985.19
648.551	993.19
648.999	1074.19
649.446	1153.19
649.893	1220.19
650.34	1395.19
650.787	1683.19
651.234	2078.19
651.682	2687.19
652.129	3695.19
652.576	5251.19
653.023	7245.19
653.47	8930.19
653.917	9960.19
654.363	10521.19
654.81	11043.19
655.257	11709.19
655.704	8900.19
656.151	5437.19
656.598	3495.19
657.044	2456.19
657.491	1924.19
657.938	1590.19
658.385	1347.19
658.831	1229.19
659.278	1075.19
659.724	972.19
660.171	937.19
660.618	877.19
661.064	825.19
661.511	801.19
661.957	767.19
662.404	791.19
662.85	779.19
663.296	739.19
663.743	721.19
664.189	702.19
664.635	703.19
665.082	715.19
665.528	727.19
665.974	697.19
666.42	665.19
666.867	688.19
667.313	633.19
667.759	657.19
668.205	634.19
668.651	631.19
669.097	627.19
669.543	621.19
669.989	649.19
670.435	621.19
670.881	638.19
671.327	661.19
671.773	699.19
672.219	739.19
672.665	799.19
673.11	793.19
673.556	847.19
674.002	837.19
674.448	832.19
674.893	725.19
675.339	665.19
675.785	621.19
676.23	583.19
676.676	541.19
677.122	560.19
677.567	543.19
678.013	535.19
678.458	513.19
678.904	516.19
679.349	488.19
679.794	503.19
680.24	480.19
680.685	472.19
681.131	484.19
681.576	506.19
682.021	502.19
682.466	504.19
682.912	519.19
683.357	539.19
683.802	542.19
684.247	586.19
684.692	639.19
685.137	676.19
685.583	700.19
686.028	701.19
686.473	700.19
686.918	622.19
687.363	589.19
687.807	567.19
688.252	543.19
688.697	520.19
689.142	478.19
689.587	497.19
690.032	488.19
690.477	505.19
690.921	524.19
691.366	543.19
691.811	544.19
692.255	609.19
692.7	682.19
693.145	864.19
693.589	1281.19
694.034	1715.19
694.478	1905.19
694.923	1727.19
695.367	2081.19
695.812	1985.19
696.256	860.19
696.701	573.19
697.145	509.19
697.59	498.19
698.034	455.19
698.478	462.19
698.922	456.19
699.367	492.19
699.811	486.19
700.255	551.19
700.699	561.19
701.143	609.19
701.588	653.19
702.032	660.19
702.476	709.19
702.92	700.19
703.364	803.19
703.808	1167.19
704.252	1590.19
704.696	1750.19
705.14	1651.19
705.584	2062.19
706.027	1700.19
706.471	845.19
706.915	612.19
707.359	520.19
707.803	470.19
708.246	447.19
708.69	435.19
709.134	442.19
709.577	481.19
710.021	464.19
710.465	439.19
710.908	454.19
711.352	440.19
711.795	508.19
712.239	521.19
712.682	550.19
713.126	537.19
713.569	590.19
714.012	545.19
714.456	478.19
714.899	441.19
715.342	427.19
715.786	406.19
716.229	371.19
716.672	402.19
717.115	382.19
717.558	387.19
718.002	371.19
718.445	433.19
718.888	430.19
719.331	419.19
719.774	437.19
720.217	437.19
720.66	426.19
721.103	395.19
721.546	355.19
721.989	365.19
722.432	353.19
722.874	346.19
723.317	368.19
723.76	368.19
724.203	411.19
724.645	538.19
725.088	668.19
725.531	685.19
725.974	684.19
726.416	743.19
726.859	507.19
727.301	384.19
727.744	362.19
728.187	363.19
728.629	364.19
729.071	373.19
729.514	377.19
729.956	396.19
730.399	419.19
730.841	432.19
731.283	420.19
731.726	401.19
732.168	383.19
732.61	422.19
733.053	457.19
733.495	481.19
733.937	496.19
734.379	571.19
734.821	684.19
735.263	923.19
735.705	1500.19
736.148	2489.19
736.59	2916.19
737.032	2691.19
737.474	2943.19
737.916	1461.19
738.357	710.19
738.799	513.19
739.241	451.19
739.683	428.19
740.125	479.19
740.567	458.19
741.008	479.19
741.45	484.19
741.892	523.19
742.334	550.19
742.775	535.19
743.217	541.19
743.658	468.19
744.1	457.19
744.542	493.19
744.983	545.19
745.425	544.19
745.866	580.19
746.307	508.19
746.749	445.19
747.19	569.19
747.632	915.19
748.073	1689.19
