Data from 20170802-ORNL-NYSim-Air_HRD10391_10-37-39-641.txt Node
Date: Wed Aug 02 10:37:39 EDT 2017
User: Ender
Spectrometer: HR+D1039
Trigger mode: 0
Integration Time (sec): 1.510000E-3
Scans to average: 1
Electric dark correction enabled: true
Nonlinearity correction enabled: false
Boxcar width: 0
XAxis mode: Wavelengths
Number of Pixels in Spectrum: 2048
>>>>>Begin Spectral Data<<<<<
187.836	10.75
188.309	10.75
188.782	10.75
189.255	-10.25
189.728	-0.25
190.201	4.75
190.674	-15.25
191.147	-18.25
191.619	-5.25
192.092	-7.25
192.565	-15.25
193.038	-6.25
193.511	-4.25
193.984	10.75
194.456	17.75
194.929	20.75
195.402	8.75
195.874	8.75
196.347	13.75
196.82	17.75
197.292	32.75
197.765	38.75
198.237	40.75
198.71	37.75
199.182	49.75
199.655	44.75
200.127	55.75
200.6	64.75
201.072	60.75
201.544	70.75
202.017	69.75
202.489	77.75
202.961	72.75
203.433	82.75
203.906	70.75
204.378	79.75
204.85	77.75
205.322	80.75
205.794	93.75
206.266	85.75
206.739	73.75
207.211	92.75
207.683	100.75
208.155	93.75
208.627	90.75
209.099	86.75
209.57	83.75
210.042	77.75
210.514	88.75
210.986	80.75
211.458	89.75
211.93	92.75
212.402	81.75
212.873	80.75
213.345	85.75
213.817	80.75
214.288	64.75
214.76	84.75
215.232	86.75
215.703	79.75
216.175	85.75
216.646	67.75
217.118	85.75
217.589	73.75
218.061	92.75
218.532	71.75
219.004	93.75
219.475	81.75
219.946	78.75
220.418	94.75
220.889	82.75
221.36	87.75
221.832	80.75
222.303	82.75
222.774	83.75
223.245	71.75
223.717	98.75
224.188	77.75
224.659	82.75
225.13	85.75
225.601	97.75
226.072	75.75
226.543	83.75
227.014	75.75
227.485	79.75
227.956	84.75
228.427	61.75
228.898	90.75
229.369	71.75
229.839	90.75
230.31	84.75
230.781	87.75
231.252	91.75
231.722	77.75
232.193	77.75
232.664	92.75
233.135	82.75
233.605	95.75
234.076	79.75
234.546	88.75
235.017	84.75
235.487	93.75
235.958	83.75
236.428	77.75
236.899	75.75
237.369	92.75
237.84	88.75
238.31	90.75
238.78	71.75
239.251	92.75
239.721	102.75
240.191	90.75
240.662	92.75
241.132	89.75
241.602	78.75
242.072	89.75
242.542	90.75
243.013	101.75
243.483	80.75
243.953	91.75
244.423	89.75
244.893	90.75
245.363	89.75
245.833	89.75
246.303	92.75
246.773	107.75
247.243	91.75
247.712	86.75
248.182	100.75
248.652	98.75
249.122	89.75
249.592	96.75
250.061	97.75
250.531	100.75
251.001	83.75
251.471	98.75
251.94	90.75
252.41	103.75
252.879	97.75
253.349	90.75
253.818	79.75
254.288	71.75
254.757	77.75
255.227	92.75
255.696	98.75
256.166	94.75
256.635	117.75
257.105	92.75
257.574	86.75
258.043	112.75
258.513	87.75
258.982	115.75
259.451	93.75
259.92	102.75
260.389	96.75
260.859	86.75
261.328	102.75
261.797	102.75
262.266	81.75
262.735	93.75
263.204	91.75
263.673	92.75
264.142	86.75
264.611	78.75
265.08	94.75
265.549	92.75
266.018	86.75
266.487	88.75
266.955	78.75
267.424	113.75
267.893	106.75
268.362	98.75
268.83	112.75
269.299	114.75
269.768	94.75
270.236	103.75
270.705	101.75
271.174	83.75
271.642	96.75
272.111	113.75
272.579	90.75
273.048	106.75
273.516	107.75
273.985	102.75
274.453	109.75
274.922	111.75
275.39	109.75
275.858	100.75
276.327	102.75
276.795	98.75
277.263	109.75
277.731	102.75
278.2	103.75
278.668	104.75
279.136	110.75
279.604	112.75
280.072	97.75
280.54	104.75
281.008	104.75
281.477	128.75
281.945	119.75
282.413	107.75
282.881	123.75
283.348	108.75
283.816	115.75
284.284	99.75
284.752	108.75
285.22	112.75
285.688	109.75
286.156	107.75
286.623	122.75
287.091	114.75
287.559	113.75
288.026	123.75
288.494	122.75
288.962	111.75
289.429	102.75
289.897	122.75
290.364	123.75
290.832	110.75
291.3	99.75
291.767	122.75
292.234	109.75
292.702	110.75
293.169	130.75
293.637	115.75
294.104	109.75
294.571	105.75
295.039	111.75
295.506	117.75
295.973	126.75
296.44	134.75
296.908	118.75
297.375	114.75
297.842	128.75
298.309	134.75
298.776	112.75
299.243	100.75
299.71	137.75
300.177	120.75
300.644	112.75
301.111	122.75
301.578	120.75
302.045	119.75
302.512	117.75
302.979	148.75
303.446	128.75
303.913	115.75
304.379	116.75
304.846	133.75
305.313	132.75
305.78	132.75
306.246	125.75
306.713	133.75
307.18	124.75
307.646	118.75
308.113	135.75
308.579	136.75
309.046	138.75
309.512	138.75
309.979	138.75
310.445	135.75
310.912	134.75
311.378	137.75
311.845	150.75
312.311	150.75
312.777	146.75
313.244	134.75
313.71	150.75
314.176	141.75
314.642	139.75
315.109	150.75
315.575	133.75
316.041	145.75
316.507	143.75
316.973	144.75
317.439	158.75
317.905	159.75
318.371	149.75
318.837	153.75
319.303	160.75
319.769	160.75
320.235	150.75
320.701	144.75
321.167	153.75
321.633	151.75
322.099	144.75
322.564	165.75
323.03	161.75
323.496	157.75
323.962	157.75
324.427	173.75
324.893	149.75
325.359	159.75
325.824	150.75
326.29	153.75
326.755	158.75
327.221	158.75
327.686	184.75
328.152	157.75
328.617	157.75
329.083	171.75
329.548	172.75
330.014	159.75
330.479	177.75
330.944	162.75
331.41	158.75
331.875	160.75
332.34	168.75
332.805	185.75
333.271	156.75
333.736	162.75
334.201	169.75
334.666	166.75
335.131	172.75
335.596	185.75
336.061	180.75
336.526	172.75
336.991	174.75
337.456	177.75
337.921	159.75
338.386	178.75
338.851	181.75
339.316	180.75
339.781	152.75
340.246	163.75
340.711	148.75
341.175	174.75
341.64	170.75
342.105	194.75
342.569	193.75
343.034	183.75
343.499	189.75
343.963	194.75
344.428	206.75
344.893	185.75
345.357	177.75
345.822	196.75
346.286	181.75
346.751	179.75
347.215	203.75
347.679	201.75
348.144	196.75
348.608	213.75
349.073	219.75
349.537	212.75
350.001	211.75
350.465	214.75
350.93	208.75
351.394	211.75
351.858	217.75
352.322	209.75
352.786	216.75
353.25	220.75
353.715	230.75
354.179	222.75
354.643	236.75
355.107	239.75
355.571	225.75
356.035	211.75
356.498	229.75
356.962	222.75
357.426	232.75
357.89	216.75
358.354	220.75
358.818	220.75
359.281	208.75
359.745	228.75
360.209	210.75
360.673	216.75
361.136	238.75
361.6	238.75
362.064	217.75
362.527	214.75
362.991	230.75
363.454	250.75
363.918	236.75
364.381	235.75
364.845	242.75
365.308	238.75
365.772	251.75
366.235	236.75
366.698	227.75
367.162	250.75
367.625	252.75
368.088	254.75
368.552	243.75
369.015	250.75
369.478	234.75
369.941	247.75
370.404	256.75
370.867	254.75
371.331	254.75
371.794	247.75
372.257	263.75
372.72	271.75
373.183	275.75
373.646	269.75
374.109	260.75
374.572	285.75
375.035	243.75
375.497	262.75
375.96	256.75
376.423	274.75
376.886	260.75
377.349	269.75
377.811	280.75
378.274	280.75
378.737	254.75
379.199	261.75
379.662	291.75
380.125	281.75
380.587	269.75
381.05	286.75
381.512	292.75
381.975	290.75
382.437	296.75
382.9	294.75
383.362	300.75
383.825	298.75
384.287	310.75
384.75	298.75
385.212	314.75
385.674	298.75
386.136	319.75
386.599	305.75
387.061	286.75
387.523	293.75
387.985	307.75
388.447	307.75
388.91	313.75
389.372	326.75
389.834	298.75
390.296	312.75
390.758	312.75
391.22	329.75
391.682	326.75
392.144	306.75
392.606	316.75
393.068	332.75
393.529	331.75
393.991	342.75
394.453	337.75
394.915	318.75
395.377	331.75
395.838	326.75
396.3	306.75
396.762	328.75
397.224	325.75
397.685	335.75
398.147	326.75
398.608	343.75
399.07	295.75
399.531	322.75
399.993	346.75
400.454	352.75
400.916	343.75
401.377	362.75
401.839	371.75
402.3	347.75
402.762	365.75
403.223	391.75
403.684	384.75
404.145	354.75
404.607	368.75
405.068	364.75
405.529	372.75
405.99	365.75
406.451	347.75
406.913	376.75
407.374	395.75
407.835	349.75
408.296	393.75
408.757	410.75
409.218	397.75
409.679	411.75
410.14	400.75
410.601	420.75
411.062	400.75
411.522	416.75
411.983	401.75
412.444	419.75
412.905	427.75
413.366	433.75
413.826	428.75
414.287	460.75
414.748	570.75
415.208	577.75
415.669	506.75
416.13	471.75
416.59	429.75
417.051	493.75
417.511	478.75
417.972	527.75
418.432	534.75
418.893	596.75
419.353	573.75
419.814	495.75
420.274	437.75
420.734	425.75
421.195	436.75
421.655	418.75
422.115	436.75
422.576	427.75
423.036	460.75
423.496	441.75
423.956	478.75
424.416	502.75
424.876	513.75
425.336	527.75
425.797	523.75
426.257	517.75
426.717	475.75
427.177	454.75
427.637	473.75
428.097	491.75
428.556	493.75
429.016	538.75
429.476	528.75
429.936	530.75
430.396	511.75
430.856	549.75
431.315	548.75
431.775	578.75
432.235	624.75
432.694	626.75
433.154	568.75
433.614	582.75
434.073	542.75
434.533	524.75
434.993	479.75
435.452	509.75
435.912	517.75
436.371	485.75
436.83	504.75
437.29	488.75
437.749	457.75
438.209	477.75
438.668	513.75
439.127	487.75
439.587	500.75
440.046	488.75
440.505	493.75
440.964	490.75
441.424	503.75
441.883	482.75
442.342	482.75
442.801	464.75
443.26	471.75
443.719	464.75
444.178	458.75
444.637	469.75
445.096	489.75
445.555	456.75
446.014	475.75
446.473	456.75
446.932	464.75
447.391	486.75
447.849	504.75
448.308	481.75
448.767	471.75
449.226	516.75
449.685	499.75
450.143	528.75
450.602	504.75
451.061	490.75
451.519	503.75
451.978	485.75
452.436	461.75
452.895	522.75
453.353	475.75
453.812	491.75
454.27	506.75
454.729	490.75
455.187	518.75
455.646	493.75
456.104	494.75
456.562	494.75
457.021	511.75
457.479	488.75
457.937	510.75
458.395	497.75
458.854	488.75
459.312	503.75
459.77	513.75
460.228	510.75
460.686	514.75
461.144	507.75
461.602	509.75
462.06	523.75
462.518	512.75
462.976	512.75
463.434	536.75
463.892	544.75
464.35	555.75
464.808	533.75
465.266	561.75
465.724	554.75
466.181	586.75
466.639	556.75
467.097	581.75
467.555	608.75
468.012	602.75
468.47	625.75
468.928	620.75
469.385	640.75
469.843	622.75
470.3	655.75
470.758	638.75
471.215	630.75
471.673	691.75
472.13	695.75
472.588	674.75
473.045	707.75
473.503	709.75
473.96	727.75
474.417	697.75
474.875	776.75
475.332	758.75
475.789	814.75
476.246	792.75
476.704	850.75
477.161	879.75
477.618	883.75
478.075	945.75
478.532	997.75
478.989	1039.75
479.446	1128.75
479.903	1212.75
480.36	1301.75
480.817	1379.75
481.274	1458.75
481.731	1544.75
482.188	1670.75
482.645	1768.75
483.102	1895.75
483.558	2012.75
484.015	2044.75
484.472	2062.75
484.929	2070.75
485.385	1991.75
485.842	1889.75
486.299	1848.75
486.755	1720.75
487.212	1562.75
487.668	1433.75
488.125	1344.75
488.582	1229.75
489.038	1203.75
489.494	1175.75
489.951	1119.75
490.407	1127.75
490.864	1114.75
491.32	1074.75
491.776	1080.75
492.233	1124.75
492.689	1072.75
493.145	1052.75
493.602	1055.75
494.058	1034.75
494.514	1041.75
494.97	1084.75
495.426	1058.75
495.882	1082.75
496.338	1081.75
496.794	1048.75
497.251	1092.75
497.707	1074.75
498.163	1096.75
498.618	1099.75
499.074	1052.75
499.53	1094.75
499.986	1074.75
500.442	1065.75
500.898	1046.75
501.354	1090.75
501.809	1099.75
502.265	1083.75
502.721	1108.75
503.177	1087.75
503.632	1112.75
504.088	1102.75
504.543	1054.75
504.999	1157.75
505.455	1138.75
505.91	1118.75
506.366	1137.75
506.821	1145.75
507.277	1104.75
507.732	1139.75
508.187	1107.75
508.643	1098.75
509.098	1125.75
509.553	1124.75
510.009	1169.75
510.464	1181.75
510.919	1174.75
511.375	1196.75
511.83	1205.75
512.285	1220.75
512.74	1269.75
513.195	1247.75
513.65	1284.75
514.105	1309.75
514.56	1302.75
515.015	1285.75
515.47	1308.75
515.925	1304.75
516.38	1356.75
516.835	1314.75
517.29	1322.75
517.745	1335.75
518.2	1275.75
518.655	1254.75
519.109	1228.75
519.564	1260.75
520.019	1222.75
520.474	1233.75
520.928	1240.75
521.383	1188.75
521.838	1209.75
522.292	1206.75
522.747	1217.75
523.201	1206.75
523.656	1152.75
524.11	1188.75
524.565	1187.75
525.019	1199.75
525.474	1217.75
525.928	1186.75
526.382	1185.75
526.837	1192.75
527.291	1172.75
527.745	1187.75
528.2	1184.75
528.654	1171.75
529.108	1152.75
529.562	1192.75
530.016	1152.75
530.47	1185.75
530.925	1165.75
531.379	1181.75
531.833	1172.75
532.287	1154.75
532.741	1149.75
533.195	1218.75
533.649	1192.75
534.103	1160.75
534.556	1156.75
535.01	1138.75
535.464	1140.75
535.918	1186.75
536.372	1161.75
536.826	1118.75
537.279	1151.75
537.733	1173.75
538.187	1213.75
538.64	1178.75
539.094	1188.75
539.548	1220.75
540.001	1179.75
540.455	1186.75
540.908	1195.75
541.362	1190.75
541.815	1224.75
542.269	1279.75
542.722	1272.75
543.175	1272.75
543.629	1261.75
544.082	1273.75
544.536	1284.75
544.989	1247.75
545.442	1270.75
545.895	1304.75
546.349	1265.75
546.802	1312.75
547.255	1282.75
547.708	1323.75
548.161	1339.75
548.614	1336.75
549.067	1359.75
549.52	1326.75
549.973	1320.75
550.426	1284.75
550.879	1319.75
551.332	1285.75
551.785	1304.75
552.238	1313.75
552.691	1346.75
553.144	1356.75
553.596	1339.75
554.049	1370.75
554.502	1422.75
554.955	1447.75
555.407	1440.75
555.86	1474.75
556.313	1384.75
556.765	1393.75
557.218	1400.75
557.67	1424.75
558.123	1393.75
558.576	1347.75
559.028	1388.75
559.48	1392.75
559.933	1374.75
560.385	1369.75
560.838	1307.75
561.29	1296.75
561.742	1278.75
562.195	1233.75
562.647	1245.75
563.099	1220.75
563.551	1196.75
564.004	1234.75
564.456	1172.75
564.908	1181.75
565.36	1184.75
565.812	1146.75
566.264	1154.75
566.716	1105.75
567.168	1126.75
567.62	1091.75
568.072	1110.75
568.524	1115.75
568.976	1133.75
569.428	1073.75
569.88	1124.75
570.332	1044.75
570.784	1080.75
571.235	1063.75
571.687	1093.75
572.139	1129.75
572.59	1117.75
573.042	1111.75
573.494	1128.75
573.945	1120.75
574.397	1088.75
574.849	1078.75
575.3	1070.75
575.752	1099.75
576.203	1039.75
576.655	1048.75
577.106	1052.75
577.557	1037.75
578.009	1038.75
578.46	1024.75
578.912	1004.75
579.363	1017.75
579.814	1032.75
580.265	1014.75
580.717	1038.75
581.168	1051.75
581.619	1036.75
582.07	1056.75
582.521	1064.75
582.972	1025.75
583.423	1015.75
583.875	1050.75
584.326	1084.75
584.777	1076.75
585.227	1129.75
585.678	1124.75
586.129	1161.75
586.58	1124.75
587.031	1186.75
587.482	1224.75
587.933	1275.75
588.384	1254.75
588.834	1186.75
589.285	1162.75
589.736	1161.75
590.186	1125.75
590.637	1141.75
591.088	1151.75
591.538	1124.75
591.989	1103.75
592.439	1105.75
592.89	1067.75
593.34	1063.75
593.791	1047.75
594.241	1072.75
594.692	1028.75
595.142	1086.75
595.593	1044.75
596.043	1049.75
596.493	1073.75
596.943	1051.75
597.394	1082.75
597.844	1100.75
598.294	1143.75
598.744	1117.75
599.195	1195.75
599.645	1250.75
600.095	1306.75
600.545	1400.75
600.995	1418.75
601.445	1461.75
601.895	1553.75
602.345	1617.75
602.795	1603.75
603.245	1537.75
603.695	1443.75
604.145	1384.75
604.594	1320.75
605.044	1285.75
605.494	1187.75
605.944	1128.75
606.393	1121.75
606.843	1091.75
607.293	1079.75
607.743	1107.75
608.192	1046.75
608.642	1061.75
609.091	1108.75
609.541	1039.75
609.99	1094.75
610.44	1076.75
610.889	1048.75
611.339	1038.75
611.788	1012.75
612.238	1026.75
612.687	1010.75
613.136	1058.75
613.586	1040.75
614.035	1039.75
614.484	1043.75
614.933	1060.75
615.383	1032.75
615.832	1016.75
616.281	992.75
616.73	961.75
617.179	971.75
617.628	907.75
618.077	940.75
618.526	924.75
618.975	936.75
619.424	922.75
619.873	889.75
620.322	897.75
620.771	893.75
621.22	874.75
621.669	896.75
622.118	835.75
622.567	842.75
623.015	841.75
623.464	832.75
623.913	843.75
624.361	837.75
624.81	823.75
625.259	844.75
625.707	835.75
626.156	793.75
626.604	843.75
627.053	833.75
627.501	856.75
627.95	845.75
628.398	856.75
628.847	827.75
629.295	838.75
629.744	839.75
630.192	849.75
630.64	806.75
631.089	808.75
631.537	793.75
631.985	794.75
632.433	766.75
632.881	766.75
633.33	782.75
633.778	780.75
634.226	758.75
634.674	760.75
635.122	801.75
635.57	800.75
636.018	797.75
636.466	793.75
636.914	800.75
637.362	805.75
637.81	815.75
638.258	848.75
638.705	846.75
639.153	855.75
639.601	882.75
640.049	898.75
640.497	936.75
640.944	963.75
641.392	912.75
641.84	827.75
642.287	817.75
642.735	824.75
643.182	800.75
643.63	775.75
644.078	806.75
644.525	794.75
644.973	859.75
645.42	843.75
645.867	870.75
646.315	900.75
646.762	905.75
647.21	933.75
647.657	952.75
648.104	965.75
648.551	988.75
648.999	1075.75
649.446	1161.75
649.893	1274.75
650.34	1432.75
650.787	1709.75
651.234	2114.75
651.682	2698.75
652.129	3814.75
652.576	5402.75
653.023	7408.75
653.47	9022.75
653.917	10031.75
654.363	10642.75
654.81	11034.75
655.257	11814.75
655.704	9010.75
656.151	5382.75
656.598	3483.75
657.044	2505.75
657.491	1942.75
657.938	1593.75
658.385	1400.75
658.831	1244.75
659.278	1128.75
659.724	1027.75
660.171	954.75
660.618	891.75
661.064	838.75
661.511	816.75
661.957	822.75
662.404	792.75
662.85	779.75
663.296	768.75
663.743	762.75
664.189	748.75
664.635	760.75
665.082	724.75
665.528	721.75
665.974	736.75
666.42	703.75
666.867	695.75
667.313	646.75
667.759	677.75
668.205	655.75
668.651	648.75
669.097	654.75
669.543	664.75
669.989	653.75
670.435	645.75
670.881	660.75
671.327	690.75
671.773	700.75
672.219	760.75
672.665	819.75
673.11	862.75
673.556	844.75
674.002	874.75
674.448	900.75
674.893	821.75
675.339	725.75
675.785	640.75
676.23	622.75
676.676	605.75
677.122	562.75
677.567	569.75
678.013	542.75
678.458	539.75
678.904	530.75
679.349	521.75
679.794	536.75
680.24	532.75
680.685	527.75
681.131	508.75
681.576	532.75
682.021	554.75
682.466	528.75
682.912	542.75
683.357	552.75
683.802	566.75
684.247	634.75
684.692	682.75
685.137	724.75
685.583	719.75
686.028	770.75
686.473	746.75
686.918	644.75
687.363	575.75
687.807	568.75
688.252	552.75
688.697	534.75
689.142	524.75
689.587	536.75
690.032	502.75
690.477	537.75
690.921	545.75
691.366	581.75
691.811	598.75
692.255	648.75
692.7	721.75
693.145	946.75
693.589	1355.75
694.034	1768.75
694.478	1960.75
694.923	1877.75
695.367	2252.75
695.812	2073.75
696.256	905.75
696.701	568.75
697.145	518.75
697.59	516.75
698.034	523.75
698.478	497.75
698.922	503.75
699.367	492.75
699.811	533.75
700.255	550.75
700.699	612.75
701.143	647.75
701.588	686.75
702.032	686.75
702.476	719.75
702.92	746.75
703.364	867.75
703.808	1220.75
704.252	1701.75
704.696	1912.75
705.14	1788.75
705.584	2243.75
706.027	1864.75
706.471	878.75
706.915	639.75
707.359	547.75
707.803	513.75
708.246	481.75
708.69	484.75
709.134	469.75
709.577	464.75
710.021	481.75
710.465	468.75
710.908	472.75
711.352	468.75
711.795	521.75
712.239	555.75
712.682	558.75
713.126	580.75
713.569	600.75
714.012	557.75
714.456	486.75
714.899	442.75
715.342	432.75
715.786	424.75
716.229	422.75
716.672	412.75
717.115	395.75
717.558	392.75
718.002	421.75
718.445	438.75
718.888	450.75
719.331	474.75
719.774	475.75
720.217	464.75
720.66	427.75
721.103	423.75
721.546	420.75
721.989	371.75
722.432	386.75
722.874	367.75
723.317	362.75
723.76	384.75
724.203	433.75
724.645	564.75
725.088	706.75
725.531	765.75
725.974	712.75
726.416	794.75
726.859	504.75
727.301	420.75
727.744	378.75
728.187	364.75
728.629	398.75
729.071	389.75
729.514	414.75
729.956	431.75
730.399	438.75
730.841	409.75
731.283	430.75
731.726	446.75
732.168	405.75
732.61	430.75
733.053	426.75
733.495	506.75
733.937	528.75
734.379	610.75
734.821	720.75
735.263	991.75
735.705	1633.75
736.148	2650.75
736.59	3071.75
737.032	2896.75
737.474	3161.75
737.916	1552.75
738.357	767.75
738.799	560.75
739.241	474.75
739.683	464.75
740.125	490.75
740.567	508.75
741.008	472.75
741.45	494.75
741.892	529.75
742.334	564.75
742.775	522.75
743.217	509.75
743.658	505.75
744.1	427.75
744.542	486.75
744.983	570.75
745.425	546.75
745.866	568.75
746.307	514.75
