Data from 20170802-ORNL-NYSim-Air_HRD10391_10-36-49-621.txt Node
Date: Wed Aug 02 10:36:49 EDT 2017
User: Ender
Spectrometer: HR+D1039
Trigger mode: 0
Integration Time (sec): 1.510000E-3
Scans to average: 1
Electric dark correction enabled: true
Nonlinearity correction enabled: false
Boxcar width: 0
XAxis mode: Wavelengths
Number of Pixels in Spectrum: 2048
>>>>>Begin Spectral Data<<<<<
187.836	23.88
188.309	23.88
188.782	23.88
189.255	-15.12
189.728	-2.12
190.201	-5.12
190.674	-16.12
191.147	-4.12
191.619	-16.12
192.092	-9.12
192.565	3.88
193.038	5.88
193.511	-11.12
193.984	-0.12
194.456	1.88
194.929	12.88
195.402	13.88
195.874	16.88
196.347	25.88
196.82	23.88
197.292	37.88
197.765	24.88
198.237	34.88
198.71	42.88
199.182	49.88
199.655	44.88
200.127	45.88
200.6	48.88
201.072	47.88
201.544	59.88
202.017	57.88
202.489	76.88
202.961	76.88
203.433	61.88
203.906	80.88
204.378	69.88
204.85	74.88
205.322	76.88
205.794	79.88
206.266	82.88
206.739	88.88
207.211	73.88
207.683	70.88
208.155	65.88
208.627	72.88
209.099	79.88
209.57	76.88
210.042	72.88
210.514	91.88
210.986	85.88
211.458	86.88
211.93	76.88
212.402	94.88
212.873	85.88
213.345	75.88
213.817	61.88
214.288	86.88
214.76	98.88
215.232	100.88
215.703	102.88
216.175	87.88
216.646	100.88
217.118	77.88
217.589	95.88
218.061	81.88
218.532	80.88
219.004	81.88
219.475	64.88
219.946	83.88
220.418	82.88
220.889	86.88
221.36	72.88
221.832	88.88
222.303	71.88
222.774	73.88
223.245	84.88
223.717	74.88
224.188	71.88
224.659	66.88
225.13	51.88
225.601	71.88
226.072	69.88
226.543	81.88
227.014	75.88
227.485	84.88
227.956	74.88
228.427	88.88
228.898	80.88
229.369	64.88
229.839	74.88
230.31	64.88
230.781	95.88
231.252	89.88
231.722	79.88
232.193	90.88
232.664	82.88
233.135	91.88
233.605	78.88
234.076	94.88
234.546	91.88
235.017	79.88
235.487	73.88
235.958	65.88
236.428	62.88
236.899	80.88
237.369	86.88
237.84	69.88
238.31	78.88
238.78	93.88
239.251	98.88
239.721	72.88
240.191	91.88
240.662	89.88
241.132	65.88
241.602	68.88
242.072	98.88
242.542	75.88
243.013	79.88
243.483	90.88
243.953	93.88
244.423	86.88
244.893	92.88
245.363	79.88
245.833	91.88
246.303	86.88
246.773	88.88
247.243	91.88
247.712	72.88
248.182	80.88
248.652	89.88
249.122	106.88
249.592	72.88
250.061	83.88
250.531	85.88
251.001	92.88
251.471	95.88
251.94	104.88
252.41	66.88
252.879	85.88
253.349	91.88
253.818	99.88
254.288	77.88
254.757	112.88
255.227	104.88
255.696	114.88
256.166	86.88
256.635	92.88
257.105	100.88
257.574	103.88
258.043	92.88
258.513	88.88
258.982	93.88
259.451	70.88
259.92	99.88
260.389	82.88
260.859	112.88
261.328	93.88
261.797	105.88
262.266	96.88
262.735	101.88
263.204	94.88
263.673	97.88
264.142	105.88
264.611	89.88
265.08	100.88
265.549	107.88
266.018	86.88
266.487	103.88
266.955	108.88
267.424	107.88
267.893	104.88
268.362	100.88
268.83	101.88
269.299	106.88
269.768	104.88
270.236	90.88
270.705	114.88
271.174	109.88
271.642	102.88
272.111	87.88
272.579	104.88
273.048	98.88
273.516	114.88
273.985	113.88
274.453	111.88
274.922	100.88
275.39	90.88
275.858	101.88
276.327	92.88
276.795	104.88
277.263	99.88
277.731	105.88
278.2	95.88
278.668	112.88
279.136	104.88
279.604	106.88
280.072	95.88
280.54	99.88
281.008	99.88
281.477	103.88
281.945	112.88
282.413	108.88
282.881	121.88
283.348	120.88
283.816	115.88
284.284	112.88
284.752	117.88
285.22	119.88
285.688	128.88
286.156	109.88
286.623	87.88
287.091	103.88
287.559	101.88
288.026	128.88
288.494	113.88
288.962	117.88
289.429	96.88
289.897	119.88
290.364	115.88
290.832	112.88
291.3	123.88
291.767	145.88
292.234	123.88
292.702	124.88
293.169	113.88
293.637	101.88
294.104	113.88
294.571	122.88
295.039	121.88
295.506	113.88
295.973	135.88
296.44	114.88
296.908	121.88
297.375	113.88
297.842	116.88
298.309	122.88
298.776	119.88
299.243	119.88
299.71	125.88
300.177	126.88
300.644	123.88
301.111	124.88
301.578	137.88
302.045	139.88
302.512	139.88
302.979	120.88
303.446	112.88
303.913	136.88
304.379	125.88
304.846	121.88
305.313	132.88
305.78	152.88
306.246	135.88
306.713	143.88
307.18	132.88
307.646	125.88
308.113	134.88
308.579	140.88
309.046	145.88
309.512	143.88
309.979	134.88
310.445	139.88
310.912	142.88
311.378	139.88
311.845	157.88
312.311	151.88
312.777	133.88
313.244	125.88
313.71	131.88
314.176	133.88
314.642	151.88
315.109	137.88
315.575	146.88
316.041	144.88
316.507	148.88
316.973	135.88
317.439	145.88
317.905	139.88
318.371	149.88
318.837	161.88
319.303	139.88
319.769	141.88
320.235	155.88
320.701	161.88
321.167	163.88
321.633	149.88
322.099	166.88
322.564	155.88
323.03	156.88
323.496	145.88
323.962	160.88
324.427	156.88
324.893	152.88
325.359	164.88
325.824	159.88
326.29	162.88
326.755	163.88
327.221	164.88
327.686	194.88
328.152	168.88
328.617	167.88
329.083	150.88
329.548	195.88
330.014	153.88
330.479	170.88
330.944	176.88
331.41	163.88
331.875	169.88
332.34	163.88
332.805	185.88
333.271	157.88
333.736	175.88
334.201	181.88
334.666	176.88
335.131	181.88
335.596	168.88
336.061	174.88
336.526	172.88
336.991	190.88
337.456	168.88
337.921	182.88
338.386	176.88
338.851	183.88
339.316	178.88
339.781	181.88
340.246	189.88
340.711	181.88
341.175	184.88
341.64	189.88
342.105	183.88
342.569	189.88
343.034	200.88
343.499	191.88
343.963	192.88
344.428	197.88
344.893	171.88
345.357	192.88
345.822	211.88
346.286	191.88
346.751	191.88
347.215	196.88
347.679	210.88
348.144	227.88
348.608	196.88
349.073	212.88
349.537	209.88
350.001	208.88
350.465	220.88
350.93	208.88
351.394	219.88
351.858	205.88
352.322	218.88
352.786	221.88
353.25	241.88
353.715	213.88
354.179	227.88
354.643	237.88
355.107	243.88
355.571	234.88
356.035	243.88
356.498	225.88
356.962	219.88
357.426	222.88
357.89	228.88
358.354	255.88
358.818	241.88
359.281	242.88
359.745	241.88
360.209	237.88
360.673	227.88
361.136	232.88
361.6	244.88
362.064	238.88
362.527	251.88
362.991	260.88
363.454	279.88
363.918	235.88
364.381	239.88
364.845	237.88
365.308	246.88
365.772	251.88
366.235	245.88
366.698	254.88
367.162	255.88
367.625	256.88
368.088	260.88
368.552	272.88
369.015	251.88
369.478	243.88
369.941	259.88
370.404	267.88
370.867	252.88
371.331	268.88
371.794	257.88
372.257	277.88
372.72	279.88
373.183	269.88
373.646	288.88
374.109	253.88
374.572	267.88
375.035	259.88
375.497	292.88
375.96	295.88
376.423	287.88
376.886	289.88
377.349	277.88
377.811	267.88
378.274	279.88
378.737	297.88
379.199	302.88
379.662	281.88
380.125	295.88
380.587	315.88
381.05	312.88
381.512	305.88
381.975	282.88
382.437	297.88
382.9	318.88
383.362	308.88
383.825	306.88
384.287	297.88
384.75	327.88
385.212	299.88
385.674	305.88
386.136	337.88
386.599	298.88
387.061	314.88
387.523	310.88
387.985	332.88
388.447	350.88
388.91	338.88
389.372	363.88
389.834	337.88
390.296	321.88
390.758	322.88
391.22	322.88
391.682	345.88
392.144	352.88
392.606	337.88
393.068	340.88
393.529	347.88
393.991	357.88
394.453	359.88
394.915	336.88
395.377	343.88
395.838	337.88
396.3	362.88
396.762	355.88
397.224	330.88
397.685	347.88
398.147	371.88
398.608	350.88
399.07	344.88
399.531	357.88
399.993	344.88
400.454	372.88
400.916	351.88
401.377	356.88
401.839	390.88
402.3	371.88
402.762	394.88
403.223	385.88
403.684	391.88
404.145	395.88
404.607	355.88
405.068	387.88
405.529	382.88
405.99	385.88
406.451	390.88
406.913	392.88
407.374	408.88
407.835	392.88
408.296	413.88
408.757	406.88
409.218	424.88
409.679	425.88
410.14	423.88
410.601	416.88
411.062	437.88
411.522	397.88
411.983	423.88
412.444	421.88
412.905	429.88
413.366	429.88
413.826	462.88
414.287	509.88
414.748	590.88
415.208	611.88
415.669	509.88
416.13	483.88
416.59	493.88
417.051	503.88
417.511	519.88
417.972	541.88
418.432	549.88
418.893	613.88
419.353	576.88
419.814	493.88
420.274	427.88
420.734	446.88
421.195	452.88
421.655	458.88
422.115	462.88
422.576	437.88
423.036	464.88
423.496	484.88
423.956	507.88
424.416	519.88
424.876	547.88
425.336	563.88
425.797	558.88
426.257	572.88
426.717	511.88
427.177	499.88
427.637	507.88
428.097	525.88
428.556	531.88
429.016	553.88
429.476	577.88
429.936	557.88
430.396	540.88
430.856	593.88
431.315	595.88
431.775	617.88
432.235	676.88
432.694	688.88
433.154	670.88
433.614	645.88
434.073	599.88
434.533	556.88
434.993	553.88
435.452	547.88
435.912	527.88
436.371	527.88
436.83	532.88
437.29	489.88
437.749	522.88
438.209	479.88
438.668	499.88
439.127	535.88
439.587	526.88
440.046	501.88
440.505	476.88
440.964	529.88
441.424	541.88
441.883	521.88
442.342	497.88
442.801	496.88
443.26	513.88
443.719	491.88
444.178	480.88
444.637	498.88
445.096	477.88
445.555	497.88
446.014	481.88
446.473	491.88
446.932	463.88
447.391	489.88
447.849	495.88
448.308	503.88
448.767	502.88
449.226	514.88
449.685	504.88
450.143	529.88
450.602	542.88
451.061	530.88
451.519	498.88
451.978	517.88
452.436	527.88
452.895	510.88
453.353	518.88
453.812	522.88
454.27	510.88
454.729	511.88
455.187	483.88
455.646	501.88
456.104	537.88
456.562	527.88
457.021	529.88
457.479	495.88
457.937	520.88
458.395	537.88
458.854	531.88
459.312	523.88
459.77	544.88
460.228	526.88
460.686	543.88
461.144	553.88
461.602	533.88
462.06	540.88
462.518	541.88
462.976	545.88
463.434	559.88
463.892	534.88
464.35	572.88
464.808	576.88
465.266	578.88
465.724	568.88
466.181	566.88
466.639	572.88
467.097	606.88
467.555	630.88
468.012	619.88
468.47	600.88
468.928	632.88
469.385	673.88
469.843	668.88
470.3	657.88
470.758	688.88
471.215	668.88
471.673	713.88
472.13	747.88
472.588	736.88
473.045	715.88
473.503	743.88
473.96	783.88
474.417	801.88
474.875	813.88
475.332	848.88
475.789	834.88
476.246	869.88
476.704	902.88
477.161	901.88
477.618	933.88
478.075	1010.88
478.532	1049.88
478.989	1107.88
479.446	1241.88
479.903	1327.88
480.36	1388.88
480.817	1499.88
481.274	1563.88
481.731	1741.88
482.188	1860.88
482.645	1945.88
483.102	2089.88
483.558	2249.88
484.015	2334.88
484.472	2329.88
484.929	2253.88
485.385	2183.88
485.842	2153.88
486.299	2094.88
486.755	1909.88
487.212	1719.88
487.668	1553.88
488.125	1457.88
488.582	1324.88
489.038	1303.88
489.494	1239.88
489.951	1246.88
490.407	1187.88
490.864	1173.88
491.32	1150.88
491.776	1126.88
492.233	1129.88
492.689	1129.88
493.145	1105.88
493.602	1081.88
494.058	1112.88
494.514	1091.88
494.97	1119.88
495.426	1100.88
495.882	1120.88
496.338	1077.88
496.794	1119.88
497.251	1149.88
497.707	1130.88
498.163	1136.88
498.618	1135.88
499.074	1102.88
499.53	1125.88
499.986	1155.88
500.442	1118.88
500.898	1128.88
501.354	1113.88
501.809	1131.88
502.265	1125.88
502.721	1122.88
503.177	1130.88
503.632	1136.88
504.088	1174.88
504.543	1167.88
504.999	1205.88
505.455	1172.88
505.91	1166.88
506.366	1153.88
506.821	1205.88
507.277	1141.88
507.732	1161.88
508.187	1140.88
508.643	1205.88
509.098	1180.88
509.553	1219.88
510.009	1217.88
510.464	1191.88
510.919	1216.88
511.375	1255.88
511.83	1249.88
512.285	1279.88
512.74	1281.88
513.195	1326.88
513.65	1321.88
514.105	1344.88
514.56	1321.88
515.015	1371.88
515.47	1351.88
515.925	1363.88
516.38	1367.88
516.835	1384.88
517.29	1370.88
517.745	1358.88
518.2	1331.88
518.655	1347.88
519.109	1293.88
519.564	1274.88
520.019	1264.88
520.474	1266.88
520.928	1269.88
521.383	1303.88
521.838	1248.88
522.292	1217.88
522.747	1249.88
523.201	1249.88
523.656	1236.88
524.11	1228.88
524.565	1250.88
525.019	1212.88
525.474	1179.88
525.928	1201.88
526.382	1224.88
526.837	1217.88
527.291	1246.88
527.745	1209.88
528.2	1203.88
528.654	1217.88
529.108	1217.88
529.562	1213.88
530.016	1213.88
530.47	1232.88
530.925	1200.88
531.379	1197.88
531.833	1219.88
532.287	1221.88
532.741	1206.88
533.195	1184.88
533.649	1251.88
534.103	1225.88
534.556	1194.88
535.01	1185.88
535.464	1206.88
535.918	1197.88
536.372	1206.88
536.826	1217.88
537.279	1178.88
537.733	1225.88
538.187	1237.88
538.64	1211.88
539.094	1226.88
539.548	1248.88
540.001	1194.88
540.455	1232.88
540.908	1229.88
541.362	1213.88
541.815	1241.88
542.269	1284.88
542.722	1275.88
543.175	1319.88
543.629	1289.88
544.082	1300.88
544.536	1325.88
544.989	1347.88
545.442	1335.88
545.895	1353.88
546.349	1303.88
546.802	1344.88
547.255	1337.88
547.708	1342.88
548.161	1373.88
548.614	1317.88
549.067	1352.88
549.52	1331.88
549.973	1326.88
550.426	1345.88
550.879	1355.88
551.332	1317.88
551.785	1353.88
552.238	1383.88
552.691	1366.88
553.144	1379.88
553.596	1401.88
554.049	1410.88
554.502	1460.88
554.955	1490.88
555.407	1487.88
555.86	1469.88
556.313	1456.88
556.765	1493.88
557.218	1444.88
557.67	1431.88
558.123	1402.88
558.576	1408.88
559.028	1387.88
559.48	1438.88
559.933	1413.88
560.385	1380.88
560.838	1363.88
561.29	1280.88
561.742	1285.88
562.195	1263.88
562.647	1279.88
563.099	1235.88
563.551	1215.88
564.004	1208.88
564.456	1252.88
564.908	1241.88
565.36	1183.88
565.812	1176.88
566.264	1180.88
566.716	1145.88
567.168	1113.88
567.62	1193.88
568.072	1149.88
568.524	1112.88
568.976	1139.88
569.428	1103.88
569.88	1098.88
570.332	1108.88
570.784	1116.88
571.235	1111.88
571.687	1143.88
572.139	1118.88
572.59	1103.88
573.042	1108.88
573.494	1124.88
573.945	1138.88
574.397	1120.88
574.849	1072.88
575.3	1096.88
575.752	1120.88
576.203	1059.88
576.655	1077.88
577.106	1111.88
577.557	1077.88
578.009	1043.88
578.46	1076.88
578.912	1035.88
579.363	1060.88
579.814	1054.88
580.265	1071.88
580.717	1092.88
581.168	1071.88
581.619	1077.88
582.07	1101.88
582.521	1091.88
582.972	1097.88
583.423	1091.88
583.875	1084.88
584.326	1083.88
584.777	1117.88
585.227	1089.88
585.678	1127.88
586.129	1123.88
586.58	1134.88
587.031	1153.88
587.482	1175.88
587.933	1210.88
588.384	1230.88
588.834	1217.88
589.285	1167.88
589.736	1198.88
590.186	1182.88
590.637	1173.88
591.088	1165.88
591.538	1157.88
591.989	1109.88
592.439	1086.88
592.89	1087.88
593.34	1098.88
593.791	1077.88
594.241	1087.88
594.692	1103.88
595.142	1102.88
595.593	1091.88
596.043	1062.88
596.493	1117.88
596.943	1097.88
597.394	1106.88
597.844	1127.88
598.294	1127.88
598.744	1177.88
599.195	1210.88
599.645	1299.88
600.095	1359.88
600.545	1393.88
600.995	1455.88
601.445	1513.88
601.895	1617.88
602.345	1623.88
602.795	1647.88
603.245	1551.88
603.695	1474.88
604.145	1419.88
604.594	1361.88
605.044	1289.88
605.494	1229.88
605.944	1151.88
606.393	1119.88
606.843	1097.88
607.293	1097.88
607.743	1096.88
608.192	1104.88
608.642	1097.88
609.091	1127.88
609.541	1077.88
609.99	1123.88
610.44	1090.88
610.889	1057.88
611.339	1041.88
611.788	1011.88
612.238	1045.88
612.687	1055.88
613.136	1062.88
613.586	1059.88
614.035	1058.88
614.484	1092.88
614.933	1097.88
615.383	1064.88
615.832	1047.88
616.281	1027.88
616.73	987.88
617.179	957.88
617.628	968.88
618.077	979.88
618.526	938.88
618.975	933.88
619.424	899.88
619.873	929.88
620.322	954.88
620.771	942.88
621.22	881.88
621.669	879.88
622.118	868.88
622.567	869.88
623.015	864.88
623.464	859.88
623.913	867.88
624.361	866.88
624.81	826.88
625.259	847.88
625.707	829.88
626.156	863.88
626.604	873.88
627.053	878.88
627.501	836.88
627.95	833.88
628.398	866.88
628.847	853.88
629.295	869.88
629.744	844.88
630.192	869.88
630.64	827.88
631.089	814.88
631.537	800.88
631.985	809.88
632.433	790.88
632.881	791.88
633.33	776.88
633.778	774.88
634.226	779.88
634.674	765.88
635.122	808.88
635.57	817.88
636.018	793.88
636.466	805.88
636.914	817.88
637.362	846.88
637.81	844.88
638.258	863.88
638.705	880.88
639.153	903.88
639.601	911.88
640.049	930.88
640.497	940.88
640.944	1000.88
641.392	943.88
641.84	895.88
642.287	864.88
642.735	841.88
643.182	859.88
643.63	823.88
644.078	843.88
644.525	850.88
644.973	884.88
645.42	879.88
645.867	922.88
646.315	936.88
646.762	988.88
647.21	958.88
647.657	1058.88
648.104	1031.88
648.551	1100.88
648.999	1178.88
649.446	1259.88
649.893	1413.88
650.34	1594.88
650.787	1875.88
651.234	2357.88
651.682	3069.88
652.129	4330.88
652.576	6092.88
653.023	8290.88
653.47	10268.88
653.917	11523.88
654.363	12215.88
654.81	12871.88
655.257	13457.88
655.704	10227.88
656.151	6189.88
656.598	3920.88
657.044	2822.88
657.491	2178.88
657.938	1785.88
658.385	1513.88
658.831	1327.88
659.278	1207.88
659.724	1100.88
660.171	1014.88
660.618	927.88
661.064	910.88
661.511	875.88
661.957	844.88
662.404	796.88
662.85	829.88
663.296	842.88
663.743	785.88
664.189	771.88
664.635	801.88
665.082	782.88
665.528	743.88
665.974	755.88
666.42	689.88
666.867	721.88
667.313	688.88
667.759	701.88
668.205	678.88
668.651	684.88
669.097	687.88
669.543	675.88
669.989	689.88
670.435	657.88
670.881	681.88
671.327	709.88
671.773	721.88
672.219	784.88
672.665	815.88
673.11	861.88
673.556	897.88
674.002	914.88
674.448	944.88
674.893	843.88
675.339	716.88
675.785	670.88
676.23	625.88
676.676	587.88
677.122	561.88
677.567	565.88
678.013	570.88
678.458	554.88
678.904	507.88
679.349	529.88
679.794	532.88
680.24	545.88
680.685	508.88
681.131	555.88
681.576	527.88
682.021	546.88
682.466	540.88
682.912	519.88
683.357	568.88
683.802	619.88
684.247	647.88
684.692	706.88
685.137	733.88
685.583	753.88
686.028	771.88
686.473	744.88
686.918	673.88
687.363	617.88
687.807	595.88
688.252	531.88
688.697	549.88
689.142	506.88
689.587	541.88
690.032	550.88
690.477	552.88
690.921	544.88
691.366	579.88
691.811	609.88
692.255	637.88
692.7	723.88
693.145	913.88
693.589	1369.88
694.034	1771.88
694.478	1999.88
694.923	1864.88
695.367	2282.88
695.812	2111.88
696.256	889.88
696.701	612.88
697.145	532.88
697.59	523.88
698.034	521.88
698.478	487.88
698.922	525.88
699.367	519.88
699.811	507.88
700.255	548.88
700.699	595.88
701.143	663.88
701.588	693.88
702.032	706.88
702.476	785.88
702.92	759.88
703.364	896.88
703.808	1255.88
704.252	1679.88
704.696	1874.88
705.14	1832.88
705.584	2221.88
706.027	1865.88
706.471	874.88
706.915	635.88
707.359	530.88
707.803	512.88
708.246	490.88
708.69	500.88
709.134	487.88
709.577	471.88
710.021	496.88
710.465	481.88
710.908	470.88
711.352	492.88
711.795	516.88
712.239	553.88
712.682	573.88
713.126	592.88
713.569	593.88
714.012	575.88
714.456	481.88
714.899	447.88
715.342	425.88
715.786	417.88
716.229	411.88
716.672	395.88
717.115	410.88
717.558	383.88
718.002	413.88
718.445	415.88
718.888	451.88
719.331	436.88
719.774	460.88
720.217	471.88
720.66	450.88
721.103	416.88
721.546	414.88
721.989	392.88
722.432	381.88
722.874	387.88
723.317	397.88
723.76	387.88
724.203	472.88
724.645	593.88
725.088	718.88
725.531	729.88
725.974	765.88
726.416	781.88
726.859	537.88
727.301	415.88
727.744	377.88
728.187	397.88
728.629	376.88
729.071	401.88
729.514	419.88
729.956	436.88
730.399	439.88
730.841	450.88
731.283	433.88
731.726	440.88
732.168	415.88
732.61	456.88
733.053	479.88
733.495	493.88
733.937	536.88
734.379	616.88
734.821	710.88
735.263	963.88
735.705	1651.88
736.148	2719.88
736.59	3159.88
737.032	3024.88
737.474	3208.88
737.916	1586.88
738.357	765.88
738.799	529.88
739.241	502.88
739.683	484.88
740.125	510.88
740.567	521.88
741.008	509.88
741.45	579.88
741.892	563.88
742.334	556.88
742.775	541.88
743.217	565.88
743.658	467.88
744.1	487.88
744.542	549.88
744.983	582.88
745.425	563.88
745.866	615.88
746.307	537.88
