Data from 20170802-ORNL-NYSim-Air_HRD10391_10-36-55-624.txt Node
Date: Wed Aug 02 10:36:55 EDT 2017
User: Ender
Spectrometer: HR+D1039
Trigger mode: 0
Integration Time (sec): 1.510000E-3
Scans to average: 1
Electric dark correction enabled: true
Nonlinearity correction enabled: false
Boxcar width: 0
XAxis mode: Wavelengths
Number of Pixels in Spectrum: 2048
>>>>>Begin Spectral Data<<<<<
187.836	-1.88
188.309	-1.88
188.782	-1.88
189.255	-5.88
189.728	-0.88
190.201	0.12
190.674	-7.88
191.147	-15.88
191.619	-0.88
192.092	4.12
192.565	4.12
193.038	-18.88
193.511	5.12
193.984	-1.88
194.456	6.12
194.929	7.12
195.402	6.12
195.874	21.12
196.347	13.12
196.82	31.12
197.292	23.12
197.765	37.12
198.237	38.12
198.71	56.12
199.182	52.12
199.655	34.12
200.127	64.12
200.6	41.12
201.072	52.12
201.544	68.12
202.017	62.12
202.489	75.12
202.961	76.12
203.433	89.12
203.906	79.12
204.378	90.12
204.85	80.12
205.322	88.12
205.794	63.12
206.266	68.12
206.739	79.12
207.211	79.12
207.683	91.12
208.155	82.12
208.627	79.12
209.099	79.12
209.57	102.12
210.042	98.12
210.514	90.12
210.986	85.12
211.458	88.12
211.93	88.12
212.402	89.12
212.873	76.12
213.345	94.12
213.817	83.12
214.288	87.12
214.76	97.12
215.232	97.12
215.703	90.12
216.175	78.12
216.646	84.12
217.118	64.12
217.589	82.12
218.061	71.12
218.532	75.12
219.004	82.12
219.475	66.12
219.946	85.12
220.418	71.12
220.889	79.12
221.36	76.12
221.832	60.12
222.303	88.12
222.774	63.12
223.245	68.12
223.717	85.12
224.188	66.12
224.659	70.12
225.13	84.12
225.601	65.12
226.072	82.12
226.543	83.12
227.014	75.12
227.485	62.12
227.956	74.12
228.427	82.12
228.898	60.12
229.369	80.12
229.839	76.12
230.31	82.12
230.781	84.12
231.252	90.12
231.722	88.12
232.193	68.12
232.664	78.12
233.135	87.12
233.605	92.12
234.076	90.12
234.546	92.12
235.017	75.12
235.487	82.12
235.958	102.12
236.428	102.12
236.899	74.12
237.369	77.12
237.84	82.12
238.31	86.12
238.78	64.12
239.251	70.12
239.721	98.12
240.191	80.12
240.662	89.12
241.132	84.12
241.602	88.12
242.072	90.12
242.542	74.12
243.013	86.12
243.483	90.12
243.953	64.12
244.423	92.12
244.893	75.12
245.363	92.12
245.833	96.12
246.303	89.12
246.773	93.12
247.243	89.12
247.712	85.12
248.182	82.12
248.652	101.12
249.122	91.12
249.592	83.12
250.061	95.12
250.531	86.12
251.001	99.12
251.471	101.12
251.94	96.12
252.41	100.12
252.879	83.12
253.349	84.12
253.818	90.12
254.288	92.12
254.757	96.12
255.227	85.12
255.696	92.12
256.166	93.12
256.635	92.12
257.105	107.12
257.574	96.12
258.043	108.12
258.513	99.12
258.982	84.12
259.451	90.12
259.92	105.12
260.389	105.12
260.859	87.12
261.328	88.12
261.797	102.12
262.266	78.12
262.735	102.12
263.204	107.12
263.673	100.12
264.142	94.12
264.611	80.12
265.08	88.12
265.549	103.12
266.018	104.12
266.487	97.12
266.955	104.12
267.424	113.12
267.893	100.12
268.362	95.12
268.83	82.12
269.299	99.12
269.768	106.12
270.236	103.12
270.705	95.12
271.174	91.12
271.642	85.12
272.111	112.12
272.579	111.12
273.048	110.12
273.516	124.12
273.985	95.12
274.453	90.12
274.922	98.12
275.39	88.12
275.858	92.12
276.327	93.12
276.795	97.12
277.263	110.12
277.731	115.12
278.2	96.12
278.668	86.12
279.136	106.12
279.604	101.12
280.072	103.12
280.54	105.12
281.008	102.12
281.477	111.12
281.945	113.12
282.413	98.12
282.881	132.12
283.348	114.12
283.816	104.12
284.284	112.12
284.752	102.12
285.22	114.12
285.688	100.12
286.156	110.12
286.623	114.12
287.091	119.12
287.559	105.12
288.026	92.12
288.494	111.12
288.962	110.12
289.429	109.12
289.897	112.12
290.364	118.12
290.832	97.12
291.3	118.12
291.767	110.12
292.234	104.12
292.702	129.12
293.169	125.12
293.637	110.12
294.104	112.12
294.571	106.12
295.039	114.12
295.506	113.12
295.973	126.12
296.44	112.12
296.908	114.12
297.375	115.12
297.842	107.12
298.309	122.12
298.776	103.12
299.243	131.12
299.71	111.12
300.177	118.12
300.644	125.12
301.111	126.12
301.578	128.12
302.045	123.12
302.512	132.12
302.979	132.12
303.446	139.12
303.913	128.12
304.379	121.12
304.846	127.12
305.313	153.12
305.78	137.12
306.246	132.12
306.713	133.12
307.18	131.12
307.646	126.12
308.113	136.12
308.579	136.12
309.046	140.12
309.512	123.12
309.979	137.12
310.445	154.12
310.912	142.12
311.378	135.12
311.845	132.12
312.311	120.12
312.777	139.12
313.244	130.12
313.71	136.12
314.176	152.12
314.642	128.12
315.109	141.12
315.575	142.12
316.041	134.12
316.507	128.12
316.973	118.12
317.439	166.12
317.905	155.12
318.371	146.12
318.837	136.12
319.303	139.12
319.769	139.12
320.235	120.12
320.701	154.12
321.167	138.12
321.633	140.12
322.099	148.12
322.564	153.12
323.03	176.12
323.496	156.12
323.962	147.12
324.427	148.12
324.893	148.12
325.359	149.12
325.824	167.12
326.29	149.12
326.755	154.12
327.221	167.12
327.686	160.12
328.152	175.12
328.617	167.12
329.083	145.12
329.548	173.12
330.014	174.12
330.479	177.12
330.944	161.12
331.41	169.12
331.875	172.12
332.34	166.12
332.805	181.12
333.271	171.12
333.736	175.12
334.201	150.12
334.666	168.12
335.131	168.12
335.596	183.12
336.061	186.12
336.526	160.12
336.991	178.12
337.456	191.12
337.921	185.12
338.386	187.12
338.851	188.12
339.316	162.12
339.781	170.12
340.246	183.12
340.711	180.12
341.175	165.12
341.64	179.12
342.105	182.12
342.569	186.12
343.034	202.12
343.499	196.12
343.963	194.12
344.428	185.12
344.893	214.12
345.357	206.12
345.822	200.12
346.286	194.12
346.751	197.12
347.215	219.12
347.679	187.12
348.144	200.12
348.608	212.12
349.073	209.12
349.537	223.12
350.001	220.12
350.465	228.12
350.93	228.12
351.394	223.12
351.858	211.12
352.322	219.12
352.786	240.12
353.25	188.12
353.715	237.12
354.179	227.12
354.643	249.12
355.107	243.12
355.571	240.12
356.035	239.12
356.498	238.12
356.962	250.12
357.426	217.12
357.89	242.12
358.354	228.12
358.818	231.12
359.281	235.12
359.745	239.12
360.209	242.12
360.673	217.12
361.136	240.12
361.6	215.12
362.064	252.12
362.527	209.12
362.991	248.12
363.454	258.12
363.918	235.12
364.381	246.12
364.845	226.12
365.308	259.12
365.772	265.12
366.235	249.12
366.698	262.12
367.162	252.12
367.625	244.12
368.088	244.12
368.552	249.12
369.015	226.12
369.478	243.12
369.941	268.12
370.404	252.12
370.867	279.12
371.331	238.12
371.794	268.12
372.257	260.12
372.72	265.12
373.183	250.12
373.646	272.12
374.109	265.12
374.572	272.12
375.035	300.12
375.497	275.12
375.96	270.12
376.423	264.12
376.886	280.12
377.349	291.12
377.811	268.12
378.274	298.12
378.737	271.12
379.199	275.12
379.662	263.12
380.125	292.12
380.587	288.12
381.05	298.12
381.512	289.12
381.975	299.12
382.437	312.12
382.9	301.12
383.362	322.12
383.825	296.12
384.287	312.12
384.75	278.12
385.212	303.12
385.674	324.12
386.136	309.12
386.599	322.12
387.061	312.12
387.523	344.12
387.985	335.12
388.447	339.12
388.91	328.12
389.372	336.12
389.834	316.12
390.296	322.12
390.758	335.12
391.22	315.12
391.682	328.12
392.144	339.12
392.606	348.12
393.068	339.12
393.529	338.12
393.991	345.12
394.453	339.12
394.915	350.12
395.377	334.12
395.838	348.12
396.3	349.12
396.762	342.12
397.224	350.12
397.685	349.12
398.147	359.12
398.608	335.12
399.07	344.12
399.531	351.12
399.993	358.12
400.454	381.12
400.916	360.12
401.377	356.12
401.839	361.12
402.3	378.12
402.762	378.12
403.223	407.12
403.684	392.12
404.145	377.12
404.607	409.12
405.068	366.12
405.529	378.12
405.99	380.12
406.451	372.12
406.913	413.12
407.374	383.12
407.835	398.12
408.296	391.12
408.757	405.12
409.218	393.12
409.679	402.12
410.14	410.12
410.601	422.12
411.062	425.12
411.522	424.12
411.983	416.12
412.444	408.12
412.905	448.12
413.366	418.12
413.826	472.12
414.287	474.12
414.748	610.12
415.208	612.12
415.669	526.12
416.13	489.12
416.59	460.12
417.051	494.12
417.511	472.12
417.972	512.12
418.432	555.12
418.893	602.12
419.353	579.12
419.814	471.12
420.274	436.12
420.734	417.12
421.195	433.12
421.655	460.12
422.115	421.12
422.576	438.12
423.036	464.12
423.496	462.12
423.956	485.12
424.416	514.12
424.876	536.12
425.336	551.12
425.797	539.12
426.257	538.12
426.717	524.12
427.177	470.12
427.637	506.12
428.097	512.12
428.556	535.12
429.016	577.12
429.476	578.12
429.936	549.12
430.396	556.12
430.856	584.12
431.315	584.12
431.775	638.12
432.235	673.12
432.694	656.12
433.154	622.12
433.614	612.12
434.073	608.12
434.533	578.12
434.993	526.12
435.452	520.12
435.912	523.12
436.371	508.12
436.83	512.12
437.29	535.12
437.749	492.12
438.209	472.12
438.668	482.12
439.127	506.12
439.587	468.12
440.046	507.12
440.505	489.12
440.964	488.12
441.424	502.12
441.883	512.12
442.342	510.12
442.801	487.12
443.26	470.12
443.719	483.12
444.178	475.12
444.637	500.12
445.096	495.12
445.555	499.12
446.014	488.12
446.473	488.12
446.932	489.12
447.391	494.12
447.849	507.12
448.308	474.12
448.767	505.12
449.226	492.12
449.685	519.12
450.143	527.12
450.602	540.12
451.061	506.12
451.519	530.12
451.978	501.12
452.436	473.12
452.895	502.12
453.353	470.12
453.812	510.12
454.27	514.12
454.729	488.12
455.187	534.12
455.646	502.12
456.104	496.12
456.562	510.12
457.021	508.12
457.479	505.12
457.937	506.12
458.395	521.12
458.854	501.12
459.312	505.12
459.77	528.12
460.228	546.12
460.686	521.12
461.144	532.12
461.602	534.12
462.06	502.12
462.518	551.12
462.976	534.12
463.434	544.12
463.892	546.12
464.35	581.12
464.808	552.12
465.266	587.12
465.724	573.12
466.181	592.12
466.639	564.12
467.097	604.12
467.555	624.12
468.012	619.12
468.47	622.12
468.928	634.12
469.385	634.12
469.843	654.12
470.3	656.12
470.758	670.12
471.215	665.12
471.673	712.12
472.13	695.12
472.588	700.12
473.045	730.12
473.503	728.12
473.96	728.12
474.417	733.12
474.875	770.12
475.332	793.12
475.789	811.12
476.246	850.12
476.704	879.12
477.161	908.12
477.618	923.12
478.075	970.12
478.532	1062.12
478.989	1135.12
479.446	1250.12
479.903	1289.12
480.36	1451.12
480.817	1516.12
481.274	1590.12
481.731	1714.12
482.188	1863.12
482.645	1974.12
483.102	2102.12
483.558	2231.12
484.015	2316.12
484.472	2303.12
484.929	2303.12
485.385	2203.12
485.842	2144.12
486.299	2020.12
486.755	1908.12
487.212	1695.12
487.668	1580.12
488.125	1424.12
488.582	1326.12
489.038	1275.12
489.494	1222.12
489.951	1188.12
490.407	1192.12
490.864	1191.12
491.32	1125.12
491.776	1128.12
492.233	1083.12
492.689	1110.12
493.145	1097.12
493.602	1090.12
494.058	1069.12
494.514	1067.12
494.97	1082.12
495.426	1090.12
495.882	1083.12
496.338	1081.12
496.794	1116.12
497.251	1093.12
497.707	1110.12
498.163	1136.12
498.618	1082.12
499.074	1101.12
499.53	1078.12
499.986	1122.12
500.442	1121.12
500.898	1094.12
501.354	1092.12
501.809	1100.12
502.265	1103.12
502.721	1114.12
503.177	1108.12
503.632	1134.12
504.088	1172.12
504.543	1158.12
504.999	1148.12
505.455	1178.12
505.91	1135.12
506.366	1154.12
506.821	1128.12
507.277	1137.12
507.732	1128.12
508.187	1113.12
508.643	1141.12
509.098	1146.12
509.553	1149.12
510.009	1169.12
510.464	1240.12
510.919	1224.12
511.375	1207.12
511.83	1214.12
512.285	1228.12
512.74	1268.12
513.195	1286.12
513.65	1326.12
514.105	1348.12
514.56	1354.12
515.015	1341.12
515.47	1374.12
515.925	1345.12
516.38	1357.12
516.835	1338.12
517.29	1336.12
517.745	1336.12
518.2	1305.12
518.655	1292.12
519.109	1281.12
519.564	1292.12
520.019	1254.12
520.474	1250.12
520.928	1233.12
521.383	1215.12
521.838	1215.12
522.292	1229.12
522.747	1215.12
523.201	1154.12
523.656	1205.12
524.11	1202.12
524.565	1164.12
525.019	1181.12
525.474	1198.12
525.928	1189.12
526.382	1210.12
526.837	1199.12
527.291	1197.12
527.745	1203.12
528.2	1177.12
528.654	1186.12
529.108	1204.12
529.562	1190.12
530.016	1191.12
530.47	1164.12
530.925	1164.12
531.379	1203.12
531.833	1196.12
532.287	1175.12
532.741	1168.12
533.195	1170.12
533.649	1184.12
534.103	1184.12
534.556	1196.12
535.01	1201.12
535.464	1186.12
535.918	1187.12
536.372	1168.12
536.826	1189.12
537.279	1184.12
537.733	1178.12
538.187	1182.12
538.64	1204.12
539.094	1192.12
539.548	1240.12
540.001	1197.12
540.455	1206.12
540.908	1238.12
541.362	1241.12
541.815	1217.12
542.269	1264.12
542.722	1262.12
543.175	1301.12
543.629	1249.12
544.082	1267.12
544.536	1276.12
544.989	1281.12
545.442	1282.12
545.895	1295.12
546.349	1266.12
546.802	1288.12
547.255	1310.12
547.708	1340.12
548.161	1299.12
548.614	1314.12
549.067	1330.12
549.52	1317.12
549.973	1324.12
550.426	1322.12
550.879	1309.12
551.332	1314.12
551.785	1326.12
552.238	1358.12
552.691	1346.12
553.144	1334.12
553.596	1348.12
554.049	1394.12
554.502	1381.12
554.955	1406.12
555.407	1460.12
555.86	1462.12
556.313	1437.12
556.765	1384.12
557.218	1421.12
557.67	1378.12
558.123	1371.12
558.576	1378.12
559.028	1384.12
559.48	1356.12
559.933	1402.12
560.385	1361.12
560.838	1307.12
561.29	1261.12
561.742	1278.12
562.195	1242.12
562.647	1217.12
563.099	1268.12
563.551	1233.12
564.004	1215.12
564.456	1227.12
564.908	1174.12
565.36	1166.12
565.812	1163.12
566.264	1131.12
566.716	1137.12
567.168	1126.12
567.62	1120.12
568.072	1098.12
568.524	1089.12
568.976	1109.12
569.428	1052.12
569.88	1107.12
570.332	1096.12
570.784	1110.12
571.235	1077.12
571.687	1120.12
572.139	1106.12
572.59	1119.12
573.042	1126.12
573.494	1119.12
573.945	1117.12
574.397	1109.12
574.849	1080.12
575.3	1115.12
575.752	1089.12
576.203	1043.12
576.655	1065.12
577.106	1059.12
577.557	1035.12
578.009	1065.12
578.46	1043.12
578.912	1045.12
579.363	1048.12
579.814	1060.12
580.265	1009.12
580.717	1044.12
581.168	1046.12
581.619	1051.12
582.07	1062.12
582.521	1074.12
582.972	1080.12
583.423	1095.12
583.875	1069.12
584.326	1055.12
584.777	1038.12
585.227	1057.12
585.678	1106.12
586.129	1117.12
586.58	1116.12
587.031	1139.12
587.482	1137.12
587.933	1177.12
588.384	1170.12
588.834	1196.12
589.285	1145.12
589.736	1128.12
590.186	1141.12
590.637	1164.12
591.088	1137.12
591.538	1123.12
591.989	1064.12
592.439	1110.12
592.89	1075.12
593.34	1074.12
593.791	1083.12
594.241	1078.12
594.692	1067.12
595.142	1032.12
595.593	1061.12
596.043	1052.12
596.493	1057.12
596.943	1064.12
597.394	1094.12
597.844	1095.12
598.294	1116.12
598.744	1166.12
599.195	1175.12
599.645	1217.12
600.095	1298.12
600.545	1346.12
600.995	1428.12
601.445	1478.12
601.895	1528.12
602.345	1582.12
602.795	1603.12
603.245	1510.12
603.695	1463.12
604.145	1396.12
604.594	1320.12
605.044	1263.12
605.494	1163.12
605.944	1138.12
606.393	1092.12
606.843	1105.12
607.293	1065.12
607.743	1050.12
608.192	1057.12
608.642	1078.12
609.091	1071.12
609.541	1087.12
609.99	1109.12
610.44	1030.12
610.889	1048.12
611.339	1024.12
611.788	1027.12
612.238	1044.12
612.687	1022.12
613.136	1023.12
613.586	1075.12
614.035	1026.12
614.484	1076.12
614.933	1038.12
615.383	1047.12
615.832	1036.12
616.281	1002.12
616.73	983.12
617.179	958.12
617.628	947.12
618.077	928.12
618.526	945.12
618.975	937.12
619.424	898.12
619.873	872.12
620.322	898.12
620.771	882.12
621.22	872.12
621.669	839.12
622.118	863.12
622.567	838.12
623.015	851.12
623.464	825.12
623.913	834.12
624.361	837.12
624.81	824.12
625.259	835.12
625.707	824.12
626.156	792.12
626.604	848.12
627.053	834.12
627.501	840.12
627.95	847.12
628.398	871.12
628.847	848.12
629.295	841.12
629.744	853.12
630.192	810.12
630.64	828.12
631.089	815.12
631.537	800.12
631.985	777.12
632.433	774.12
632.881	776.12
633.33	775.12
633.778	762.12
634.226	765.12
634.674	791.12
635.122	788.12
635.57	804.12
636.018	809.12
636.466	785.12
636.914	837.12
637.362	852.12
637.81	833.12
638.258	826.12
638.705	876.12
639.153	892.12
639.601	912.12
640.049	916.12
640.497	956.12
640.944	937.12
641.392	971.12
641.84	887.12
642.287	887.12
642.735	838.12
643.182	803.12
643.63	825.12
644.078	823.12
644.525	844.12
644.973	861.12
645.42	870.12
645.867	878.12
646.315	893.12
646.762	937.12
647.21	969.12
647.657	1002.12
648.104	1077.12
648.551	1122.12
648.999	1154.12
649.446	1266.12
649.893	1423.12
650.34	1662.12
650.787	1896.12
651.234	2375.12
651.682	3158.12
652.129	4415.12
652.576	6294.12
653.023	8590.12
653.47	10514.12
653.917	11807.12
654.363	12396.12
654.81	13231.12
655.257	13727.12
655.704	10659.12
656.151	6412.12
656.598	4110.12
657.044	2877.12
657.491	2236.12
657.938	1822.12
658.385	1562.12
658.831	1340.12
659.278	1211.12
659.724	1104.12
660.171	1004.12
660.618	977.12
661.064	902.12
661.511	859.12
661.957	859.12
662.404	838.12
662.85	804.12
663.296	816.12
663.743	777.12
664.189	780.12
664.635	782.12
665.082	765.12
665.528	722.12
665.974	725.12
666.42	722.12
666.867	719.12
667.313	705.12
667.759	692.12
668.205	662.12
668.651	658.12
669.097	664.12
669.543	668.12
669.989	656.12
670.435	673.12
670.881	678.12
671.327	708.12
671.773	740.12
672.219	791.12
672.665	847.12
673.11	864.12
673.556	861.12
674.002	874.12
674.448	877.12
674.893	812.12
675.339	720.12
675.785	636.12
676.23	628.12
676.676	591.12
677.122	573.12
677.567	571.12
678.013	561.12
678.458	516.12
678.904	541.12
679.349	542.12
679.794	553.12
680.24	548.12
680.685	504.12
681.131	533.12
681.576	508.12
682.021	528.12
682.466	498.12
682.912	543.12
683.357	552.12
683.802	572.12
684.247	644.12
684.692	676.12
685.137	713.12
685.583	735.12
686.028	722.12
686.473	749.12
686.918	704.12
687.363	628.12
687.807	554.12
688.252	582.12
688.697	506.12
689.142	520.12
689.587	509.12
690.032	498.12
690.477	525.12
690.921	583.12
691.366	571.12
691.811	591.12
692.255	633.12
692.7	711.12
693.145	941.12
693.589	1298.12
694.034	1752.12
694.478	1960.12
694.923	1800.12
695.367	2270.12
695.812	2061.12
696.256	834.12
696.701	604.12
697.145	529.12
697.59	514.12
698.034	515.12
698.478	521.12
698.922	503.12
699.367	522.12
699.811	530.12
700.255	547.12
700.699	591.12
701.143	669.12
701.588	682.12
702.032	708.12
702.476	752.12
702.92	766.12
703.364	831.12
703.808	1223.12
704.252	1668.12
704.696	1856.12
705.14	1729.12
705.584	2225.12
706.027	1808.12
706.471	902.12
706.915	632.12
707.359	532.12
707.803	490.12
708.246	465.12
708.69	465.12
709.134	487.12
709.577	464.12
710.021	468.12
710.465	480.12
710.908	474.12
711.352	479.12
711.795	533.12
712.239	536.12
712.682	579.12
713.126	538.12
713.569	591.12
714.012	578.12
714.456	465.12
714.899	440.12
715.342	421.12
715.786	416.12
716.229	402.12
716.672	424.12
717.115	386.12
717.558	408.12
718.002	406.12
718.445	434.12
718.888	450.12
719.331	459.12
719.774	462.12
720.217	454.12
720.66	415.12
721.103	425.12
721.546	400.12
721.989	408.12
722.432	374.12
722.874	390.12
723.317	381.12
723.76	407.12
724.203	443.12
724.645	559.12
725.088	713.12
725.531	710.12
725.974	714.12
726.416	735.12
726.859	540.12
727.301	406.12
727.744	371.12
728.187	364.12
728.629	380.12
729.071	400.12
729.514	387.12
729.956	439.12
730.399	431.12
730.841	433.12
731.283	426.12
731.726	414.12
732.168	442.12
732.61	446.12
733.053	442.12
733.495	501.12
733.937	556.12
734.379	591.12
734.821	728.12
735.263	970.12
735.705	1628.12
736.148	2650.12
736.59	3119.12
737.032	2938.12
737.474	3128.12
737.916	1561.12
738.357	791.12
738.799	528.12
739.241	460.12
739.683	507.12
740.125	500.12
740.567	481.12
741.008	530.12
741.45	544.12
741.892	536.12
742.334	562.12
742.775	564.12
743.217	574.12
743.658	506.12
744.1	466.12
744.542	522.12
744.983	568.12
745.425	576.12
745.866	620.12
746.307	536.12
