Data from 20170802-ORNL-NYSim-Air_HRD10391_10-37-03-626.txt Node
Date: Wed Aug 02 10:37:03 EDT 2017
User: Ender
Spectrometer: HR+D1039
Trigger mode: 0
Integration Time (sec): 1.510000E-3
Scans to average: 1
Electric dark correction enabled: true
Nonlinearity correction enabled: false
Boxcar width: 0
XAxis mode: Wavelengths
Number of Pixels in Spectrum: 2048
>>>>>Begin Spectral Data<<<<<
187.836	7.94
188.309	7.94
188.782	7.94
189.255	-11.06
189.728	-13.06
190.201	-2.06
190.674	-14.06
191.147	-10.06
191.619	-20.06
192.092	1.94
192.565	1.94
193.038	3.94
193.511	3.94
193.984	-2.06
194.456	10.94
194.929	18.94
195.402	4.94
195.874	17.94
196.347	27.94
196.82	47.94
197.292	32.94
197.765	41.94
198.237	40.94
198.71	52.94
199.182	38.94
199.655	29.94
200.127	57.94
200.6	58.94
201.072	54.94
201.544	54.94
202.017	70.94
202.489	70.94
202.961	61.94
203.433	73.94
203.906	76.94
204.378	52.94
204.85	81.94
205.322	73.94
205.794	90.94
206.266	84.94
206.739	79.94
207.211	95.94
207.683	83.94
208.155	87.94
208.627	109.94
209.099	86.94
209.57	92.94
210.042	86.94
210.514	73.94
210.986	70.94
211.458	80.94
211.93	75.94
212.402	98.94
212.873	91.94
213.345	88.94
213.817	91.94
214.288	81.94
214.76	76.94
215.232	80.94
215.703	84.94
216.175	79.94
216.646	93.94
217.118	89.94
217.589	88.94
218.061	90.94
218.532	86.94
219.004	84.94
219.475	73.94
219.946	86.94
220.418	68.94
220.889	77.94
221.36	88.94
221.832	76.94
222.303	81.94
222.774	77.94
223.245	74.94
223.717	83.94
224.188	95.94
224.659	77.94
225.13	72.94
225.601	85.94
226.072	79.94
226.543	63.94
227.014	69.94
227.485	82.94
227.956	77.94
228.427	85.94
228.898	103.94
229.369	90.94
229.839	59.94
230.31	77.94
230.781	74.94
231.252	77.94
231.722	83.94
232.193	85.94
232.664	75.94
233.135	87.94
233.605	84.94
234.076	72.94
234.546	77.94
235.017	74.94
235.487	86.94
235.958	83.94
236.428	94.94
236.899	85.94
237.369	97.94
237.84	99.94
238.31	93.94
238.78	86.94
239.251	79.94
239.721	85.94
240.191	69.94
240.662	80.94
241.132	96.94
241.602	78.94
242.072	97.94
242.542	68.94
243.013	83.94
243.483	75.94
243.953	76.94
244.423	103.94
244.893	89.94
245.363	100.94
245.833	89.94
246.303	94.94
246.773	102.94
247.243	93.94
247.712	75.94
248.182	76.94
248.652	85.94
249.122	107.94
249.592	89.94
250.061	94.94
250.531	99.94
251.001	106.94
251.471	89.94
251.94	93.94
252.41	97.94
252.879	93.94
253.349	89.94
253.818	81.94
254.288	92.94
254.757	105.94
255.227	91.94
255.696	103.94
256.166	89.94
256.635	109.94
257.105	105.94
257.574	102.94
258.043	95.94
258.513	93.94
258.982	98.94
259.451	90.94
259.92	82.94
260.389	107.94
260.859	87.94
261.328	97.94
261.797	101.94
262.266	97.94
262.735	93.94
263.204	99.94
263.673	97.94
264.142	95.94
264.611	88.94
265.08	107.94
265.549	106.94
266.018	98.94
266.487	115.94
266.955	99.94
267.424	96.94
267.893	101.94
268.362	99.94
268.83	104.94
269.299	111.94
269.768	104.94
270.236	105.94
270.705	96.94
271.174	100.94
271.642	112.94
272.111	117.94
272.579	105.94
273.048	102.94
273.516	113.94
273.985	111.94
274.453	100.94
274.922	96.94
275.39	105.94
275.858	103.94
276.327	116.94
276.795	107.94
277.263	109.94
277.731	91.94
278.2	100.94
278.668	95.94
279.136	101.94
279.604	103.94
280.072	112.94
280.54	102.94
281.008	118.94
281.477	90.94
281.945	121.94
282.413	114.94
282.881	123.94
283.348	114.94
283.816	117.94
284.284	109.94
284.752	103.94
285.22	120.94
285.688	117.94
286.156	134.94
286.623	119.94
287.091	111.94
287.559	118.94
288.026	117.94
288.494	129.94
288.962	100.94
289.429	129.94
289.897	121.94
290.364	114.94
290.832	119.94
291.3	111.94
291.767	116.94
292.234	107.94
292.702	119.94
293.169	113.94
293.637	119.94
294.104	129.94
294.571	126.94
295.039	120.94
295.506	118.94
295.973	123.94
296.44	133.94
296.908	124.94
297.375	123.94
297.842	141.94
298.309	110.94
298.776	123.94
299.243	128.94
299.71	106.94
300.177	130.94
300.644	120.94
301.111	129.94
301.578	149.94
302.045	132.94
302.512	122.94
302.979	128.94
303.446	110.94
303.913	134.94
304.379	143.94
304.846	125.94
305.313	129.94
305.78	144.94
306.246	131.94
306.713	130.94
307.18	131.94
307.646	143.94
308.113	148.94
308.579	132.94
309.046	145.94
309.512	132.94
309.979	137.94
310.445	117.94
310.912	146.94
311.378	144.94
311.845	166.94
312.311	145.94
312.777	166.94
313.244	137.94
313.71	157.94
314.176	141.94
314.642	139.94
315.109	154.94
315.575	151.94
316.041	143.94
316.507	147.94
316.973	154.94
317.439	137.94
317.905	149.94
318.371	157.94
318.837	141.94
319.303	142.94
319.769	151.94
320.235	147.94
320.701	152.94
321.167	149.94
321.633	144.94
322.099	146.94
322.564	157.94
323.03	158.94
323.496	173.94
323.962	156.94
324.427	171.94
324.893	156.94
325.359	160.94
325.824	169.94
326.29	165.94
326.755	146.94
327.221	170.94
327.686	170.94
328.152	150.94
328.617	145.94
329.083	155.94
329.548	148.94
330.014	179.94
330.479	165.94
330.944	188.94
331.41	163.94
331.875	172.94
332.34	174.94
332.805	180.94
333.271	183.94
333.736	163.94
334.201	161.94
334.666	185.94
335.131	161.94
335.596	185.94
336.061	161.94
336.526	179.94
336.991	167.94
337.456	179.94
337.921	188.94
338.386	180.94
338.851	187.94
339.316	185.94
339.781	180.94
340.246	189.94
340.711	200.94
341.175	198.94
341.64	197.94
342.105	196.94
342.569	173.94
343.034	192.94
343.499	197.94
343.963	200.94
344.428	176.94
344.893	201.94
345.357	199.94
345.822	205.94
346.286	188.94
346.751	204.94
347.215	214.94
347.679	200.94
348.144	189.94
348.608	210.94
349.073	213.94
349.537	223.94
350.001	234.94
350.465	221.94
350.93	206.94
351.394	203.94
351.858	203.94
352.322	247.94
352.786	223.94
353.25	212.94
353.715	236.94
354.179	218.94
354.643	250.94
355.107	237.94
355.571	245.94
356.035	239.94
356.498	235.94
356.962	220.94
357.426	255.94
357.89	243.94
358.354	220.94
358.818	225.94
359.281	230.94
359.745	254.94
360.209	237.94
360.673	261.94
361.136	222.94
361.6	241.94
362.064	259.94
362.527	261.94
362.991	271.94
363.454	247.94
363.918	240.94
364.381	244.94
364.845	234.94
365.308	272.94
365.772	233.94
366.235	227.94
366.698	254.94
367.162	251.94
367.625	256.94
368.088	277.94
368.552	257.94
369.015	259.94
369.478	259.94
369.941	255.94
370.404	275.94
370.867	243.94
371.331	273.94
371.794	272.94
372.257	263.94
372.72	265.94
373.183	267.94
373.646	254.94
374.109	257.94
374.572	273.94
375.035	290.94
375.497	262.94
375.96	277.94
376.423	288.94
376.886	289.94
377.349	289.94
377.811	291.94
378.274	278.94
378.737	296.94
379.199	298.94
379.662	287.94
380.125	291.94
380.587	285.94
381.05	307.94
381.512	305.94
381.975	315.94
382.437	301.94
382.9	314.94
383.362	287.94
383.825	303.94
384.287	305.94
384.75	313.94
385.212	313.94
385.674	315.94
386.136	315.94
386.599	309.94
387.061	325.94
387.523	313.94
387.985	325.94
388.447	303.94
388.91	303.94
389.372	327.94
389.834	318.94
390.296	334.94
390.758	337.94
391.22	325.94
391.682	330.94
392.144	327.94
392.606	329.94
393.068	345.94
393.529	351.94
393.991	376.94
394.453	353.94
394.915	357.94
395.377	332.94
395.838	324.94
396.3	358.94
396.762	340.94
397.224	349.94
397.685	333.94
398.147	345.94
398.608	341.94
399.07	376.94
399.531	364.94
399.993	361.94
400.454	368.94
400.916	351.94
401.377	359.94
401.839	373.94
402.3	368.94
402.762	402.94
403.223	410.94
403.684	389.94
404.145	373.94
404.607	385.94
405.068	372.94
405.529	369.94
405.99	369.94
406.451	374.94
406.913	388.94
407.374	398.94
407.835	377.94
408.296	389.94
408.757	404.94
409.218	395.94
409.679	399.94
410.14	404.94
410.601	416.94
411.062	422.94
411.522	433.94
411.983	434.94
412.444	438.94
412.905	403.94
413.366	428.94
413.826	467.94
414.287	493.94
414.748	592.94
415.208	597.94
415.669	525.94
416.13	477.94
416.59	477.94
417.051	480.94
417.511	499.94
417.972	562.94
418.432	573.94
418.893	620.94
419.353	580.94
419.814	499.94
420.274	449.94
420.734	436.94
421.195	455.94
421.655	422.94
422.115	459.94
422.576	439.94
423.036	429.94
423.496	472.94
423.956	449.94
424.416	492.94
424.876	567.94
425.336	579.94
425.797	567.94
426.257	561.94
426.717	537.94
427.177	470.94
427.637	501.94
428.097	510.94
428.556	544.94
429.016	569.94
429.476	569.94
429.936	559.94
430.396	545.94
430.856	579.94
431.315	591.94
431.775	599.94
432.235	647.94
432.694	657.94
433.154	647.94
433.614	614.94
434.073	608.94
434.533	560.94
434.993	533.94
435.452	537.94
435.912	530.94
436.371	548.94
436.83	523.94
437.29	496.94
437.749	481.94
438.209	502.94
438.668	503.94
439.127	537.94
439.587	497.94
440.046	476.94
440.505	505.94
440.964	516.94
441.424	506.94
441.883	539.94
442.342	479.94
442.801	488.94
443.26	517.94
443.719	476.94
444.178	487.94
444.637	492.94
445.096	504.94
445.555	498.94
446.014	506.94
446.473	477.94
446.932	490.94
447.391	501.94
447.849	498.94
448.308	501.94
448.767	489.94
449.226	492.94
449.685	505.94
450.143	558.94
450.602	540.94
451.061	510.94
451.519	510.94
451.978	513.94
452.436	513.94
452.895	504.94
453.353	501.94
453.812	518.94
454.27	494.94
454.729	467.94
455.187	501.94
455.646	499.94
456.104	507.94
456.562	512.94
457.021	525.94
457.479	494.94
457.937	515.94
458.395	550.94
458.854	541.94
459.312	515.94
459.77	527.94
460.228	525.94
460.686	503.94
461.144	518.94
461.602	574.94
462.06	530.94
462.518	559.94
462.976	535.94
463.434	553.94
463.892	571.94
464.35	578.94
464.808	559.94
465.266	552.94
465.724	583.94
466.181	583.94
466.639	583.94
467.097	613.94
467.555	624.94
468.012	626.94
468.47	625.94
468.928	661.94
469.385	645.94
469.843	678.94
470.3	664.94
470.758	687.94
471.215	681.94
471.673	712.94
472.13	720.94
472.588	707.94
473.045	705.94
473.503	740.94
473.96	750.94
474.417	752.94
474.875	791.94
475.332	830.94
475.789	821.94
476.246	829.94
476.704	863.94
477.161	896.94
477.618	899.94
478.075	975.94
478.532	1040.94
478.989	1120.94
479.446	1224.94
479.903	1277.94
480.36	1339.94
480.817	1395.94
481.274	1531.94
481.731	1675.94
482.188	1785.94
482.645	1906.94
483.102	1990.94
483.558	2122.94
484.015	2231.94
484.472	2253.94
484.929	2181.94
485.385	2098.94
485.842	2054.94
486.299	1996.94
486.755	1834.94
487.212	1645.94
487.668	1477.94
488.125	1440.94
488.582	1339.94
489.038	1285.94
489.494	1236.94
489.951	1212.94
490.407	1155.94
490.864	1175.94
491.32	1140.94
491.776	1110.94
492.233	1129.94
492.689	1121.94
493.145	1109.94
493.602	1058.94
494.058	1101.94
494.514	1118.94
494.97	1091.94
495.426	1098.94
495.882	1118.94
496.338	1119.94
496.794	1069.94
497.251	1078.94
497.707	1138.94
498.163	1110.94
498.618	1108.94
499.074	1120.94
499.53	1104.94
499.986	1131.94
500.442	1133.94
500.898	1116.94
501.354	1127.94
501.809	1112.94
502.265	1121.94
502.721	1118.94
503.177	1117.94
503.632	1141.94
504.088	1119.94
504.543	1142.94
504.999	1145.94
505.455	1177.94
505.91	1127.94
506.366	1124.94
506.821	1163.94
507.277	1124.94
507.732	1150.94
508.187	1151.94
508.643	1151.94
509.098	1145.94
509.553	1184.94
510.009	1155.94
510.464	1199.94
510.919	1207.94
511.375	1241.94
511.83	1225.94
512.285	1265.94
512.74	1242.94
513.195	1255.94
513.65	1295.94
514.105	1312.94
514.56	1344.94
515.015	1366.94
515.47	1385.94
515.925	1348.94
516.38	1347.94
516.835	1345.94
517.29	1340.94
517.745	1342.94
518.2	1340.94
518.655	1305.94
519.109	1336.94
519.564	1265.94
520.019	1251.94
520.474	1238.94
520.928	1257.94
521.383	1260.94
521.838	1250.94
522.292	1215.94
522.747	1206.94
523.201	1228.94
523.656	1197.94
524.11	1200.94
524.565	1227.94
525.019	1182.94
525.474	1223.94
525.928	1192.94
526.382	1197.94
526.837	1172.94
527.291	1189.94
527.745	1170.94
528.2	1210.94
528.654	1162.94
529.108	1184.94
529.562	1172.94
530.016	1149.94
530.47	1187.94
530.925	1212.94
531.379	1193.94
531.833	1217.94
532.287	1215.94
532.741	1225.94
533.195	1225.94
533.649	1189.94
534.103	1177.94
534.556	1189.94
535.01	1185.94
535.464	1191.94
535.918	1186.94
536.372	1193.94
536.826	1193.94
537.279	1161.94
537.733	1166.94
538.187	1155.94
538.64	1175.94
539.094	1195.94
539.548	1226.94
540.001	1212.94
540.455	1224.94
540.908	1255.94
541.362	1228.94
541.815	1246.94
542.269	1277.94
542.722	1234.94
543.175	1286.94
543.629	1264.94
544.082	1291.94
544.536	1284.94
544.989	1326.94
545.442	1340.94
545.895	1317.94
546.349	1309.94
546.802	1309.94
547.255	1298.94
547.708	1356.94
548.161	1310.94
548.614	1330.94
549.067	1371.94
549.52	1331.94
549.973	1343.94
550.426	1322.94
550.879	1329.94
551.332	1329.94
551.785	1330.94
552.238	1383.94
552.691	1340.94
553.144	1360.94
553.596	1389.94
554.049	1382.94
554.502	1390.94
554.955	1473.94
555.407	1433.94
555.86	1434.94
556.313	1397.94
556.765	1403.94
557.218	1396.94
557.67	1424.94
558.123	1373.94
558.576	1393.94
559.028	1369.94
559.48	1396.94
559.933	1390.94
560.385	1360.94
560.838	1321.94
561.29	1263.94
561.742	1276.94
562.195	1261.94
562.647	1232.94
563.099	1198.94
563.551	1232.94
564.004	1215.94
564.456	1224.94
564.908	1220.94
565.36	1201.94
565.812	1155.94
566.264	1124.94
566.716	1140.94
567.168	1069.94
567.62	1119.94
568.072	1113.94
568.524	1125.94
568.976	1124.94
569.428	1103.94
569.88	1092.94
570.332	1127.94
570.784	1080.94
571.235	1115.94
571.687	1091.94
572.139	1114.94
572.59	1075.94
573.042	1132.94
573.494	1155.94
573.945	1125.94
574.397	1075.94
574.849	1070.94
575.3	1079.94
575.752	1062.94
576.203	1045.94
576.655	1056.94
577.106	1056.94
577.557	1053.94
578.009	1043.94
578.46	1007.94
578.912	1029.94
579.363	1030.94
579.814	1043.94
580.265	1061.94
580.717	1059.94
581.168	1030.94
581.619	1036.94
582.07	1086.94
582.521	1058.94
582.972	1070.94
583.423	1063.94
583.875	1042.94
584.326	1018.94
584.777	1083.94
585.227	1093.94
585.678	1116.94
586.129	1137.94
586.58	1124.94
587.031	1144.94
587.482	1166.94
587.933	1165.94
588.384	1202.94
588.834	1161.94
589.285	1189.94
589.736	1169.94
590.186	1131.94
590.637	1175.94
591.088	1118.94
591.538	1119.94
591.989	1073.94
592.439	1104.94
592.89	1086.94
593.34	1079.94
593.791	1073.94
594.241	1037.94
594.692	1083.94
595.142	1085.94
595.593	1075.94
596.043	1075.94
596.493	1076.94
596.943	1057.94
597.394	1088.94
597.844	1094.94
598.294	1103.94
598.744	1158.94
599.195	1228.94
599.645	1286.94
600.095	1342.94
600.545	1339.94
600.995	1417.94
601.445	1481.94
601.895	1563.94
602.345	1593.94
602.795	1595.94
603.245	1548.94
603.695	1477.94
604.145	1427.94
604.594	1328.94
605.044	1224.94
605.494	1202.94
605.944	1130.94
606.393	1099.94
606.843	1091.94
607.293	1049.94
607.743	1080.94
608.192	1097.94
608.642	1067.94
609.091	1124.94
609.541	1054.94
609.99	1082.94
610.44	1078.94
610.889	1049.94
611.339	1053.94
611.788	1019.94
612.238	1039.94
612.687	1047.94
613.136	1061.94
613.586	1062.94
614.035	1086.94
614.484	1081.94
614.933	1072.94
615.383	1025.94
615.832	991.94
616.281	1007.94
616.73	1003.94
617.179	969.94
617.628	924.94
618.077	932.94
618.526	942.94
618.975	903.94
619.424	892.94
619.873	913.94
620.322	889.94
620.771	913.94
621.22	893.94
621.669	838.94
622.118	895.94
622.567	873.94
623.015	844.94
623.464	831.94
623.913	839.94
624.361	857.94
624.81	849.94
625.259	841.94
625.707	804.94
626.156	805.94
626.604	834.94
627.053	843.94
627.501	845.94
627.95	851.94
628.398	858.94
628.847	851.94
629.295	816.94
629.744	814.94
630.192	875.94
630.64	821.94
631.089	793.94
631.537	786.94
631.985	774.94
632.433	758.94
632.881	747.94
633.33	769.94
633.778	769.94
634.226	778.94
634.674	805.94
635.122	797.94
635.57	794.94
636.018	843.94
636.466	780.94
636.914	796.94
637.362	814.94
637.81	842.94
638.258	870.94
638.705	861.94
639.153	883.94
639.601	898.94
640.049	925.94
640.497	925.94
640.944	982.94
641.392	960.94
641.84	895.94
642.287	854.94
642.735	846.94
643.182	817.94
643.63	821.94
644.078	843.94
644.525	828.94
644.973	853.94
645.42	863.94
645.867	921.94
646.315	906.94
646.762	943.94
647.21	932.94
647.657	994.94
648.104	1069.94
648.551	1057.94
648.999	1108.94
649.446	1185.94
649.893	1289.94
650.34	1483.94
650.787	1755.94
651.234	2200.94
651.682	2909.94
652.129	3987.94
652.576	5707.94
653.023	7813.94
653.47	9707.94
653.917	10821.94
654.363	11451.94
654.81	11929.94
655.257	12651.94
655.704	9630.94
656.151	5892.94
656.598	3745.94
657.044	2651.94
657.491	2119.94
657.938	1697.94
658.385	1453.94
658.831	1321.94
659.278	1147.94
659.724	1082.94
660.171	976.94
660.618	921.94
661.064	861.94
661.511	841.94
661.957	833.94
662.404	799.94
662.85	805.94
663.296	767.94
663.743	759.94
664.189	719.94
664.635	783.94
665.082	767.94
665.528	736.94
665.974	690.94
666.42	698.94
666.867	721.94
667.313	677.94
667.759	647.94
668.205	665.94
668.651	678.94
669.097	676.94
669.543	682.94
669.989	666.94
670.435	650.94
670.881	666.94
671.327	681.94
671.773	709.94
672.219	776.94
672.665	846.94
673.11	873.94
673.556	868.94
674.002	860.94
674.448	919.94
674.893	821.94
675.339	747.94
675.785	659.94
676.23	642.94
676.676	599.94
677.122	565.94
677.567	585.94
678.013	557.94
678.458	505.94
678.904	538.94
679.349	553.94
679.794	552.94
680.24	534.94
680.685	527.94
681.131	521.94
681.576	498.94
682.021	577.94
682.466	529.94
682.912	525.94
683.357	551.94
683.802	571.94
684.247	631.94
684.692	665.94
685.137	712.94
685.583	693.94
686.028	756.94
686.473	729.94
686.918	659.94
687.363	605.94
687.807	583.94
688.252	561.94
688.697	540.94
689.142	534.94
689.587	514.94
690.032	527.94
690.477	525.94
690.921	552.94
691.366	594.94
691.811	576.94
692.255	635.94
692.7	692.94
693.145	919.94
693.589	1357.94
694.034	1758.94
694.478	1903.94
694.923	1877.94
695.367	2226.94
695.812	2083.94
696.256	882.94
696.701	585.94
697.145	553.94
697.59	524.94
698.034	495.94
698.478	489.94
698.922	497.94
699.367	510.94
699.811	519.94
700.255	586.94
700.699	619.94
701.143	647.94
701.588	680.94
702.032	709.94
702.476	743.94
702.92	786.94
703.364	849.94
703.808	1226.94
704.252	1696.94
704.696	1887.94
705.14	1761.94
705.584	2193.94
706.027	1831.94
706.471	882.94
706.915	623.94
707.359	553.94
707.803	502.94
708.246	500.94
708.69	474.94
709.134	452.94
709.577	489.94
710.021	487.94
710.465	491.94
710.908	472.94
711.352	495.94
711.795	510.94
712.239	554.94
712.682	605.94
713.126	576.94
713.569	608.94
714.012	561.94
714.456	492.94
714.899	455.94
715.342	423.94
715.786	425.94
716.229	429.94
716.672	429.94
717.115	387.94
717.558	402.94
718.002	437.94
718.445	423.94
718.888	446.94
719.331	465.94
719.774	480.94
720.217	465.94
720.66	447.94
721.103	417.94
721.546	411.94
721.989	379.94
722.432	387.94
722.874	394.94
723.317	415.94
723.76	390.94
724.203	472.94
724.645	602.94
725.088	712.94
725.531	734.94
725.974	707.94
726.416	769.94
726.859	523.94
727.301	429.94
727.744	411.94
728.187	404.94
728.629	401.94
729.071	381.94
729.514	425.94
729.956	450.94
730.399	437.94
730.841	427.94
731.283	448.94
731.726	442.94
732.168	419.94
732.61	444.94
733.053	488.94
733.495	521.94
733.937	552.94
734.379	589.94
734.821	689.94
735.263	1007.94
735.705	1629.94
736.148	2653.94
736.59	3069.94
737.032	2909.94
737.474	3186.94
737.916	1556.94
738.357	780.94
738.799	539.94
739.241	511.94
739.683	491.94
740.125	471.94
740.567	511.94
741.008	517.94
741.45	544.94
741.892	567.94
742.334	572.94
742.775	559.94
743.217	548.94
743.658	503.94
744.1	464.94
744.542	545.94
744.983	582.94
745.425	572.94
745.866	593.94
746.307	509.94
